Data from Circ_1999_H10_HRD10591_00095.txt Node
Date: Wed Jan 03 11:23:31 EST 2024
User: Yrep
Spectrometer: HR+D1059
Trigger mode: 1
Integration Time (sec): 1.000000E-1
Scans to average: 1
Electric dark correction enabled: true
Nonlinearity correction enabled: false
Boxcar width: 0
XAxis mode: Wavelengths
Number of Pixels in Spectrum: 2048
>>>>>Begin Spectral Data<<<<<
223.165	-13.44
223.4	-13.44
223.635	-13.44
223.869	-14.44
224.104	-32.44
224.338	-14.44
224.573	-13.44
224.808	-6.44
225.042	-10.44
225.277	-13.44
225.511	-15.44
225.746	0.56
225.98	14.56
226.215	6.56
226.449	19.56
226.683	22.56
226.918	32.56
227.152	37.56
227.387	36.56
227.621	34.56
227.856	33.56
228.09	59.56
228.324	44.56
228.559	64.56
228.793	70.56
229.027	68.56
229.262	75.56
229.496	90.56
229.73	104.56
229.964	98.56
230.199	85.56
230.433	77.56
230.667	80.56
230.901	80.56
231.136	81.56
231.37	78.56
231.604	68.56
231.838	99.56
232.072	89.56
232.306	86.56
232.541	69.56
232.775	74.56
233.009	71.56
233.243	72.56
233.477	78.56
233.711	76.56
233.945	89.56
234.179	89.56
234.413	73.56
234.647	71.56
234.881	88.56
235.115	76.56
235.349	70.56
235.583	73.56
235.817	92.56
236.051	88.56
236.285	86.56
236.519	86.56
236.753	104.56
236.987	78.56
237.221	92.56
237.455	100.56
237.689	76.56
237.922	79.56
238.156	68.56
238.39	64.56
238.624	74.56
238.858	72.56
239.091	78.56
239.325	89.56
239.559	105.56
239.793	85.56
240.027	75.56
240.26	79.56
240.494	90.56
240.728	80.56
240.961	87.56
241.195	76.56
241.429	77.56
241.662	73.56
241.896	74.56
242.13	83.56
242.363	65.56
242.597	81.56
242.83	84.56
243.064	77.56
243.298	87.56
243.531	74.56
243.765	76.56
243.998	77.56
244.232	90.56
244.465	99.56
244.699	97.56
244.932	79.56
245.166	86.56
245.399	78.56
245.633	83.56
245.866	91.56
246.099	85.56
246.333	84.56
246.566	86.56
246.8	102.56
247.033	85.56
247.266	95.56
247.5	98.56
247.733	90.56
247.966	87.56
248.2	88.56
248.433	80.56
248.666	96.56
248.899	91.56
249.133	109.56
249.366	113.56
249.599	113.56
249.832	108.56
250.066	83.56
250.299	99.56
250.532	91.56
250.765	100.56
250.998	110.56
251.231	88.56
251.465	86.56
251.698	95.56
251.931	99.56
252.164	92.56
252.397	82.56
252.63	88.56
252.863	85.56
253.096	90.56
253.329	93.56
253.562	104.56
253.795	66.56
254.028	86.56
254.261	93.56
254.494	98.56
254.727	75.56
254.96	81.56
255.193	75.56
255.426	82.56
255.659	86.56
255.892	111.56
256.124	108.56
256.357	94.56
256.59	87.56
256.823	84.56
257.056	90.56
257.289	100.56
257.521	76.56
257.754	91.56
257.987	94.56
258.22	99.56
258.452	124.56
258.685	111.56
258.918	89.56
259.151	91.56
259.383	91.56
259.616	95.56
259.849	86.56
260.081	84.56
260.314	83.56
260.547	92.56
260.779	109.56
261.012	138.56
261.244	152.56
261.477	117.56
261.71	119.56
261.942	179.56
262.175	192.56
262.407	111.56
262.64	90.56
262.872	105.56
263.105	102.56
263.337	107.56
263.57	89.56
263.802	84.56
264.035	92.56
264.267	84.56
264.499	87.56
264.732	90.56
264.964	87.56
265.197	88.56
265.429	98.56
265.661	87.56
265.894	73.56
266.126	78.56
266.358	84.56
266.591	84.56
266.823	67.56
267.055	86.56
267.287	89.56
267.52	89.56
267.752	85.56
267.984	86.56
268.216	87.56
268.448	101.56
268.681	97.56
268.913	94.56
269.145	104.56
269.377	88.56
269.609	88.56
269.841	96.56
270.073	87.56
270.306	100.56
270.538	99.56
270.77	96.56
271.002	81.56
271.234	89.56
271.466	104.56
271.698	99.56
271.93	100.56
272.162	100.56
272.394	98.56
272.626	99.56
272.858	95.56
273.09	99.56
273.322	96.56
273.553	89.56
273.785	92.56
274.017	99.56
274.249	84.56
274.481	93.56
274.713	86.56
274.945	110.56
275.176	102.56
275.408	111.56
275.64	135.56
275.872	152.56
276.104	123.56
276.335	124.56
276.567	149.56
276.799	216.56
277.031	272.56
277.262	312.56
277.494	199.56
277.726	134.56
277.957	102.56
278.189	103.56
278.421	115.56
278.652	86.56
278.884	106.56
279.115	99.56
279.347	103.56
279.579	109.56
279.81	182.56
280.042	308.56
280.273	433.56
280.505	272.56
280.736	126.56
280.968	99.56
281.199	97.56
281.431	95.56
281.662	104.56
281.894	105.56
282.125	114.56
282.356	178.56
282.588	228.56
282.819	169.56
283.051	95.56
283.282	97.56
283.513	97.56
283.745	95.56
283.976	99.56
284.207	92.56
284.439	90.56
284.67	91.56
284.901	94.56
285.132	78.56
285.364	84.56
285.595	89.56
285.826	75.56
286.057	88.56
286.288	105.56
286.52	88.56
286.751	90.56
286.982	87.56
287.213	91.56
287.444	112.56
287.675	103.56
287.906	88.56
288.138	91.56
288.369	106.56
288.6	106.56
288.831	100.56
289.062	102.56
289.293	105.56
289.524	102.56
289.755	79.56
289.986	83.56
290.217	92.56
290.448	79.56
290.679	85.56
290.91	95.56
291.141	80.56
291.371	92.56
291.602	100.56
291.833	84.56
292.064	91.56
292.295	99.56
292.526	94.56
292.757	106.56
292.987	88.56
293.218	104.56
293.449	103.56
293.68	102.56
293.91	80.56
294.141	109.56
294.372	105.56
294.603	93.56
294.833	102.56
295.064	83.56
295.295	99.56
295.525	102.56
295.756	117.56
295.987	161.56
296.217	243.56
296.448	195.56
296.679	108.56
296.909	92.56
297.14	104.56
297.37	90.56
297.601	111.56
297.831	99.56
298.062	108.56
298.292	87.56
298.523	104.56
298.753	105.56
298.984	99.56
299.214	94.56
299.445	103.56
299.675	109.56
299.905	126.56
300.136	94.56
300.366	93.56
300.597	90.56
300.827	95.56
301.057	111.56
301.288	139.56
301.518	105.56
301.748	104.56
301.979	121.56
302.209	122.56
302.439	111.56
302.669	96.56
302.9	99.56
303.13	104.56
303.36	127.56
303.59	170.56
303.82	203.56
304.051	127.56
304.281	107.56
304.511	93.56
304.741	82.56
304.971	104.56
305.201	98.56
305.431	95.56
305.661	89.56
305.891	113.56
306.121	110.56
306.352	147.56
306.582	150.56
306.812	137.56
307.042	157.56
307.272	239.56
307.502	260.56
307.731	248.56
307.961	155.56
308.191	100.56
308.421	103.56
308.651	106.56
308.881	100.56
309.111	106.56
309.341	108.56
309.571	117.56
309.8	120.56
310.03	106.56
310.26	128.56
310.49	112.56
310.72	131.56
310.949	146.56
311.179	134.56
311.409	118.56
311.639	119.56
311.868	127.56
312.098	114.56
312.328	113.56
312.557	125.56
312.787	170.56
313.017	154.56
313.246	95.56
313.476	107.56
313.706	110.56
313.935	107.56
314.165	137.56
314.394	124.56
314.624	135.56
314.853	119.56
315.083	102.56
315.312	107.56
315.542	104.56
315.771	114.56
316.001	97.56
316.23	90.56
316.46	94.56
316.689	109.56
316.919	101.56
317.148	134.56
317.377	107.56
317.607	114.56
317.836	106.56
318.065	108.56
318.295	104.56
318.524	108.56
318.753	108.56
318.983	116.56
319.212	112.56
319.441	153.56
319.67	147.56
319.9	114.56
320.129	103.56
320.358	95.56
320.587	93.56
320.816	102.56
321.046	122.56
321.275	124.56
321.504	113.56
321.733	99.56
321.962	113.56
322.191	131.56
322.42	152.56
322.649	139.56
322.878	127.56
323.108	152.56
323.337	168.56
323.566	197.56
323.795	229.56
324.024	290.56
324.253	585.56
324.482	1250.56
324.71	2486.56
324.939	3217.56
325.168	1229.56
325.397	382.56
325.626	212.56
325.855	164.56
326.084	158.56
326.313	174.56
326.542	196.56
326.77	309.56
326.999	600.56
327.228	1197.56
327.457	2193.56
327.686	1817.56
327.914	798.56
328.143	904.56
328.372	1180.56
328.6	614.56
328.829	266.56
329.058	266.56
329.287	285.56
329.515	277.56
329.744	384.56
329.972	825.56
330.201	1808.56
330.43	2656.56
330.658	1113.56
330.887	458.56
331.115	287.56
331.344	166.56
331.572	154.56
331.801	158.56
332.03	148.56
332.258	145.56
332.486	119.56
332.715	119.56
332.943	123.56
333.172	136.56
333.4	170.56
333.629	232.56
333.857	346.56
334.085	724.56
334.314	1586.56
334.542	3242.56
334.771	2927.56
334.999	703.56
335.227	263.56
335.455	183.56
335.684	136.56
335.912	122.56
336.14	117.56
336.369	135.56
336.597	137.56
336.825	139.56
337.053	103.56
337.281	111.56
337.51	104.56
337.738	111.56
337.966	113.56
338.194	130.56
338.422	103.56
338.65	109.56
338.878	104.56
339.106	111.56
339.334	103.56
339.562	90.56
339.79	111.56
340.018	118.56
340.246	115.56
340.474	110.56
340.702	106.56
340.93	107.56
341.158	103.56
341.386	121.56
341.614	125.56
341.842	111.56
342.07	109.56
342.298	107.56
342.526	119.56
342.754	98.56
342.981	94.56
343.209	90.56
343.437	110.56
343.665	101.56
343.893	109.56
344.12	99.56
344.348	99.56
344.576	98.56
344.804	106.56
345.031	118.56
345.259	112.56
345.487	119.56
345.714	86.56
345.942	103.56
346.17	106.56
346.397	106.56
346.625	102.56
346.853	105.56
347.08	89.56
347.308	104.56
347.535	118.56
347.763	123.56
347.99	122.56
348.218	135.56
348.445	152.56
348.673	151.56
348.9	110.56
349.128	107.56
349.355	75.56
349.583	104.56
349.81	116.56
350.037	100.56
350.265	102.56
350.492	94.56
350.72	121.56
350.947	129.56
351.174	138.56
351.402	139.56
351.629	131.56
351.856	125.56
352.083	124.56
352.311	139.56
352.538	138.56
352.765	140.56
352.992	154.56
353.22	136.56
353.447	128.56
353.674	107.56
353.901	91.56
354.128	99.56
354.355	98.56
354.583	94.56
354.81	97.56
355.037	90.56
355.264	90.56
355.491	98.56
355.718	88.56
355.945	103.56
356.172	97.56
356.399	91.56
356.626	99.56
356.853	100.56
357.08	90.56
357.307	99.56
357.534	99.56
357.761	92.56
357.988	102.56
358.215	96.56
358.441	109.56
358.668	106.56
358.895	100.56
359.122	92.56
359.349	103.56
359.576	116.56
359.802	151.56
360.029	193.56
360.256	187.56
360.483	149.56
360.709	106.56
360.936	121.56
361.163	104.56
361.39	112.56
361.616	118.56
361.843	90.56
362.07	120.56
362.296	140.56
362.523	128.56
362.749	111.56
362.976	98.56
363.203	87.56
363.429	97.56
363.656	95.56
363.882	95.56
364.109	110.56
364.335	109.56
364.562	104.56
364.788	107.56
365.015	128.56
365.241	118.56
365.468	154.56
365.694	160.56
365.92	119.56
366.147	114.56
366.373	106.56
366.599	97.56
366.826	103.56
367.052	103.56
367.278	103.56
367.505	105.56
367.731	114.56
367.957	104.56
368.184	104.56
368.41	135.56
368.636	155.56
368.862	158.56
369.089	162.56
369.315	110.56
369.541	104.56
369.767	102.56
369.993	98.56
370.219	98.56
370.445	107.56
370.672	95.56
370.898	94.56
371.124	95.56
371.35	100.56
371.576	82.56
371.802	88.56
372.028	73.56
372.254	98.56
372.48	104.56
372.706	99.56
372.932	87.56
373.158	97.56
373.384	98.56
373.61	98.56
373.835	99.56
374.061	93.56
374.287	93.56
374.513	105.56
374.739	91.56
374.965	96.56
375.191	95.56
375.416	99.56
375.642	98.56
375.868	89.56
376.094	74.56
376.319	100.56
376.545	106.56
376.771	105.56
376.997	80.56
377.222	79.56
377.448	105.56
377.674	80.56
377.899	86.56
378.125	97.56
378.35	109.56
378.576	103.56
378.802	96.56
379.027	94.56
379.253	90.56
379.478	84.56
379.704	84.56
379.929	91.56
380.155	103.56
380.38	100.56
380.606	90.56
380.831	95.56
381.057	112.56
381.282	109.56
381.507	107.56
381.733	104.56
381.958	104.56
382.184	122.56
382.409	113.56
382.634	112.56
382.86	93.56
383.085	96.56
383.31	88.56
383.535	108.56
383.761	116.56
383.986	104.56
384.211	98.56
384.436	93.56
384.662	99.56
384.887	112.56
385.112	107.56
385.337	102.56
385.562	107.56
385.787	92.56
386.013	115.56
386.238	142.56
386.463	111.56
386.688	99.56
386.913	90.56
387.138	103.56
387.363	105.56
387.588	100.56
387.813	102.56
388.038	85.56
388.263	115.56
388.488	99.56
388.713	99.56
388.938	110.56
389.163	89.56
389.387	104.56
389.612	100.56
389.837	96.56
390.062	89.56
390.287	86.56
390.512	90.56
390.736	75.56
390.961	90.56
391.186	88.56
391.411	88.56
391.636	98.56
391.86	97.56
392.085	76.56
392.31	106.56
392.534	86.56
392.759	87.56
392.984	107.56
393.208	96.56
393.433	104.56
393.658	85.56
393.882	77.56
394.107	89.56
394.331	104.56
394.556	106.56
394.78	79.56
395.005	75.56
395.229	86.56
395.454	92.56
395.678	95.56
395.903	87.56
396.127	87.56
396.352	99.56
396.576	103.56
396.801	92.56
397.025	90.56
397.249	94.56
397.474	100.56
397.698	94.56
397.922	86.56
398.147	108.56
398.371	86.56
398.595	80.56
398.82	93.56
399.044	94.56
399.268	81.56
399.492	97.56
399.717	92.56
399.941	113.56
400.165	109.56
400.389	98.56
400.613	91.56
400.837	90.56
401.062	114.56
401.286	102.56
401.51	98.56
401.734	125.56
401.958	138.56
402.182	211.56
402.406	289.56
402.63	218.56
402.854	110.56
403.078	104.56
403.302	97.56
403.526	93.56
403.75	95.56
403.974	108.56
404.198	99.56
404.422	80.56
404.645	95.56
404.869	120.56
405.093	146.56
405.317	162.56
405.541	162.56
405.765	151.56
405.988	187.56
406.212	323.56
406.436	520.56
406.66	324.56
406.883	152.56
407.107	111.56
407.331	121.56
407.555	133.56
407.778	128.56
408.002	106.56
408.226	98.56
408.449	94.56
408.673	89.56
408.896	104.56
409.12	113.56
409.344	102.56
409.567	84.56
409.791	96.56
410.014	109.56
410.238	100.56
410.461	96.56
410.685	99.56
410.908	94.56
411.132	98.56
411.355	112.56
411.578	92.56
411.802	98.56
412.025	99.56
412.249	99.56
412.472	125.56
412.695	151.56
412.919	127.56
413.142	105.56
413.365	109.56
413.589	105.56
413.812	98.56
414.035	83.56
414.258	94.56
414.482	95.56
414.705	85.56
414.928	90.56
415.151	94.56
415.374	84.56
415.597	86.56
415.821	92.56
416.044	104.56
416.267	91.56
416.49	108.56
416.713	98.56
416.936	98.56
417.159	98.56
417.382	120.56
417.605	120.56
417.828	128.56
418.051	106.56
418.274	107.56
418.497	105.56
418.72	94.56
418.943	90.56
419.166	97.56
419.389	99.56
419.611	103.56
419.834	100.56
420.057	113.56
420.28	115.56
420.503	90.56
420.726	102.56
420.948	106.56
421.171	110.56
421.394	110.56
421.617	110.56
421.839	100.56
422.062	94.56
422.285	113.56
422.507	110.56
422.73	98.56
422.953	99.56
423.175	99.56
423.398	92.56
423.621	84.56
423.843	95.56
424.066	91.56
424.288	101.56
424.511	106.56
424.733	121.56
424.956	124.56
425.178	131.56
425.401	129.56
425.623	119.56
425.846	107.56
426.068	109.56
426.291	109.56
426.513	99.56
426.735	97.56
426.958	113.56
427.18	138.56
427.402	208.56
427.625	372.56
427.847	319.56
428.069	242.56
428.292	154.56
428.514	104.56
428.736	104.56
428.958	85.56
429.181	97.56
429.403	100.56
429.625	98.56
429.847	115.56
430.069	138.56
430.292	107.56
430.514	95.56
430.736	97.56
430.958	84.56
431.18	90.56
431.402	89.56
431.624	74.56
431.846	73.56
432.068	95.56
432.29	104.56
432.512	91.56
432.734	98.56
432.956	86.56
433.178	106.56
433.4	108.56
433.622	83.56
433.844	93.56
434.066	100.56
434.287	102.56
434.509	98.56
434.731	101.56
434.953	94.56
435.175	90.56
435.397	113.56
435.618	89.56
435.84	123.56
436.062	127.56
436.284	158.56
436.505	104.56
436.727	111.56
436.949	97.56
437.17	102.56
437.392	99.56
437.614	107.56
437.835	160.56
438.057	200.56
438.278	149.56
438.5	136.56
438.721	158.56
438.943	116.56
439.165	100.56
439.386	99.56
439.608	113.56
439.829	118.56
440.05	166.56
440.272	216.56
440.493	134.56
440.715	110.56
440.936	95.56
441.158	93.56
441.379	92.56
441.6	113.56
441.822	110.56
442.043	114.56
442.264	134.56
442.486	106.56
442.707	108.56
442.928	143.56
443.149	218.56
443.371	218.56
443.592	163.56
443.813	151.56
444.034	134.56
444.255	114.56
444.476	98.56
444.698	114.56
444.919	104.56
445.14	142.56
445.361	138.56
445.582	150.56
445.803	216.56
446.024	204.56
446.245	183.56
446.466	150.56
446.687	103.56
446.908	84.56
447.129	117.56
447.35	90.56
447.571	110.56
447.792	113.56
448.013	117.56
448.234	156.56
448.455	134.56
448.675	146.56
448.896	152.56
449.117	119.56
449.338	115.56
449.559	156.56
449.779	147.56
450	126.56
450.221	94.56
450.442	102.56
450.662	122.56
450.883	162.56
451.104	189.56
451.324	113.56
451.545	110.56
451.766	100.56
451.986	89.56
452.207	109.56
452.428	115.56
452.648	121.56
452.869	168.56
453.089	161.56
453.31	188.56
453.53	123.56
453.751	109.56
453.971	152.56
454.192	178.56
454.412	113.56
454.633	92.56
454.853	84.56
455.073	87.56
455.294	109.56
455.514	121.56
455.734	100.56
455.955	79.56
456.175	87.56
456.395	76.56
456.616	97.56
456.836	98.56
457.056	90.56
457.276	99.56
457.497	95.56
457.717	93.56
457.937	100.56
458.157	101.56
458.377	114.56
458.598	169.56
458.818	320.56
459.038	338.56
459.258	202.56
459.478	108.56
459.698	104.56
459.918	86.56
460.138	101.56
460.358	90.56
460.578	102.56
460.798	86.56
461.018	107.56
461.238	99.56
461.458	92.56
461.678	84.56
461.898	84.56
462.118	84.56
462.338	94.56
462.558	98.56
462.777	97.56
462.997	115.56
463.217	127.56
463.437	107.56
463.657	108.56
463.876	99.56
464.096	86.56
464.316	121.56
464.536	120.56
464.755	123.56
464.975	165.56
465.195	402.56
465.414	391.56
465.634	129.56
465.854	111.56
466.073	102.56
466.293	98.56
466.512	98.56
466.732	98.56
466.951	100.56
467.171	110.56
467.391	140.56
467.61	209.56
467.829	367.56
468.049	1064.56
468.268	1650.56
468.488	349.56
468.707	128.56
468.927	108.56
469.146	95.56
469.365	104.56
469.585	118.56
469.804	129.56
470.023	148.56
470.243	131.56
470.462	154.56
470.681	187.56
470.901	140.56
471.12	122.56
471.339	134.56
471.558	155.56
471.777	213.56
471.997	472.56
472.216	2126.56
472.435	4860.56
472.654	1025.56
472.873	249.56
473.092	138.56
473.311	124.56
473.53	94.56
473.749	107.56
473.968	112.56
474.187	141.56
474.406	129.56
474.625	100.56
474.844	103.56
475.063	83.56
475.282	96.56
475.501	95.56
475.72	98.56
475.939	113.56
476.158	89.56
476.377	99.56
476.596	106.56
476.814	113.56
477.033	114.56
477.252	100.56
477.471	106.56
477.69	109.56
477.908	89.56
478.127	108.56
478.346	120.56
478.564	113.56
478.783	142.56
479.002	123.56
479.22	128.56
479.439	178.56
479.658	190.56
479.876	151.56
480.095	153.56
480.313	201.56
480.532	248.56
480.751	490.56
480.969	1856.56
481.188	8077.56
481.406	4454.56
481.624	570.56
481.843	192.56
482.061	124.56
482.28	106.56
482.498	109.56
482.717	98.56
482.935	116.56
483.153	95.56
483.372	95.56
483.59	114.56
483.808	94.56
484.027	102.56
484.245	95.56
484.463	102.56
484.681	95.56
484.9	99.56
485.118	96.56
485.336	90.56
485.554	112.56
485.772	108.56
485.99	117.56
486.209	130.56
486.427	127.56
486.645	136.56
486.863	153.56
487.081	120.56
487.299	117.56
487.517	99.56
487.735	93.56
487.953	93.56
488.171	103.56
488.389	111.56
488.607	122.56
488.825	114.56
489.043	112.56
489.261	95.56
489.479	103.56
489.696	92.56
489.914	100.56
490.132	83.56
490.35	110.56
490.568	90.56
490.786	98.56
491.003	97.56
491.221	93.56
491.439	106.56
491.657	102.56
491.874	99.56
492.092	100.56
492.31	111.56
492.527	115.56
492.745	116.56
492.963	103.56
493.18	80.56
493.398	100.56
493.615	104.56
493.833	96.56
494.05	95.56
494.268	87.56
494.485	102.56
494.703	99.56
494.92	88.56
495.138	90.56
495.355	87.56
495.573	96.56
495.79	102.56
496.008	98.56
496.225	104.56
496.442	110.56
496.66	97.56
496.877	92.56
497.094	100.56
497.312	81.56
497.529	102.56
497.746	110.56
497.963	95.56
498.181	103.56
498.398	91.56
498.615	124.56
498.832	122.56
499.049	100.56
499.267	103.56
499.484	103.56
499.701	97.56
499.918	96.56
500.135	99.56
500.352	105.56
500.569	112.56
500.786	104.56
501.003	96.56
501.22	84.56
501.437	115.56
501.654	123.56
501.871	171.56
502.088	120.56
502.305	105.56
502.522	81.56
502.739	109.56
502.956	92.56
503.172	89.56
503.389	125.56
503.606	175.56
503.823	121.56
504.04	110.56
504.256	92.56
504.473	96.56
504.69	85.56
504.907	96.56
505.123	98.56
505.34	110.56
505.557	98.56
505.773	100.56
505.99	89.56
506.207	86.56
506.423	91.56
506.64	92.56
506.856	98.56
507.073	99.56
507.289	107.56
507.506	117.56
507.722	184.56
507.939	175.56
508.155	123.56
508.372	98.56
508.588	97.56
508.805	116.56
509.021	113.56
509.238	121.56
509.454	119.56
