Data from Circ_1999_H10_HRD10591_00090.txt Node
Date: Wed Jan 03 11:23:30 EST 2024
User: Yrep
Spectrometer: HR+D1059
Trigger mode: 1
Integration Time (sec): 1.000000E-1
Scans to average: 1
Electric dark correction enabled: true
Nonlinearity correction enabled: false
Boxcar width: 0
XAxis mode: Wavelengths
Number of Pixels in Spectrum: 2048
>>>>>Begin Spectral Data<<<<<
223.165	-2.69
223.4	-2.69
223.635	-2.69
223.869	-24.69
224.104	-9.69
224.338	-21.69
224.573	-14.69
224.808	-11.69
225.042	-14.69
225.277	-3.69
225.511	2.31
225.746	0.31
225.98	7.31
226.215	8.31
226.449	1.31
226.683	27.31
226.918	16.31
227.152	40.31
227.387	44.31
227.621	44.31
227.856	35.31
228.09	47.31
228.324	59.31
228.559	55.31
228.793	81.31
229.027	70.31
229.262	80.31
229.496	94.31
229.73	110.31
229.964	100.31
230.199	77.31
230.433	94.31
230.667	88.31
230.901	102.31
231.136	94.31
231.37	78.31
231.604	89.31
231.838	89.31
232.072	79.31
232.306	79.31
232.541	74.31
232.775	69.31
233.009	80.31
233.243	71.31
233.477	82.31
233.711	95.31
233.945	87.31
234.179	91.31
234.413	88.31
234.647	81.31
234.881	72.31
235.115	81.31
235.349	96.31
235.583	83.31
235.817	87.31
236.051	89.31
236.285	82.31
236.519	89.31
236.753	101.31
236.987	89.31
237.221	100.31
237.455	113.31
237.689	85.31
237.922	92.31
238.156	85.31
238.39	77.31
238.624	75.31
238.858	82.31
239.091	103.31
239.325	80.31
239.559	87.31
239.793	85.31
240.027	79.31
240.26	82.31
240.494	90.31
240.728	73.31
240.961	73.31
241.195	80.31
241.429	89.31
241.662	91.31
241.896	81.31
242.13	93.31
242.363	75.31
242.597	84.31
242.83	95.31
243.064	76.31
243.298	61.31
243.531	78.31
243.765	85.31
243.998	87.31
244.232	89.31
244.465	94.31
244.699	80.31
244.932	76.31
245.166	83.31
245.399	92.31
245.633	94.31
245.866	79.31
246.099	80.31
246.333	103.31
246.566	92.31
246.8	77.31
247.033	90.31
247.266	89.31
247.5	94.31
247.733	75.31
247.966	83.31
248.2	87.31
248.433	80.31
248.666	99.31
248.899	92.31
249.133	101.31
249.366	101.31
249.599	112.31
249.832	91.31
250.066	93.31
250.299	96.31
250.532	93.31
250.765	90.31
250.998	79.31
251.231	83.31
251.465	79.31
251.698	84.31
251.931	100.31
252.164	92.31
252.397	88.31
252.63	89.31
252.863	82.31
253.096	84.31
253.329	83.31
253.562	89.31
253.795	76.31
254.028	90.31
254.261	99.31
254.494	84.31
254.727	88.31
254.96	94.31
255.193	82.31
255.426	74.31
255.659	94.31
255.892	112.31
256.124	112.31
256.357	103.31
256.59	80.31
256.823	98.31
257.056	111.31
257.289	92.31
257.521	91.31
257.754	75.31
257.987	89.31
258.22	95.31
258.452	114.31
258.685	104.31
258.918	97.31
259.151	107.31
259.383	82.31
259.616	89.31
259.849	94.31
260.081	92.31
260.314	97.31
260.547	99.31
260.779	125.31
261.012	140.31
261.244	131.31
261.477	119.31
261.71	101.31
261.942	161.31
262.175	183.31
262.407	101.31
262.64	88.31
262.872	94.31
263.105	95.31
263.337	95.31
263.57	92.31
263.802	88.31
264.035	93.31
264.267	81.31
264.499	101.31
264.732	87.31
264.964	92.31
265.197	83.31
265.429	90.31
265.661	75.31
265.894	97.31
266.126	76.31
266.358	67.31
266.591	86.31
266.823	97.31
267.055	87.31
267.287	83.31
267.52	77.31
267.752	90.31
267.984	83.31
268.216	91.31
268.448	97.31
268.681	90.31
268.913	94.31
269.145	92.31
269.377	95.31
269.609	89.31
269.841	84.31
270.073	85.31
270.306	88.31
270.538	94.31
270.77	82.31
271.002	90.31
271.234	105.31
271.466	97.31
271.698	92.31
271.93	101.31
272.162	83.31
272.394	94.31
272.626	103.31
272.858	95.31
273.09	94.31
273.322	93.31
273.553	98.31
273.785	94.31
274.017	87.31
274.249	79.31
274.481	87.31
274.713	101.31
274.945	106.31
275.176	95.31
275.408	120.31
275.64	126.31
275.872	144.31
276.104	129.31
276.335	116.31
276.567	148.31
276.799	186.31
277.031	245.31
277.262	275.31
277.494	234.31
277.726	113.31
277.957	102.31
278.189	97.31
278.421	113.31
278.652	96.31
278.884	97.31
279.115	107.31
279.347	107.31
279.579	114.31
279.81	173.31
280.042	254.31
280.273	393.31
280.505	237.31
280.736	133.31
280.968	117.31
281.199	113.31
281.431	85.31
281.662	98.31
281.894	101.31
282.125	130.31
282.356	172.31
282.588	226.31
282.819	164.31
283.051	112.31
283.282	94.31
283.513	93.31
283.745	89.31
283.976	87.31
284.207	84.31
284.439	101.31
284.67	98.31
284.901	91.31
285.132	84.31
285.364	83.31
285.595	98.31
285.826	88.31
286.057	93.31
286.288	95.31
286.52	97.31
286.751	95.31
286.982	91.31
287.213	89.31
287.444	83.31
287.675	108.31
287.906	99.31
288.138	106.31
288.369	121.31
288.6	101.31
288.831	92.31
289.062	96.31
289.293	105.31
289.524	94.31
289.755	83.31
289.986	84.31
290.217	86.31
290.448	97.31
290.679	83.31
290.91	103.31
291.141	91.31
291.371	100.31
291.602	79.31
291.833	85.31
292.064	101.31
292.295	101.31
292.526	94.31
292.757	101.31
292.987	82.31
293.218	105.31
293.449	89.31
293.68	91.31
293.91	107.31
294.141	87.31
294.372	93.31
294.603	83.31
294.833	120.31
295.064	96.31
295.295	104.31
295.525	109.31
295.756	126.31
295.987	155.31
296.217	205.31
296.448	193.31
296.679	108.31
296.909	101.31
297.14	107.31
297.37	89.31
297.601	83.31
297.831	94.31
298.062	100.31
298.292	112.31
298.523	97.31
298.753	107.31
298.984	103.31
299.214	98.31
299.445	112.31
299.675	99.31
299.905	106.31
300.136	112.31
300.366	80.31
300.597	107.31
300.827	101.31
301.057	135.31
301.288	130.31
301.518	116.31
301.748	106.31
301.979	126.31
302.209	118.31
302.439	106.31
302.669	99.31
302.9	98.31
303.13	108.31
303.36	132.31
303.59	174.31
303.82	194.31
304.051	126.31
304.281	87.31
304.511	97.31
304.741	92.31
304.971	100.31
305.201	89.31
305.431	96.31
305.661	95.31
305.891	94.31
306.121	103.31
306.352	135.31
306.582	149.31
306.812	139.31
307.042	152.31
307.272	214.31
307.502	243.31
307.731	234.31
307.961	171.31
308.191	126.31
308.421	106.31
308.651	83.31
308.881	108.31
309.111	117.31
309.341	104.31
309.571	111.31
309.8	117.31
310.03	128.31
310.26	117.31
310.49	115.31
310.72	121.31
310.949	124.31
311.179	133.31
311.409	98.31
311.639	111.31
311.868	118.31
312.098	107.31
312.328	124.31
312.557	140.31
312.787	140.31
313.017	133.31
313.246	117.31
313.476	109.31
313.706	108.31
313.935	112.31
314.165	136.31
314.394	135.31
314.624	142.31
314.853	113.31
315.083	111.31
315.312	102.31
315.542	102.31
315.771	103.31
316.001	102.31
316.23	90.31
316.46	115.31
316.689	100.31
316.919	112.31
317.148	121.31
317.377	111.31
317.607	112.31
317.836	122.31
318.065	93.31
318.295	97.31
318.524	99.31
318.753	110.31
318.983	120.31
319.212	122.31
319.441	131.31
319.67	144.31
319.9	113.31
320.129	111.31
320.358	119.31
320.587	108.31
320.816	118.31
321.046	126.31
321.275	110.31
321.504	114.31
321.733	112.31
321.962	114.31
322.191	137.31
322.42	129.31
322.649	149.31
322.878	147.31
323.108	139.31
323.337	170.31
323.566	186.31
323.795	223.31
324.024	293.31
324.253	611.31
324.482	1259.31
324.71	2593.31
324.939	3370.31
325.168	1225.31
325.397	372.31
325.626	209.31
325.855	160.31
326.084	175.31
326.313	179.31
326.542	210.31
326.77	313.31
326.999	623.31
327.228	1233.31
327.457	2276.31
327.686	1929.31
327.914	757.31
328.143	858.31
328.372	1105.31
328.6	600.31
328.829	272.31
329.058	255.31
329.287	271.31
329.515	263.31
329.744	368.31
329.972	770.31
330.201	1725.31
330.43	2473.31
330.658	1037.31
330.887	446.31
331.115	285.31
331.344	169.31
331.572	147.31
331.801	166.31
332.03	155.31
332.258	151.31
332.486	131.31
332.715	131.31
332.943	140.31
333.172	138.31
333.4	170.31
333.629	216.31
333.857	354.31
334.085	693.31
334.314	1554.31
334.542	3027.31
334.771	2743.31
334.999	672.31
335.227	232.31
335.455	155.31
335.684	138.31
335.912	119.31
336.14	127.31
336.369	122.31
336.597	145.31
336.825	127.31
337.053	105.31
337.281	100.31
337.51	108.31
337.738	101.31
337.966	105.31
338.194	115.31
338.422	121.31
338.65	100.31
338.878	94.31
339.106	106.31
339.334	105.31
339.562	97.31
339.79	98.31
340.018	117.31
340.246	121.31
340.474	109.31
340.702	108.31
340.93	108.31
341.158	116.31
341.386	116.31
341.614	114.31
341.842	146.31
342.07	126.31
342.298	116.31
342.526	105.31
342.754	91.31
342.981	102.31
343.209	103.31
343.437	111.31
343.665	96.31
343.893	90.31
344.12	95.31
344.348	88.31
344.576	96.31
344.804	123.31
345.031	123.31
345.259	134.31
345.487	111.31
345.714	112.31
345.942	95.31
346.17	101.31
346.397	97.31
346.625	100.31
346.853	94.31
347.08	91.31
347.308	124.31
347.535	116.31
347.763	126.31
347.99	112.31
348.218	122.31
348.445	131.31
348.673	136.31
348.9	114.31
349.128	91.31
349.355	90.31
349.583	104.31
349.81	109.31
350.037	104.31
350.265	81.31
350.492	103.31
350.72	114.31
350.947	108.31
351.174	137.31
351.402	132.31
351.629	114.31
351.856	129.31
352.083	140.31
352.311	139.31
352.538	152.31
352.765	145.31
352.992	144.31
353.22	143.31
353.447	119.31
353.674	106.31
353.901	107.31
354.128	95.31
354.355	95.31
354.583	104.31
354.81	100.31
355.037	100.31
355.264	100.31
355.491	91.31
355.718	98.31
355.945	102.31
356.172	101.31
356.399	99.31
356.626	98.31
356.853	97.31
357.08	99.31
357.307	96.31
357.534	85.31
357.761	100.31
357.988	100.31
358.215	96.31
358.441	107.31
358.668	102.31
358.895	92.31
359.122	100.31
359.349	96.31
359.576	107.31
359.802	137.31
360.029	175.31
360.256	185.31
360.483	145.31
360.709	106.31
360.936	89.31
361.163	95.31
361.39	114.31
361.616	121.31
361.843	104.31
362.07	121.31
362.296	128.31
362.523	98.31
362.749	108.31
362.976	120.31
363.203	106.31
363.429	94.31
363.656	98.31
363.882	99.31
364.109	92.31
364.335	103.31
364.562	105.31
364.788	110.31
365.015	100.31
365.241	117.31
365.468	138.31
365.694	141.31
365.92	126.31
366.147	105.31
366.373	113.31
366.599	110.31
366.826	97.31
367.052	98.31
367.278	106.31
367.505	113.31
367.731	106.31
367.957	110.31
368.184	113.31
368.41	125.31
368.636	136.31
368.862	172.31
369.089	154.31
369.315	107.31
369.541	106.31
369.767	105.31
369.993	104.31
370.219	101.31
370.445	99.31
370.672	91.31
370.898	96.31
371.124	103.31
371.35	98.31
371.576	90.31
371.802	81.31
372.028	99.31
372.254	87.31
372.48	97.31
372.706	83.31
372.932	85.31
373.158	77.31
373.384	98.31
373.61	110.31
373.835	93.31
374.061	88.31
374.287	100.31
374.513	99.31
374.739	100.31
374.965	105.31
375.191	95.31
375.416	88.31
375.642	84.31
375.868	98.31
376.094	100.31
376.319	99.31
376.545	97.31
376.771	97.31
376.997	92.31
377.222	95.31
377.448	101.31
377.674	69.31
377.899	88.31
378.125	89.31
378.35	87.31
378.576	97.31
378.802	97.31
379.027	95.31
379.253	91.31
379.478	85.31
379.704	97.31
379.929	100.31
380.155	99.31
380.38	88.31
380.606	102.31
380.831	108.31
381.057	114.31
381.282	105.31
381.507	97.31
381.733	104.31
381.958	108.31
382.184	111.31
382.409	102.31
382.634	107.31
382.86	103.31
383.085	97.31
383.31	108.31
383.535	102.31
383.761	98.31
383.986	96.31
384.211	108.31
384.436	88.31
384.662	101.31
384.887	104.31
385.112	110.31
385.337	101.31
385.562	105.31
385.787	110.31
386.013	120.31
386.238	123.31
386.463	133.31
386.688	111.31
386.913	106.31
387.138	110.31
387.363	113.31
387.588	98.31
387.813	96.31
388.038	98.31
388.263	112.31
388.488	103.31
388.713	96.31
388.938	110.31
389.163	100.31
389.387	81.31
389.612	92.31
389.837	96.31
390.062	109.31
390.287	91.31
390.512	93.31
390.736	96.31
390.961	91.31
391.186	81.31
391.411	77.31
391.636	94.31
391.86	90.31
392.085	90.31
392.31	95.31
392.534	97.31
392.759	90.31
392.984	90.31
393.208	96.31
393.433	97.31
393.658	104.31
393.882	96.31
394.107	90.31
394.331	99.31
394.556	102.31
394.78	81.31
395.005	90.31
395.229	81.31
395.454	88.31
395.678	87.31
395.903	100.31
396.127	89.31
396.352	90.31
396.576	96.31
396.801	99.31
397.025	97.31
397.249	91.31
397.474	96.31
397.698	100.31
397.922	94.31
398.147	84.31
398.371	107.31
398.595	101.31
398.82	92.31
399.044	90.31
399.268	96.31
399.492	101.31
399.717	97.31
399.941	108.31
400.165	108.31
400.389	93.31
400.613	106.31
400.837	97.31
401.062	106.31
401.286	95.31
401.51	118.31
401.734	104.31
401.958	133.31
402.182	220.31
402.406	285.31
402.63	203.31
402.854	140.31
403.078	98.31
403.302	90.31
403.526	89.31
403.75	99.31
403.974	101.31
404.198	89.31
404.422	111.31
404.645	114.31
404.869	114.31
405.093	126.31
405.317	157.31
405.541	167.31
405.765	145.31
405.988	184.31
406.212	313.31
406.436	485.31
406.66	299.31
406.883	142.31
407.107	124.31
407.331	127.31
407.555	123.31
407.778	116.31
408.002	99.31
408.226	105.31
408.449	109.31
408.673	95.31
408.896	104.31
409.12	107.31
409.344	102.31
409.567	111.31
409.791	101.31
410.014	94.31
410.238	97.31
410.461	109.31
410.685	102.31
410.908	104.31
411.132	98.31
411.355	115.31
411.578	106.31
411.802	104.31
412.025	109.31
412.249	114.31
412.472	140.31
412.695	167.31
412.919	132.31
413.142	91.31
413.365	98.31
413.589	87.31
413.812	100.31
414.035	99.31
414.258	92.31
414.482	98.31
414.705	101.31
414.928	95.31
415.151	94.31
415.374	80.31
415.597	96.31
415.821	87.31
416.044	109.31
416.267	98.31
416.49	100.31
416.713	93.31
416.936	91.31
417.159	99.31
417.382	111.31
417.605	134.31
417.828	137.31
418.051	118.31
418.274	97.31
418.497	100.31
418.72	105.31
418.943	83.31
419.166	91.31
419.389	98.31
419.611	107.31
419.834	107.31
420.057	113.31
420.28	125.31
420.503	108.31
420.726	90.31
420.948	113.31
421.171	124.31
421.394	105.31
421.617	108.31
421.839	94.31
422.062	112.31
422.285	108.31
422.507	108.31
422.73	104.31
422.953	115.31
423.175	98.31
423.398	105.31
423.621	106.31
423.843	100.31
424.066	83.31
424.288	95.31
424.511	94.31
424.733	109.31
424.956	140.31
425.178	128.31
425.401	123.31
425.623	128.31
425.846	101.31
426.068	106.31
426.291	111.31
426.513	102.31
426.735	103.31
426.958	128.31
427.18	158.31
427.402	227.31
427.625	369.31
427.847	314.31
428.069	259.31
428.292	153.31
428.514	103.31
428.736	97.31
428.958	92.31
429.181	109.31
429.403	100.31
429.625	106.31
429.847	109.31
430.069	126.31
430.292	115.31
430.514	100.31
430.736	89.31
430.958	91.31
431.18	83.31
431.402	94.31
431.624	79.31
431.846	93.31
432.068	101.31
432.29	89.31
432.512	104.31
432.734	109.31
432.956	91.31
433.178	109.31
433.4	106.31
433.622	99.31
433.844	106.31
434.066	98.31
434.287	85.31
434.509	99.31
434.731	91.31
434.953	91.31
435.175	87.31
435.397	97.31
435.618	111.31
435.84	126.31
436.062	148.31
436.284	136.31
436.505	112.31
436.727	119.31
436.949	112.31
437.17	106.31
437.392	115.31
437.614	109.31
437.835	146.31
438.057	199.31
438.278	171.31
438.5	132.31
438.721	172.31
438.943	131.31
439.165	88.31
439.386	77.31
439.608	114.31
439.829	126.31
440.05	173.31
440.272	218.31
440.493	135.31
440.715	100.31
440.936	99.31
441.158	96.31
441.379	97.31
441.6	126.31
441.822	131.31
442.043	116.31
442.264	135.31
442.486	138.31
442.707	123.31
442.928	141.31
443.149	214.31
443.371	230.31
443.592	174.31
443.813	153.31
444.034	142.31
444.255	114.31
444.476	88.31
444.698	105.31
444.919	100.31
445.14	145.31
445.361	159.31
445.582	164.31
445.803	220.31
446.024	209.31
446.245	208.31
446.466	156.31
446.687	113.31
446.908	100.31
447.129	101.31
447.35	101.31
447.571	118.31
447.792	102.31
448.013	149.31
448.234	154.31
448.455	121.31
448.675	159.31
448.896	172.31
449.117	123.31
449.338	131.31
449.559	164.31
449.779	165.31
450	106.31
450.221	111.31
450.442	120.31
450.662	115.31
450.883	165.31
451.104	177.31
451.324	122.31
451.545	105.31
451.766	96.31
451.986	101.31
452.207	109.31
452.428	112.31
452.648	131.31
452.869	170.31
453.089	174.31
453.31	196.31
453.53	131.31
453.751	114.31
453.971	161.31
454.192	177.31
454.412	128.31
454.633	105.31
454.853	89.31
455.073	81.31
455.294	108.31
455.514	126.31
455.734	97.31
455.955	105.31
456.175	91.31
456.395	87.31
456.616	94.31
456.836	104.31
457.056	100.31
457.276	89.31
457.497	102.31
457.717	98.31
457.937	87.31
458.157	104.31
458.377	119.31
458.598	159.31
458.818	300.31
459.038	332.31
459.258	207.31
459.478	121.31
459.698	110.31
459.918	95.31
460.138	91.31
460.358	90.31
460.578	100.31
460.798	112.31
461.018	100.31
461.238	92.31
461.458	91.31
461.678	91.31
461.898	92.31
462.118	89.31
462.338	80.31
462.558	92.31
462.777	92.31
462.997	118.31
463.217	135.31
463.437	113.31
463.657	101.31
463.876	108.31
464.096	111.31
464.316	104.31
464.536	133.31
464.755	120.31
464.975	162.31
465.195	356.31
465.414	349.31
465.634	141.31
465.854	109.31
466.073	101.31
466.293	111.31
466.512	87.31
466.732	101.31
466.951	122.31
467.171	112.31
467.391	149.31
467.61	201.31
467.829	317.31
468.049	996.31
468.268	1494.31
468.488	319.31
468.707	137.31
468.927	119.31
469.146	102.31
469.365	104.31
469.585	116.31
469.804	134.31
470.023	127.31
470.243	130.31
470.462	151.31
470.681	201.31
470.901	125.31
471.12	124.31
471.339	123.31
471.558	145.31
471.777	210.31
471.997	493.31
472.216	1956.31
472.435	4551.31
472.654	969.31
472.873	232.31
473.092	125.31
473.311	111.31
473.53	110.31
473.749	109.31
473.968	128.31
474.187	150.31
474.406	127.31
474.625	100.31
474.844	98.31
475.063	110.31
475.282	95.31
475.501	103.31
475.72	100.31
475.939	94.31
476.158	94.31
476.377	104.31
476.596	81.31
476.814	115.31
477.033	117.31
477.252	111.31
477.471	107.31
477.69	109.31
477.908	115.31
478.127	104.31
478.346	105.31
478.564	113.31
478.783	140.31
479.002	132.31
479.22	139.31
479.439	151.31
479.658	171.31
479.876	156.31
480.095	163.31
480.313	175.31
480.532	219.31
480.751	444.31
480.969	1699.31
481.188	7642.31
481.406	4208.31
481.624	550.31
481.843	176.31
482.061	136.31
482.28	117.31
482.498	108.31
482.717	115.31
482.935	110.31
483.153	100.31
483.372	96.31
483.59	98.31
483.808	111.31
484.027	112.31
484.245	104.31
484.463	115.31
484.681	106.31
484.9	106.31
485.118	88.31
485.336	109.31
485.554	119.31
485.772	129.31
485.99	122.31
486.209	114.31
486.427	115.31
486.645	156.31
486.863	161.31
487.081	109.31
487.299	102.31
487.517	116.31
487.735	112.31
487.953	97.31
488.171	93.31
488.389	101.31
488.607	112.31
488.825	94.31
489.043	99.31
489.261	99.31
489.479	106.31
489.696	93.31
489.914	93.31
490.132	93.31
490.35	75.31
490.568	106.31
490.786	92.31
491.003	106.31
491.221	112.31
491.439	123.31
491.657	109.31
491.874	112.31
492.092	103.31
492.31	114.31
492.527	114.31
492.745	106.31
492.963	117.31
493.18	101.31
493.398	89.31
493.615	113.31
493.833	100.31
494.05	95.31
494.268	85.31
494.485	121.31
494.703	95.31
494.92	101.31
495.138	92.31
495.355	85.31
495.573	95.31
495.79	98.31
496.008	99.31
496.225	99.31
496.442	91.31
496.66	106.31
496.877	105.31
497.094	92.31
497.312	112.31
497.529	87.31
497.746	91.31
497.963	106.31
498.181	100.31
498.398	123.31
498.615	127.31
498.832	127.31
499.049	95.31
499.267	93.31
499.484	99.31
499.701	92.31
499.918	88.31
500.135	97.31
500.352	101.31
500.569	109.31
500.786	111.31
501.003	98.31
501.22	94.31
501.437	92.31
501.654	101.31
501.871	161.31
502.088	121.31
502.305	99.31
502.522	95.31
502.739	104.31
502.956	86.31
503.172	112.31
503.389	143.31
503.606	165.31
503.823	123.31
504.04	103.31
504.256	92.31
504.473	100.31
504.69	101.31
504.907	100.31
505.123	98.31
505.34	97.31
505.557	88.31
505.773	111.31
505.99	90.31
506.207	91.31
506.423	93.31
506.64	106.31
506.856	97.31
507.073	103.31
507.289	111.31
507.506	114.31
507.722	156.31
507.939	180.31
508.155	136.31
508.372	101.31
508.588	113.31
508.805	115.31
509.021	113.31
