Data from Circ_1999_H10_HRD10591_00013.txt Node
Date: Wed Jan 03 11:23:15 EST 2024
User: Yrep
Spectrometer: HR+D1059
Trigger mode: 1
Integration Time (sec): 1.000000E-1
Scans to average: 1
Electric dark correction enabled: true
Nonlinearity correction enabled: false
Boxcar width: 0
XAxis mode: Wavelengths
Number of Pixels in Spectrum: 2048
>>>>>Begin Spectral Data<<<<<
223.165	-29.88
223.4	-29.88
223.635	-29.88
223.869	-10.88
224.104	-12.88
224.338	-19.88
224.573	-24.88
224.808	-11.88
225.042	-8.88
225.277	-6.88
225.511	-15.88
225.746	15.12
225.98	-1.88
226.215	25.12
226.449	21.12
226.683	17.12
226.918	24.12
227.152	41.12
227.387	23.12
227.621	29.12
227.856	36.12
228.09	42.12
228.324	51.12
228.559	54.12
228.793	65.12
229.027	69.12
229.262	67.12
229.496	71.12
229.73	89.12
229.964	87.12
230.199	78.12
230.433	86.12
230.667	85.12
230.901	92.12
231.136	79.12
231.37	71.12
231.604	63.12
231.838	91.12
232.072	83.12
232.306	94.12
232.541	91.12
232.775	82.12
233.009	88.12
233.243	93.12
233.477	85.12
233.711	80.12
233.945	80.12
234.179	87.12
234.413	94.12
234.647	85.12
234.881	86.12
235.115	87.12
235.349	86.12
235.583	80.12
235.817	82.12
236.051	84.12
236.285	92.12
236.519	74.12
236.753	80.12
236.987	95.12
237.221	80.12
237.455	88.12
237.689	76.12
237.922	95.12
238.156	82.12
238.39	79.12
238.624	83.12
238.858	75.12
239.091	93.12
239.325	88.12
239.559	82.12
239.793	82.12
240.027	94.12
240.26	82.12
240.494	83.12
240.728	71.12
240.961	77.12
241.195	84.12
241.429	79.12
241.662	71.12
241.896	68.12
242.13	65.12
242.363	80.12
242.597	68.12
242.83	76.12
243.064	78.12
243.298	75.12
243.531	80.12
243.765	77.12
243.998	89.12
244.232	101.12
244.465	94.12
244.699	77.12
244.932	87.12
245.166	76.12
245.399	85.12
245.633	80.12
245.866	78.12
246.099	81.12
246.333	70.12
246.566	71.12
246.8	81.12
247.033	64.12
247.266	88.12
247.5	76.12
247.733	83.12
247.966	81.12
248.2	83.12
248.433	87.12
248.666	82.12
248.899	80.12
249.133	90.12
249.366	96.12
249.599	101.12
249.832	81.12
250.066	68.12
250.299	89.12
250.532	81.12
250.765	89.12
250.998	99.12
251.231	83.12
251.465	80.12
251.698	80.12
251.931	81.12
252.164	72.12
252.397	91.12
252.63	95.12
252.863	95.12
253.096	82.12
253.329	88.12
253.562	70.12
253.795	69.12
254.028	85.12
254.261	87.12
254.494	80.12
254.727	85.12
254.96	75.12
255.193	92.12
255.426	87.12
255.659	82.12
255.892	103.12
256.124	96.12
256.357	84.12
256.59	89.12
256.823	99.12
257.056	99.12
257.289	90.12
257.521	74.12
257.754	90.12
257.987	81.12
258.22	93.12
258.452	98.12
258.685	89.12
258.918	81.12
259.151	83.12
259.383	88.12
259.616	79.12
259.849	87.12
260.081	80.12
260.314	86.12
260.547	83.12
260.779	114.12
261.012	101.12
261.244	108.12
261.477	107.12
261.71	114.12
261.942	131.12
262.175	148.12
262.407	105.12
262.64	93.12
262.872	87.12
263.105	85.12
263.337	102.12
263.57	78.12
263.802	85.12
264.035	91.12
264.267	89.12
264.499	79.12
264.732	96.12
264.964	83.12
265.197	75.12
265.429	78.12
265.661	83.12
265.894	86.12
266.126	95.12
266.358	79.12
266.591	83.12
266.823	84.12
267.055	84.12
267.287	105.12
267.52	82.12
267.752	89.12
267.984	77.12
268.216	88.12
268.448	99.12
268.681	84.12
268.913	87.12
269.145	90.12
269.377	80.12
269.609	101.12
269.841	100.12
270.073	92.12
270.306	101.12
270.538	95.12
270.77	95.12
271.002	84.12
271.234	101.12
271.466	85.12
271.698	90.12
271.93	92.12
272.162	79.12
272.394	73.12
272.626	92.12
272.858	89.12
273.09	95.12
273.322	74.12
273.553	84.12
273.785	91.12
274.017	89.12
274.249	95.12
274.481	87.12
274.713	97.12
274.945	93.12
275.176	97.12
275.408	104.12
275.64	116.12
275.872	131.12
276.104	112.12
276.335	112.12
276.567	121.12
276.799	153.12
277.031	163.12
277.262	181.12
277.494	143.12
277.726	109.12
277.957	98.12
278.189	102.12
278.421	105.12
278.652	92.12
278.884	92.12
279.115	99.12
279.347	93.12
279.579	108.12
279.81	140.12
280.042	179.12
280.273	215.12
280.505	149.12
280.736	104.12
280.968	85.12
281.199	90.12
281.431	95.12
281.662	82.12
281.894	87.12
282.125	117.12
282.356	126.12
282.588	188.12
282.819	116.12
283.051	100.12
283.282	100.12
283.513	88.12
283.745	100.12
283.976	98.12
284.207	80.12
284.439	93.12
284.67	90.12
284.901	90.12
285.132	102.12
285.364	95.12
285.595	83.12
285.826	87.12
286.057	88.12
286.288	96.12
286.52	91.12
286.751	109.12
286.982	95.12
287.213	90.12
287.444	93.12
287.675	85.12
287.906	92.12
288.138	84.12
288.369	100.12
288.6	103.12
288.831	83.12
289.062	89.12
289.293	110.12
289.524	82.12
289.755	89.12
289.986	88.12
290.217	92.12
290.448	85.12
290.679	92.12
290.91	98.12
291.141	94.12
291.371	97.12
291.602	91.12
291.833	90.12
292.064	91.12
292.295	96.12
292.526	94.12
292.757	95.12
292.987	100.12
293.218	95.12
293.449	86.12
293.68	87.12
293.91	95.12
294.141	92.12
294.372	91.12
294.603	88.12
294.833	85.12
295.064	88.12
295.295	72.12
295.525	102.12
295.756	110.12
295.987	151.12
296.217	161.12
296.448	163.12
296.679	115.12
296.909	103.12
297.14	96.12
297.37	99.12
297.601	88.12
297.831	97.12
298.062	110.12
298.292	109.12
298.523	96.12
298.753	83.12
298.984	99.12
299.214	115.12
299.445	112.12
299.675	119.12
299.905	112.12
300.136	87.12
300.366	88.12
300.597	89.12
300.827	103.12
301.057	108.12
301.288	109.12
301.518	117.12
301.748	97.12
301.979	107.12
302.209	106.12
302.439	92.12
302.669	84.12
302.9	93.12
303.13	99.12
303.36	114.12
303.59	136.12
303.82	132.12
304.051	123.12
304.281	93.12
304.511	95.12
304.741	87.12
304.971	97.12
305.201	96.12
305.431	114.12
305.661	98.12
305.891	109.12
306.121	101.12
306.352	117.12
306.582	119.12
306.812	109.12
307.042	130.12
307.272	155.12
307.502	176.12
307.731	166.12
307.961	129.12
308.191	94.12
308.421	92.12
308.651	103.12
308.881	109.12
309.111	95.12
309.341	99.12
309.571	106.12
309.8	120.12
310.03	107.12
310.26	99.12
310.49	110.12
310.72	124.12
310.949	124.12
311.179	99.12
311.409	99.12
311.639	92.12
311.868	99.12
312.098	103.12
312.328	105.12
312.557	126.12
312.787	125.12
313.017	112.12
313.246	99.12
313.476	98.12
313.706	94.12
313.935	108.12
314.165	117.12
314.394	93.12
314.624	94.12
314.853	104.12
315.083	111.12
315.312	99.12
315.542	90.12
315.771	99.12
316.001	83.12
316.23	123.12
316.46	95.12
316.689	101.12
316.919	111.12
317.148	120.12
317.377	117.12
317.607	91.12
317.836	99.12
318.065	91.12
318.295	108.12
318.524	106.12
318.753	88.12
318.983	96.12
319.212	118.12
319.441	117.12
319.67	111.12
319.9	94.12
320.129	98.12
320.358	101.12
320.587	106.12
320.816	123.12
321.046	112.12
321.275	108.12
321.504	108.12
321.733	108.12
321.962	107.12
322.191	112.12
322.42	128.12
322.649	135.12
322.878	119.12
323.108	129.12
323.337	144.12
323.566	154.12
323.795	169.12
324.024	241.12
324.253	404.12
324.482	850.12
324.71	1705.12
324.939	2203.12
325.168	846.12
325.397	269.12
325.626	175.12
325.855	139.12
326.084	139.12
326.313	143.12
326.542	174.12
326.77	249.12
326.999	451.12
327.228	892.12
327.457	1600.12
327.686	1333.12
327.914	513.12
328.143	489.12
328.372	584.12
328.6	331.12
328.829	195.12
329.058	199.12
329.287	211.12
329.515	182.12
329.744	243.12
329.972	425.12
330.201	852.12
330.43	1199.12
330.658	549.12
330.887	267.12
331.115	181.12
331.344	120.12
331.572	128.12
331.801	152.12
332.03	130.12
332.258	103.12
332.486	123.12
332.715	100.12
332.943	112.12
333.172	122.12
333.4	137.12
333.629	163.12
333.857	215.12
334.085	400.12
334.314	819.12
334.542	1491.12
334.771	1375.12
334.999	360.12
335.227	181.12
335.455	128.12
335.684	107.12
335.912	107.12
336.14	113.12
336.369	127.12
336.597	115.12
336.825	118.12
337.053	108.12
337.281	101.12
337.51	100.12
337.738	110.12
337.966	116.12
338.194	108.12
338.422	96.12
338.65	100.12
338.878	104.12
339.106	106.12
339.334	95.12
339.562	90.12
339.79	102.12
340.018	92.12
340.246	104.12
340.474	100.12
340.702	116.12
340.93	111.12
341.158	93.12
341.386	106.12
341.614	110.12
341.842	105.12
342.07	111.12
342.298	93.12
342.526	102.12
342.754	103.12
342.981	83.12
343.209	98.12
343.437	107.12
343.665	82.12
343.893	89.12
344.12	107.12
344.348	86.12
344.576	87.12
344.804	105.12
345.031	113.12
345.259	112.12
345.487	111.12
345.714	109.12
345.942	92.12
346.17	100.12
346.397	106.12
346.625	93.12
346.853	101.12
347.08	104.12
347.308	106.12
347.535	92.12
347.763	98.12
347.99	121.12
348.218	124.12
348.445	120.12
348.673	114.12
348.9	109.12
349.128	104.12
349.355	96.12
349.583	102.12
349.81	104.12
350.037	97.12
350.265	104.12
350.492	82.12
350.72	98.12
350.947	107.12
351.174	128.12
351.402	136.12
351.629	128.12
351.856	95.12
352.083	127.12
352.311	125.12
352.538	122.12
352.765	114.12
352.992	136.12
353.22	135.12
353.447	131.12
353.674	123.12
353.901	92.12
354.128	94.12
354.355	83.12
354.583	104.12
354.81	101.12
355.037	100.12
355.264	96.12
355.491	100.12
355.718	84.12
355.945	115.12
356.172	102.12
356.399	103.12
356.626	111.12
356.853	92.12
357.08	100.12
357.307	109.12
357.534	94.12
357.761	96.12
357.988	110.12
358.215	94.12
358.441	96.12
358.668	107.12
358.895	96.12
359.122	78.12
359.349	104.12
359.576	108.12
359.802	125.12
360.029	158.12
360.256	141.12
360.483	116.12
360.709	84.12
360.936	101.12
361.163	104.12
361.39	102.12
361.616	117.12
361.843	98.12
362.07	109.12
362.296	106.12
362.523	101.12
362.749	99.12
362.976	96.12
363.203	109.12
363.429	95.12
363.656	110.12
363.882	112.12
364.109	88.12
364.335	107.12
364.562	101.12
364.788	104.12
365.015	112.12
365.241	121.12
365.468	127.12
365.694	111.12
365.92	116.12
366.147	98.12
366.373	96.12
366.599	98.12
366.826	112.12
367.052	108.12
367.278	96.12
367.505	93.12
367.731	105.12
367.957	89.12
368.184	97.12
368.41	121.12
368.636	140.12
368.862	140.12
369.089	124.12
369.315	99.12
369.541	102.12
369.767	96.12
369.993	87.12
370.219	92.12
370.445	85.12
370.672	97.12
370.898	84.12
371.124	93.12
371.35	93.12
371.576	76.12
371.802	94.12
372.028	93.12
372.254	92.12
372.48	93.12
372.706	105.12
372.932	77.12
373.158	100.12
373.384	96.12
373.61	94.12
373.835	95.12
374.061	92.12
374.287	101.12
374.513	96.12
374.739	97.12
374.965	93.12
375.191	100.12
375.416	89.12
375.642	91.12
375.868	93.12
376.094	100.12
376.319	97.12
376.545	87.12
376.771	92.12
376.997	92.12
377.222	83.12
377.448	89.12
377.674	97.12
377.899	92.12
378.125	94.12
378.35	94.12
378.576	105.12
378.802	115.12
379.027	93.12
379.253	89.12
379.478	106.12
379.704	92.12
379.929	103.12
380.155	95.12
380.38	108.12
380.606	102.12
380.831	90.12
381.057	91.12
381.282	93.12
381.507	104.12
381.733	118.12
381.958	114.12
382.184	103.12
382.409	103.12
382.634	105.12
382.86	106.12
383.085	118.12
383.31	111.12
383.535	110.12
383.761	109.12
383.986	105.12
384.211	116.12
384.436	104.12
384.662	112.12
384.887	124.12
385.112	105.12
385.337	122.12
385.562	120.12
385.787	114.12
386.013	125.12
386.238	142.12
386.463	113.12
386.688	116.12
386.913	124.12
387.138	112.12
387.363	129.12
387.588	113.12
387.813	112.12
388.038	108.12
388.263	126.12
388.488	117.12
388.713	103.12
388.938	83.12
389.163	101.12
389.387	98.12
389.612	110.12
389.837	106.12
390.062	88.12
390.287	107.12
390.512	101.12
390.736	100.12
390.961	91.12
391.186	99.12
391.411	90.12
391.636	97.12
391.86	88.12
392.085	91.12
392.31	89.12
392.534	71.12
392.759	102.12
392.984	96.12
393.208	83.12
393.433	92.12
393.658	107.12
393.882	93.12
394.107	74.12
394.331	93.12
394.556	93.12
394.78	89.12
395.005	97.12
395.229	90.12
395.454	79.12
395.678	80.12
395.903	78.12
396.127	92.12
396.352	85.12
396.576	80.12
396.801	91.12
397.025	104.12
397.249	92.12
397.474	95.12
397.698	97.12
397.922	109.12
398.147	85.12
398.371	89.12
398.595	94.12
398.82	86.12
399.044	97.12
399.268	91.12
399.492	94.12
399.717	90.12
399.941	102.12
400.165	94.12
400.389	98.12
400.613	93.12
400.837	104.12
401.062	94.12
401.286	108.12
401.51	101.12
401.734	108.12
401.958	112.12
402.182	161.12
402.406	217.12
402.63	157.12
402.854	108.12
403.078	83.12
403.302	107.12
403.526	93.12
403.75	85.12
403.974	106.12
404.198	92.12
404.422	92.12
404.645	98.12
404.869	96.12
405.093	113.12
405.317	135.12
405.541	139.12
405.765	109.12
405.988	153.12
406.212	226.12
406.436	352.12
406.66	205.12
406.883	124.12
407.107	112.12
407.331	122.12
407.555	118.12
407.778	104.12
408.002	89.12
408.226	105.12
408.449	96.12
408.673	96.12
408.896	104.12
409.12	108.12
409.344	90.12
409.567	83.12
409.791	96.12
410.014	102.12
410.238	97.12
410.461	97.12
410.685	104.12
410.908	103.12
411.132	96.12
411.355	108.12
411.578	104.12
411.802	96.12
412.025	95.12
412.249	100.12
412.472	112.12
412.695	139.12
412.919	110.12
413.142	93.12
413.365	98.12
413.589	83.12
413.812	89.12
414.035	107.12
414.258	90.12
414.482	97.12
414.705	106.12
414.928	91.12
415.151	112.12
415.374	97.12
415.597	95.12
415.821	92.12
416.044	97.12
416.267	94.12
416.49	95.12
416.713	95.12
416.936	90.12
417.159	91.12
417.382	95.12
417.605	116.12
417.828	122.12
418.051	104.12
418.274	103.12
418.497	82.12
418.72	95.12
418.943	84.12
419.166	97.12
419.389	107.12
419.611	102.12
419.834	93.12
420.057	109.12
420.28	101.12
420.503	109.12
420.726	99.12
420.948	87.12
421.171	104.12
421.394	91.12
421.617	98.12
421.839	88.12
422.062	104.12
422.285	99.12
422.507	115.12
422.73	110.12
422.953	99.12
423.175	104.12
423.398	91.12
423.621	111.12
423.843	89.12
424.066	85.12
424.288	94.12
424.511	101.12
424.733	101.12
424.956	115.12
425.178	107.12
425.401	98.12
425.623	105.12
425.846	101.12
426.068	109.12
426.291	99.12
426.513	97.12
426.735	107.12
426.958	95.12
427.18	133.12
427.402	177.12
427.625	250.12
427.847	224.12
428.069	177.12
428.292	125.12
428.514	94.12
428.736	94.12
428.958	100.12
429.181	98.12
429.403	99.12
429.625	99.12
429.847	115.12
430.069	105.12
430.292	95.12
430.514	80.12
430.736	96.12
430.958	84.12
431.18	81.12
431.402	79.12
431.624	84.12
431.846	95.12
432.068	99.12
432.29	84.12
432.512	92.12
432.734	92.12
432.956	98.12
433.178	95.12
433.4	101.12
433.622	101.12
433.844	104.12
434.066	95.12
434.287	107.12
434.509	101.12
434.731	95.12
434.953	93.12
435.175	95.12
435.397	92.12
435.618	103.12
435.84	108.12
436.062	135.12
436.284	117.12
436.505	100.12
436.727	102.12
436.949	100.12
437.17	94.12
437.392	75.12
437.614	108.12
437.835	126.12
438.057	154.12
438.278	124.12
438.5	107.12
438.721	135.12
438.943	113.12
439.165	107.12
439.386	90.12
439.608	83.12
439.829	107.12
440.05	157.12
440.272	175.12
440.493	107.12
440.715	94.12
440.936	104.12
441.158	108.12
441.379	100.12
441.6	97.12
441.822	100.12
442.043	116.12
442.264	128.12
442.486	113.12
442.707	92.12
442.928	125.12
443.149	164.12
443.371	181.12
443.592	139.12
443.813	128.12
444.034	128.12
444.255	100.12
444.476	76.12
444.698	103.12
444.919	106.12
445.14	130.12
445.361	123.12
445.582	151.12
445.803	171.12
446.024	181.12
446.245	153.12
446.466	116.12
446.687	114.12
446.908	90.12
447.129	97.12
447.35	97.12
447.571	109.12
447.792	107.12
448.013	110.12
448.234	127.12
448.455	114.12
448.675	130.12
448.896	129.12
449.117	110.12
449.338	115.12
449.559	140.12
449.779	160.12
450	104.12
450.221	100.12
450.442	73.12
450.662	108.12
450.883	120.12
451.104	140.12
451.324	116.12
451.545	99.12
451.766	79.12
451.986	80.12
452.207	85.12
452.428	109.12
452.648	120.12
452.869	122.12
453.089	124.12
453.31	144.12
453.53	90.12
453.751	97.12
453.971	125.12
454.192	155.12
454.412	110.12
454.633	103.12
454.853	83.12
455.073	94.12
455.294	86.12
455.514	123.12
455.734	99.12
455.955	75.12
456.175	101.12
456.395	91.12
456.616	100.12
456.836	94.12
457.056	84.12
457.276	92.12
457.497	88.12
457.717	105.12
457.937	96.12
458.157	93.12
458.377	112.12
458.598	133.12
458.818	234.12
459.038	246.12
459.258	157.12
459.478	100.12
459.698	101.12
459.918	84.12
460.138	95.12
460.358	79.12
460.578	92.12
460.798	87.12
461.018	84.12
461.238	84.12
461.458	91.12
461.678	99.12
461.898	89.12
462.118	96.12
462.338	84.12
462.558	77.12
462.777	102.12
462.997	93.12
463.217	103.12
463.437	97.12
463.657	89.12
463.876	83.12
464.096	115.12
464.316	98.12
464.536	108.12
464.755	111.12
464.975	134.12
465.195	240.12
465.414	256.12
465.634	118.12
465.854	103.12
466.073	84.12
466.293	115.12
466.512	96.12
466.732	91.12
466.951	106.12
467.171	103.12
467.391	104.12
467.61	172.12
467.829	209.12
468.049	509.12
468.268	734.12
468.488	212.12
468.707	111.12
468.927	95.12
469.146	98.12
469.365	88.12
469.585	105.12
469.804	106.12
470.023	109.12
470.243	104.12
470.462	131.12
470.681	155.12
470.901	102.12
471.12	103.12
471.339	128.12
471.558	114.12
471.777	153.12
471.997	271.12
472.216	1004.12
472.435	2207.12
472.654	532.12
472.873	154.12
473.092	118.12
473.311	105.12
473.53	97.12
473.749	95.12
473.968	123.12
474.187	127.12
474.406	111.12
474.625	101.12
474.844	93.12
475.063	99.12
475.282	90.12
475.501	84.12
475.72	96.12
475.939	86.12
476.158	97.12
476.377	79.12
476.596	91.12
476.814	118.12
477.033	103.12
477.252	107.12
477.471	105.12
477.69	88.12
477.908	103.12
478.127	103.12
478.346	96.12
478.564	106.12
478.783	124.12
479.002	119.12
479.22	108.12
479.439	138.12
479.658	131.12
479.876	137.12
480.095	129.12
480.313	141.12
480.532	174.12
480.751	263.12
480.969	914.12
481.188	3833.12
481.406	2123.12
481.624	333.12
481.843	137.12
482.061	120.12
482.28	93.12
482.498	94.12
482.717	111.12
482.935	83.12
483.153	99.12
483.372	101.12
483.59	88.12
483.808	89.12
484.027	109.12
484.245	101.12
484.463	99.12
484.681	109.12
484.9	115.12
485.118	106.12
485.336	105.12
485.554	95.12
485.772	116.12
485.99	107.12
486.209	117.12
486.427	118.12
486.645	118.12
486.863	131.12
487.081	114.12
487.299	99.12
487.517	107.12
487.735	94.12
487.953	81.12
488.171	107.12
488.389	95.12
488.607	112.12
488.825	112.12
489.043	105.12
489.261	91.12
489.479	97.12
489.696	79.12
489.914	97.12
490.132	83.12
490.35	90.12
490.568	96.12
490.786	101.12
491.003	108.12
491.221	99.12
491.439	99.12
491.657	107.12
491.874	100.12
492.092	83.12
492.31	98.12
492.527	102.12
492.745	96.12
492.963	100.12
493.18	95.12
493.398	105.12
493.615	112.12
493.833	103.12
494.05	101.12
494.268	100.12
494.485	80.12
494.703	88.12
494.92	98.12
495.138	94.12
495.355	106.12
495.573	103.12
495.79	99.12
496.008	97.12
496.225	97.12
496.442	93.12
496.66	111.12
496.877	105.12
497.094	96.12
497.312	88.12
497.529	100.12
497.746	103.12
497.963	99.12
498.181	101.12
498.398	108.12
498.615	112.12
498.832	123.12
499.049	112.12
499.267	93.12
499.484	105.12
499.701	93.12
499.918	90.12
500.135	95.12
500.352	79.12
500.569	92.12
500.786	87.12
501.003	100.12
501.22	91.12
501.437	97.12
501.654	112.12
501.871	135.12
502.088	101.12
502.305	106.12
502.522	96.12
502.739	84.12
502.956	106.12
503.172	90.12
503.389	104.12
503.606	139.12
503.823	115.12
504.04	111.12
504.256	99.12
504.473	105.12
504.69	77.12
504.907	103.12
505.123	98.12
505.34	99.12
505.557	89.12
505.773	84.12
505.99	96.12
506.207	96.12
506.423	94.12
506.64	96.12
506.856	109.12
507.073	108.12
507.289	111.12
507.506	105.12
507.722	131.12
507.939	136.12
508.155	103.12
508.372	107.12
508.588	106.12
508.805	101.12
509.021	117.12
509.238	97.12
509.454	117.12
509.67	113.12
509.887	124.12
510.103	159.12
510.319	289.12
510.536	1130.12
510.752	3915.12
