Data from Circ_1999_H10_HRD10591_00052.txt Node
Date: Wed Jan 03 11:23:23 EST 2024
User: Yrep
Spectrometer: HR+D1059
Trigger mode: 1
Integration Time (sec): 1.000000E-1
Scans to average: 1
Electric dark correction enabled: true
Nonlinearity correction enabled: false
Boxcar width: 0
XAxis mode: Wavelengths
Number of Pixels in Spectrum: 2048
>>>>>Begin Spectral Data<<<<<
223.165	-17.12
223.4	-17.12
223.635	-17.12
223.869	-19.12
224.104	-19.12
224.338	-19.12
224.573	-2.12
224.808	-15.12
225.042	-16.12
225.277	-14.12
225.511	-8.12
225.746	13.88
225.98	4.88
226.215	8.88
226.449	17.88
226.683	26.88
226.918	19.88
227.152	37.88
227.387	49.88
227.621	37.88
227.856	49.88
228.09	37.88
228.324	51.88
228.559	57.88
228.793	67.88
229.027	70.88
229.262	64.88
229.496	74.88
229.73	110.88
229.964	97.88
230.199	84.88
230.433	70.88
230.667	80.88
230.901	84.88
231.136	82.88
231.37	86.88
231.604	80.88
231.838	78.88
232.072	85.88
232.306	92.88
232.541	77.88
232.775	79.88
233.009	79.88
233.243	76.88
233.477	80.88
233.711	87.88
233.945	87.88
234.179	64.88
234.413	84.88
234.647	78.88
234.881	95.88
235.115	66.88
235.349	83.88
235.583	76.88
235.817	74.88
236.051	77.88
236.285	97.88
236.519	91.88
236.753	69.88
236.987	74.88
237.221	88.88
237.455	81.88
237.689	76.88
237.922	72.88
238.156	62.88
238.39	69.88
238.624	84.88
238.858	83.88
239.091	79.88
239.325	83.88
239.559	91.88
239.793	74.88
240.027	79.88
240.26	89.88
240.494	95.88
240.728	61.88
240.961	81.88
241.195	63.88
241.429	62.88
241.662	85.88
241.896	82.88
242.13	66.88
242.363	81.88
242.597	88.88
242.83	84.88
243.064	81.88
243.298	77.88
243.531	67.88
243.765	86.88
243.998	83.88
244.232	92.88
244.465	88.88
244.699	85.88
244.932	72.88
245.166	85.88
245.399	76.88
245.633	71.88
245.866	72.88
246.099	81.88
246.333	81.88
246.566	96.88
246.8	93.88
247.033	79.88
247.266	73.88
247.5	77.88
247.733	89.88
247.966	80.88
248.2	78.88
248.433	79.88
248.666	78.88
248.899	67.88
249.133	81.88
249.366	119.88
249.599	104.88
249.832	81.88
250.066	81.88
250.299	89.88
250.532	71.88
250.765	85.88
250.998	69.88
251.231	71.88
251.465	85.88
251.698	69.88
251.931	88.88
252.164	80.88
252.397	76.88
252.63	77.88
252.863	86.88
253.096	85.88
253.329	87.88
253.562	92.88
253.795	85.88
254.028	70.88
254.261	81.88
254.494	81.88
254.727	91.88
254.96	80.88
255.193	90.88
255.426	75.88
255.659	87.88
255.892	84.88
256.124	99.88
256.357	74.88
256.59	74.88
256.823	76.88
257.056	96.88
257.289	90.88
257.521	87.88
257.754	85.88
257.987	80.88
258.22	93.88
258.452	96.88
258.685	94.88
258.918	88.88
259.151	85.88
259.383	87.88
259.616	70.88
259.849	85.88
260.081	83.88
260.314	91.88
260.547	95.88
260.779	95.88
261.012	93.88
261.244	129.88
261.477	106.88
261.71	112.88
261.942	144.88
262.175	158.88
262.407	104.88
262.64	87.88
262.872	87.88
263.105	83.88
263.337	77.88
263.57	85.88
263.802	90.88
264.035	77.88
264.267	77.88
264.499	93.88
264.732	102.88
264.964	92.88
265.197	94.88
265.429	87.88
265.661	86.88
265.894	95.88
266.126	83.88
266.358	70.88
266.591	86.88
266.823	76.88
267.055	71.88
267.287	82.88
267.52	77.88
267.752	88.88
267.984	95.88
268.216	81.88
268.448	92.88
268.681	91.88
268.913	82.88
269.145	84.88
269.377	89.88
269.609	85.88
269.841	88.88
270.073	72.88
270.306	90.88
270.538	79.88
270.77	88.88
271.002	79.88
271.234	93.88
271.466	91.88
271.698	94.88
271.93	92.88
272.162	99.88
272.394	105.88
272.626	107.88
272.858	85.88
273.09	87.88
273.322	74.88
273.553	97.88
273.785	79.88
274.017	76.88
274.249	99.88
274.481	88.88
274.713	94.88
274.945	88.88
275.176	108.88
275.408	101.88
275.64	118.88
275.872	135.88
276.104	110.88
276.335	102.88
276.567	128.88
276.799	148.88
277.031	195.88
277.262	234.88
277.494	161.88
277.726	114.88
277.957	95.88
278.189	92.88
278.421	87.88
278.652	90.88
278.884	91.88
279.115	80.88
279.347	89.88
279.579	93.88
279.81	151.88
280.042	203.88
280.273	286.88
280.505	203.88
280.736	113.88
280.968	101.88
281.199	90.88
281.431	81.88
281.662	101.88
281.894	97.88
282.125	117.88
282.356	147.88
282.588	199.88
282.819	158.88
283.051	95.88
283.282	84.88
283.513	89.88
283.745	84.88
283.976	86.88
284.207	81.88
284.439	90.88
284.67	88.88
284.901	84.88
285.132	83.88
285.364	79.88
285.595	102.88
285.826	89.88
286.057	82.88
286.288	84.88
286.52	90.88
286.751	92.88
286.982	88.88
287.213	88.88
287.444	85.88
287.675	94.88
287.906	95.88
288.138	85.88
288.369	109.88
288.6	111.88
288.831	96.88
289.062	91.88
289.293	94.88
289.524	89.88
289.755	95.88
289.986	84.88
290.217	83.88
290.448	74.88
290.679	86.88
290.91	84.88
291.141	90.88
291.371	97.88
291.602	95.88
291.833	97.88
292.064	99.88
292.295	85.88
292.526	92.88
292.757	108.88
292.987	93.88
293.218	93.88
293.449	81.88
293.68	75.88
293.91	104.88
294.141	84.88
294.372	94.88
294.603	99.88
294.833	91.88
295.064	91.88
295.295	83.88
295.525	105.88
295.756	121.88
295.987	155.88
296.217	180.88
296.448	169.88
296.679	87.88
296.909	101.88
297.14	84.88
297.37	95.88
297.601	72.88
297.831	100.88
298.062	97.88
298.292	107.88
298.523	94.88
298.753	84.88
298.984	83.88
299.214	97.88
299.445	93.88
299.675	105.88
299.905	97.88
300.136	93.88
300.366	74.88
300.597	104.88
300.827	86.88
301.057	125.88
301.288	116.88
301.518	99.88
301.748	103.88
301.979	120.88
302.209	116.88
302.439	98.88
302.669	97.88
302.9	101.88
303.13	94.88
303.36	107.88
303.59	133.88
303.82	159.88
304.051	113.88
304.281	100.88
304.511	90.88
304.741	83.88
304.971	86.88
305.201	75.88
305.431	85.88
305.661	87.88
305.891	102.88
306.121	113.88
306.352	114.88
306.582	125.88
306.812	111.88
307.042	133.88
307.272	176.88
307.502	203.88
307.731	179.88
307.961	147.88
308.191	92.88
308.421	87.88
308.651	86.88
308.881	89.88
309.111	99.88
309.341	108.88
309.571	109.88
309.8	114.88
310.03	112.88
310.26	118.88
310.49	103.88
310.72	100.88
310.949	127.88
311.179	115.88
311.409	100.88
311.639	118.88
311.868	115.88
312.098	112.88
312.328	102.88
312.557	116.88
312.787	147.88
313.017	111.88
313.246	105.88
313.476	86.88
313.706	91.88
313.935	96.88
314.165	118.88
314.394	108.88
314.624	120.88
314.853	112.88
315.083	91.88
315.312	97.88
315.542	98.88
315.771	99.88
316.001	83.88
316.23	90.88
316.46	88.88
316.689	103.88
316.919	92.88
317.148	109.88
317.377	106.88
317.607	97.88
317.836	97.88
318.065	101.88
318.295	104.88
318.524	95.88
318.753	87.88
318.983	101.88
319.212	111.88
319.441	120.88
319.67	121.88
319.9	92.88
320.129	95.88
320.358	108.88
320.587	111.88
320.816	111.88
321.046	113.88
321.275	120.88
321.504	99.88
321.733	91.88
321.962	107.88
322.191	94.88
322.42	120.88
322.649	142.88
322.878	137.88
323.108	126.88
323.337	158.88
323.566	175.88
323.795	184.88
324.024	245.88
324.253	528.88
324.482	1086.88
324.71	2176.88
324.939	2767.88
325.168	1039.88
325.397	306.88
325.626	191.88
325.855	165.88
326.084	146.88
326.313	158.88
326.542	169.88
326.77	274.88
326.999	564.88
327.228	1075.88
327.457	1943.88
327.686	1587.88
327.914	628.88
328.143	635.88
328.372	785.88
328.6	470.88
328.829	222.88
329.058	232.88
329.287	222.88
329.515	211.88
329.744	304.88
329.972	587.88
330.201	1209.88
330.43	1721.88
330.658	764.88
330.887	348.88
331.115	211.88
331.344	135.88
331.572	136.88
331.801	142.88
332.03	124.88
332.258	129.88
332.486	107.88
332.715	120.88
332.943	126.88
333.172	128.88
333.4	144.88
333.629	184.88
333.857	253.88
334.085	501.88
334.314	1120.88
334.542	2203.88
334.771	2005.88
334.999	513.88
335.227	207.88
335.455	145.88
335.684	120.88
335.912	110.88
336.14	112.88
336.369	122.88
336.597	126.88
336.825	131.88
337.053	106.88
337.281	104.88
337.51	108.88
337.738	112.88
337.966	120.88
338.194	112.88
338.422	111.88
338.65	97.88
338.878	92.88
339.106	88.88
339.334	96.88
339.562	97.88
339.79	104.88
340.018	88.88
340.246	101.88
340.474	115.88
340.702	96.88
340.93	101.88
341.158	102.88
341.386	102.88
341.614	113.88
341.842	102.88
342.07	93.88
342.298	81.88
342.526	87.88
342.754	103.88
342.981	92.88
343.209	96.88
343.437	100.88
343.665	81.88
343.893	97.88
344.12	103.88
344.348	98.88
344.576	97.88
344.804	98.88
345.031	117.88
345.259	115.88
345.487	104.88
345.714	116.88
345.942	102.88
346.17	100.88
346.397	90.88
346.625	106.88
346.853	104.88
347.08	106.88
347.308	103.88
347.535	120.88
347.763	113.88
347.99	113.88
348.218	110.88
348.445	132.88
348.673	116.88
348.9	105.88
349.128	107.88
349.355	110.88
349.583	96.88
349.81	95.88
350.037	95.88
350.265	95.88
350.492	91.88
350.72	105.88
350.947	109.88
351.174	110.88
351.402	133.88
351.629	105.88
351.856	111.88
352.083	121.88
352.311	116.88
352.538	154.88
352.765	139.88
352.992	145.88
353.22	121.88
353.447	110.88
353.674	95.88
353.901	90.88
354.128	85.88
354.355	97.88
354.583	103.88
354.81	104.88
355.037	91.88
355.264	92.88
355.491	91.88
355.718	85.88
355.945	94.88
356.172	98.88
356.399	91.88
356.626	96.88
356.853	94.88
357.08	101.88
357.307	85.88
357.534	88.88
357.761	90.88
357.988	94.88
358.215	105.88
358.441	104.88
358.668	100.88
358.895	99.88
359.122	89.88
359.349	98.88
359.576	100.88
359.802	134.88
360.029	163.88
360.256	163.88
360.483	128.88
360.709	96.88
360.936	102.88
361.163	96.88
361.39	121.88
361.616	117.88
361.843	102.88
362.07	109.88
362.296	120.88
362.523	95.88
362.749	108.88
362.976	86.88
363.203	92.88
363.429	89.88
363.656	94.88
363.882	90.88
364.109	87.88
364.335	91.88
364.562	102.88
364.788	96.88
365.015	102.88
365.241	117.88
365.468	140.88
365.694	135.88
365.92	106.88
366.147	113.88
366.373	95.88
366.599	103.88
366.826	103.88
367.052	95.88
367.278	115.88
367.505	83.88
367.731	92.88
367.957	112.88
368.184	113.88
368.41	134.88
368.636	151.88
368.862	135.88
369.089	128.88
369.315	115.88
369.541	98.88
369.767	103.88
369.993	106.88
370.219	109.88
370.445	88.88
370.672	96.88
370.898	102.88
371.124	88.88
371.35	93.88
371.576	91.88
371.802	78.88
372.028	93.88
372.254	95.88
372.48	83.88
372.706	97.88
372.932	78.88
373.158	89.88
373.384	113.88
373.61	96.88
373.835	97.88
374.061	106.88
374.287	119.88
374.513	92.88
374.739	90.88
374.965	97.88
375.191	85.88
375.416	84.88
375.642	93.88
375.868	85.88
376.094	105.88
376.319	91.88
376.545	96.88
376.771	83.88
376.997	84.88
377.222	85.88
377.448	83.88
377.674	94.88
377.899	104.88
378.125	83.88
378.35	87.88
378.576	79.88
378.802	91.88
379.027	92.88
379.253	91.88
379.478	92.88
379.704	104.88
379.929	85.88
380.155	100.88
380.38	99.88
380.606	90.88
380.831	99.88
381.057	91.88
381.282	92.88
381.507	107.88
381.733	92.88
381.958	96.88
382.184	98.88
382.409	96.88
382.634	98.88
382.86	87.88
383.085	101.88
383.31	81.88
383.535	111.88
383.761	111.88
383.986	91.88
384.211	95.88
384.436	103.88
384.662	95.88
384.887	103.88
385.112	112.88
385.337	103.88
385.562	116.88
385.787	96.88
386.013	129.88
386.238	147.88
386.463	120.88
386.688	105.88
386.913	90.88
387.138	104.88
387.363	111.88
387.588	124.88
387.813	115.88
388.038	107.88
388.263	116.88
388.488	122.88
388.713	104.88
388.938	96.88
389.163	88.88
389.387	94.88
389.612	96.88
389.837	87.88
390.062	90.88
390.287	95.88
390.512	84.88
390.736	89.88
390.961	98.88
391.186	106.88
391.411	90.88
391.636	79.88
391.86	97.88
392.085	89.88
392.31	80.88
392.534	97.88
392.759	82.88
392.984	88.88
393.208	77.88
393.433	89.88
393.658	99.88
393.882	94.88
394.107	98.88
394.331	85.88
394.556	93.88
394.78	91.88
395.005	92.88
395.229	69.88
395.454	74.88
395.678	92.88
395.903	83.88
396.127	91.88
396.352	103.88
396.576	88.88
396.801	96.88
397.025	79.88
397.249	84.88
397.474	83.88
397.698	90.88
397.922	96.88
398.147	85.88
398.371	92.88
398.595	91.88
398.82	87.88
399.044	92.88
399.268	81.88
399.492	97.88
399.717	102.88
399.941	87.88
400.165	93.88
400.389	96.88
400.613	97.88
400.837	115.88
401.062	92.88
401.286	99.88
401.51	88.88
401.734	114.88
401.958	116.88
402.182	171.88
402.406	251.88
402.63	159.88
402.854	121.88
403.078	95.88
403.302	88.88
403.526	90.88
403.75	94.88
403.974	85.88
404.198	85.88
404.422	86.88
404.645	97.88
404.869	110.88
405.093	127.88
405.317	149.88
405.541	160.88
405.765	123.88
405.988	158.88
406.212	273.88
406.436	420.88
406.66	249.88
406.883	150.88
407.107	131.88
407.331	113.88
407.555	118.88
407.778	108.88
408.002	96.88
408.226	114.88
408.449	102.88
408.673	94.88
408.896	107.88
409.12	97.88
409.344	90.88
409.567	95.88
409.791	89.88
410.014	101.88
410.238	89.88
410.461	106.88
410.685	95.88
410.908	92.88
411.132	108.88
411.355	99.88
411.578	88.88
411.802	94.88
412.025	101.88
412.249	105.88
412.472	128.88
412.695	129.88
412.919	104.88
413.142	89.88
413.365	92.88
413.589	100.88
413.812	88.88
414.035	82.88
414.258	94.88
414.482	88.88
414.705	92.88
414.928	85.88
415.151	97.88
415.374	81.88
415.597	102.88
415.821	93.88
416.044	97.88
416.267	86.88
416.49	84.88
416.713	84.88
416.936	76.88
417.159	80.88
417.382	83.88
417.605	99.88
417.828	123.88
418.051	104.88
418.274	83.88
418.497	89.88
418.72	74.88
418.943	89.88
419.166	85.88
419.389	93.88
419.611	90.88
419.834	99.88
420.057	93.88
420.28	109.88
420.503	102.88
420.726	91.88
420.948	100.88
421.171	117.88
421.394	102.88
421.617	103.88
421.839	88.88
422.062	103.88
422.285	101.88
422.507	98.88
422.73	104.88
422.953	99.88
423.175	89.88
423.398	83.88
423.621	97.88
423.843	97.88
424.066	99.88
424.288	97.88
424.511	96.88
424.733	113.88
424.956	118.88
425.178	109.88
425.401	113.88
425.623	97.88
425.846	108.88
426.068	106.88
426.291	86.88
426.513	106.88
426.735	115.88
426.958	106.88
427.18	117.88
427.402	190.88
427.625	294.88
427.847	256.88
428.069	215.88
428.292	129.88
428.514	103.88
428.736	89.88
428.958	73.88
429.181	87.88
429.403	91.88
429.625	92.88
429.847	96.88
430.069	122.88
430.292	96.88
430.514	96.88
430.736	89.88
430.958	82.88
431.18	110.88
431.402	96.88
431.624	83.88
431.846	87.88
432.068	95.88
432.29	88.88
432.512	90.88
432.734	86.88
432.956	93.88
433.178	93.88
433.4	108.88
433.622	91.88
433.844	93.88
434.066	98.88
434.287	102.88
434.509	79.88
434.731	101.88
434.953	98.88
435.175	87.88
435.397	111.88
435.618	106.88
435.84	108.88
436.062	133.88
436.284	126.88
436.505	112.88
436.727	107.88
436.949	92.88
437.17	89.88
437.392	99.88
437.614	109.88
437.835	129.88
438.057	169.88
438.278	136.88
438.5	115.88
438.721	137.88
438.943	115.88
439.165	89.88
439.386	94.88
439.608	95.88
439.829	106.88
440.05	162.88
440.272	182.88
440.493	110.88
440.715	96.88
440.936	102.88
441.158	101.88
441.379	106.88
441.6	98.88
441.822	112.88
442.043	108.88
442.264	119.88
442.486	118.88
442.707	102.88
442.928	137.88
443.149	182.88
443.371	180.88
443.592	131.88
443.813	145.88
444.034	129.88
444.255	86.88
444.476	84.88
444.698	101.88
444.919	98.88
445.14	129.88
445.361	122.88
445.582	132.88
445.803	184.88
446.024	172.88
446.245	172.88
446.466	114.88
446.687	89.88
446.908	104.88
447.129	100.88
447.35	99.88
447.571	109.88
447.792	94.88
448.013	112.88
448.234	139.88
448.455	116.88
448.675	133.88
448.896	133.88
449.117	121.88
449.338	113.88
449.559	147.88
449.779	161.88
450	102.88
450.221	96.88
450.442	99.88
450.662	112.88
450.883	141.88
451.104	172.88
451.324	104.88
451.545	96.88
451.766	91.88
451.986	94.88
452.207	102.88
452.428	112.88
452.648	119.88
452.869	136.88
453.089	151.88
453.31	167.88
453.53	105.88
453.751	109.88
453.971	143.88
454.192	171.88
454.412	113.88
454.633	89.88
454.853	94.88
455.073	94.88
455.294	111.88
455.514	111.88
455.734	92.88
455.955	90.88
456.175	84.88
456.395	88.88
456.616	88.88
456.836	95.88
457.056	90.88
457.276	95.88
457.497	93.88
457.717	78.88
457.937	85.88
458.157	85.88
458.377	116.88
458.598	139.88
458.818	247.88
459.038	275.88
459.258	171.88
459.478	113.88
459.698	85.88
459.918	96.88
460.138	84.88
460.358	84.88
460.578	96.88
460.798	95.88
461.018	102.88
461.238	93.88
461.458	91.88
461.678	93.88
461.898	105.88
462.118	87.88
462.338	110.88
462.558	97.88
462.777	97.88
462.997	102.88
463.217	113.88
463.437	113.88
463.657	88.88
463.876	97.88
464.096	96.88
464.316	108.88
464.536	100.88
464.755	97.88
464.975	133.88
465.195	279.88
465.414	293.88
465.634	111.88
465.854	107.88
466.073	98.88
466.293	93.88
466.512	99.88
466.732	89.88
466.951	93.88
467.171	102.88
467.391	120.88
467.61	184.88
467.829	249.88
468.049	715.88
468.268	1074.88
468.488	269.88
468.707	102.88
468.927	89.88
469.146	97.88
469.365	106.88
469.585	96.88
469.804	126.88
470.023	133.88
470.243	112.88
470.462	127.88
470.681	157.88
470.901	109.88
471.12	113.88
471.339	116.88
471.558	141.88
471.777	179.88
471.997	341.88
472.216	1411.88
472.435	3103.88
472.654	711.88
472.873	193.88
473.092	115.88
473.311	88.88
473.53	88.88
473.749	104.88
473.968	101.88
474.187	127.88
474.406	131.88
474.625	109.88
474.844	93.88
475.063	97.88
475.282	100.88
475.501	108.88
475.72	89.88
475.939	88.88
476.158	91.88
476.377	96.88
476.596	97.88
476.814	107.88
477.033	117.88
477.252	85.88
477.471	74.88
477.69	89.88
477.908	92.88
478.127	82.88
478.346	93.88
478.564	107.88
478.783	103.88
479.002	114.88
479.22	125.88
479.439	133.88
479.658	153.88
479.876	136.88
480.095	141.88
480.313	156.88
480.532	174.88
480.751	364.88
480.969	1281.88
481.188	5445.88
481.406	2965.88
481.624	437.88
481.843	143.88
482.061	125.88
482.28	109.88
482.498	106.88
482.717	106.88
482.935	111.88
483.153	102.88
483.372	87.88
483.59	93.88
483.808	95.88
484.027	86.88
484.245	96.88
484.463	98.88
484.681	97.88
484.9	93.88
485.118	105.88
485.336	97.88
485.554	109.88
485.772	96.88
485.99	109.88
486.209	103.88
486.427	121.88
486.645	131.88
486.863	124.88
487.081	107.88
487.299	96.88
487.517	101.88
487.735	83.88
487.953	91.88
488.171	96.88
488.389	106.88
488.607	108.88
488.825	119.88
489.043	104.88
489.261	91.88
489.479	94.88
489.696	76.88
489.914	93.88
490.132	95.88
490.35	98.88
490.568	106.88
490.786	96.88
491.003	85.88
491.221	85.88
491.439	92.88
491.657	94.88
491.874	97.88
492.092	96.88
492.31	94.88
492.527	99.88
492.745	101.88
492.963	89.88
493.18	93.88
493.398	88.88
493.615	104.88
493.833	85.88
494.05	85.88
494.268	95.88
494.485	87.88
494.703	100.88
494.92	88.88
495.138	97.88
495.355	93.88
495.573	91.88
495.79	89.88
496.008	79.88
496.225	91.88
496.442	79.88
496.66	93.88
496.877	94.88
497.094	94.88
497.312	93.88
497.529	98.88
497.746	102.88
497.963	93.88
498.181	93.88
498.398	102.88
498.615	131.88
498.832	114.88
499.049	105.88
499.267	83.88
499.484	85.88
499.701	92.88
499.918	88.88
500.135	84.88
500.352	81.88
500.569	102.88
500.786	111.88
501.003	93.88
501.22	77.88
501.437	86.88
501.654	101.88
501.871	136.88
502.088	102.88
502.305	101.88
502.522	97.88
502.739	102.88
502.956	100.88
503.172	102.88
503.389	112.88
503.606	129.88
503.823	102.88
504.04	102.88
504.256	105.88
504.473	102.88
504.69	98.88
504.907	101.88
505.123	93.88
505.34	89.88
505.557	92.88
505.773	93.88
505.99	101.88
506.207	88.88
506.423	87.88
506.64	93.88
506.856	95.88
507.073	88.88
507.289	109.88
507.506	104.88
507.722	147.88
507.939	160.88
508.155	103.88
508.372	102.88
508.588	92.88
508.805	104.88
509.021	94.88
509.238	95.88
509.454	113.88
509.67	122.88
509.887	137.88
510.103	161.88
510.319	293.88
510.536	1223.88
510.752	4505.88
510.968	1135.88
511.184	224.88
511.401	134.88
511.617	111.88
511.833	97.88
