Data from Circ_1999_H10_HRD10591_00048.txt Node
Date: Wed Jan 03 11:23:22 EST 2024
User: Yrep
Spectrometer: HR+D1059
Trigger mode: 1
Integration Time (sec): 1.000000E-1
Scans to average: 1
Electric dark correction enabled: true
Nonlinearity correction enabled: false
Boxcar width: 0
XAxis mode: Wavelengths
Number of Pixels in Spectrum: 2048
>>>>>Begin Spectral Data<<<<<
223.165	-20.38
223.4	-20.38
223.635	-20.38
223.869	-15.38
224.104	-2.38
224.338	-7.38
224.573	-21.38
224.808	-17.38
225.042	-6.38
225.277	-15.38
225.511	-7.38
225.746	2.62
225.98	13.62
226.215	18.62
226.449	16.62
226.683	19.62
226.918	7.62
227.152	34.62
227.387	27.62
227.621	29.62
227.856	44.62
228.09	52.62
228.324	36.62
228.559	57.62
228.793	58.62
229.027	67.62
229.262	66.62
229.496	78.62
229.73	112.62
229.964	93.62
230.199	74.62
230.433	79.62
230.667	74.62
230.901	73.62
231.136	87.62
231.37	90.62
231.604	79.62
231.838	76.62
232.072	90.62
232.306	76.62
232.541	80.62
232.775	81.62
233.009	81.62
233.243	71.62
233.477	79.62
233.711	81.62
233.945	78.62
234.179	93.62
234.413	82.62
234.647	99.62
234.881	76.62
235.115	91.62
235.349	84.62
235.583	77.62
235.817	77.62
236.051	84.62
236.285	85.62
236.519	72.62
236.753	81.62
236.987	92.62
237.221	71.62
237.455	100.62
237.689	104.62
237.922	86.62
238.156	69.62
238.39	82.62
238.624	77.62
238.858	70.62
239.091	88.62
239.325	76.62
239.559	70.62
239.793	79.62
240.027	81.62
240.26	64.62
240.494	74.62
240.728	70.62
240.961	82.62
241.195	83.62
241.429	72.62
241.662	73.62
241.896	73.62
242.13	83.62
242.363	82.62
242.597	91.62
242.83	76.62
243.064	72.62
243.298	82.62
243.531	80.62
243.765	77.62
243.998	75.62
244.232	78.62
244.465	86.62
244.699	90.62
244.932	71.62
245.166	94.62
245.399	68.62
245.633	87.62
245.866	79.62
246.099	77.62
246.333	80.62
246.566	74.62
246.8	77.62
247.033	81.62
247.266	75.62
247.5	69.62
247.733	90.62
247.966	79.62
248.2	94.62
248.433	64.62
248.666	86.62
248.899	75.62
249.133	77.62
249.366	104.62
249.599	112.62
249.832	81.62
250.066	79.62
250.299	96.62
250.532	88.62
250.765	87.62
250.998	92.62
251.231	93.62
251.465	90.62
251.698	84.62
251.931	88.62
252.164	78.62
252.397	80.62
252.63	78.62
252.863	89.62
253.096	76.62
253.329	91.62
253.562	95.62
253.795	84.62
254.028	96.62
254.261	75.62
254.494	76.62
254.727	79.62
254.96	89.62
255.193	89.62
255.426	84.62
255.659	89.62
255.892	98.62
256.124	111.62
256.357	88.62
256.59	82.62
256.823	87.62
257.056	84.62
257.289	82.62
257.521	89.62
257.754	82.62
257.987	82.62
258.22	83.62
258.452	105.62
258.685	82.62
258.918	90.62
259.151	81.62
259.383	73.62
259.616	77.62
259.849	74.62
260.081	75.62
260.314	95.62
260.547	98.62
260.779	112.62
261.012	124.62
261.244	119.62
261.477	95.62
261.71	124.62
261.942	164.62
262.175	174.62
262.407	110.62
262.64	77.62
262.872	77.62
263.105	78.62
263.337	96.62
263.57	89.62
263.802	80.62
264.035	79.62
264.267	80.62
264.499	88.62
264.732	74.62
264.964	88.62
265.197	97.62
265.429	92.62
265.661	87.62
265.894	75.62
266.126	91.62
266.358	70.62
266.591	84.62
266.823	98.62
267.055	82.62
267.287	84.62
267.52	79.62
267.752	98.62
267.984	88.62
268.216	90.62
268.448	80.62
268.681	78.62
268.913	94.62
269.145	89.62
269.377	101.62
269.609	95.62
269.841	98.62
270.073	98.62
270.306	92.62
270.538	96.62
270.77	89.62
271.002	89.62
271.234	94.62
271.466	84.62
271.698	86.62
271.93	88.62
272.162	88.62
272.394	88.62
272.626	88.62
272.858	78.62
273.09	98.62
273.322	84.62
273.553	88.62
273.785	92.62
274.017	81.62
274.249	82.62
274.481	95.62
274.713	84.62
274.945	88.62
275.176	93.62
275.408	93.62
275.64	116.62
275.872	123.62
276.104	116.62
276.335	101.62
276.567	111.62
276.799	170.62
277.031	196.62
277.262	225.62
277.494	158.62
277.726	117.62
277.957	116.62
278.189	93.62
278.421	93.62
278.652	93.62
278.884	91.62
279.115	92.62
279.347	94.62
279.579	103.62
279.81	133.62
280.042	211.62
280.273	284.62
280.505	207.62
280.736	119.62
280.968	98.62
281.199	95.62
281.431	86.62
281.662	88.62
281.894	86.62
282.125	108.62
282.356	149.62
282.588	192.62
282.819	152.62
283.051	103.62
283.282	95.62
283.513	85.62
283.745	100.62
283.976	80.62
284.207	89.62
284.439	104.62
284.67	107.62
284.901	84.62
285.132	96.62
285.364	90.62
285.595	90.62
285.826	97.62
286.057	99.62
286.288	93.62
286.52	87.62
286.751	92.62
286.982	90.62
287.213	93.62
287.444	92.62
287.675	95.62
287.906	96.62
288.138	94.62
288.369	87.62
288.6	93.62
288.831	88.62
289.062	101.62
289.293	85.62
289.524	93.62
289.755	80.62
289.986	88.62
290.217	85.62
290.448	95.62
290.679	81.62
290.91	85.62
291.141	83.62
291.371	85.62
291.602	77.62
291.833	99.62
292.064	78.62
292.295	81.62
292.526	86.62
292.757	91.62
292.987	88.62
293.218	102.62
293.449	96.62
293.68	72.62
293.91	84.62
294.141	85.62
294.372	97.62
294.603	94.62
294.833	82.62
295.064	91.62
295.295	94.62
295.525	100.62
295.756	118.62
295.987	138.62
296.217	193.62
296.448	169.62
296.679	101.62
296.909	94.62
297.14	117.62
297.37	98.62
297.601	82.62
297.831	84.62
298.062	94.62
298.292	108.62
298.523	96.62
298.753	92.62
298.984	95.62
299.214	94.62
299.445	95.62
299.675	90.62
299.905	101.62
300.136	108.62
300.366	95.62
300.597	90.62
300.827	104.62
301.057	110.62
301.288	120.62
301.518	106.62
301.748	101.62
301.979	115.62
302.209	118.62
302.439	107.62
302.669	96.62
302.9	101.62
303.13	98.62
303.36	117.62
303.59	135.62
303.82	152.62
304.051	109.62
304.281	104.62
304.511	97.62
304.741	105.62
304.971	96.62
305.201	79.62
305.431	102.62
305.661	97.62
305.891	106.62
306.121	101.62
306.352	116.62
306.582	125.62
306.812	105.62
307.042	125.62
307.272	181.62
307.502	197.62
307.731	197.62
307.961	133.62
308.191	90.62
308.421	109.62
308.651	99.62
308.881	102.62
309.111	98.62
309.341	100.62
309.571	96.62
309.8	102.62
310.03	107.62
310.26	111.62
310.49	117.62
310.72	108.62
310.949	125.62
311.179	116.62
311.409	101.62
311.639	105.62
311.868	117.62
312.098	106.62
312.328	115.62
312.557	126.62
312.787	126.62
313.017	125.62
313.246	83.62
313.476	96.62
313.706	94.62
313.935	104.62
314.165	124.62
314.394	122.62
314.624	126.62
314.853	111.62
315.083	109.62
315.312	105.62
315.542	93.62
315.771	92.62
316.001	93.62
316.23	104.62
316.46	89.62
316.689	112.62
316.919	114.62
317.148	112.62
317.377	107.62
317.607	100.62
317.836	100.62
318.065	95.62
318.295	97.62
318.524	105.62
318.753	89.62
318.983	108.62
319.212	97.62
319.441	136.62
319.67	125.62
319.9	97.62
320.129	102.62
320.358	100.62
320.587	89.62
320.816	119.62
321.046	110.62
321.275	110.62
321.504	99.62
321.733	94.62
321.962	112.62
322.191	114.62
322.42	121.62
322.649	133.62
322.878	124.62
323.108	136.62
323.337	138.62
323.566	148.62
323.795	193.62
324.024	272.62
324.253	489.62
324.482	1012.62
324.71	2110.62
324.939	2768.62
325.168	1043.62
325.397	300.62
325.626	188.62
325.855	156.62
326.084	152.62
326.313	143.62
326.542	194.62
326.77	269.62
326.999	510.62
327.228	1048.62
327.457	1914.62
327.686	1557.62
327.914	592.62
328.143	628.62
328.372	794.62
328.6	448.62
328.829	207.62
329.058	218.62
329.287	223.62
329.515	212.62
329.744	274.62
329.972	554.62
330.201	1150.62
330.43	1682.62
330.658	759.62
330.887	356.62
331.115	223.62
331.344	129.62
331.572	124.62
331.801	140.62
332.03	125.62
332.258	129.62
332.486	106.62
332.715	112.62
332.943	125.62
333.172	116.62
333.4	139.62
333.629	184.62
333.857	268.62
334.085	486.62
334.314	1046.62
334.542	2085.62
334.771	1954.62
334.999	499.62
335.227	200.62
335.455	159.62
335.684	112.62
335.912	114.62
336.14	109.62
336.369	117.62
336.597	122.62
336.825	108.62
337.053	110.62
337.281	95.62
337.51	102.62
337.738	96.62
337.966	93.62
338.194	112.62
338.422	107.62
338.65	101.62
338.878	119.62
339.106	101.62
339.334	91.62
339.562	79.62
339.79	91.62
340.018	89.62
340.246	96.62
340.474	104.62
340.702	91.62
340.93	78.62
341.158	99.62
341.386	118.62
341.614	111.62
341.842	116.62
342.07	102.62
342.298	101.62
342.526	90.62
342.754	94.62
342.981	102.62
343.209	90.62
343.437	87.62
343.665	91.62
343.893	94.62
344.12	111.62
344.348	89.62
344.576	89.62
344.804	112.62
345.031	107.62
345.259	105.62
345.487	90.62
345.714	96.62
345.942	113.62
346.17	96.62
346.397	100.62
346.625	93.62
346.853	102.62
347.08	97.62
347.308	95.62
347.535	108.62
347.763	112.62
347.99	114.62
348.218	127.62
348.445	132.62
348.673	116.62
348.9	91.62
349.128	104.62
349.355	98.62
349.583	104.62
349.81	95.62
350.037	104.62
350.265	110.62
350.492	114.62
350.72	94.62
350.947	106.62
351.174	126.62
351.402	130.62
351.629	133.62
351.856	120.62
352.083	117.62
352.311	113.62
352.538	140.62
352.765	122.62
352.992	125.62
353.22	138.62
353.447	113.62
353.674	113.62
353.901	90.62
354.128	109.62
354.355	95.62
354.583	104.62
354.81	97.62
355.037	97.62
355.264	84.62
355.491	86.62
355.718	93.62
355.945	90.62
356.172	88.62
356.399	92.62
356.626	86.62
356.853	90.62
357.08	103.62
357.307	101.62
357.534	79.62
357.761	96.62
357.988	96.62
358.215	89.62
358.441	96.62
358.668	80.62
358.895	102.62
359.122	105.62
359.349	93.62
359.576	86.62
359.802	132.62
360.029	162.62
360.256	164.62
360.483	135.62
360.709	98.62
360.936	98.62
361.163	96.62
361.39	110.62
361.616	108.62
361.843	103.62
362.07	111.62
362.296	103.62
362.523	102.62
362.749	106.62
362.976	101.62
363.203	106.62
363.429	96.62
363.656	108.62
363.882	97.62
364.109	87.62
364.335	104.62
364.562	93.62
364.788	105.62
365.015	92.62
365.241	116.62
365.468	114.62
365.694	123.62
365.92	106.62
366.147	90.62
366.373	86.62
366.599	100.62
366.826	92.62
367.052	78.62
367.278	85.62
367.505	95.62
367.731	94.62
367.957	98.62
368.184	99.62
368.41	123.62
368.636	133.62
368.862	141.62
369.089	136.62
369.315	106.62
369.541	97.62
369.767	112.62
369.993	109.62
370.219	95.62
370.445	80.62
370.672	89.62
370.898	96.62
371.124	84.62
371.35	90.62
371.576	89.62
371.802	90.62
372.028	91.62
372.254	101.62
372.48	96.62
372.706	93.62
372.932	87.62
373.158	83.62
373.384	104.62
373.61	95.62
373.835	93.62
374.061	94.62
374.287	110.62
374.513	88.62
374.739	71.62
374.965	101.62
375.191	91.62
375.416	97.62
375.642	79.62
375.868	91.62
376.094	85.62
376.319	84.62
376.545	86.62
376.771	95.62
376.997	99.62
377.222	92.62
377.448	102.62
377.674	86.62
377.899	89.62
378.125	92.62
378.35	97.62
378.576	103.62
378.802	92.62
379.027	95.62
379.253	82.62
379.478	109.62
379.704	97.62
379.929	95.62
380.155	104.62
380.38	89.62
380.606	89.62
380.831	100.62
381.057	107.62
381.282	87.62
381.507	93.62
381.733	99.62
381.958	97.62
382.184	89.62
382.409	106.62
382.634	104.62
382.86	93.62
383.085	103.62
383.31	88.62
383.535	101.62
383.761	102.62
383.986	94.62
384.211	115.62
384.436	92.62
384.662	102.62
384.887	108.62
385.112	111.62
385.337	97.62
385.562	115.62
385.787	104.62
386.013	125.62
386.238	119.62
386.463	120.62
386.688	129.62
386.913	103.62
387.138	101.62
387.363	111.62
387.588	94.62
387.813	105.62
388.038	102.62
388.263	112.62
388.488	102.62
388.713	100.62
388.938	92.62
389.163	97.62
389.387	103.62
389.612	104.62
389.837	89.62
390.062	99.62
390.287	87.62
390.512	85.62
390.736	90.62
390.961	93.62
391.186	92.62
391.411	92.62
391.636	96.62
391.86	91.62
392.085	86.62
392.31	101.62
392.534	81.62
392.759	85.62
392.984	98.62
393.208	96.62
393.433	112.62
393.658	96.62
393.882	90.62
394.107	86.62
394.331	85.62
394.556	82.62
394.78	89.62
395.005	86.62
395.229	79.62
395.454	80.62
395.678	96.62
395.903	89.62
396.127	90.62
396.352	88.62
396.576	93.62
396.801	84.62
397.025	98.62
397.249	81.62
397.474	93.62
397.698	101.62
397.922	87.62
398.147	98.62
398.371	97.62
398.595	88.62
398.82	88.62
399.044	90.62
399.268	94.62
399.492	77.62
399.717	94.62
399.941	99.62
400.165	92.62
400.389	100.62
400.613	80.62
400.837	105.62
401.062	83.62
401.286	100.62
401.51	98.62
401.734	100.62
401.958	112.62
402.182	159.62
402.406	261.62
402.63	170.62
402.854	120.62
403.078	87.62
403.302	95.62
403.526	82.62
403.75	100.62
403.974	102.62
404.198	97.62
404.422	101.62
404.645	101.62
404.869	98.62
405.093	112.62
405.317	147.62
405.541	138.62
405.765	121.62
405.988	168.62
406.212	246.62
406.436	390.62
406.66	257.62
406.883	137.62
407.107	98.62
407.331	112.62
407.555	115.62
407.778	108.62
408.002	102.62
408.226	74.62
408.449	92.62
408.673	98.62
408.896	102.62
409.12	101.62
409.344	102.62
409.567	90.62
409.791	93.62
410.014	110.62
410.238	99.62
410.461	88.62
410.685	98.62
410.908	89.62
411.132	113.62
411.355	105.62
411.578	97.62
411.802	96.62
412.025	101.62
412.249	99.62
412.472	117.62
412.695	137.62
412.919	124.62
413.142	89.62
413.365	106.62
413.589	91.62
413.812	84.62
414.035	91.62
414.258	89.62
414.482	82.62
414.705	96.62
414.928	101.62
415.151	86.62
415.374	93.62
415.597	101.62
415.821	92.62
416.044	96.62
416.267	91.62
416.49	94.62
416.713	104.62
416.936	93.62
417.159	90.62
417.382	104.62
417.605	97.62
417.828	113.62
418.051	96.62
418.274	95.62
418.497	83.62
418.72	84.62
418.943	97.62
419.166	88.62
419.389	97.62
419.611	88.62
419.834	82.62
420.057	91.62
420.28	101.62
420.503	99.62
420.726	97.62
420.948	101.62
421.171	114.62
421.394	106.62
421.617	97.62
421.839	81.62
422.062	82.62
422.285	104.62
422.507	97.62
422.73	109.62
422.953	109.62
423.175	103.62
423.398	91.62
423.621	87.62
423.843	93.62
424.066	82.62
424.288	92.62
424.511	86.62
424.733	99.62
424.956	133.62
425.178	104.62
425.401	112.62
425.623	106.62
425.846	109.62
426.068	110.62
426.291	98.62
426.513	100.62
426.735	105.62
426.958	96.62
427.18	147.62
427.402	196.62
427.625	298.62
427.847	260.62
428.069	190.62
428.292	135.62
428.514	100.62
428.736	111.62
428.958	92.62
429.181	85.62
429.403	89.62
429.625	98.62
429.847	106.62
430.069	103.62
430.292	111.62
430.514	102.62
430.736	84.62
430.958	96.62
431.18	99.62
431.402	77.62
431.624	84.62
431.846	79.62
432.068	85.62
432.29	88.62
432.512	95.62
432.734	104.62
432.956	100.62
433.178	97.62
433.4	113.62
433.622	80.62
433.844	92.62
434.066	99.62
434.287	102.62
434.509	97.62
434.731	91.62
434.953	90.62
435.175	79.62
435.397	87.62
435.618	111.62
435.84	104.62
436.062	129.62
436.284	120.62
436.505	105.62
436.727	102.62
436.949	103.62
437.17	103.62
437.392	94.62
437.614	115.62
437.835	153.62
438.057	164.62
438.278	137.62
438.5	129.62
438.721	148.62
438.943	109.62
439.165	91.62
439.386	91.62
439.608	94.62
439.829	112.62
440.05	161.62
440.272	185.62
440.493	115.62
440.715	109.62
440.936	89.62
441.158	97.62
441.379	104.62
441.6	109.62
441.822	118.62
442.043	118.62
442.264	119.62
442.486	110.62
442.707	110.62
442.928	122.62
443.149	185.62
443.371	182.62
443.592	152.62
443.813	129.62
444.034	119.62
444.255	95.62
444.476	80.62
444.698	87.62
444.919	90.62
445.14	135.62
445.361	130.62
445.582	138.62
445.803	201.62
446.024	183.62
446.245	169.62
446.466	128.62
446.687	100.62
446.908	92.62
447.129	83.62
447.35	97.62
447.571	85.62
447.792	94.62
448.013	111.62
448.234	130.62
448.455	122.62
448.675	132.62
448.896	136.62
449.117	106.62
449.338	110.62
449.559	151.62
449.779	136.62
450	101.62
450.221	93.62
450.442	96.62
450.662	113.62
450.883	127.62
451.104	159.62
451.324	121.62
451.545	100.62
451.766	93.62
451.986	90.62
452.207	97.62
452.428	90.62
452.648	114.62
452.869	143.62
453.089	142.62
453.31	166.62
453.53	120.62
453.751	95.62
453.971	140.62
454.192	152.62
454.412	109.62
454.633	99.62
454.853	82.62
455.073	78.62
455.294	91.62
455.514	117.62
455.734	101.62
455.955	87.62
456.175	90.62
456.395	79.62
456.616	87.62
456.836	84.62
457.056	95.62
457.276	98.62
457.497	90.62
457.717	89.62
457.937	96.62
458.157	103.62
458.377	94.62
458.598	130.62
458.818	237.62
459.038	277.62
459.258	182.62
459.478	103.62
459.698	85.62
459.918	81.62
460.138	84.62
460.358	86.62
460.578	100.62
460.798	96.62
461.018	108.62
461.238	82.62
461.458	99.62
461.678	88.62
461.898	90.62
462.118	84.62
462.338	83.62
462.558	90.62
462.777	94.62
462.997	103.62
463.217	123.62
463.437	95.62
463.657	102.62
463.876	89.62
464.096	95.62
464.316	82.62
464.536	108.62
464.755	122.62
464.975	132.62
465.195	273.62
465.414	302.62
465.634	128.62
465.854	106.62
466.073	97.62
466.293	99.62
466.512	105.62
466.732	101.62
466.951	91.62
467.171	103.62
467.391	123.62
467.61	188.62
467.829	243.62
468.049	683.62
468.268	1055.62
468.488	253.62
468.707	127.62
468.927	91.62
469.146	109.62
469.365	93.62
469.585	97.62
469.804	124.62
470.023	133.62
470.243	108.62
470.462	139.62
470.681	157.62
470.901	115.62
471.12	104.62
471.339	108.62
471.558	134.62
471.777	168.62
471.997	353.62
472.216	1338.62
472.435	3102.62
472.654	695.62
472.873	188.62
473.092	106.62
473.311	94.62
473.53	91.62
473.749	95.62
473.968	99.62
474.187	128.62
474.406	116.62
474.625	95.62
474.844	82.62
475.063	91.62
475.282	94.62
475.501	93.62
475.72	96.62
475.939	76.62
476.158	97.62
476.377	85.62
476.596	98.62
476.814	97.62
477.033	105.62
477.252	99.62
477.471	88.62
477.69	98.62
477.908	102.62
478.127	90.62
478.346	96.62
478.564	106.62
478.783	124.62
479.002	135.62
479.22	120.62
479.439	128.62
479.658	167.62
479.876	137.62
480.095	147.62
480.313	152.62
480.532	183.62
480.751	334.62
480.969	1181.62
481.188	5278.62
481.406	3020.62
481.624	418.62
481.843	144.62
482.061	106.62
482.28	112.62
482.498	105.62
482.717	99.62
482.935	108.62
483.153	105.62
483.372	88.62
483.59	96.62
483.808	82.62
484.027	109.62
484.245	90.62
484.463	104.62
484.681	83.62
484.9	104.62
485.118	99.62
485.336	95.62
485.554	103.62
485.772	103.62
485.99	97.62
486.209	111.62
486.427	111.62
486.645	121.62
486.863	149.62
487.081	116.62
487.299	114.62
487.517	95.62
487.735	104.62
487.953	99.62
488.171	96.62
488.389	102.62
488.607	101.62
488.825	97.62
489.043	92.62
489.261	88.62
489.479	94.62
489.696	88.62
489.914	90.62
490.132	96.62
490.35	118.62
490.568	95.62
490.786	89.62
491.003	111.62
491.221	94.62
491.439	93.62
491.657	89.62
491.874	91.62
492.092	92.62
492.31	105.62
492.527	97.62
492.745	95.62
492.963	93.62
493.18	98.62
493.398	97.62
493.615	102.62
493.833	87.62
494.05	84.62
494.268	94.62
494.485	92.62
494.703	88.62
494.92	92.62
495.138	90.62
495.355	97.62
495.573	111.62
495.79	110.62
496.008	109.62
496.225	96.62
496.442	96.62
496.66	107.62
496.877	88.62
497.094	92.62
497.312	85.62
497.529	85.62
497.746	101.62
497.963	105.62
498.181	105.62
498.398	109.62
498.615	118.62
498.832	105.62
499.049	88.62
499.267	96.62
499.484	76.62
499.701	97.62
499.918	96.62
500.135	89.62
500.352	88.62
500.569	102.62
500.786	106.62
501.003	91.62
501.22	105.62
501.437	97.62
501.654	102.62
501.871	138.62
502.088	105.62
502.305	98.62
502.522	102.62
502.739	88.62
502.956	91.62
503.172	102.62
503.389	121.62
503.606	136.62
503.823	119.62
504.04	104.62
504.256	100.62
504.473	85.62
504.69	101.62
504.907	95.62
505.123	96.62
505.34	94.62
505.557	93.62
505.773	98.62
505.99	95.62
506.207	94.62
506.423	113.62
506.64	96.62
506.856	97.62
507.073	91.62
507.289	106.62
507.506	106.62
507.722	155.62
507.939	136.62
508.155	96.62
508.372	92.62
508.588	102.62
508.805	105.62
509.021	97.62
509.238	112.62
509.454	113.62
509.67	110.62
509.887	127.62
510.103	161.62
510.319	304.62
510.536	1200.62
510.752	4536.62
510.968	1180.62
511.184	224.62
511.401	156.62
511.617	123.62
