Data from Circ_1999_H10_HRD10591_00077.txt Node
Date: Wed Jan 03 11:23:28 EST 2024
User: Yrep
Spectrometer: HR+D1059
Trigger mode: 1
Integration Time (sec): 1.000000E-1
Scans to average: 1
Electric dark correction enabled: true
Nonlinearity correction enabled: false
Boxcar width: 0
XAxis mode: Wavelengths
Number of Pixels in Spectrum: 2048
>>>>>Begin Spectral Data<<<<<
223.165	-23.25
223.4	-23.25
223.635	-23.25
223.869	-10.25
224.104	-14.25
224.338	-16.25
224.573	-15.25
224.808	-7.25
225.042	-17.25
225.277	-12.25
225.511	11.75
225.746	-7.25
225.98	-1.25
226.215	7.75
226.449	25.75
226.683	27.75
226.918	29.75
227.152	21.75
227.387	32.75
227.621	36.75
227.856	30.75
228.09	52.75
228.324	56.75
228.559	60.75
228.793	52.75
229.027	59.75
229.262	57.75
229.496	86.75
229.73	108.75
229.964	95.75
230.199	83.75
230.433	89.75
230.667	69.75
230.901	83.75
231.136	78.75
231.37	85.75
231.604	80.75
231.838	72.75
232.072	88.75
232.306	67.75
232.541	82.75
232.775	64.75
233.009	83.75
233.243	91.75
233.477	83.75
233.711	87.75
233.945	73.75
234.179	71.75
234.413	90.75
234.647	88.75
234.881	74.75
235.115	82.75
235.349	77.75
235.583	73.75
235.817	73.75
236.051	82.75
236.285	83.75
236.519	87.75
236.753	70.75
236.987	86.75
237.221	85.75
237.455	104.75
237.689	77.75
237.922	83.75
238.156	65.75
238.39	77.75
238.624	76.75
238.858	90.75
239.091	85.75
239.325	71.75
239.559	85.75
239.793	79.75
240.027	83.75
240.26	81.75
240.494	81.75
240.728	98.75
240.961	87.75
241.195	84.75
241.429	96.75
241.662	71.75
241.896	83.75
242.13	71.75
242.363	79.75
242.597	85.75
242.83	87.75
243.064	78.75
243.298	86.75
243.531	91.75
243.765	90.75
243.998	75.75
244.232	74.75
244.465	89.75
244.699	88.75
244.932	80.75
245.166	87.75
245.399	71.75
245.633	82.75
245.866	100.75
246.099	85.75
246.333	90.75
246.566	80.75
246.8	71.75
247.033	69.75
247.266	95.75
247.5	81.75
247.733	82.75
247.966	81.75
248.2	88.75
248.433	85.75
248.666	66.75
248.899	75.75
249.133	89.75
249.366	111.75
249.599	104.75
249.832	71.75
250.066	98.75
250.299	82.75
250.532	90.75
250.765	87.75
250.998	94.75
251.231	79.75
251.465	89.75
251.698	65.75
251.931	95.75
252.164	75.75
252.397	79.75
252.63	91.75
252.863	83.75
253.096	84.75
253.329	95.75
253.562	88.75
253.795	73.75
254.028	83.75
254.261	94.75
254.494	80.75
254.727	81.75
254.96	82.75
255.193	90.75
255.426	92.75
255.659	86.75
255.892	111.75
256.124	100.75
256.357	91.75
256.59	79.75
256.823	88.75
257.056	80.75
257.289	87.75
257.521	82.75
257.754	88.75
257.987	89.75
258.22	105.75
258.452	102.75
258.685	104.75
258.918	90.75
259.151	91.75
259.383	96.75
259.616	77.75
259.849	93.75
260.081	92.75
260.314	93.75
260.547	87.75
260.779	86.75
261.012	119.75
261.244	121.75
261.477	103.75
261.71	131.75
261.942	155.75
262.175	163.75
262.407	107.75
262.64	98.75
262.872	94.75
263.105	98.75
263.337	83.75
263.57	60.75
263.802	89.75
264.035	83.75
264.267	75.75
264.499	65.75
264.732	87.75
264.964	73.75
265.197	86.75
265.429	87.75
265.661	83.75
265.894	94.75
266.126	82.75
266.358	87.75
266.591	91.75
266.823	85.75
267.055	82.75
267.287	85.75
267.52	97.75
267.752	82.75
267.984	88.75
268.216	93.75
268.448	105.75
268.681	93.75
268.913	90.75
269.145	97.75
269.377	77.75
269.609	80.75
269.841	91.75
270.073	82.75
270.306	91.75
270.538	79.75
270.77	107.75
271.002	81.75
271.234	86.75
271.466	90.75
271.698	90.75
271.93	88.75
272.162	104.75
272.394	90.75
272.626	87.75
272.858	83.75
273.09	89.75
273.322	93.75
273.553	87.75
273.785	81.75
274.017	87.75
274.249	82.75
274.481	78.75
274.713	85.75
274.945	97.75
275.176	97.75
275.408	99.75
275.64	124.75
275.872	130.75
276.104	118.75
276.335	113.75
276.567	138.75
276.799	185.75
277.031	218.75
277.262	238.75
277.494	171.75
277.726	102.75
277.957	103.75
278.189	86.75
278.421	99.75
278.652	86.75
278.884	100.75
279.115	105.75
279.347	104.75
279.579	109.75
279.81	149.75
280.042	235.75
280.273	317.75
280.505	221.75
280.736	114.75
280.968	99.75
281.199	77.75
281.431	93.75
281.662	94.75
281.894	90.75
282.125	100.75
282.356	168.75
282.588	206.75
282.819	142.75
283.051	103.75
283.282	92.75
283.513	92.75
283.745	88.75
283.976	75.75
284.207	91.75
284.439	96.75
284.67	94.75
284.901	85.75
285.132	100.75
285.364	78.75
285.595	87.75
285.826	93.75
286.057	102.75
286.288	72.75
286.52	88.75
286.751	86.75
286.982	92.75
287.213	95.75
287.444	70.75
287.675	79.75
287.906	102.75
288.138	96.75
288.369	103.75
288.6	105.75
288.831	83.75
289.062	99.75
289.293	88.75
289.524	90.75
289.755	88.75
289.986	104.75
290.217	93.75
290.448	73.75
290.679	82.75
290.91	97.75
291.141	93.75
291.371	90.75
291.602	73.75
291.833	74.75
292.064	93.75
292.295	85.75
292.526	109.75
292.757	112.75
292.987	95.75
293.218	93.75
293.449	91.75
293.68	85.75
293.91	91.75
294.141	99.75
294.372	103.75
294.603	99.75
294.833	92.75
295.064	91.75
295.295	100.75
295.525	87.75
295.756	117.75
295.987	137.75
296.217	200.75
296.448	178.75
296.679	90.75
296.909	89.75
297.14	88.75
297.37	106.75
297.601	94.75
297.831	93.75
298.062	94.75
298.292	90.75
298.523	104.75
298.753	90.75
298.984	88.75
299.214	100.75
299.445	96.75
299.675	93.75
299.905	112.75
300.136	107.75
300.366	94.75
300.597	108.75
300.827	102.75
301.057	124.75
301.288	109.75
301.518	105.75
301.748	104.75
301.979	112.75
302.209	121.75
302.439	98.75
302.669	84.75
302.9	98.75
303.13	105.75
303.36	129.75
303.59	168.75
303.82	178.75
304.051	125.75
304.281	94.75
304.511	103.75
304.741	99.75
304.971	85.75
305.201	102.75
305.431	92.75
305.661	93.75
305.891	99.75
306.121	98.75
306.352	126.75
306.582	122.75
306.812	117.75
307.042	135.75
307.272	196.75
307.502	215.75
307.731	219.75
307.961	160.75
308.191	120.75
308.421	102.75
308.651	94.75
308.881	99.75
309.111	117.75
309.341	105.75
309.571	115.75
309.8	101.75
310.03	113.75
310.26	128.75
310.49	119.75
310.72	130.75
310.949	128.75
311.179	116.75
311.409	99.75
311.639	122.75
311.868	115.75
312.098	117.75
312.328	128.75
312.557	126.75
312.787	140.75
313.017	119.75
313.246	117.75
313.476	114.75
313.706	106.75
313.935	101.75
314.165	118.75
314.394	130.75
314.624	118.75
314.853	107.75
315.083	114.75
315.312	90.75
315.542	101.75
315.771	112.75
316.001	95.75
316.23	99.75
316.46	95.75
316.689	104.75
316.919	109.75
317.148	114.75
317.377	115.75
317.607	112.75
317.836	98.75
318.065	100.75
318.295	76.75
318.524	97.75
318.753	85.75
318.983	98.75
319.212	136.75
319.441	132.75
319.67	115.75
319.9	89.75
320.129	105.75
320.358	98.75
320.587	114.75
320.816	116.75
321.046	120.75
321.275	109.75
321.504	109.75
321.733	97.75
321.962	103.75
322.191	109.75
322.42	131.75
322.649	127.75
322.878	135.75
323.108	155.75
323.337	163.75
323.566	167.75
323.795	210.75
324.024	261.75
324.253	530.75
324.482	1181.75
324.71	2331.75
324.939	3067.75
325.168	1136.75
325.397	329.75
325.626	201.75
325.855	148.75
326.084	149.75
326.313	170.75
326.542	181.75
326.77	292.75
326.999	574.75
327.228	1149.75
327.457	2137.75
327.686	1750.75
327.914	696.75
328.143	703.75
328.372	907.75
328.6	460.75
328.829	234.75
329.058	230.75
329.287	233.75
329.515	227.75
329.744	347.75
329.972	643.75
330.201	1339.75
330.43	1949.75
330.658	851.75
330.887	377.75
331.115	241.75
331.344	161.75
331.572	141.75
331.801	145.75
332.03	149.75
332.258	122.75
332.486	130.75
332.715	122.75
332.943	128.75
333.172	118.75
333.4	145.75
333.629	189.75
333.857	290.75
334.085	556.75
334.314	1223.75
334.542	2470.75
334.771	2231.75
334.999	565.75
335.227	203.75
335.455	141.75
335.684	121.75
335.912	113.75
336.14	128.75
336.369	118.75
336.597	128.75
336.825	122.75
337.053	100.75
337.281	100.75
337.51	103.75
337.738	117.75
337.966	97.75
338.194	107.75
338.422	98.75
338.65	107.75
338.878	101.75
339.106	104.75
339.334	102.75
339.562	108.75
339.79	89.75
340.018	112.75
340.246	103.75
340.474	106.75
340.702	118.75
340.93	105.75
341.158	95.75
341.386	99.75
341.614	118.75
341.842	96.75
342.07	107.75
342.298	91.75
342.526	104.75
342.754	98.75
342.981	80.75
343.209	105.75
343.437	103.75
343.665	102.75
343.893	88.75
344.12	82.75
344.348	98.75
344.576	97.75
344.804	88.75
345.031	114.75
345.259	109.75
345.487	101.75
345.714	97.75
345.942	103.75
346.17	96.75
346.397	111.75
346.625	110.75
346.853	116.75
347.08	96.75
347.308	93.75
347.535	106.75
347.763	106.75
347.99	124.75
348.218	120.75
348.445	137.75
348.673	124.75
348.9	121.75
349.128	107.75
349.355	109.75
349.583	104.75
349.81	97.75
350.037	93.75
350.265	73.75
350.492	94.75
350.72	105.75
350.947	109.75
351.174	115.75
351.402	131.75
351.629	98.75
351.856	121.75
352.083	97.75
352.311	122.75
352.538	118.75
352.765	122.75
352.992	128.75
353.22	126.75
353.447	93.75
353.674	102.75
353.901	114.75
354.128	120.75
354.355	93.75
354.583	91.75
354.81	103.75
355.037	116.75
355.264	93.75
355.491	105.75
355.718	110.75
355.945	90.75
356.172	95.75
356.399	94.75
356.626	104.75
356.853	107.75
357.08	109.75
357.307	99.75
357.534	87.75
357.761	97.75
357.988	105.75
358.215	99.75
358.441	79.75
358.668	111.75
358.895	89.75
359.122	95.75
359.349	90.75
359.576	109.75
359.802	123.75
360.029	159.75
360.256	169.75
360.483	138.75
360.709	98.75
360.936	91.75
361.163	112.75
361.39	110.75
361.616	115.75
361.843	105.75
362.07	103.75
362.296	124.75
362.523	107.75
362.749	104.75
362.976	99.75
363.203	99.75
363.429	94.75
363.656	106.75
363.882	96.75
364.109	89.75
364.335	87.75
364.562	111.75
364.788	99.75
365.015	107.75
365.241	127.75
365.468	154.75
365.694	126.75
365.92	123.75
366.147	112.75
366.373	105.75
366.599	93.75
366.826	94.75
367.052	80.75
367.278	100.75
367.505	99.75
367.731	98.75
367.957	97.75
368.184	104.75
368.41	122.75
368.636	138.75
368.862	151.75
369.089	138.75
369.315	102.75
369.541	95.75
369.767	101.75
369.993	89.75
370.219	91.75
370.445	88.75
370.672	87.75
370.898	99.75
371.124	86.75
371.35	95.75
371.576	80.75
371.802	79.75
372.028	98.75
372.254	95.75
372.48	84.75
372.706	85.75
372.932	88.75
373.158	82.75
373.384	107.75
373.61	91.75
373.835	98.75
374.061	96.75
374.287	106.75
374.513	92.75
374.739	88.75
374.965	105.75
375.191	98.75
375.416	103.75
375.642	97.75
375.868	89.75
376.094	92.75
376.319	102.75
376.545	102.75
376.771	90.75
376.997	93.75
377.222	87.75
377.448	88.75
377.674	94.75
377.899	89.75
378.125	94.75
378.35	93.75
378.576	98.75
378.802	95.75
379.027	83.75
379.253	78.75
379.478	98.75
379.704	89.75
379.929	101.75
380.155	109.75
380.38	94.75
380.606	102.75
380.831	88.75
381.057	114.75
381.282	101.75
381.507	107.75
381.733	110.75
381.958	96.75
382.184	106.75
382.409	105.75
382.634	108.75
382.86	105.75
383.085	100.75
383.31	118.75
383.535	114.75
383.761	107.75
383.986	118.75
384.211	98.75
384.436	82.75
384.662	96.75
384.887	90.75
385.112	104.75
385.337	102.75
385.562	110.75
385.787	90.75
386.013	113.75
386.238	129.75
386.463	111.75
386.688	106.75
386.913	114.75
387.138	114.75
387.363	96.75
387.588	107.75
387.813	102.75
388.038	109.75
388.263	115.75
388.488	105.75
388.713	88.75
388.938	91.75
389.163	106.75
389.387	82.75
389.612	93.75
389.837	87.75
390.062	87.75
390.287	86.75
390.512	93.75
390.736	97.75
390.961	81.75
391.186	86.75
391.411	94.75
391.636	103.75
391.86	93.75
392.085	99.75
392.31	91.75
392.534	94.75
392.759	98.75
392.984	78.75
393.208	77.75
393.433	103.75
393.658	100.75
393.882	87.75
394.107	90.75
394.331	86.75
394.556	96.75
394.78	96.75
395.005	92.75
395.229	91.75
395.454	82.75
395.678	78.75
395.903	91.75
396.127	99.75
396.352	89.75
396.576	85.75
396.801	90.75
397.025	95.75
397.249	102.75
397.474	93.75
397.698	94.75
397.922	103.75
398.147	86.75
398.371	82.75
398.595	81.75
398.82	98.75
399.044	89.75
399.268	96.75
399.492	91.75
399.717	102.75
399.941	88.75
400.165	84.75
400.389	111.75
400.613	101.75
400.837	80.75
401.062	89.75
401.286	89.75
401.51	105.75
401.734	109.75
401.958	123.75
402.182	189.75
402.406	256.75
402.63	170.75
402.854	100.75
403.078	90.75
403.302	98.75
403.526	113.75
403.75	85.75
403.974	103.75
404.198	94.75
404.422	95.75
404.645	97.75
404.869	108.75
405.093	125.75
405.317	142.75
405.541	161.75
405.765	130.75
405.988	171.75
406.212	291.75
406.436	444.75
406.66	250.75
406.883	137.75
407.107	121.75
407.331	125.75
407.555	115.75
407.778	122.75
408.002	114.75
408.226	82.75
408.449	93.75
408.673	95.75
408.896	97.75
409.12	101.75
409.344	85.75
409.567	94.75
409.791	91.75
410.014	92.75
410.238	86.75
410.461	94.75
410.685	87.75
410.908	87.75
411.132	114.75
411.355	116.75
411.578	104.75
411.802	87.75
412.025	85.75
412.249	104.75
412.472	126.75
412.695	155.75
412.919	114.75
413.142	105.75
413.365	105.75
413.589	85.75
413.812	83.75
414.035	98.75
414.258	96.75
414.482	86.75
414.705	89.75
414.928	97.75
415.151	94.75
415.374	96.75
415.597	102.75
415.821	96.75
416.044	93.75
416.267	93.75
416.49	98.75
416.713	96.75
416.936	87.75
417.159	77.75
417.382	110.75
417.605	110.75
417.828	117.75
418.051	99.75
418.274	94.75
418.497	79.75
418.72	88.75
418.943	84.75
419.166	91.75
419.389	83.75
419.611	106.75
419.834	97.75
420.057	98.75
420.28	96.75
420.503	89.75
420.726	98.75
420.948	77.75
421.171	98.75
421.394	121.75
421.617	95.75
421.839	95.75
422.062	95.75
422.285	88.75
422.507	112.75
422.73	106.75
422.953	98.75
423.175	88.75
423.398	106.75
423.621	89.75
423.843	98.75
424.066	85.75
424.288	103.75
424.511	106.75
424.733	117.75
424.956	153.75
425.178	113.75
425.401	110.75
425.623	113.75
425.846	104.75
426.068	110.75
426.291	99.75
426.513	93.75
426.735	92.75
426.958	104.75
427.18	122.75
427.402	202.75
427.625	312.75
427.847	257.75
428.069	228.75
428.292	159.75
428.514	110.75
428.736	97.75
428.958	98.75
429.181	97.75
429.403	98.75
429.625	104.75
429.847	87.75
430.069	111.75
430.292	86.75
430.514	100.75
430.736	91.75
430.958	101.75
431.18	70.75
431.402	82.75
431.624	89.75
431.846	100.75
432.068	85.75
432.29	82.75
432.512	84.75
432.734	84.75
432.956	99.75
433.178	107.75
433.4	104.75
433.622	108.75
433.844	105.75
434.066	86.75
434.287	102.75
434.509	105.75
434.731	98.75
434.953	93.75
435.175	104.75
435.397	114.75
435.618	102.75
435.84	115.75
436.062	143.75
436.284	116.75
436.505	103.75
436.727	121.75
436.949	103.75
437.17	94.75
437.392	85.75
437.614	115.75
437.835	127.75
438.057	163.75
438.278	132.75
438.5	115.75
438.721	141.75
438.943	121.75
439.165	87.75
439.386	106.75
439.608	108.75
439.829	125.75
440.05	149.75
440.272	199.75
440.493	115.75
440.715	100.75
440.936	107.75
441.158	104.75
441.379	78.75
441.6	112.75
441.822	110.75
442.043	107.75
442.264	131.75
442.486	122.75
442.707	118.75
442.928	120.75
443.149	200.75
443.371	208.75
443.592	140.75
443.813	136.75
444.034	122.75
444.255	92.75
444.476	101.75
444.698	88.75
444.919	85.75
445.14	127.75
445.361	138.75
445.582	142.75
445.803	183.75
446.024	188.75
446.245	190.75
446.466	142.75
446.687	95.75
446.908	91.75
447.129	83.75
447.35	84.75
447.571	109.75
447.792	114.75
448.013	120.75
448.234	147.75
448.455	133.75
448.675	108.75
448.896	136.75
449.117	106.75
449.338	130.75
449.559	134.75
449.779	155.75
450	91.75
450.221	94.75
450.442	99.75
450.662	111.75
450.883	132.75
451.104	153.75
451.324	120.75
451.545	102.75
451.766	94.75
451.986	102.75
452.207	101.75
452.428	97.75
452.648	103.75
452.869	149.75
453.089	167.75
453.31	172.75
453.53	119.75
453.751	107.75
453.971	133.75
454.192	171.75
454.412	113.75
454.633	102.75
454.853	90.75
455.073	77.75
455.294	101.75
455.514	128.75
455.734	101.75
455.955	101.75
456.175	91.75
456.395	101.75
456.616	87.75
456.836	101.75
457.056	96.75
457.276	65.75
457.497	87.75
457.717	87.75
457.937	91.75
458.157	95.75
458.377	101.75
458.598	153.75
458.818	277.75
459.038	278.75
459.258	179.75
459.478	114.75
459.698	91.75
459.918	88.75
460.138	99.75
460.358	94.75
460.578	87.75
460.798	106.75
461.018	101.75
461.238	81.75
461.458	97.75
461.678	87.75
461.898	79.75
462.118	96.75
462.338	93.75
462.558	97.75
462.777	86.75
462.997	110.75
463.217	122.75
463.437	97.75
463.657	96.75
463.876	86.75
464.096	111.75
464.316	105.75
464.536	119.75
464.755	117.75
464.975	158.75
465.195	321.75
465.414	313.75
465.634	129.75
465.854	103.75
466.073	102.75
466.293	94.75
466.512	95.75
466.732	87.75
466.951	89.75
467.171	108.75
467.391	109.75
467.61	177.75
467.829	291.75
468.049	816.75
468.268	1206.75
468.488	297.75
468.707	133.75
468.927	105.75
469.146	114.75
469.365	99.75
469.585	95.75
469.804	121.75
470.023	111.75
470.243	120.75
470.462	146.75
470.681	173.75
470.901	119.75
471.12	122.75
471.339	133.75
471.558	139.75
471.777	187.75
471.997	406.75
472.216	1627.75
472.435	3655.75
472.654	787.75
472.873	203.75
473.092	124.75
473.311	112.75
473.53	105.75
473.749	104.75
473.968	118.75
474.187	128.75
474.406	113.75
474.625	107.75
474.844	108.75
475.063	98.75
475.282	103.75
475.501	88.75
475.72	107.75
475.939	109.75
476.158	85.75
476.377	97.75
476.596	96.75
476.814	108.75
477.033	99.75
477.252	80.75
477.471	105.75
477.69	105.75
477.908	96.75
478.127	90.75
478.346	106.75
478.564	103.75
478.783	119.75
479.002	121.75
479.22	118.75
479.439	149.75
479.658	165.75
479.876	132.75
480.095	140.75
480.313	163.75
480.532	203.75
480.751	362.75
480.969	1429.75
481.188	6263.75
481.406	3440.75
481.624	478.75
481.843	168.75
482.061	119.75
482.28	107.75
482.498	116.75
482.717	102.75
482.935	97.75
483.153	112.75
483.372	122.75
483.59	95.75
483.808	89.75
484.027	91.75
484.245	95.75
484.463	115.75
484.681	113.75
484.9	97.75
485.118	110.75
485.336	107.75
485.554	105.75
485.772	93.75
485.99	107.75
486.209	115.75
486.427	141.75
486.645	141.75
486.863	166.75
487.081	121.75
487.299	113.75
487.517	112.75
487.735	90.75
487.953	104.75
488.171	105.75
488.389	108.75
488.607	110.75
488.825	90.75
489.043	98.75
489.261	102.75
489.479	101.75
489.696	92.75
489.914	94.75
490.132	96.75
490.35	86.75
490.568	114.75
490.786	111.75
491.003	94.75
491.221	102.75
491.439	88.75
491.657	97.75
491.874	107.75
492.092	89.75
492.31	97.75
492.527	106.75
492.745	105.75
492.963	98.75
493.18	83.75
493.398	102.75
493.615	99.75
493.833	88.75
494.05	92.75
494.268	104.75
494.485	103.75
494.703	96.75
494.92	89.75
495.138	88.75
495.355	89.75
495.573	85.75
495.79	100.75
496.008	97.75
496.225	100.75
496.442	102.75
496.66	101.75
496.877	94.75
497.094	115.75
497.312	106.75
497.529	93.75
497.746	99.75
497.963	92.75
498.181	99.75
498.398	111.75
498.615	111.75
498.832	116.75
499.049	105.75
499.267	106.75
499.484	91.75
499.701	98.75
499.918	99.75
500.135	115.75
500.352	95.75
500.569	107.75
500.786	91.75
501.003	99.75
501.22	96.75
501.437	92.75
501.654	100.75
501.871	136.75
502.088	102.75
502.305	98.75
502.522	86.75
502.739	99.75
502.956	99.75
503.172	101.75
503.389	119.75
503.606	156.75
503.823	113.75
504.04	103.75
504.256	92.75
504.473	102.75
504.69	98.75
504.907	107.75
505.123	96.75
505.34	93.75
505.557	108.75
505.773	98.75
505.99	94.75
506.207	88.75
506.423	100.75
506.64	94.75
506.856	99.75
507.073	92.75
507.289	95.75
507.506	113.75
507.722	156.75
507.939	167.75
508.155	108.75
508.372	118.75
508.588	95.75
508.805	98.75
509.021	104.75
509.238	113.75
509.454	100.75
509.67	115.75
509.887	130.75
510.103	186.75
510.319	320.75
510.536	1359.75
510.752	4978.75
