Data from Circ_1999_H10_HRD10591_00005.txt Node
Date: Wed Jan 03 11:23:13 EST 2024
User: Yrep
Spectrometer: HR+D1059
Trigger mode: 1
Integration Time (sec): 1.000000E-1
Scans to average: 1
Electric dark correction enabled: true
Nonlinearity correction enabled: false
Boxcar width: 0
XAxis mode: Wavelengths
Number of Pixels in Spectrum: 2048
>>>>>Begin Spectral Data<<<<<
223.165	-17.56
223.4	-17.56
223.635	-17.56
223.869	-6.56
224.104	-21.56
224.338	-17.56
224.573	-18.56
224.808	-9.56
225.042	-1.56
225.277	7.44
225.511	-2.56
225.746	11.44
225.98	6.44
226.215	-5.56
226.449	18.44
226.683	16.44
226.918	15.44
227.152	25.44
227.387	40.44
227.621	41.44
227.856	51.44
228.09	56.44
228.324	40.44
228.559	46.44
228.793	58.44
229.027	66.44
229.262	63.44
229.496	81.44
229.73	103.44
229.964	93.44
230.199	79.44
230.433	82.44
230.667	92.44
230.901	75.44
231.136	84.44
231.37	73.44
231.604	77.44
231.838	95.44
232.072	90.44
232.306	80.44
232.541	66.44
232.775	85.44
233.009	92.44
233.243	74.44
233.477	83.44
233.711	87.44
233.945	84.44
234.179	76.44
234.413	82.44
234.647	90.44
234.881	79.44
235.115	76.44
235.349	80.44
235.583	78.44
235.817	80.44
236.051	75.44
236.285	74.44
236.519	97.44
236.753	80.44
236.987	82.44
237.221	106.44
237.455	99.44
237.689	74.44
237.922	74.44
238.156	84.44
238.39	58.44
238.624	93.44
238.858	92.44
239.091	73.44
239.325	77.44
239.559	83.44
239.793	87.44
240.027	83.44
240.26	83.44
240.494	85.44
240.728	77.44
240.961	80.44
241.195	80.44
241.429	84.44
241.662	70.44
241.896	76.44
242.13	76.44
242.363	84.44
242.597	78.44
242.83	82.44
243.064	78.44
243.298	88.44
243.531	82.44
243.765	95.44
243.998	82.44
244.232	89.44
244.465	86.44
244.699	79.44
244.932	73.44
245.166	82.44
245.399	75.44
245.633	79.44
245.866	84.44
246.099	79.44
246.333	71.44
246.566	84.44
246.8	97.44
247.033	84.44
247.266	92.44
247.5	80.44
247.733	100.44
247.966	79.44
248.2	89.44
248.433	90.44
248.666	94.44
248.899	94.44
249.133	97.44
249.366	94.44
249.599	99.44
249.832	83.44
250.066	80.44
250.299	95.44
250.532	94.44
250.765	84.44
250.998	89.44
251.231	89.44
251.465	75.44
251.698	86.44
251.931	92.44
252.164	87.44
252.397	96.44
252.63	87.44
252.863	104.44
253.096	85.44
253.329	92.44
253.562	83.44
253.795	87.44
254.028	82.44
254.261	96.44
254.494	96.44
254.727	91.44
254.96	86.44
255.193	90.44
255.426	79.44
255.659	87.44
255.892	95.44
256.124	96.44
256.357	91.44
256.59	86.44
256.823	86.44
257.056	96.44
257.289	87.44
257.521	86.44
257.754	81.44
257.987	82.44
258.22	87.44
258.452	94.44
258.685	102.44
258.918	88.44
259.151	95.44
259.383	82.44
259.616	78.44
259.849	100.44
260.081	89.44
260.314	91.44
260.547	87.44
260.779	79.44
261.012	92.44
261.244	99.44
261.477	97.44
261.71	98.44
261.942	124.44
262.175	147.44
262.407	94.44
262.64	86.44
262.872	82.44
263.105	71.44
263.337	91.44
263.57	89.44
263.802	91.44
264.035	90.44
264.267	84.44
264.499	84.44
264.732	80.44
264.964	102.44
265.197	93.44
265.429	87.44
265.661	81.44
265.894	84.44
266.126	87.44
266.358	82.44
266.591	90.44
266.823	81.44
267.055	89.44
267.287	92.44
267.52	92.44
267.752	105.44
267.984	86.44
268.216	82.44
268.448	98.44
268.681	78.44
268.913	79.44
269.145	82.44
269.377	100.44
269.609	80.44
269.841	91.44
270.073	95.44
270.306	94.44
270.538	86.44
270.77	90.44
271.002	87.44
271.234	92.44
271.466	97.44
271.698	88.44
271.93	87.44
272.162	80.44
272.394	94.44
272.626	95.44
272.858	86.44
273.09	95.44
273.322	95.44
273.553	87.44
273.785	74.44
274.017	76.44
274.249	92.44
274.481	80.44
274.713	89.44
274.945	89.44
275.176	93.44
275.408	105.44
275.64	98.44
275.872	119.44
276.104	99.44
276.335	105.44
276.567	122.44
276.799	151.44
277.031	165.44
277.262	174.44
277.494	131.44
277.726	94.44
277.957	99.44
278.189	95.44
278.421	103.44
278.652	96.44
278.884	94.44
279.115	110.44
279.347	96.44
279.579	99.44
279.81	120.44
280.042	172.44
280.273	220.44
280.505	154.44
280.736	102.44
280.968	94.44
281.199	96.44
281.431	89.44
281.662	100.44
281.894	104.44
282.125	126.44
282.356	138.44
282.588	187.44
282.819	147.44
283.051	103.44
283.282	96.44
283.513	94.44
283.745	102.44
283.976	88.44
284.207	83.44
284.439	88.44
284.67	99.44
284.901	82.44
285.132	88.44
285.364	84.44
285.595	82.44
285.826	91.44
286.057	88.44
286.288	98.44
286.52	104.44
286.751	87.44
286.982	90.44
287.213	80.44
287.444	90.44
287.675	91.44
287.906	96.44
288.138	95.44
288.369	103.44
288.6	99.44
288.831	81.44
289.062	103.44
289.293	108.44
289.524	87.44
289.755	95.44
289.986	99.44
290.217	92.44
290.448	88.44
290.679	95.44
290.91	107.44
291.141	100.44
291.371	76.44
291.602	96.44
291.833	85.44
292.064	97.44
292.295	87.44
292.526	79.44
292.757	97.44
292.987	95.44
293.218	99.44
293.449	90.44
293.68	99.44
293.91	95.44
294.141	92.44
294.372	89.44
294.603	98.44
294.833	86.44
295.064	104.44
295.295	93.44
295.525	98.44
295.756	88.44
295.987	125.44
296.217	176.44
296.448	172.44
296.679	101.44
296.909	96.44
297.14	90.44
297.37	94.44
297.601	99.44
297.831	91.44
298.062	95.44
298.292	100.44
298.523	97.44
298.753	86.44
298.984	100.44
299.214	87.44
299.445	92.44
299.675	105.44
299.905	102.44
300.136	87.44
300.366	92.44
300.597	84.44
300.827	101.44
301.057	109.44
301.288	111.44
301.518	110.44
301.748	91.44
301.979	116.44
302.209	92.44
302.439	108.44
302.669	93.44
302.9	94.44
303.13	104.44
303.36	117.44
303.59	131.44
303.82	161.44
304.051	126.44
304.281	98.44
304.511	95.44
304.741	104.44
304.971	83.44
305.201	102.44
305.431	92.44
305.661	97.44
305.891	91.44
306.121	103.44
306.352	103.44
306.582	110.44
306.812	103.44
307.042	116.44
307.272	158.44
307.502	147.44
307.731	167.44
307.961	121.44
308.191	107.44
308.421	91.44
308.651	111.44
308.881	104.44
309.111	92.44
309.341	100.44
309.571	126.44
309.8	114.44
310.03	118.44
310.26	109.44
310.49	116.44
310.72	114.44
310.949	135.44
311.179	118.44
311.409	118.44
311.639	111.44
311.868	113.44
312.098	103.44
312.328	102.44
312.557	129.44
312.787	149.44
313.017	121.44
313.246	94.44
313.476	96.44
313.706	107.44
313.935	110.44
314.165	116.44
314.394	119.44
314.624	121.44
314.853	115.44
315.083	96.44
315.312	94.44
315.542	96.44
315.771	91.44
316.001	82.44
316.23	102.44
316.46	86.44
316.689	94.44
316.919	108.44
317.148	112.44
317.377	107.44
317.607	98.44
317.836	98.44
318.065	101.44
318.295	108.44
318.524	99.44
318.753	80.44
318.983	109.44
319.212	109.44
319.441	119.44
319.67	119.44
319.9	104.44
320.129	106.44
320.358	103.44
320.587	121.44
320.816	120.44
321.046	115.44
321.275	108.44
321.504	99.44
321.733	103.44
321.962	104.44
322.191	105.44
322.42	111.44
322.649	137.44
322.878	120.44
323.108	114.44
323.337	159.44
323.566	139.44
323.795	180.44
324.024	236.44
324.253	441.44
324.482	906.44
324.71	1848.44
324.939	2382.44
325.168	864.44
325.397	284.44
325.626	170.44
325.855	137.44
326.084	136.44
326.313	137.44
326.542	154.44
326.77	253.44
326.999	460.44
327.228	936.44
327.457	1668.44
327.686	1352.44
327.914	523.44
328.143	462.44
328.372	584.44
328.6	334.44
328.829	200.44
329.058	202.44
329.287	202.44
329.515	178.44
329.744	235.44
329.972	432.44
330.201	874.44
330.43	1239.44
330.658	552.44
330.887	298.44
331.115	199.44
331.344	142.44
331.572	123.44
331.801	134.44
332.03	127.44
332.258	118.44
332.486	111.44
332.715	110.44
332.943	106.44
333.172	121.44
333.4	133.44
333.629	159.44
333.857	223.44
334.085	402.44
334.314	841.44
334.542	1611.44
334.771	1399.44
334.999	390.44
335.227	162.44
335.455	124.44
335.684	100.44
335.912	115.44
336.14	128.44
336.369	108.44
336.597	113.44
336.825	114.44
337.053	105.44
337.281	100.44
337.51	99.44
337.738	107.44
337.966	103.44
338.194	119.44
338.422	102.44
338.65	99.44
338.878	111.44
339.106	107.44
339.334	108.44
339.562	104.44
339.79	96.44
340.018	97.44
340.246	103.44
340.474	106.44
340.702	94.44
340.93	100.44
341.158	97.44
341.386	109.44
341.614	108.44
341.842	98.44
342.07	103.44
342.298	82.44
342.526	110.44
342.754	115.44
342.981	82.44
343.209	92.44
343.437	105.44
343.665	90.44
343.893	86.44
344.12	104.44
344.348	96.44
344.576	114.44
344.804	111.44
345.031	114.44
345.259	107.44
345.487	98.44
345.714	87.44
345.942	107.44
346.17	106.44
346.397	107.44
346.625	84.44
346.853	101.44
347.08	90.44
347.308	89.44
347.535	127.44
347.763	100.44
347.99	108.44
348.218	112.44
348.445	118.44
348.673	121.44
348.9	97.44
349.128	97.44
349.355	104.44
349.583	90.44
349.81	99.44
350.037	93.44
350.265	98.44
350.492	100.44
350.72	107.44
350.947	94.44
351.174	119.44
351.402	131.44
351.629	123.44
351.856	112.44
352.083	106.44
352.311	127.44
352.538	131.44
352.765	125.44
352.992	128.44
353.22	120.44
353.447	107.44
353.674	107.44
353.901	94.44
354.128	90.44
354.355	95.44
354.583	92.44
354.81	111.44
355.037	100.44
355.264	100.44
355.491	98.44
355.718	104.44
355.945	100.44
356.172	94.44
356.399	96.44
356.626	104.44
356.853	100.44
357.08	94.44
357.307	100.44
357.534	101.44
357.761	82.44
357.988	101.44
358.215	103.44
358.441	108.44
358.668	97.44
358.895	95.44
359.122	106.44
359.349	94.44
359.576	106.44
359.802	126.44
360.029	149.44
360.256	146.44
360.483	108.44
360.709	114.44
360.936	106.44
361.163	115.44
361.39	111.44
361.616	110.44
361.843	88.44
362.07	111.44
362.296	92.44
362.523	91.44
362.749	117.44
362.976	116.44
363.203	103.44
363.429	96.44
363.656	87.44
363.882	86.44
364.109	93.44
364.335	94.44
364.562	99.44
364.788	100.44
365.015	104.44
365.241	112.44
365.468	120.44
365.694	124.44
365.92	111.44
366.147	82.44
366.373	103.44
366.599	97.44
366.826	102.44
367.052	102.44
367.278	89.44
367.505	95.44
367.731	94.44
367.957	88.44
368.184	99.44
368.41	104.44
368.636	123.44
368.862	113.44
369.089	130.44
369.315	107.44
369.541	100.44
369.767	91.44
369.993	97.44
370.219	97.44
370.445	108.44
370.672	103.44
370.898	95.44
371.124	88.44
371.35	84.44
371.576	103.44
371.802	82.44
372.028	90.44
372.254	95.44
372.48	85.44
372.706	104.44
372.932	97.44
373.158	82.44
373.384	99.44
373.61	109.44
373.835	92.44
374.061	90.44
374.287	93.44
374.513	83.44
374.739	88.44
374.965	97.44
375.191	89.44
375.416	90.44
375.642	82.44
375.868	92.44
376.094	83.44
376.319	88.44
376.545	98.44
376.771	100.44
376.997	94.44
377.222	93.44
377.448	86.44
377.674	93.44
377.899	95.44
378.125	86.44
378.35	102.44
378.576	112.44
378.802	96.44
379.027	105.44
379.253	112.44
379.478	99.44
379.704	95.44
379.929	112.44
380.155	104.44
380.38	95.44
380.606	117.44
380.831	107.44
381.057	94.44
381.282	105.44
381.507	93.44
381.733	119.44
381.958	106.44
382.184	100.44
382.409	104.44
382.634	115.44
382.86	110.44
383.085	104.44
383.31	122.44
383.535	113.44
383.761	114.44
383.986	118.44
384.211	119.44
384.436	116.44
384.662	123.44
384.887	128.44
385.112	128.44
385.337	111.44
385.562	124.44
385.787	132.44
386.013	146.44
386.238	157.44
386.463	130.44
386.688	141.44
386.913	125.44
387.138	131.44
387.363	129.44
387.588	118.44
387.813	116.44
388.038	118.44
388.263	134.44
388.488	142.44
388.713	105.44
388.938	88.44
389.163	93.44
389.387	80.44
389.612	92.44
389.837	104.44
390.062	92.44
390.287	107.44
390.512	94.44
390.736	99.44
390.961	91.44
391.186	88.44
391.411	83.44
391.636	86.44
391.86	94.44
392.085	90.44
392.31	92.44
392.534	90.44
392.759	100.44
392.984	89.44
393.208	104.44
393.433	104.44
393.658	100.44
393.882	89.44
394.107	96.44
394.331	93.44
394.556	108.44
394.78	95.44
395.005	88.44
395.229	96.44
395.454	100.44
395.678	92.44
395.903	92.44
396.127	97.44
396.352	97.44
396.576	94.44
396.801	77.44
397.025	90.44
397.249	84.44
397.474	107.44
397.698	108.44
397.922	106.44
398.147	87.44
398.371	94.44
398.595	90.44
398.82	83.44
399.044	95.44
399.268	109.44
399.492	95.44
399.717	92.44
399.941	88.44
400.165	91.44
400.389	111.44
400.613	82.44
400.837	78.44
401.062	92.44
401.286	81.44
401.51	91.44
401.734	98.44
401.958	107.44
402.182	153.44
402.406	238.44
402.63	130.44
402.854	118.44
403.078	102.44
403.302	87.44
403.526	107.44
403.75	88.44
403.974	101.44
404.198	107.44
404.422	87.44
404.645	99.44
404.869	98.44
405.093	111.44
405.317	129.44
405.541	153.44
405.765	122.44
405.988	146.44
406.212	245.44
406.436	328.44
406.66	216.44
406.883	134.44
407.107	123.44
407.331	121.44
407.555	114.44
407.778	109.44
408.002	90.44
408.226	98.44
408.449	84.44
408.673	89.44
408.896	100.44
409.12	106.44
409.344	99.44
409.567	95.44
409.791	91.44
410.014	106.44
410.238	87.44
410.461	96.44
410.685	103.44
410.908	102.44
411.132	107.44
411.355	123.44
411.578	90.44
411.802	103.44
412.025	88.44
412.249	108.44
412.472	127.44
412.695	143.44
412.919	104.44
413.142	105.44
413.365	84.44
413.589	86.44
413.812	92.44
414.035	98.44
414.258	111.44
414.482	90.44
414.705	102.44
414.928	100.44
415.151	116.44
415.374	119.44
415.597	86.44
415.821	100.44
416.044	100.44
416.267	98.44
416.49	88.44
416.713	91.44
416.936	94.44
417.159	92.44
417.382	101.44
417.605	107.44
417.828	109.44
418.051	87.44
418.274	103.44
418.497	102.44
418.72	86.44
418.943	89.44
419.166	84.44
419.389	80.44
419.611	87.44
419.834	106.44
420.057	101.44
420.28	112.44
420.503	98.44
420.726	82.44
420.948	94.44
421.171	115.44
421.394	113.44
421.617	79.44
421.839	108.44
422.062	93.44
422.285	111.44
422.507	105.44
422.73	119.44
422.953	111.44
423.175	103.44
423.398	97.44
423.621	96.44
423.843	101.44
424.066	96.44
424.288	90.44
424.511	106.44
424.733	108.44
424.956	118.44
425.178	114.44
425.401	113.44
425.623	97.44
425.846	113.44
426.068	87.44
426.291	117.44
426.513	100.44
426.735	101.44
426.958	106.44
427.18	126.44
427.402	166.44
427.625	268.44
427.847	234.44
428.069	192.44
428.292	121.44
428.514	94.44
428.736	82.44
428.958	87.44
429.181	109.44
429.403	99.44
429.625	91.44
429.847	95.44
430.069	109.44
430.292	100.44
430.514	90.44
430.736	76.44
430.958	88.44
431.18	89.44
431.402	93.44
431.624	93.44
431.846	86.44
432.068	83.44
432.29	100.44
432.512	86.44
432.734	95.44
432.956	104.44
433.178	95.44
433.4	100.44
433.622	91.44
433.844	91.44
434.066	100.44
434.287	96.44
434.509	87.44
434.731	87.44
434.953	87.44
435.175	95.44
435.397	94.44
435.618	89.44
435.84	108.44
436.062	125.44
436.284	133.44
436.505	100.44
436.727	111.44
436.949	102.44
437.17	92.44
437.392	105.44
437.614	107.44
437.835	139.44
438.057	164.44
438.278	125.44
438.5	113.44
438.721	152.44
438.943	119.44
439.165	80.44
439.386	92.44
439.608	106.44
439.829	116.44
440.05	151.44
440.272	174.44
440.493	110.44
440.715	93.44
440.936	88.44
441.158	90.44
441.379	82.44
441.6	93.44
441.822	93.44
442.043	114.44
442.264	109.44
442.486	102.44
442.707	109.44
442.928	137.44
443.149	175.44
443.371	178.44
443.592	144.44
443.813	148.44
444.034	129.44
444.255	102.44
444.476	91.44
444.698	88.44
444.919	77.44
445.14	144.44
445.361	131.44
445.582	116.44
445.803	190.44
446.024	180.44
446.245	168.44
446.466	122.44
446.687	95.44
446.908	93.44
447.129	95.44
447.35	103.44
447.571	104.44
447.792	70.44
448.013	104.44
448.234	139.44
448.455	114.44
448.675	160.44
448.896	152.44
449.117	114.44
449.338	125.44
449.559	151.44
449.779	174.44
450	95.44
450.221	102.44
450.442	96.44
450.662	107.44
450.883	121.44
451.104	130.44
451.324	100.44
451.545	108.44
451.766	103.44
451.986	93.44
452.207	94.44
452.428	92.44
452.648	107.44
452.869	142.44
453.089	127.44
453.31	144.44
453.53	105.44
453.751	108.44
453.971	120.44
454.192	135.44
454.412	106.44
454.633	99.44
454.853	90.44
455.073	88.44
455.294	111.44
455.514	126.44
455.734	97.44
455.955	80.44
456.175	85.44
456.395	91.44
456.616	91.44
456.836	84.44
457.056	94.44
457.276	70.44
457.497	91.44
457.717	91.44
457.937	97.44
458.157	95.44
458.377	93.44
458.598	126.44
458.818	207.44
459.038	243.44
459.258	150.44
459.478	106.44
459.698	79.44
459.918	91.44
460.138	82.44
460.358	111.44
460.578	94.44
460.798	97.44
461.018	89.44
461.238	93.44
461.458	91.44
461.678	87.44
461.898	90.44
462.118	99.44
462.338	95.44
462.558	95.44
462.777	93.44
462.997	95.44
463.217	75.44
463.437	102.44
463.657	91.44
463.876	99.44
464.096	106.44
464.316	107.44
464.536	97.44
464.755	110.44
464.975	162.44
465.195	256.44
465.414	256.44
465.634	115.44
465.854	96.44
466.073	83.44
466.293	82.44
466.512	74.44
466.732	100.44
466.951	95.44
467.171	107.44
467.391	121.44
467.61	135.44
467.829	190.44
468.049	482.44
468.268	702.44
468.488	189.44
468.707	102.44
468.927	98.44
469.146	99.44
469.365	98.44
469.585	93.44
469.804	118.44
470.023	125.44
470.243	113.44
470.462	118.44
470.681	135.44
470.901	117.44
471.12	117.44
471.339	112.44
471.558	121.44
471.777	136.44
471.997	269.44
472.216	960.44
472.435	2147.44
472.654	499.44
472.873	152.44
473.092	113.44
473.311	107.44
473.53	95.44
473.749	102.44
473.968	113.44
474.187	142.44
474.406	114.44
474.625	95.44
474.844	102.44
475.063	92.44
475.282	99.44
475.501	91.44
475.72	88.44
475.939	84.44
476.158	88.44
476.377	96.44
476.596	98.44
476.814	114.44
477.033	96.44
477.252	91.44
477.471	91.44
477.69	101.44
477.908	96.44
478.127	111.44
478.346	86.44
478.564	102.44
478.783	104.44
479.002	106.44
479.22	127.44
479.439	132.44
479.658	135.44
479.876	129.44
480.095	114.44
480.313	133.44
480.532	170.44
480.751	261.44
480.969	919.44
481.188	3681.44
481.406	2112.44
481.624	321.44
481.843	138.44
482.061	108.44
482.28	99.44
482.498	88.44
482.717	100.44
482.935	90.44
483.153	88.44
483.372	111.44
483.59	99.44
483.808	100.44
484.027	96.44
484.245	102.44
484.463	85.44
484.681	96.44
484.9	95.44
485.118	100.44
485.336	97.44
485.554	103.44
485.772	116.44
485.99	113.44
486.209	100.44
486.427	119.44
486.645	129.44
486.863	139.44
487.081	125.44
487.299	105.44
487.517	105.44
487.735	94.44
487.953	100.44
488.171	100.44
488.389	105.44
488.607	103.44
488.825	108.44
489.043	92.44
489.261	90.44
489.479	93.44
489.696	83.44
489.914	99.44
490.132	86.44
490.35	102.44
490.568	78.44
490.786	99.44
491.003	100.44
491.221	99.44
491.439	97.44
491.657	100.44
491.874	104.44
492.092	95.44
492.31	107.44
492.527	98.44
492.745	100.44
492.963	110.44
493.18	97.44
493.398	94.44
493.615	94.44
493.833	92.44
494.05	90.44
494.268	102.44
494.485	94.44
494.703	102.44
494.92	109.44
495.138	103.44
495.355	100.44
495.573	88.44
495.79	83.44
496.008	110.44
496.225	90.44
496.442	92.44
496.66	94.44
496.877	100.44
497.094	107.44
497.312	95.44
497.529	111.44
497.746	88.44
497.963	102.44
498.181	103.44
498.398	98.44
498.615	108.44
498.832	111.44
499.049	98.44
499.267	82.44
499.484	93.44
499.701	92.44
499.918	100.44
500.135	96.44
500.352	87.44
500.569	103.44
500.786	98.44
501.003	92.44
501.22	82.44
501.437	84.44
501.654	106.44
501.871	134.44
502.088	94.44
502.305	100.44
502.522	96.44
502.739	90.44
502.956	103.44
503.172	92.44
503.389	120.44
503.606	129.44
503.823	115.44
504.04	106.44
504.256	101.44
504.473	103.44
504.69	97.44
504.907	87.44
505.123	86.44
505.34	93.44
505.557	93.44
505.773	99.44
505.99	114.44
506.207	93.44
506.423	112.44
506.64	104.44
506.856	96.44
507.073	106.44
507.289	105.44
507.506	121.44
507.722	138.44
507.939	147.44
508.155	109.44
508.372	92.44
508.588	107.44
508.805	111.44
509.021	109.44
509.238	119.44
509.454	127.44
509.67	110.44
509.887	109.44
510.103	152.44
510.319	276.44
510.536	1084.44
510.752	3779.44
510.968	990.44
511.184	192.44
