Data from Circ_1999_H10_HRD10591_00062.txt Node
Date: Wed Jan 03 11:23:25 EST 2024
User: Yrep
Spectrometer: HR+D1059
Trigger mode: 1
Integration Time (sec): 1.000000E-1
Scans to average: 1
Electric dark correction enabled: true
Nonlinearity correction enabled: false
Boxcar width: 0
XAxis mode: Wavelengths
Number of Pixels in Spectrum: 2048
>>>>>Begin Spectral Data<<<<<
223.165	-21.5
223.4	-21.5
223.635	-21.5
223.869	-35.5
224.104	-16.5
224.338	-9.5
224.573	-3.5
224.808	-8.5
225.042	-5.5
225.277	-10.5
225.511	-3.5
225.746	0.5
225.98	8.5
226.215	15.5
226.449	21.5
226.683	16.5
226.918	14.5
227.152	37.5
227.387	36.5
227.621	46.5
227.856	48.5
228.09	41.5
228.324	55.5
228.559	73.5
228.793	46.5
229.027	65.5
229.262	72.5
229.496	70.5
229.73	98.5
229.964	95.5
230.199	76.5
230.433	66.5
230.667	74.5
230.901	68.5
231.136	79.5
231.37	72.5
231.604	72.5
231.838	82.5
232.072	79.5
232.306	80.5
232.541	75.5
232.775	81.5
233.009	86.5
233.243	82.5
233.477	83.5
233.711	96.5
233.945	78.5
234.179	85.5
234.413	77.5
234.647	76.5
234.881	79.5
235.115	71.5
235.349	86.5
235.583	91.5
235.817	69.5
236.051	90.5
236.285	80.5
236.519	84.5
236.753	77.5
236.987	77.5
237.221	89.5
237.455	89.5
237.689	63.5
237.922	78.5
238.156	68.5
238.39	71.5
238.624	77.5
238.858	79.5
239.091	80.5
239.325	74.5
239.559	94.5
239.793	88.5
240.027	74.5
240.26	98.5
240.494	84.5
240.728	63.5
240.961	73.5
241.195	88.5
241.429	82.5
241.662	65.5
241.896	87.5
242.13	68.5
242.363	85.5
242.597	65.5
242.83	73.5
243.064	70.5
243.298	86.5
243.531	77.5
243.765	79.5
243.998	71.5
244.232	80.5
244.465	87.5
244.699	90.5
244.932	79.5
245.166	77.5
245.399	80.5
245.633	88.5
245.866	73.5
246.099	89.5
246.333	81.5
246.566	79.5
246.8	80.5
247.033	77.5
247.266	78.5
247.5	81.5
247.733	72.5
247.966	83.5
248.2	86.5
248.433	78.5
248.666	88.5
248.899	84.5
249.133	92.5
249.366	98.5
249.599	103.5
249.832	74.5
250.066	92.5
250.299	95.5
250.532	90.5
250.765	98.5
250.998	88.5
251.231	100.5
251.465	86.5
251.698	93.5
251.931	81.5
252.164	81.5
252.397	88.5
252.63	80.5
252.863	69.5
253.096	80.5
253.329	86.5
253.562	76.5
253.795	72.5
254.028	80.5
254.261	74.5
254.494	83.5
254.727	83.5
254.96	81.5
255.193	88.5
255.426	84.5
255.659	82.5
255.892	89.5
256.124	98.5
256.357	93.5
256.59	81.5
256.823	76.5
257.056	84.5
257.289	87.5
257.521	101.5
257.754	85.5
257.987	73.5
258.22	109.5
258.452	101.5
258.685	103.5
258.918	98.5
259.151	85.5
259.383	84.5
259.616	86.5
259.849	75.5
260.081	87.5
260.314	83.5
260.547	83.5
260.779	93.5
261.012	112.5
261.244	114.5
261.477	96.5
261.71	122.5
261.942	154.5
262.175	161.5
262.407	104.5
262.64	82.5
262.872	78.5
263.105	85.5
263.337	86.5
263.57	85.5
263.802	90.5
264.035	92.5
264.267	91.5
264.499	70.5
264.732	83.5
264.964	71.5
265.197	92.5
265.429	93.5
265.661	88.5
265.894	76.5
266.126	92.5
266.358	72.5
266.591	84.5
266.823	85.5
267.055	73.5
267.287	87.5
267.52	108.5
267.752	80.5
267.984	102.5
268.216	84.5
268.448	73.5
268.681	92.5
268.913	75.5
269.145	86.5
269.377	69.5
269.609	85.5
269.841	102.5
270.073	90.5
270.306	86.5
270.538	82.5
270.77	84.5
271.002	94.5
271.234	88.5
271.466	110.5
271.698	85.5
271.93	87.5
272.162	89.5
272.394	90.5
272.626	74.5
272.858	90.5
273.09	79.5
273.322	89.5
273.553	97.5
273.785	100.5
274.017	85.5
274.249	86.5
274.481	99.5
274.713	97.5
274.945	102.5
275.176	103.5
275.408	120.5
275.64	118.5
275.872	142.5
276.104	116.5
276.335	109.5
276.567	124.5
276.799	167.5
277.031	192.5
277.262	228.5
277.494	154.5
277.726	102.5
277.957	93.5
278.189	90.5
278.421	85.5
278.652	95.5
278.884	107.5
279.115	92.5
279.347	99.5
279.579	101.5
279.81	142.5
280.042	233.5
280.273	313.5
280.505	214.5
280.736	118.5
280.968	113.5
281.199	85.5
281.431	87.5
281.662	84.5
281.894	103.5
282.125	116.5
282.356	158.5
282.588	196.5
282.819	156.5
283.051	95.5
283.282	106.5
283.513	93.5
283.745	97.5
283.976	88.5
284.207	89.5
284.439	90.5
284.67	94.5
284.901	85.5
285.132	98.5
285.364	84.5
285.595	91.5
285.826	97.5
286.057	96.5
286.288	80.5
286.52	86.5
286.751	87.5
286.982	75.5
287.213	83.5
287.444	89.5
287.675	88.5
287.906	106.5
288.138	82.5
288.369	106.5
288.6	108.5
288.831	84.5
289.062	92.5
289.293	86.5
289.524	96.5
289.755	83.5
289.986	89.5
290.217	78.5
290.448	100.5
290.679	95.5
290.91	79.5
291.141	89.5
291.371	102.5
291.602	97.5
291.833	93.5
292.064	100.5
292.295	103.5
292.526	80.5
292.757	91.5
292.987	79.5
293.218	84.5
293.449	95.5
293.68	80.5
293.91	88.5
294.141	95.5
294.372	95.5
294.603	84.5
294.833	99.5
295.064	85.5
295.295	88.5
295.525	108.5
295.756	110.5
295.987	150.5
296.217	190.5
296.448	177.5
296.679	107.5
296.909	90.5
297.14	84.5
297.37	90.5
297.601	71.5
297.831	102.5
298.062	92.5
298.292	89.5
298.523	99.5
298.753	103.5
298.984	93.5
299.214	95.5
299.445	108.5
299.675	116.5
299.905	98.5
300.136	89.5
300.366	90.5
300.597	89.5
300.827	98.5
301.057	111.5
301.288	125.5
301.518	104.5
301.748	109.5
301.979	112.5
302.209	114.5
302.439	102.5
302.669	105.5
302.9	103.5
303.13	104.5
303.36	116.5
303.59	153.5
303.82	155.5
304.051	127.5
304.281	113.5
304.511	88.5
304.741	89.5
304.971	86.5
305.201	90.5
305.431	97.5
305.661	87.5
305.891	83.5
306.121	113.5
306.352	108.5
306.582	126.5
306.812	129.5
307.042	134.5
307.272	187.5
307.502	216.5
307.731	221.5
307.961	141.5
308.191	99.5
308.421	83.5
308.651	91.5
308.881	98.5
309.111	95.5
309.341	90.5
309.571	111.5
309.8	110.5
310.03	109.5
310.26	110.5
310.49	87.5
310.72	93.5
310.949	142.5
311.179	116.5
311.409	98.5
311.639	108.5
311.868	105.5
312.098	98.5
312.328	114.5
312.557	120.5
312.787	124.5
313.017	114.5
313.246	103.5
313.476	95.5
313.706	95.5
313.935	102.5
314.165	123.5
314.394	116.5
314.624	106.5
314.853	101.5
315.083	96.5
315.312	97.5
315.542	104.5
315.771	97.5
316.001	104.5
316.23	95.5
316.46	83.5
316.689	109.5
316.919	112.5
317.148	112.5
317.377	112.5
317.607	104.5
317.836	111.5
318.065	102.5
318.295	100.5
318.524	106.5
318.753	97.5
318.983	96.5
319.212	110.5
319.441	121.5
319.67	135.5
319.9	91.5
320.129	86.5
320.358	102.5
320.587	113.5
320.816	110.5
321.046	104.5
321.275	101.5
321.504	107.5
321.733	110.5
321.962	120.5
322.191	127.5
322.42	120.5
322.649	126.5
322.878	134.5
323.108	143.5
323.337	159.5
323.566	167.5
323.795	189.5
324.024	259.5
324.253	524.5
324.482	1087.5
324.71	2201.5
324.939	2827.5
325.168	1048.5
325.397	311.5
325.626	187.5
325.855	165.5
326.084	159.5
326.313	150.5
326.542	186.5
326.77	272.5
326.999	546.5
327.228	1100.5
327.457	1957.5
327.686	1630.5
327.914	624.5
328.143	653.5
328.372	848.5
328.6	453.5
328.829	222.5
329.058	225.5
329.287	240.5
329.515	210.5
329.744	310.5
329.972	612.5
330.201	1270.5
330.43	1827.5
330.658	820.5
330.887	358.5
331.115	220.5
331.344	144.5
331.572	137.5
331.801	150.5
332.03	143.5
332.258	136.5
332.486	118.5
332.715	119.5
332.943	107.5
333.172	135.5
333.4	139.5
333.629	199.5
333.857	274.5
334.085	525.5
334.314	1153.5
334.542	2255.5
334.771	2062.5
334.999	526.5
335.227	209.5
335.455	148.5
335.684	122.5
335.912	116.5
336.14	122.5
336.369	112.5
336.597	121.5
336.825	109.5
337.053	96.5
337.281	100.5
337.51	101.5
337.738	108.5
337.966	114.5
338.194	112.5
338.422	122.5
338.65	90.5
338.878	92.5
339.106	91.5
339.334	93.5
339.562	98.5
339.79	101.5
340.018	96.5
340.246	100.5
340.474	105.5
340.702	96.5
340.93	101.5
341.158	99.5
341.386	117.5
341.614	100.5
341.842	123.5
342.07	101.5
342.298	94.5
342.526	91.5
342.754	101.5
342.981	86.5
343.209	94.5
343.437	110.5
343.665	81.5
343.893	93.5
344.12	87.5
344.348	111.5
344.576	73.5
344.804	104.5
345.031	110.5
345.259	116.5
345.487	109.5
345.714	111.5
345.942	102.5
346.17	91.5
346.397	95.5
346.625	94.5
346.853	93.5
347.08	98.5
347.308	103.5
347.535	109.5
347.763	112.5
347.99	102.5
348.218	110.5
348.445	113.5
348.673	121.5
348.9	106.5
349.128	94.5
349.355	90.5
349.583	93.5
349.81	98.5
350.037	107.5
350.265	104.5
350.492	100.5
350.72	96.5
350.947	103.5
351.174	123.5
351.402	136.5
351.629	117.5
351.856	117.5
352.083	128.5
352.311	119.5
352.538	121.5
352.765	134.5
352.992	141.5
353.22	128.5
353.447	110.5
353.674	110.5
353.901	104.5
354.128	94.5
354.355	107.5
354.583	105.5
354.81	119.5
355.037	95.5
355.264	82.5
355.491	93.5
355.718	96.5
355.945	85.5
356.172	98.5
356.399	97.5
356.626	82.5
356.853	84.5
357.08	95.5
357.307	86.5
357.534	86.5
357.761	88.5
357.988	97.5
358.215	91.5
358.441	104.5
358.668	97.5
358.895	91.5
359.122	101.5
359.349	96.5
359.576	110.5
359.802	141.5
360.029	164.5
360.256	162.5
360.483	126.5
360.709	103.5
360.936	101.5
361.163	109.5
361.39	106.5
361.616	98.5
361.843	96.5
362.07	99.5
362.296	108.5
362.523	94.5
362.749	107.5
362.976	96.5
363.203	86.5
363.429	80.5
363.656	93.5
363.882	108.5
364.109	103.5
364.335	113.5
364.562	94.5
364.788	79.5
365.015	94.5
365.241	125.5
365.468	132.5
365.694	134.5
365.92	126.5
366.147	90.5
366.373	90.5
366.599	85.5
366.826	82.5
367.052	101.5
367.278	110.5
367.505	84.5
367.731	100.5
367.957	114.5
368.184	111.5
368.41	117.5
368.636	142.5
368.862	145.5
369.089	132.5
369.315	107.5
369.541	99.5
369.767	106.5
369.993	88.5
370.219	85.5
370.445	83.5
370.672	94.5
370.898	73.5
371.124	97.5
371.35	90.5
371.576	98.5
371.802	85.5
372.028	81.5
372.254	84.5
372.48	80.5
372.706	87.5
372.932	92.5
373.158	74.5
373.384	96.5
373.61	93.5
373.835	90.5
374.061	88.5
374.287	96.5
374.513	89.5
374.739	81.5
374.965	87.5
375.191	95.5
375.416	86.5
375.642	81.5
375.868	96.5
376.094	89.5
376.319	88.5
376.545	93.5
376.771	94.5
376.997	91.5
377.222	108.5
377.448	97.5
377.674	93.5
377.899	88.5
378.125	93.5
378.35	89.5
378.576	68.5
378.802	90.5
379.027	88.5
379.253	82.5
379.478	84.5
379.704	82.5
379.929	84.5
380.155	106.5
380.38	102.5
380.606	104.5
380.831	112.5
381.057	103.5
381.282	97.5
381.507	106.5
381.733	111.5
381.958	98.5
382.184	107.5
382.409	89.5
382.634	103.5
382.86	91.5
383.085	111.5
383.31	95.5
383.535	104.5
383.761	95.5
383.986	95.5
384.211	107.5
384.436	81.5
384.662	94.5
384.887	88.5
385.112	105.5
385.337	92.5
385.562	82.5
385.787	103.5
386.013	125.5
386.238	130.5
386.463	116.5
386.688	121.5
386.913	98.5
387.138	116.5
387.363	89.5
387.588	111.5
387.813	102.5
388.038	114.5
388.263	117.5
388.488	110.5
388.713	101.5
388.938	100.5
389.163	89.5
389.387	90.5
389.612	95.5
389.837	93.5
390.062	87.5
390.287	76.5
390.512	79.5
390.736	102.5
390.961	95.5
391.186	102.5
391.411	100.5
391.636	85.5
391.86	84.5
392.085	89.5
392.31	101.5
392.534	93.5
392.759	99.5
392.984	96.5
393.208	95.5
393.433	103.5
393.658	87.5
393.882	79.5
394.107	83.5
394.331	76.5
394.556	80.5
394.78	98.5
395.005	90.5
395.229	89.5
395.454	88.5
395.678	92.5
395.903	84.5
396.127	104.5
396.352	87.5
396.576	93.5
396.801	92.5
397.025	90.5
397.249	97.5
397.474	89.5
397.698	89.5
397.922	89.5
398.147	90.5
398.371	79.5
398.595	84.5
398.82	89.5
399.044	79.5
399.268	91.5
399.492	87.5
399.717	94.5
399.941	92.5
400.165	91.5
400.389	98.5
400.613	93.5
400.837	86.5
401.062	93.5
401.286	89.5
401.51	105.5
401.734	105.5
401.958	116.5
402.182	179.5
402.406	251.5
402.63	180.5
402.854	105.5
403.078	94.5
403.302	94.5
403.526	97.5
403.75	100.5
403.974	80.5
404.198	101.5
404.422	89.5
404.645	92.5
404.869	97.5
405.093	124.5
405.317	137.5
405.541	138.5
405.765	134.5
405.988	153.5
406.212	253.5
406.436	399.5
406.66	236.5
406.883	130.5
407.107	125.5
407.331	110.5
407.555	110.5
407.778	111.5
408.002	87.5
408.226	104.5
408.449	96.5
408.673	96.5
408.896	96.5
409.12	105.5
409.344	94.5
409.567	86.5
409.791	105.5
410.014	89.5
410.238	95.5
410.461	100.5
410.685	100.5
410.908	99.5
411.132	119.5
411.355	105.5
411.578	100.5
411.802	94.5
412.025	95.5
412.249	101.5
412.472	126.5
412.695	145.5
412.919	102.5
413.142	96.5
413.365	95.5
413.589	95.5
413.812	81.5
414.035	105.5
414.258	90.5
414.482	86.5
414.705	102.5
414.928	109.5
415.151	82.5
415.374	97.5
415.597	96.5
415.821	94.5
416.044	100.5
416.267	99.5
416.49	89.5
416.713	89.5
416.936	83.5
417.159	86.5
417.382	95.5
417.605	116.5
417.828	119.5
418.051	117.5
418.274	96.5
418.497	102.5
418.72	97.5
418.943	91.5
419.166	81.5
419.389	87.5
419.611	92.5
419.834	80.5
420.057	96.5
420.28	87.5
420.503	101.5
420.726	85.5
420.948	111.5
421.171	117.5
421.394	99.5
421.617	94.5
421.839	90.5
422.062	82.5
422.285	97.5
422.507	110.5
422.73	95.5
422.953	104.5
423.175	93.5
423.398	91.5
423.621	82.5
423.843	87.5
424.066	91.5
424.288	101.5
424.511	96.5
424.733	107.5
424.956	133.5
425.178	116.5
425.401	101.5
425.623	95.5
425.846	97.5
426.068	103.5
426.291	94.5
426.513	90.5
426.735	102.5
426.958	93.5
427.18	116.5
427.402	198.5
427.625	295.5
427.847	250.5
428.069	217.5
428.292	110.5
428.514	100.5
428.736	94.5
428.958	100.5
429.181	77.5
429.403	92.5
429.625	84.5
429.847	106.5
430.069	108.5
430.292	105.5
430.514	85.5
430.736	86.5
430.958	95.5
431.18	78.5
431.402	86.5
431.624	82.5
431.846	96.5
432.068	93.5
432.29	96.5
432.512	92.5
432.734	88.5
432.956	88.5
433.178	92.5
433.4	108.5
433.622	93.5
433.844	101.5
434.066	86.5
434.287	92.5
434.509	79.5
434.731	96.5
434.953	100.5
435.175	82.5
435.397	92.5
435.618	101.5
435.84	100.5
436.062	142.5
436.284	129.5
436.505	100.5
436.727	103.5
436.949	89.5
437.17	94.5
437.392	88.5
437.614	91.5
437.835	144.5
438.057	160.5
438.278	139.5
438.5	120.5
438.721	134.5
438.943	121.5
439.165	88.5
439.386	93.5
439.608	98.5
439.829	111.5
440.05	133.5
440.272	191.5
440.493	118.5
440.715	93.5
440.936	88.5
441.158	86.5
441.379	88.5
441.6	97.5
441.822	105.5
442.043	110.5
442.264	126.5
442.486	131.5
442.707	107.5
442.928	128.5
443.149	208.5
443.371	198.5
443.592	154.5
443.813	121.5
444.034	104.5
444.255	94.5
444.476	85.5
444.698	82.5
444.919	91.5
445.14	126.5
445.361	133.5
445.582	136.5
445.803	168.5
446.024	175.5
446.245	161.5
446.466	121.5
446.687	100.5
446.908	85.5
447.129	96.5
447.35	100.5
447.571	84.5
447.792	93.5
448.013	117.5
448.234	148.5
448.455	108.5
448.675	109.5
448.896	134.5
449.117	93.5
449.338	107.5
449.559	152.5
449.779	158.5
450	108.5
450.221	94.5
450.442	71.5
450.662	108.5
450.883	141.5
451.104	160.5
451.324	114.5
451.545	111.5
451.766	85.5
451.986	89.5
452.207	97.5
452.428	101.5
452.648	123.5
452.869	142.5
453.089	157.5
453.31	174.5
453.53	110.5
453.751	113.5
453.971	137.5
454.192	157.5
454.412	95.5
454.633	88.5
454.853	90.5
455.073	104.5
455.294	98.5
455.514	116.5
455.734	85.5
455.955	82.5
456.175	78.5
456.395	89.5
456.616	93.5
456.836	76.5
457.056	83.5
457.276	87.5
457.497	85.5
457.717	98.5
457.937	89.5
458.157	97.5
458.377	94.5
458.598	139.5
458.818	240.5
459.038	261.5
459.258	177.5
459.478	105.5
459.698	79.5
459.918	89.5
460.138	82.5
460.358	82.5
460.578	92.5
460.798	86.5
461.018	100.5
461.238	100.5
461.458	89.5
461.678	97.5
461.898	83.5
462.118	92.5
462.338	90.5
462.558	108.5
462.777	96.5
462.997	117.5
463.217	132.5
463.437	103.5
463.657	100.5
463.876	93.5
464.096	92.5
464.316	112.5
464.536	107.5
464.755	123.5
464.975	149.5
465.195	300.5
465.414	320.5
465.634	119.5
465.854	113.5
466.073	106.5
466.293	103.5
466.512	81.5
466.732	96.5
466.951	102.5
467.171	114.5
467.391	119.5
467.61	185.5
467.829	276.5
468.049	765.5
468.268	1142.5
468.488	266.5
468.707	136.5
468.927	112.5
469.146	95.5
469.365	98.5
469.585	97.5
469.804	126.5
470.023	127.5
470.243	114.5
470.462	142.5
470.681	160.5
470.901	106.5
471.12	116.5
471.339	118.5
471.558	135.5
471.777	166.5
471.997	374.5
472.216	1488.5
472.435	3421.5
472.654	767.5
472.873	196.5
473.092	121.5
473.311	110.5
473.53	85.5
473.749	97.5
473.968	111.5
474.187	125.5
474.406	124.5
474.625	108.5
474.844	83.5
475.063	83.5
475.282	87.5
475.501	84.5
475.72	88.5
475.939	81.5
476.158	96.5
476.377	101.5
476.596	106.5
476.814	112.5
477.033	125.5
477.252	90.5
477.471	85.5
477.69	115.5
477.908	106.5
478.127	97.5
478.346	116.5
478.564	111.5
478.783	125.5
479.002	110.5
479.22	127.5
479.439	142.5
479.658	148.5
479.876	141.5
480.095	135.5
480.313	141.5
480.532	189.5
480.751	351.5
480.969	1343.5
481.188	5829.5
481.406	3204.5
481.624	450.5
481.843	170.5
482.061	131.5
482.28	119.5
482.498	101.5
482.717	105.5
482.935	100.5
483.153	102.5
483.372	92.5
483.59	105.5
483.808	101.5
484.027	106.5
484.245	112.5
484.463	107.5
484.681	94.5
484.9	97.5
485.118	110.5
485.336	100.5
485.554	104.5
485.772	96.5
485.99	111.5
486.209	118.5
486.427	111.5
486.645	135.5
486.863	138.5
487.081	117.5
487.299	120.5
487.517	107.5
487.735	105.5
487.953	89.5
488.171	98.5
488.389	102.5
488.607	113.5
488.825	88.5
489.043	82.5
489.261	99.5
489.479	88.5
489.696	101.5
489.914	101.5
490.132	99.5
490.35	84.5
490.568	81.5
490.786	88.5
491.003	98.5
491.221	98.5
491.439	91.5
491.657	92.5
491.874	97.5
492.092	104.5
492.31	95.5
492.527	98.5
492.745	83.5
492.963	100.5
493.18	107.5
493.398	90.5
493.615	102.5
493.833	108.5
494.05	106.5
494.268	93.5
494.485	90.5
494.703	87.5
494.92	84.5
495.138	77.5
495.355	94.5
495.573	100.5
495.79	87.5
496.008	83.5
496.225	97.5
496.442	78.5
496.66	92.5
496.877	85.5
497.094	111.5
497.312	86.5
497.529	84.5
497.746	95.5
497.963	108.5
498.181	96.5
498.398	101.5
498.615	116.5
498.832	104.5
499.049	106.5
499.267	98.5
499.484	88.5
499.701	100.5
499.918	90.5
500.135	81.5
500.352	97.5
500.569	102.5
500.786	98.5
501.003	88.5
501.22	96.5
501.437	107.5
501.654	117.5
501.871	139.5
502.088	113.5
502.305	104.5
502.522	91.5
502.739	85.5
502.956	101.5
503.172	103.5
503.389	106.5
503.606	150.5
503.823	111.5
504.04	86.5
504.256	103.5
504.473	94.5
504.69	82.5
504.907	89.5
505.123	104.5
505.34	96.5
505.557	82.5
505.773	111.5
505.99	97.5
506.207	92.5
506.423	76.5
506.64	104.5
506.856	102.5
507.073	103.5
507.289	91.5
507.506	116.5
507.722	137.5
507.939	139.5
508.155	104.5
508.372	104.5
508.588	116.5
508.805	92.5
509.021	101.5
509.238	96.5
509.454	115.5
509.67	120.5
509.887	125.5
510.103	170.5
510.319	297.5
510.536	1256.5
510.752	4639.5
510.968	1169.5
511.184	220.5
511.401	176.5
511.617	107.5
511.833	105.5
512.049	99.5
512.265	97.5
512.481	98.5
512.698	112.5
512.914	98.5
513.13	97.5
513.346	103.5
513.562	97.5
513.778	117.5
513.994	118.5
514.21	140.5
514.426	162.5
514.642	209.5
514.858	191.5
515.074	285.5
515.29	995.5
515.506	3782.5
515.721	1246.5
515.937	280.5
516.153	146.5
516.369	114.5
516.585	108.5
516.801	108.5
517.016	117.5
517.232	103.5
517.448	103.5
517.664	106.5
517.879	95.5
518.095	96.5
518.311	118.5
518.527	112.5
518.742	103.5
518.958	109.5
519.173	98.5
519.389	105.5
519.605	95.5
519.82	104.5
520.036	140.5
520.251	162.5
520.467	157.5
520.682	140.5
520.898	126.5
521.113	167.5
521.329	221.5
521.544	389.5
521.76	1324.5
521.975	6146.5
522.19	3624.5
522.406	648.5
522.621	206.5
522.836	146.5
523.052	124.5
523.267	101.5
523.482	106.5
523.698	118.5
523.913	172.5
524.128	139.5
524.343	109.5
524.559	93.5
524.774	106.5
524.989	107.5
525.204	152.5
525.419	122.5
525.634	87.5
525.849	99.5
526.064	85.5
526.28	101.5
526.495	87.5
526.71	99.5
526.925	97.5
527.14	93.5
527.355	96.5
527.57	88.5
527.785	97.5
527.999	98.5
528.214	88.5
528.429	96.5
528.644	99.5
528.859	86.5
529.074	106.5
529.289	182.5
529.503	359.5
529.718	141.5
529.933	102.5
530.148	100.5
530.363	104.5
