Data from Circ_1999_H10_HRD10591_00033.txt Node
Date: Wed Jan 03 11:23:19 EST 2024
User: Yrep
Spectrometer: HR+D1059
Trigger mode: 1
Integration Time (sec): 1.000000E-1
Scans to average: 1
Electric dark correction enabled: true
Nonlinearity correction enabled: false
Boxcar width: 0
XAxis mode: Wavelengths
Number of Pixels in Spectrum: 2048
>>>>>Begin Spectral Data<<<<<
223.165	-19.12
223.4	-19.12
223.635	-19.12
223.869	-22.12
224.104	-27.12
224.338	-23.12
224.573	-13.12
224.808	-16.12
225.042	-10.12
225.277	-2.12
225.511	-0.12
225.746	17.88
225.98	7.88
226.215	12.88
226.449	19.88
226.683	12.88
226.918	28.88
227.152	32.88
227.387	40.88
227.621	35.88
227.856	48.88
228.09	60.88
228.324	57.88
228.559	57.88
228.793	68.88
229.027	70.88
229.262	53.88
229.496	74.88
229.73	95.88
229.964	90.88
230.199	79.88
230.433	74.88
230.667	84.88
230.901	81.88
231.136	61.88
231.37	86.88
231.604	85.88
231.838	75.88
232.072	77.88
232.306	78.88
232.541	71.88
232.775	74.88
233.009	73.88
233.243	73.88
233.477	76.88
233.711	63.88
233.945	63.88
234.179	79.88
234.413	81.88
234.647	71.88
234.881	107.88
235.115	87.88
235.349	89.88
235.583	80.88
235.817	78.88
236.051	83.88
236.285	81.88
236.519	80.88
236.753	80.88
236.987	77.88
237.221	102.88
237.455	100.88
237.689	86.88
237.922	81.88
238.156	85.88
238.39	81.88
238.624	81.88
238.858	78.88
239.091	77.88
239.325	74.88
239.559	95.88
239.793	89.88
240.027	81.88
240.26	79.88
240.494	90.88
240.728	73.88
240.961	67.88
241.195	85.88
241.429	90.88
241.662	80.88
241.896	87.88
242.13	80.88
242.363	81.88
242.597	90.88
242.83	73.88
243.064	94.88
243.298	85.88
243.531	75.88
243.765	75.88
243.998	79.88
244.232	88.88
244.465	91.88
244.699	74.88
244.932	57.88
245.166	81.88
245.399	83.88
245.633	82.88
245.866	97.88
246.099	78.88
246.333	96.88
246.566	73.88
246.8	74.88
247.033	78.88
247.266	82.88
247.5	86.88
247.733	80.88
247.966	83.88
248.2	79.88
248.433	61.88
248.666	79.88
248.899	77.88
249.133	84.88
249.366	108.88
249.599	104.88
249.832	91.88
250.066	81.88
250.299	90.88
250.532	99.88
250.765	94.88
250.998	93.88
251.231	89.88
251.465	81.88
251.698	72.88
251.931	80.88
252.164	73.88
252.397	87.88
252.63	71.88
252.863	72.88
253.096	84.88
253.329	82.88
253.562	75.88
253.795	73.88
254.028	89.88
254.261	75.88
254.494	86.88
254.727	96.88
254.96	74.88
255.193	85.88
255.426	81.88
255.659	85.88
255.892	92.88
256.124	108.88
256.357	107.88
256.59	88.88
256.823	88.88
257.056	99.88
257.289	97.88
257.521	87.88
257.754	90.88
257.987	89.88
258.22	91.88
258.452	94.88
258.685	99.88
258.918	93.88
259.151	71.88
259.383	84.88
259.616	81.88
259.849	86.88
260.081	88.88
260.314	100.88
260.547	93.88
260.779	78.88
261.012	106.88
261.244	107.88
261.477	106.88
261.71	122.88
261.942	145.88
262.175	157.88
262.407	96.88
262.64	84.88
262.872	80.88
263.105	75.88
263.337	84.88
263.57	81.88
263.802	97.88
264.035	86.88
264.267	77.88
264.499	93.88
264.732	85.88
264.964	83.88
265.197	97.88
265.429	75.88
265.661	86.88
265.894	88.88
266.126	80.88
266.358	73.88
266.591	83.88
266.823	90.88
267.055	80.88
267.287	87.88
267.52	83.88
267.752	96.88
267.984	99.88
268.216	87.88
268.448	88.88
268.681	74.88
268.913	91.88
269.145	67.88
269.377	84.88
269.609	89.88
269.841	90.88
270.073	94.88
270.306	96.88
270.538	88.88
270.77	80.88
271.002	82.88
271.234	89.88
271.466	88.88
271.698	96.88
271.93	86.88
272.162	83.88
272.394	102.88
272.626	86.88
272.858	96.88
273.09	77.88
273.322	89.88
273.553	91.88
273.785	87.88
274.017	75.88
274.249	90.88
274.481	82.88
274.713	90.88
274.945	103.88
275.176	80.88
275.408	98.88
275.64	125.88
275.872	137.88
276.104	121.88
276.335	101.88
276.567	120.88
276.799	154.88
277.031	168.88
277.262	190.88
277.494	133.88
277.726	89.88
277.957	99.88
278.189	93.88
278.421	90.88
278.652	92.88
278.884	84.88
279.115	91.88
279.347	107.88
279.579	98.88
279.81	123.88
280.042	179.88
280.273	250.88
280.505	173.88
280.736	96.88
280.968	103.88
281.199	95.88
281.431	87.88
281.662	85.88
281.894	82.88
282.125	105.88
282.356	153.88
282.588	202.88
282.819	150.88
283.051	105.88
283.282	82.88
283.513	99.88
283.745	87.88
283.976	85.88
284.207	85.88
284.439	87.88
284.67	82.88
284.901	80.88
285.132	91.88
285.364	90.88
285.595	87.88
285.826	89.88
286.057	83.88
286.288	90.88
286.52	86.88
286.751	93.88
286.982	79.88
287.213	82.88
287.444	84.88
287.675	95.88
287.906	95.88
288.138	87.88
288.369	96.88
288.6	105.88
288.831	93.88
289.062	96.88
289.293	89.88
289.524	83.88
289.755	96.88
289.986	99.88
290.217	93.88
290.448	88.88
290.679	86.88
290.91	92.88
291.141	86.88
291.371	98.88
291.602	80.88
291.833	85.88
292.064	89.88
292.295	93.88
292.526	90.88
292.757	95.88
292.987	87.88
293.218	77.88
293.449	91.88
293.68	86.88
293.91	87.88
294.141	84.88
294.372	83.88
294.603	82.88
294.833	91.88
295.064	90.88
295.295	78.88
295.525	89.88
295.756	111.88
295.987	146.88
296.217	197.88
296.448	155.88
296.679	103.88
296.909	96.88
297.14	91.88
297.37	77.88
297.601	94.88
297.831	89.88
298.062	81.88
298.292	99.88
298.523	97.88
298.753	91.88
298.984	87.88
299.214	93.88
299.445	94.88
299.675	88.88
299.905	101.88
300.136	98.88
300.366	97.88
300.597	95.88
300.827	109.88
301.057	98.88
301.288	104.88
301.518	90.88
301.748	97.88
301.979	107.88
302.209	111.88
302.439	94.88
302.669	96.88
302.9	90.88
303.13	89.88
303.36	97.88
303.59	121.88
303.82	145.88
304.051	121.88
304.281	99.88
304.511	65.88
304.741	97.88
304.971	92.88
305.201	102.88
305.431	104.88
305.661	94.88
305.891	107.88
306.121	112.88
306.352	110.88
306.582	118.88
306.812	123.88
307.042	123.88
307.272	155.88
307.502	186.88
307.731	174.88
307.961	138.88
308.191	96.88
308.421	84.88
308.651	91.88
308.881	102.88
309.111	119.88
309.341	97.88
309.571	109.88
309.8	125.88
310.03	115.88
310.26	96.88
310.49	113.88
310.72	116.88
310.949	115.88
311.179	114.88
311.409	89.88
311.639	81.88
311.868	108.88
312.098	82.88
312.328	103.88
312.557	106.88
312.787	123.88
313.017	123.88
313.246	102.88
313.476	94.88
313.706	91.88
313.935	99.88
314.165	112.88
314.394	122.88
314.624	122.88
314.853	111.88
315.083	103.88
315.312	90.88
315.542	91.88
315.771	109.88
316.001	98.88
316.23	111.88
316.46	95.88
316.689	96.88
316.919	97.88
317.148	113.88
317.377	111.88
317.607	97.88
317.836	96.88
318.065	100.88
318.295	102.88
318.524	94.88
318.753	103.88
318.983	105.88
319.212	110.88
319.441	125.88
319.67	130.88
319.9	109.88
320.129	98.88
320.358	83.88
320.587	100.88
320.816	118.88
321.046	107.88
321.275	109.88
321.504	105.88
321.733	108.88
321.962	100.88
322.191	120.88
322.42	126.88
322.649	114.88
322.878	145.88
323.108	132.88
323.337	154.88
323.566	158.88
323.795	192.88
324.024	235.88
324.253	438.88
324.482	947.88
324.71	1870.88
324.939	2409.88
325.168	941.88
325.397	293.88
325.626	162.88
325.855	146.88
326.084	126.88
326.313	143.88
326.542	172.88
326.77	275.88
326.999	482.88
327.228	956.88
327.457	1675.88
327.686	1391.88
327.914	553.88
328.143	553.88
328.372	698.88
328.6	381.88
328.829	191.88
329.058	193.88
329.287	201.88
329.515	197.88
329.744	269.88
329.972	493.88
330.201	974.88
330.43	1437.88
330.658	639.88
330.887	309.88
331.115	214.88
331.344	125.88
331.572	112.88
331.801	129.88
332.03	138.88
332.258	130.88
332.486	112.88
332.715	107.88
332.943	123.88
333.172	117.88
333.4	145.88
333.629	170.88
333.857	238.88
334.085	420.88
334.314	913.88
334.542	1758.88
334.771	1636.88
334.999	421.88
335.227	173.88
335.455	124.88
335.684	122.88
335.912	122.88
336.14	111.88
336.369	126.88
336.597	128.88
336.825	116.88
337.053	104.88
337.281	111.88
337.51	106.88
337.738	119.88
337.966	122.88
338.194	105.88
338.422	116.88
338.65	117.88
338.878	98.88
339.106	101.88
339.334	85.88
339.562	76.88
339.79	98.88
340.018	99.88
340.246	99.88
340.474	103.88
340.702	95.88
340.93	107.88
341.158	99.88
341.386	105.88
341.614	118.88
341.842	111.88
342.07	100.88
342.298	108.88
342.526	97.88
342.754	97.88
342.981	100.88
343.209	85.88
343.437	93.88
343.665	76.88
343.893	87.88
344.12	85.88
344.348	95.88
344.576	95.88
344.804	87.88
345.031	108.88
345.259	124.88
345.487	102.88
345.714	90.88
345.942	85.88
346.17	94.88
346.397	99.88
346.625	101.88
346.853	92.88
347.08	101.88
347.308	103.88
347.535	106.88
347.763	106.88
347.99	111.88
348.218	110.88
348.445	117.88
348.673	118.88
348.9	104.88
349.128	109.88
349.355	93.88
349.583	88.88
349.81	100.88
350.037	110.88
350.265	113.88
350.492	93.88
350.72	92.88
350.947	113.88
351.174	137.88
351.402	139.88
351.629	120.88
351.856	120.88
352.083	125.88
352.311	119.88
352.538	139.88
352.765	131.88
352.992	131.88
353.22	121.88
353.447	119.88
353.674	101.88
353.901	108.88
354.128	88.88
354.355	98.88
354.583	87.88
354.81	103.88
355.037	91.88
355.264	93.88
355.491	101.88
355.718	102.88
355.945	87.88
356.172	101.88
356.399	87.88
356.626	103.88
356.853	97.88
357.08	79.88
357.307	106.88
357.534	84.88
357.761	82.88
357.988	92.88
358.215	102.88
358.441	110.88
358.668	93.88
358.895	90.88
359.122	84.88
359.349	95.88
359.576	108.88
359.802	118.88
360.029	148.88
360.256	158.88
360.483	133.88
360.709	106.88
360.936	99.88
361.163	99.88
361.39	94.88
361.616	123.88
361.843	108.88
362.07	97.88
362.296	113.88
362.523	103.88
362.749	108.88
362.976	100.88
363.203	94.88
363.429	85.88
363.656	107.88
363.882	97.88
364.109	96.88
364.335	100.88
364.562	97.88
364.788	91.88
365.015	117.88
365.241	106.88
365.468	126.88
365.694	118.88
365.92	118.88
366.147	92.88
366.373	101.88
366.599	98.88
366.826	97.88
367.052	103.88
367.278	97.88
367.505	90.88
367.731	99.88
367.957	93.88
368.184	101.88
368.41	106.88
368.636	127.88
368.862	153.88
369.089	131.88
369.315	114.88
369.541	105.88
369.767	101.88
369.993	106.88
370.219	99.88
370.445	100.88
370.672	105.88
370.898	97.88
371.124	88.88
371.35	85.88
371.576	104.88
371.802	89.88
372.028	89.88
372.254	102.88
372.48	94.88
372.706	82.88
372.932	77.88
373.158	94.88
373.384	97.88
373.61	93.88
373.835	112.88
374.061	86.88
374.287	113.88
374.513	105.88
374.739	97.88
374.965	96.88
375.191	81.88
375.416	85.88
375.642	94.88
375.868	97.88
376.094	90.88
376.319	92.88
376.545	98.88
376.771	80.88
376.997	97.88
377.222	96.88
377.448	94.88
377.674	96.88
377.899	99.88
378.125	95.88
378.35	87.88
378.576	96.88
378.802	93.88
379.027	89.88
379.253	91.88
379.478	96.88
379.704	113.88
379.929	96.88
380.155	85.88
380.38	106.88
380.606	92.88
380.831	89.88
381.057	98.88
381.282	97.88
381.507	101.88
381.733	113.88
381.958	101.88
382.184	96.88
382.409	102.88
382.634	108.88
382.86	99.88
383.085	107.88
383.31	94.88
383.535	120.88
383.761	106.88
383.986	107.88
384.211	108.88
384.436	110.88
384.662	105.88
384.887	78.88
385.112	107.88
385.337	115.88
385.562	113.88
385.787	109.88
386.013	124.88
386.238	138.88
386.463	123.88
386.688	121.88
386.913	109.88
387.138	111.88
387.363	101.88
387.588	90.88
387.813	110.88
388.038	120.88
388.263	111.88
388.488	114.88
388.713	99.88
388.938	88.88
389.163	86.88
389.387	81.88
389.612	96.88
389.837	85.88
390.062	83.88
390.287	95.88
390.512	97.88
390.736	82.88
390.961	86.88
391.186	103.88
391.411	100.88
391.636	86.88
391.86	99.88
392.085	84.88
392.31	90.88
392.534	88.88
392.759	99.88
392.984	87.88
393.208	111.88
393.433	95.88
393.658	96.88
393.882	96.88
394.107	97.88
394.331	87.88
394.556	76.88
394.78	87.88
395.005	100.88
395.229	94.88
395.454	81.88
395.678	99.88
395.903	88.88
396.127	89.88
396.352	105.88
396.576	85.88
396.801	95.88
397.025	75.88
397.249	87.88
397.474	84.88
397.698	96.88
397.922	93.88
398.147	89.88
398.371	86.88
398.595	74.88
398.82	85.88
399.044	87.88
399.268	83.88
399.492	89.88
399.717	82.88
399.941	99.88
400.165	113.88
400.389	92.88
400.613	94.88
400.837	94.88
401.062	89.88
401.286	90.88
401.51	101.88
401.734	108.88
401.958	110.88
402.182	154.88
402.406	241.88
402.63	153.88
402.854	111.88
403.078	92.88
403.302	107.88
403.526	97.88
403.75	92.88
403.974	95.88
404.198	86.88
404.422	96.88
404.645	90.88
404.869	123.88
405.093	104.88
405.317	140.88
405.541	139.88
405.765	123.88
405.988	147.88
406.212	249.88
406.436	391.88
406.66	222.88
406.883	131.88
407.107	110.88
407.331	112.88
407.555	112.88
407.778	97.88
408.002	94.88
408.226	88.88
408.449	93.88
408.673	97.88
408.896	89.88
409.12	114.88
409.344	89.88
409.567	99.88
409.791	89.88
410.014	108.88
410.238	95.88
410.461	96.88
410.685	111.88
410.908	115.88
411.132	101.88
411.355	99.88
411.578	105.88
411.802	97.88
412.025	93.88
412.249	106.88
412.472	95.88
412.695	121.88
412.919	111.88
413.142	98.88
413.365	76.88
413.589	76.88
413.812	98.88
414.035	96.88
414.258	97.88
414.482	93.88
414.705	89.88
414.928	96.88
415.151	108.88
415.374	97.88
415.597	96.88
415.821	85.88
416.044	95.88
416.267	90.88
416.49	88.88
416.713	94.88
416.936	98.88
417.159	109.88
417.382	97.88
417.605	94.88
417.828	108.88
418.051	96.88
418.274	92.88
418.497	102.88
418.72	101.88
418.943	94.88
419.166	87.88
419.389	91.88
419.611	107.88
419.834	101.88
420.057	105.88
420.28	88.88
420.503	103.88
420.726	87.88
420.948	102.88
421.171	99.88
421.394	111.88
421.617	87.88
421.839	79.88
422.062	89.88
422.285	85.88
422.507	115.88
422.73	118.88
422.953	98.88
423.175	83.88
423.398	107.88
423.621	104.88
423.843	83.88
424.066	83.88
424.288	85.88
424.511	83.88
424.733	99.88
424.956	114.88
425.178	110.88
425.401	96.88
425.623	107.88
425.846	93.88
426.068	102.88
426.291	100.88
426.513	101.88
426.735	113.88
426.958	108.88
427.18	111.88
427.402	175.88
427.625	253.88
427.847	215.88
428.069	189.88
428.292	128.88
428.514	90.88
428.736	88.88
428.958	87.88
429.181	87.88
429.403	86.88
429.625	94.88
429.847	100.88
430.069	117.88
430.292	104.88
430.514	96.88
430.736	92.88
430.958	101.88
431.18	97.88
431.402	90.88
431.624	97.88
431.846	85.88
432.068	96.88
432.29	92.88
432.512	89.88
432.734	94.88
432.956	77.88
433.178	95.88
433.4	88.88
433.622	86.88
433.844	101.88
434.066	85.88
434.287	103.88
434.509	91.88
434.731	86.88
434.953	97.88
435.175	92.88
435.397	95.88
435.618	87.88
435.84	107.88
436.062	131.88
436.284	127.88
436.505	111.88
436.727	97.88
436.949	103.88
437.17	81.88
437.392	95.88
437.614	103.88
437.835	134.88
438.057	161.88
438.278	144.88
438.5	127.88
438.721	142.88
438.943	113.88
439.165	82.88
439.386	101.88
439.608	104.88
439.829	111.88
440.05	149.88
440.272	162.88
440.493	110.88
440.715	94.88
440.936	82.88
441.158	103.88
441.379	95.88
441.6	101.88
441.822	105.88
442.043	93.88
442.264	124.88
442.486	101.88
442.707	99.88
442.928	109.88
443.149	177.88
443.371	164.88
443.592	133.88
443.813	121.88
444.034	120.88
444.255	99.88
444.476	89.88
444.698	92.88
444.919	100.88
445.14	130.88
445.361	130.88
445.582	129.88
445.803	179.88
446.024	172.88
446.245	141.88
446.466	132.88
446.687	95.88
446.908	94.88
447.129	90.88
447.35	93.88
447.571	94.88
447.792	97.88
448.013	115.88
448.234	139.88
448.455	117.88
448.675	147.88
448.896	121.88
449.117	107.88
449.338	95.88
449.559	135.88
449.779	143.88
450	104.88
450.221	95.88
450.442	81.88
450.662	109.88
450.883	129.88
451.104	142.88
451.324	112.88
451.545	88.88
451.766	103.88
451.986	90.88
452.207	116.88
452.428	96.88
452.648	119.88
452.869	135.88
453.089	157.88
453.31	154.88
453.53	113.88
453.751	97.88
453.971	111.88
454.192	148.88
454.412	111.88
454.633	94.88
454.853	103.88
455.073	98.88
455.294	111.88
455.514	104.88
455.734	93.88
455.955	87.88
456.175	94.88
456.395	83.88
456.616	75.88
456.836	84.88
457.056	88.88
457.276	80.88
457.497	93.88
457.717	82.88
457.937	102.88
458.157	102.88
458.377	96.88
458.598	156.88
458.818	227.88
459.038	256.88
459.258	149.88
459.478	93.88
459.698	92.88
459.918	97.88
460.138	90.88
460.358	92.88
460.578	93.88
460.798	104.88
461.018	88.88
461.238	94.88
461.458	85.88
461.678	81.88
461.898	81.88
462.118	84.88
462.338	89.88
462.558	91.88
462.777	89.88
462.997	108.88
463.217	113.88
463.437	118.88
463.657	89.88
463.876	94.88
464.096	103.88
464.316	121.88
464.536	92.88
464.755	98.88
464.975	140.88
465.195	248.88
465.414	253.88
465.634	120.88
465.854	98.88
466.073	91.88
466.293	96.88
466.512	90.88
466.732	82.88
466.951	87.88
467.171	98.88
467.391	118.88
467.61	154.88
467.829	222.88
468.049	570.88
468.268	890.88
468.488	233.88
468.707	116.88
468.927	92.88
469.146	94.88
469.365	88.88
469.585	96.88
469.804	129.88
470.023	119.88
470.243	104.88
470.462	124.88
470.681	130.88
470.901	97.88
471.12	98.88
471.339	115.88
471.558	112.88
471.777	159.88
471.997	322.88
472.216	1138.88
472.435	2651.88
472.654	596.88
472.873	167.88
473.092	108.88
473.311	102.88
473.53	93.88
473.749	96.88
473.968	115.88
474.187	121.88
474.406	107.88
474.625	98.88
474.844	102.88
475.063	107.88
475.282	97.88
475.501	79.88
475.72	116.88
475.939	85.88
476.158	95.88
476.377	96.88
476.596	96.88
476.814	117.88
477.033	98.88
477.252	102.88
477.471	103.88
477.69	93.88
477.908	99.88
478.127	103.88
478.346	103.88
478.564	102.88
478.783	108.88
479.002	117.88
479.22	106.88
479.439	117.88
479.658	126.88
479.876	122.88
480.095	109.88
480.313	136.88
480.532	167.88
480.751	307.88
480.969	1065.88
481.188	4534.88
481.406	2511.88
481.624	371.88
481.843	145.88
482.061	113.88
482.28	110.88
482.498	111.88
482.717	103.88
482.935	102.88
483.153	93.88
483.372	101.88
483.59	102.88
483.808	102.88
484.027	84.88
484.245	102.88
484.463	109.88
484.681	110.88
484.9	101.88
485.118	101.88
485.336	108.88
485.554	91.88
485.772	97.88
485.99	114.88
486.209	114.88
486.427	116.88
486.645	138.88
486.863	141.88
487.081	110.88
487.299	100.88
487.517	99.88
487.735	92.88
487.953	101.88
488.171	109.88
488.389	103.88
488.607	114.88
488.825	102.88
489.043	88.88
489.261	103.88
489.479	107.88
489.696	93.88
489.914	96.88
490.132	90.88
490.35	85.88
490.568	86.88
490.786	111.88
491.003	86.88
491.221	115.88
491.439	89.88
491.657	95.88
491.874	98.88
492.092	90.88
492.31	104.88
492.527	111.88
492.745	96.88
492.963	81.88
493.18	94.88
493.398	83.88
493.615	110.88
493.833	104.88
494.05	101.88
494.268	90.88
494.485	90.88
494.703	88.88
494.92	87.88
495.138	93.88
495.355	82.88
495.573	103.88
495.79	90.88
496.008	97.88
496.225	92.88
496.442	86.88
496.66	83.88
496.877	70.88
497.094	100.88
497.312	102.88
497.529	97.88
497.746	109.88
497.963	86.88
498.181	98.88
498.398	95.88
498.615	115.88
498.832	113.88
499.049	94.88
499.267	102.88
499.484	85.88
499.701	85.88
499.918	100.88
500.135	88.88
500.352	91.88
500.569	94.88
500.786	96.88
501.003	107.88
501.22	85.88
501.437	81.88
501.654	96.88
501.871	141.88
502.088	97.88
502.305	99.88
502.522	112.88
502.739	96.88
502.956	90.88
503.172	96.88
503.389	97.88
503.606	135.88
503.823	111.88
504.04	90.88
504.256	108.88
504.473	91.88
504.69	104.88
504.907	95.88
505.123	81.88
505.34	87.88
505.557	96.88
505.773	94.88
505.99	89.88
506.207	79.88
506.423	99.88
506.64	85.88
506.856	98.88
507.073	106.88
507.289	106.88
507.506	130.88
507.722	147.88
507.939	157.88
508.155	88.88
508.372	89.88
508.588	106.88
508.805	105.88
509.021	91.88
509.238	89.88
509.454	118.88
509.67	121.88
509.887	124.88
510.103	161.88
510.319	293.88
510.536	1245.88
510.752	4430.88
510.968	1143.88
511.184	226.88
511.401	153.88
511.617	119.88
511.833	124.88
