Data from Circ_1981_H10_HRD10591_00025.txt Node
Date: Wed Jan 03 12:34:26 EST 2024
User: Yrep
Spectrometer: HR+D1059
Trigger mode: 1
Integration Time (sec): 1.000000E-1
Scans to average: 1
Electric dark correction enabled: true
Nonlinearity correction enabled: false
Boxcar width: 0
XAxis mode: Wavelengths
Number of Pixels in Spectrum: 2048
>>>>>Begin Spectral Data<<<<<
223.165	-21.44
223.4	-21.44
223.635	-21.44
223.869	-29.44
224.104	-27.44
224.338	-8.44
224.573	-8.44
224.808	-6.44
225.042	-8.44
225.277	-0.44
225.511	6.56
225.746	-0.44
225.98	-8.44
226.215	0.56
226.449	22.56
226.683	26.56
226.918	33.56
227.152	29.56
227.387	43.56
227.621	36.56
227.856	54.56
228.09	29.56
228.324	48.56
228.559	51.56
228.793	67.56
229.027	68.56
229.262	68.56
229.496	72.56
229.73	91.56
229.964	99.56
230.199	73.56
230.433	78.56
230.667	80.56
230.901	85.56
231.136	85.56
231.37	93.56
231.604	80.56
231.838	87.56
232.072	75.56
232.306	83.56
232.541	84.56
232.775	81.56
233.009	81.56
233.243	84.56
233.477	79.56
233.711	87.56
233.945	84.56
234.179	83.56
234.413	79.56
234.647	85.56
234.881	103.56
235.115	64.56
235.349	91.56
235.583	71.56
235.817	88.56
236.051	77.56
236.285	78.56
236.519	81.56
236.753	86.56
236.987	77.56
237.221	89.56
237.455	110.56
237.689	81.56
237.922	74.56
238.156	69.56
238.39	66.56
238.624	63.56
238.858	78.56
239.091	94.56
239.325	79.56
239.559	87.56
239.793	80.56
240.027	83.56
240.26	100.56
240.494	92.56
240.728	89.56
240.961	92.56
241.195	61.56
241.429	77.56
241.662	92.56
241.896	74.56
242.13	64.56
242.363	73.56
242.597	78.56
242.83	80.56
243.064	81.56
243.298	85.56
243.531	78.56
243.765	73.56
243.998	74.56
244.232	83.56
244.465	79.56
244.699	72.56
244.932	70.56
245.166	87.56
245.399	95.56
245.633	80.56
245.866	90.56
246.099	72.56
246.333	90.56
246.566	87.56
246.8	91.56
247.033	75.56
247.266	84.56
247.5	85.56
247.733	79.56
247.966	70.56
248.2	94.56
248.433	87.56
248.666	86.56
248.899	73.56
249.133	102.56
249.366	105.56
249.599	103.56
249.832	71.56
250.066	84.56
250.299	76.56
250.532	75.56
250.765	89.56
250.998	81.56
251.231	67.56
251.465	89.56
251.698	74.56
251.931	89.56
252.164	61.56
252.397	79.56
252.63	75.56
252.863	91.56
253.096	88.56
253.329	73.56
253.562	76.56
253.795	82.56
254.028	87.56
254.261	77.56
254.494	96.56
254.727	88.56
254.96	90.56
255.193	96.56
255.426	89.56
255.659	81.56
255.892	76.56
256.124	74.56
256.357	101.56
256.59	97.56
256.823	69.56
257.056	96.56
257.289	89.56
257.521	72.56
257.754	90.56
257.987	99.56
258.22	83.56
258.452	69.56
258.685	79.56
258.918	81.56
259.151	91.56
259.383	77.56
259.616	79.56
259.849	98.56
260.081	94.56
260.314	87.56
260.547	84.56
260.779	84.56
261.012	87.56
261.244	78.56
261.477	91.56
261.71	104.56
261.942	127.56
262.175	135.56
262.407	101.56
262.64	91.56
262.872	95.56
263.105	75.56
263.337	88.56
263.57	87.56
263.802	100.56
264.035	78.56
264.267	92.56
264.499	90.56
264.732	85.56
264.964	81.56
265.197	72.56
265.429	84.56
265.661	77.56
265.894	80.56
266.126	88.56
266.358	84.56
266.591	86.56
266.823	80.56
267.055	77.56
267.287	85.56
267.52	92.56
267.752	84.56
267.984	95.56
268.216	80.56
268.448	85.56
268.681	86.56
268.913	85.56
269.145	103.56
269.377	80.56
269.609	78.56
269.841	74.56
270.073	101.56
270.306	91.56
270.538	101.56
270.77	83.56
271.002	90.56
271.234	86.56
271.466	91.56
271.698	102.56
271.93	78.56
272.162	102.56
272.394	93.56
272.626	87.56
272.858	93.56
273.09	76.56
273.322	91.56
273.553	80.56
273.785	78.56
274.017	78.56
274.249	94.56
274.481	83.56
274.713	84.56
274.945	92.56
275.176	102.56
275.408	103.56
275.64	97.56
275.872	90.56
276.104	87.56
276.335	101.56
276.567	106.56
276.799	122.56
277.031	115.56
277.262	107.56
277.494	91.56
277.726	98.56
277.957	103.56
278.189	98.56
278.421	104.56
278.652	80.56
278.884	85.56
279.115	95.56
279.347	84.56
279.579	92.56
279.81	89.56
280.042	100.56
280.273	77.56
280.505	89.56
280.736	105.56
280.968	101.56
281.199	104.56
281.431	97.56
281.662	87.56
281.894	82.56
282.125	110.56
282.356	138.56
282.588	180.56
282.819	124.56
283.051	89.56
283.282	85.56
283.513	98.56
283.745	91.56
283.976	86.56
284.207	85.56
284.439	94.56
284.67	97.56
284.901	93.56
285.132	88.56
285.364	99.56
285.595	109.56
285.826	87.56
286.057	93.56
286.288	91.56
286.52	93.56
286.751	92.56
286.982	88.56
287.213	92.56
287.444	99.56
287.675	87.56
287.906	79.56
288.138	92.56
288.369	89.56
288.6	84.56
288.831	89.56
289.062	79.56
289.293	81.56
289.524	94.56
289.755	95.56
289.986	96.56
290.217	95.56
290.448	93.56
290.679	80.56
290.91	79.56
291.141	101.56
291.371	91.56
291.602	91.56
291.833	105.56
292.064	98.56
292.295	106.56
292.526	92.56
292.757	89.56
292.987	107.56
293.218	84.56
293.449	93.56
293.68	92.56
293.91	92.56
294.141	92.56
294.372	88.56
294.603	91.56
294.833	94.56
295.064	77.56
295.295	90.56
295.525	99.56
295.756	107.56
295.987	131.56
296.217	180.56
296.448	148.56
296.679	106.56
296.909	92.56
297.14	88.56
297.37	80.56
297.601	96.56
297.831	98.56
298.062	99.56
298.292	85.56
298.523	88.56
298.753	105.56
298.984	91.56
299.214	91.56
299.445	100.56
299.675	96.56
299.905	101.56
300.136	92.56
300.366	96.56
300.597	89.56
300.827	95.56
301.057	105.56
301.288	110.56
301.518	93.56
301.748	86.56
301.979	98.56
302.209	102.56
302.439	117.56
302.669	98.56
302.9	107.56
303.13	98.56
303.36	96.56
303.59	112.56
303.82	111.56
304.051	105.56
304.281	98.56
304.511	105.56
304.741	84.56
304.971	103.56
305.201	97.56
305.431	85.56
305.661	89.56
305.891	88.56
306.121	105.56
306.352	109.56
306.582	117.56
306.812	92.56
307.042	93.56
307.272	89.56
307.502	112.56
307.731	93.56
307.961	88.56
308.191	83.56
308.421	91.56
308.651	89.56
308.881	103.56
309.111	92.56
309.341	103.56
309.571	96.56
309.8	107.56
310.03	112.56
310.26	122.56
310.49	96.56
310.72	112.56
310.949	133.56
311.179	108.56
311.409	95.56
311.639	112.56
311.868	110.56
312.098	90.56
312.328	104.56
312.557	110.56
312.787	131.56
313.017	102.56
313.246	102.56
313.476	102.56
313.706	89.56
313.935	103.56
314.165	109.56
314.394	121.56
314.624	107.56
314.853	110.56
315.083	101.56
315.312	92.56
315.542	93.56
315.771	96.56
316.001	99.56
316.23	80.56
316.46	81.56
316.689	92.56
316.919	97.56
317.148	103.56
317.377	102.56
317.607	110.56
317.836	110.56
318.065	90.56
318.295	93.56
318.524	102.56
318.753	117.56
318.983	100.56
319.212	113.56
319.441	123.56
319.67	114.56
319.9	86.56
320.129	100.56
320.358	97.56
320.587	79.56
320.816	116.56
321.046	99.56
321.275	109.56
321.504	96.56
321.733	104.56
321.962	106.56
322.191	106.56
322.42	117.56
322.649	138.56
322.878	130.56
323.108	128.56
323.337	148.56
323.566	142.56
323.795	183.56
324.024	217.56
324.253	444.56
324.482	953.56
324.71	1979.56
324.939	2675.56
325.168	961.56
325.397	287.56
325.626	174.56
325.855	141.56
326.084	144.56
326.313	128.56
326.542	153.56
326.77	250.56
326.999	503.56
327.228	1003.56
327.457	1942.56
327.686	1556.56
327.914	429.56
328.143	225.56
328.372	197.56
328.6	155.56
328.829	136.56
329.058	153.56
329.287	167.56
329.515	129.56
329.744	107.56
329.972	118.56
330.201	146.56
330.43	168.56
330.658	164.56
330.887	211.56
331.115	163.56
331.344	115.56
331.572	103.56
331.801	106.56
332.03	109.56
332.258	100.56
332.486	95.56
332.715	87.56
332.943	93.56
333.172	110.56
333.4	92.56
333.629	109.56
333.857	126.56
334.085	141.56
334.314	134.56
334.542	174.56
334.771	169.56
334.999	130.56
335.227	133.56
335.455	108.56
335.684	100.56
335.912	100.56
336.14	115.56
336.369	105.56
336.597	106.56
336.825	103.56
337.053	103.56
337.281	85.56
337.51	113.56
337.738	101.56
337.966	100.56
338.194	107.56
338.422	120.56
338.65	107.56
338.878	92.56
339.106	94.56
339.334	94.56
339.562	91.56
339.79	96.56
340.018	108.56
340.246	104.56
340.474	101.56
340.702	94.56
340.93	100.56
341.158	94.56
341.386	101.56
341.614	116.56
341.842	106.56
342.07	99.56
342.298	103.56
342.526	109.56
342.754	93.56
342.981	90.56
343.209	96.56
343.437	108.56
343.665	89.56
343.893	96.56
344.12	88.56
344.348	98.56
344.576	101.56
344.804	87.56
345.031	89.56
345.259	110.56
345.487	113.56
345.714	99.56
345.942	106.56
346.17	104.56
346.397	99.56
346.625	97.56
346.853	96.56
347.08	101.56
347.308	105.56
347.535	99.56
347.763	111.56
347.99	98.56
348.218	112.56
348.445	104.56
348.673	118.56
348.9	110.56
349.128	111.56
349.355	105.56
349.583	99.56
349.81	103.56
350.037	104.56
350.265	100.56
350.492	99.56
350.72	110.56
350.947	114.56
351.174	122.56
351.402	132.56
351.629	112.56
351.856	99.56
352.083	110.56
352.311	127.56
352.538	124.56
352.765	110.56
352.992	124.56
353.22	123.56
353.447	111.56
353.674	125.56
353.901	99.56
354.128	101.56
354.355	97.56
354.583	94.56
354.81	119.56
355.037	102.56
355.264	97.56
355.491	117.56
355.718	95.56
355.945	96.56
356.172	101.56
356.399	87.56
356.626	84.56
356.853	94.56
357.08	86.56
357.307	103.56
357.534	102.56
357.761	104.56
357.988	95.56
358.215	94.56
358.441	92.56
358.668	99.56
358.895	95.56
359.122	100.56
359.349	88.56
359.576	104.56
359.802	104.56
360.029	140.56
360.256	140.56
360.483	104.56
360.709	84.56
360.936	91.56
361.163	108.56
361.39	110.56
361.616	112.56
361.843	95.56
362.07	101.56
362.296	104.56
362.523	102.56
362.749	111.56
362.976	87.56
363.203	97.56
363.429	91.56
363.656	97.56
363.882	93.56
364.109	99.56
364.335	101.56
364.562	96.56
364.788	102.56
365.015	91.56
365.241	109.56
365.468	119.56
365.694	129.56
365.92	117.56
366.147	112.56
366.373	99.56
366.599	91.56
366.826	96.56
367.052	88.56
367.278	104.56
367.505	106.56
367.731	107.56
367.957	93.56
368.184	102.56
368.41	124.56
368.636	122.56
368.862	132.56
369.089	117.56
369.315	94.56
369.541	92.56
369.767	92.56
369.993	89.56
370.219	89.56
370.445	99.56
370.672	83.56
370.898	93.56
371.124	102.56
371.35	106.56
371.576	91.56
371.802	90.56
372.028	92.56
372.254	102.56
372.48	87.56
372.706	105.56
372.932	106.56
373.158	94.56
373.384	106.56
373.61	101.56
373.835	90.56
374.061	78.56
374.287	88.56
374.513	87.56
374.739	92.56
374.965	88.56
375.191	88.56
375.416	96.56
375.642	86.56
375.868	113.56
376.094	100.56
376.319	85.56
376.545	88.56
376.771	97.56
376.997	93.56
377.222	92.56
377.448	96.56
377.674	92.56
377.899	117.56
378.125	97.56
378.35	94.56
378.576	96.56
378.802	95.56
379.027	95.56
379.253	86.56
379.478	94.56
379.704	95.56
379.929	84.56
380.155	91.56
380.38	102.56
380.606	112.56
380.831	93.56
381.057	87.56
381.282	102.56
381.507	103.56
381.733	94.56
381.958	102.56
382.184	108.56
382.409	100.56
382.634	115.56
382.86	97.56
383.085	113.56
383.31	104.56
383.535	103.56
383.761	93.56
383.986	107.56
384.211	102.56
384.436	100.56
384.662	77.56
384.887	111.56
385.112	108.56
385.337	101.56
385.562	105.56
385.787	114.56
386.013	131.56
386.238	140.56
386.463	131.56
386.688	107.56
386.913	112.56
387.138	111.56
387.363	113.56
387.588	100.56
387.813	107.56
388.038	118.56
388.263	107.56
388.488	99.56
388.713	99.56
388.938	85.56
389.163	110.56
389.387	107.56
389.612	89.56
389.837	84.56
390.062	90.56
390.287	94.56
390.512	93.56
390.736	79.56
390.961	83.56
391.186	101.56
391.411	89.56
391.636	93.56
391.86	85.56
392.085	92.56
392.31	84.56
392.534	75.56
392.759	94.56
392.984	106.56
393.208	121.56
393.433	108.56
393.658	113.56
393.882	90.56
394.107	85.56
394.331	83.56
394.556	93.56
394.78	91.56
395.005	95.56
395.229	91.56
395.454	95.56
395.678	76.56
395.903	83.56
396.127	101.56
396.352	85.56
396.576	85.56
396.801	86.56
397.025	102.56
397.249	102.56
397.474	85.56
397.698	99.56
397.922	101.56
398.147	95.56
398.371	86.56
398.595	92.56
398.82	94.56
399.044	102.56
399.268	89.56
399.492	99.56
399.717	85.56
399.941	94.56
400.165	86.56
400.389	87.56
400.613	99.56
400.837	83.56
401.062	89.56
401.286	97.56
401.51	93.56
401.734	97.56
401.958	111.56
402.182	150.56
402.406	199.56
402.63	133.56
402.854	109.56
403.078	95.56
403.302	84.56
403.526	91.56
403.75	97.56
403.974	89.56
404.198	82.56
404.422	97.56
404.645	91.56
404.869	107.56
405.093	108.56
405.317	111.56
405.541	102.56
405.765	116.56
405.988	122.56
406.212	202.56
406.436	310.56
406.66	213.56
406.883	113.56
407.107	97.56
407.331	104.56
407.555	107.56
407.778	99.56
408.002	89.56
408.226	93.56
408.449	102.56
408.673	104.56
408.896	97.56
409.12	91.56
409.344	99.56
409.567	101.56
409.791	95.56
410.014	89.56
410.238	88.56
410.461	100.56
410.685	103.56
410.908	85.56
411.132	107.56
411.355	105.56
411.578	104.56
411.802	104.56
412.025	92.56
412.249	96.56
412.472	107.56
412.695	106.56
412.919	93.56
413.142	89.56
413.365	88.56
413.589	99.56
413.812	87.56
414.035	92.56
414.258	89.56
414.482	100.56
414.705	93.56
414.928	104.56
415.151	104.56
415.374	96.56
415.597	98.56
415.821	111.56
416.044	87.56
416.267	92.56
416.49	94.56
416.713	94.56
416.936	113.56
417.159	95.56
417.382	93.56
417.605	87.56
417.828	92.56
418.051	92.56
418.274	96.56
418.497	86.56
418.72	92.56
418.943	86.56
419.166	104.56
419.389	89.56
419.611	78.56
419.834	77.56
420.057	84.56
420.28	93.56
420.503	79.56
420.726	100.56
420.948	90.56
421.171	97.56
421.394	100.56
421.617	91.56
421.839	92.56
422.062	87.56
422.285	116.56
422.507	93.56
422.73	116.56
422.953	117.56
423.175	97.56
423.398	87.56
423.621	94.56
423.843	83.56
424.066	96.56
424.288	107.56
424.511	108.56
424.733	108.56
424.956	120.56
425.178	110.56
425.401	115.56
425.623	131.56
425.846	102.56
426.068	95.56
426.291	104.56
426.513	99.56
426.735	101.56
426.958	108.56
427.18	107.56
427.402	163.56
427.625	224.56
427.847	178.56
428.069	139.56
428.292	106.56
428.514	96.56
428.736	85.56
428.958	78.56
429.181	92.56
429.403	86.56
429.625	103.56
429.847	113.56
430.069	109.56
430.292	112.56
430.514	76.56
430.736	96.56
430.958	96.56
431.18	90.56
431.402	89.56
431.624	96.56
431.846	84.56
432.068	79.56
432.29	72.56
432.512	95.56
432.734	96.56
432.956	93.56
433.178	103.56
433.4	106.56
433.622	91.56
433.844	96.56
434.066	94.56
434.287	109.56
434.509	93.56
434.731	92.56
434.953	86.56
435.175	85.56
435.397	90.56
435.618	91.56
435.84	111.56
436.062	151.56
436.284	136.56
436.505	104.56
436.727	97.56
436.949	105.56
437.17	90.56
437.392	86.56
437.614	95.56
437.835	122.56
438.057	144.56
438.278	124.56
438.5	117.56
438.721	152.56
438.943	119.56
439.165	110.56
439.386	73.56
439.608	98.56
439.829	107.56
440.05	149.56
440.272	186.56
440.493	120.56
440.715	89.56
440.936	88.56
441.158	94.56
441.379	95.56
441.6	99.56
441.822	103.56
442.043	107.56
442.264	127.56
442.486	130.56
442.707	110.56
442.928	122.56
443.149	169.56
443.371	167.56
443.592	142.56
443.813	129.56
444.034	116.56
444.255	100.56
444.476	100.56
444.698	100.56
444.919	90.56
445.14	150.56
445.361	123.56
445.582	139.56
445.803	197.56
446.024	169.56
446.245	164.56
446.466	122.56
446.687	108.56
446.908	103.56
447.129	97.56
447.35	72.56
447.571	94.56
447.792	100.56
448.013	117.56
448.234	108.56
448.455	106.56
448.675	123.56
448.896	129.56
449.117	101.56
449.338	99.56
449.559	145.56
449.779	165.56
450	108.56
450.221	92.56
450.442	91.56
450.662	110.56
450.883	121.56
451.104	128.56
451.324	105.56
451.545	87.56
451.766	88.56
451.986	105.56
452.207	95.56
452.428	105.56
452.648	99.56
452.869	122.56
453.089	151.56
453.31	134.56
453.53	115.56
453.751	97.56
453.971	124.56
454.192	140.56
454.412	118.56
454.633	108.56
454.853	94.56
455.073	91.56
455.294	103.56
455.514	117.56
455.734	118.56
455.955	95.56
456.175	86.56
456.395	95.56
456.616	104.56
456.836	77.56
457.056	95.56
457.276	101.56
457.497	95.56
457.717	90.56
457.937	85.56
458.157	79.56
458.377	88.56
458.598	125.56
458.818	209.56
459.038	221.56
459.258	151.56
459.478	99.56
459.698	102.56
459.918	88.56
460.138	94.56
460.358	99.56
460.578	93.56
460.798	105.56
461.018	91.56
461.238	85.56
461.458	90.56
461.678	81.56
461.898	84.56
462.118	76.56
462.338	95.56
462.558	96.56
462.777	69.56
462.997	99.56
463.217	95.56
463.437	97.56
463.657	86.56
463.876	85.56
464.096	91.56
464.316	108.56
464.536	105.56
464.755	109.56
464.975	120.56
465.195	221.56
465.414	225.56
465.634	99.56
465.854	99.56
466.073	83.56
466.293	85.56
466.512	94.56
466.732	83.56
466.951	91.56
467.171	92.56
467.391	107.56
467.61	103.56
467.829	116.56
468.049	109.56
468.268	129.56
468.488	102.56
468.707	99.56
468.927	77.56
469.146	86.56
469.365	87.56
469.585	96.56
469.804	106.56
470.023	110.56
470.243	89.56
470.462	95.56
470.681	143.56
470.901	93.56
471.12	85.56
471.339	92.56
471.558	85.56
471.777	87.56
471.997	103.56
472.216	128.56
472.435	189.56
472.654	87.56
472.873	104.56
473.092	84.56
473.311	91.56
473.53	87.56
473.749	91.56
473.968	95.56
474.187	123.56
474.406	117.56
474.625	89.56
474.844	92.56
475.063	89.56
475.282	95.56
475.501	79.56
475.72	112.56
475.939	91.56
476.158	89.56
476.377	105.56
476.596	85.56
476.814	106.56
477.033	100.56
477.252	99.56
477.471	85.56
477.69	108.56
477.908	83.56
478.127	83.56
478.346	99.56
478.564	96.56
478.783	108.56
479.002	100.56
479.22	106.56
479.439	120.56
479.658	113.56
479.876	113.56
480.095	110.56
480.313	100.56
480.532	91.56
480.751	94.56
480.969	131.56
481.188	268.56
481.406	195.56
481.624	101.56
481.843	87.56
482.061	93.56
482.28	94.56
482.498	86.56
482.717	99.56
482.935	75.56
483.153	101.56
483.372	104.56
483.59	83.56
483.808	89.56
484.027	102.56
484.245	91.56
484.463	93.56
484.681	103.56
484.9	105.56
485.118	99.56
485.336	101.56
485.554	110.56
485.772	120.56
485.99	105.56
486.209	101.56
486.427	97.56
486.645	134.56
486.863	138.56
487.081	106.56
487.299	86.56
487.517	104.56
487.735	93.56
487.953	91.56
488.171	100.56
488.389	101.56
488.607	106.56
488.825	90.56
489.043	107.56
489.261	100.56
489.479	102.56
489.696	100.56
489.914	100.56
490.132	91.56
490.35	98.56
490.568	89.56
490.786	88.56
491.003	97.56
491.221	98.56
491.439	100.56
491.657	111.56
491.874	105.56
492.092	97.56
492.31	95.56
492.527	96.56
492.745	91.56
492.963	100.56
493.18	101.56
493.398	97.56
493.615	100.56
493.833	84.56
494.05	99.56
494.268	102.56
494.485	87.56
494.703	96.56
494.92	95.56
495.138	81.56
495.355	91.56
495.573	94.56
495.79	80.56
496.008	104.56
496.225	92.56
496.442	91.56
496.66	91.56
496.877	95.56
497.094	98.56
497.312	81.56
497.529	103.56
497.746	100.56
497.963	92.56
498.181	92.56
498.398	94.56
498.615	122.56
498.832	111.56
499.049	101.56
499.267	95.56
499.484	94.56
499.701	95.56
499.918	83.56
500.135	86.56
500.352	90.56
500.569	86.56
500.786	97.56
501.003	92.56
501.22	85.56
501.437	96.56
501.654	117.56
501.871	119.56
502.088	99.56
502.305	93.56
502.522	93.56
502.739	109.56
502.956	104.56
503.172	88.56
503.389	95.56
503.606	116.56
503.823	94.56
504.04	99.56
504.256	85.56
504.473	77.56
504.69	103.56
504.907	96.56
505.123	89.56
505.34	98.56
505.557	95.56
505.773	91.56
505.99	93.56
506.207	95.56
506.423	95.56
506.64	100.56
506.856	88.56
507.073	89.56
507.289	89.56
507.506	122.56
507.722	132.56
507.939	131.56
508.155	97.56
508.372	106.56
508.588	91.56
508.805	97.56
509.021	106.56
509.238	99.56
509.454	88.56
509.67	95.56
509.887	116.56
510.103	144.56
510.319	244.56
510.536	885.56
510.752	3039.56
510.968	809.56
511.184	169.56
511.401	131.56
511.617	111.56
511.833	105.56
512.049	96.56
512.265	93.56
512.481	101.56
