Data from Circ_1981_H10_HRD10591_00044.txt Node
Date: Wed Jan 03 12:34:29 EST 2024
User: Yrep
Spectrometer: HR+D1059
Trigger mode: 1
Integration Time (sec): 1.000000E-1
Scans to average: 1
Electric dark correction enabled: true
Nonlinearity correction enabled: false
Boxcar width: 0
XAxis mode: Wavelengths
Number of Pixels in Spectrum: 2048
>>>>>Begin Spectral Data<<<<<
223.165	-19.56
223.4	-19.56
223.635	-19.56
223.869	-4.56
224.104	-7.56
224.338	-16.56
224.573	-21.56
224.808	-21.56
225.042	-8.56
225.277	-11.56
225.511	1.44
225.746	-3.56
225.98	4.44
226.215	13.44
226.449	23.44
226.683	14.44
226.918	26.44
227.152	31.44
227.387	52.44
227.621	24.44
227.856	36.44
228.09	40.44
228.324	44.44
228.559	41.44
228.793	61.44
229.027	64.44
229.262	64.44
229.496	83.44
229.73	102.44
229.964	92.44
230.199	80.44
230.433	76.44
230.667	73.44
230.901	76.44
231.136	77.44
231.37	84.44
231.604	78.44
231.838	86.44
232.072	83.44
232.306	75.44
232.541	77.44
232.775	82.44
233.009	78.44
233.243	72.44
233.477	79.44
233.711	80.44
233.945	79.44
234.179	65.44
234.413	81.44
234.647	93.44
234.881	76.44
235.115	76.44
235.349	96.44
235.583	85.44
235.817	82.44
236.051	84.44
236.285	78.44
236.519	68.44
236.753	76.44
236.987	90.44
237.221	82.44
237.455	100.44
237.689	72.44
237.922	66.44
238.156	84.44
238.39	82.44
238.624	74.44
238.858	85.44
239.091	81.44
239.325	75.44
239.559	76.44
239.793	79.44
240.027	64.44
240.26	82.44
240.494	71.44
240.728	69.44
240.961	83.44
241.195	68.44
241.429	79.44
241.662	87.44
241.896	88.44
242.13	77.44
242.363	62.44
242.597	65.44
242.83	78.44
243.064	77.44
243.298	78.44
243.531	88.44
243.765	76.44
243.998	78.44
244.232	81.44
244.465	96.44
244.699	67.44
244.932	82.44
245.166	82.44
245.399	86.44
245.633	78.44
245.866	80.44
246.099	75.44
246.333	76.44
246.566	81.44
246.8	66.44
247.033	66.44
247.266	90.44
247.5	84.44
247.733	73.44
247.966	85.44
248.2	80.44
248.433	75.44
248.666	74.44
248.899	66.44
249.133	84.44
249.366	102.44
249.599	98.44
249.832	91.44
250.066	91.44
250.299	68.44
250.532	90.44
250.765	82.44
250.998	75.44
251.231	81.44
251.465	80.44
251.698	82.44
251.931	89.44
252.164	77.44
252.397	86.44
252.63	89.44
252.863	83.44
253.096	94.44
253.329	98.44
253.562	76.44
253.795	84.44
254.028	80.44
254.261	79.44
254.494	72.44
254.727	82.44
254.96	73.44
255.193	85.44
255.426	98.44
255.659	75.44
255.892	86.44
256.124	85.44
256.357	72.44
256.59	85.44
256.823	100.44
257.056	78.44
257.289	82.44
257.521	86.44
257.754	98.44
257.987	88.44
258.22	83.44
258.452	86.44
258.685	98.44
258.918	75.44
259.151	68.44
259.383	82.44
259.616	82.44
259.849	81.44
260.081	77.44
260.314	83.44
260.547	76.44
260.779	77.44
261.012	74.44
261.244	90.44
261.477	86.44
261.71	99.44
261.942	125.44
262.175	135.44
262.407	91.44
262.64	89.44
262.872	85.44
263.105	81.44
263.337	94.44
263.57	79.44
263.802	83.44
264.035	76.44
264.267	86.44
264.499	77.44
264.732	73.44
264.964	85.44
265.197	88.44
265.429	96.44
265.661	83.44
265.894	84.44
266.126	73.44
266.358	88.44
266.591	85.44
266.823	76.44
267.055	89.44
267.287	81.44
267.52	107.44
267.752	74.44
267.984	79.44
268.216	81.44
268.448	82.44
268.681	67.44
268.913	72.44
269.145	83.44
269.377	86.44
269.609	81.44
269.841	82.44
270.073	66.44
270.306	88.44
270.538	99.44
270.77	85.44
271.002	80.44
271.234	71.44
271.466	71.44
271.698	86.44
271.93	84.44
272.162	88.44
272.394	78.44
272.626	97.44
272.858	86.44
273.09	81.44
273.322	85.44
273.553	89.44
273.785	105.44
274.017	85.44
274.249	64.44
274.481	76.44
274.713	82.44
274.945	95.44
275.176	82.44
275.408	89.44
275.64	84.44
275.872	84.44
276.104	89.44
276.335	92.44
276.567	100.44
276.799	126.44
277.031	99.44
277.262	74.44
277.494	93.44
277.726	90.44
277.957	67.44
278.189	92.44
278.421	86.44
278.652	97.44
278.884	93.44
279.115	85.44
279.347	95.44
279.579	103.44
279.81	92.44
280.042	94.44
280.273	85.44
280.505	92.44
280.736	91.44
280.968	77.44
281.199	85.44
281.431	80.44
281.662	85.44
281.894	82.44
282.125	95.44
282.356	110.44
282.588	156.44
282.819	132.44
283.051	86.44
283.282	92.44
283.513	93.44
283.745	94.44
283.976	89.44
284.207	76.44
284.439	88.44
284.67	89.44
284.901	84.44
285.132	90.44
285.364	87.44
285.595	88.44
285.826	79.44
286.057	100.44
286.288	97.44
286.52	82.44
286.751	94.44
286.982	83.44
287.213	83.44
287.444	83.44
287.675	88.44
287.906	86.44
288.138	86.44
288.369	95.44
288.6	86.44
288.831	87.44
289.062	84.44
289.293	94.44
289.524	89.44
289.755	84.44
289.986	83.44
290.217	91.44
290.448	81.44
290.679	91.44
290.91	82.44
291.141	84.44
291.371	92.44
291.602	100.44
291.833	85.44
292.064	84.44
292.295	87.44
292.526	86.44
292.757	70.44
292.987	91.44
293.218	93.44
293.449	82.44
293.68	92.44
293.91	85.44
294.141	84.44
294.372	81.44
294.603	82.44
294.833	91.44
295.064	78.44
295.295	96.44
295.525	90.44
295.756	106.44
295.987	109.44
296.217	146.44
296.448	120.44
296.679	102.44
296.909	88.44
297.14	94.44
297.37	101.44
297.601	83.44
297.831	81.44
298.062	100.44
298.292	96.44
298.523	108.44
298.753	100.44
298.984	86.44
299.214	91.44
299.445	89.44
299.675	79.44
299.905	104.44
300.136	84.44
300.366	81.44
300.597	94.44
300.827	87.44
301.057	94.44
301.288	103.44
301.518	93.44
301.748	97.44
301.979	97.44
302.209	105.44
302.439	93.44
302.669	107.44
302.9	93.44
303.13	96.44
303.36	103.44
303.59	109.44
303.82	111.44
304.051	94.44
304.281	80.44
304.511	100.44
304.741	81.44
304.971	96.44
305.201	93.44
305.431	98.44
305.661	95.44
305.891	96.44
306.121	100.44
306.352	95.44
306.582	98.44
306.812	97.44
307.042	104.44
307.272	103.44
307.502	87.44
307.731	105.44
307.961	74.44
308.191	82.44
308.421	87.44
308.651	95.44
308.881	87.44
309.111	109.44
309.341	88.44
309.571	101.44
309.8	103.44
310.03	107.44
310.26	97.44
310.49	92.44
310.72	102.44
310.949	118.44
311.179	104.44
311.409	88.44
311.639	90.44
311.868	102.44
312.098	90.44
312.328	113.44
312.557	107.44
312.787	118.44
313.017	113.44
313.246	106.44
313.476	106.44
313.706	92.44
313.935	103.44
314.165	100.44
314.394	125.44
314.624	99.44
314.853	92.44
315.083	91.44
315.312	99.44
315.542	90.44
315.771	96.44
316.001	99.44
316.23	90.44
316.46	83.44
316.689	88.44
316.919	108.44
317.148	96.44
317.377	104.44
317.607	93.44
317.836	102.44
318.065	96.44
318.295	96.44
318.524	109.44
318.753	97.44
318.983	96.44
319.212	104.44
319.441	101.44
319.67	93.44
319.9	86.44
320.129	90.44
320.358	99.44
320.587	80.44
320.816	92.44
321.046	102.44
321.275	93.44
321.504	87.44
321.733	87.44
321.962	100.44
322.191	97.44
322.42	109.44
322.649	117.44
322.878	131.44
323.108	139.44
323.337	140.44
323.566	144.44
323.795	182.44
324.024	232.44
324.253	444.44
324.482	1001.44
324.71	2081.44
324.939	2822.44
325.168	1024.44
325.397	286.44
325.626	152.44
325.855	151.44
326.084	124.44
326.313	144.44
326.542	156.44
326.77	254.44
326.999	512.44
327.228	1040.44
327.457	2030.44
327.686	1606.44
327.914	424.44
328.143	236.44
328.372	189.44
328.6	150.44
328.829	135.44
329.058	136.44
329.287	166.44
329.515	141.44
329.744	117.44
329.972	114.44
330.201	114.44
330.43	165.44
330.658	152.44
330.887	193.44
331.115	147.44
331.344	116.44
331.572	108.44
331.801	107.44
332.03	112.44
332.258	116.44
332.486	99.44
332.715	105.44
332.943	99.44
333.172	99.44
333.4	98.44
333.629	119.44
333.857	120.44
334.085	123.44
334.314	126.44
334.542	155.44
334.771	164.44
334.999	111.44
335.227	104.44
335.455	91.44
335.684	89.44
335.912	106.44
336.14	91.44
336.369	100.44
336.597	100.44
336.825	111.44
337.053	102.44
337.281	87.44
337.51	116.44
337.738	91.44
337.966	104.44
338.194	109.44
338.422	97.44
338.65	92.44
338.878	85.44
339.106	109.44
339.334	97.44
339.562	89.44
339.79	103.44
340.018	92.44
340.246	104.44
340.474	107.44
340.702	100.44
340.93	88.44
341.158	103.44
341.386	100.44
341.614	109.44
341.842	120.44
342.07	92.44
342.298	87.44
342.526	95.44
342.754	82.44
342.981	82.44
343.209	88.44
343.437	90.44
343.665	93.44
343.893	94.44
344.12	85.44
344.348	82.44
344.576	100.44
344.804	93.44
345.031	102.44
345.259	115.44
345.487	96.44
345.714	112.44
345.942	93.44
346.17	96.44
346.397	95.44
346.625	96.44
346.853	99.44
347.08	86.44
347.308	111.44
347.535	124.44
347.763	111.44
347.99	94.44
348.218	104.44
348.445	102.44
348.673	99.44
348.9	85.44
349.128	99.44
349.355	86.44
349.583	93.44
349.81	100.44
350.037	107.44
350.265	97.44
350.492	112.44
350.72	92.44
350.947	99.44
351.174	117.44
351.402	123.44
351.629	98.44
351.856	101.44
352.083	108.44
352.311	112.44
352.538	110.44
352.765	126.44
352.992	128.44
353.22	114.44
353.447	100.44
353.674	105.44
353.901	102.44
354.128	84.44
354.355	106.44
354.583	101.44
354.81	102.44
355.037	93.44
355.264	96.44
355.491	98.44
355.718	85.44
355.945	95.44
356.172	108.44
356.399	100.44
356.626	88.44
356.853	94.44
357.08	100.44
357.307	90.44
357.534	94.44
357.761	97.44
357.988	93.44
358.215	100.44
358.441	92.44
358.668	95.44
358.895	89.44
359.122	92.44
359.349	94.44
359.576	87.44
359.802	111.44
360.029	127.44
360.256	133.44
360.483	113.44
360.709	82.44
360.936	105.44
361.163	99.44
361.39	109.44
361.616	98.44
361.843	92.44
362.07	114.44
362.296	105.44
362.523	87.44
362.749	92.44
362.976	102.44
363.203	100.44
363.429	101.44
363.656	89.44
363.882	81.44
364.109	100.44
364.335	115.44
364.562	87.44
364.788	101.44
365.015	94.44
365.241	103.44
365.468	127.44
365.694	110.44
365.92	104.44
366.147	93.44
366.373	103.44
366.599	86.44
366.826	90.44
367.052	97.44
367.278	86.44
367.505	109.44
367.731	96.44
367.957	109.44
368.184	109.44
368.41	105.44
368.636	110.44
368.862	128.44
369.089	120.44
369.315	89.44
369.541	92.44
369.767	108.44
369.993	105.44
370.219	107.44
370.445	88.44
370.672	82.44
370.898	82.44
371.124	85.44
371.35	88.44
371.576	77.44
371.802	92.44
372.028	83.44
372.254	115.44
372.48	102.44
372.706	92.44
372.932	81.44
373.158	72.44
373.384	86.44
373.61	86.44
373.835	97.44
374.061	93.44
374.287	98.44
374.513	107.44
374.739	93.44
374.965	92.44
375.191	90.44
375.416	89.44
375.642	83.44
375.868	105.44
376.094	101.44
376.319	87.44
376.545	106.44
376.771	89.44
376.997	97.44
377.222	92.44
377.448	98.44
377.674	97.44
377.899	87.44
378.125	80.44
378.35	96.44
378.576	74.44
378.802	90.44
379.027	84.44
379.253	89.44
379.478	77.44
379.704	84.44
379.929	100.44
380.155	100.44
380.38	97.44
380.606	90.44
380.831	91.44
381.057	90.44
381.282	97.44
381.507	107.44
381.733	105.44
381.958	109.44
382.184	97.44
382.409	83.44
382.634	109.44
382.86	105.44
383.085	93.44
383.31	105.44
383.535	101.44
383.761	93.44
383.986	112.44
384.211	87.44
384.436	105.44
384.662	102.44
384.887	96.44
385.112	98.44
385.337	89.44
385.562	98.44
385.787	88.44
386.013	99.44
386.238	113.44
386.463	97.44
386.688	96.44
386.913	86.44
387.138	103.44
387.363	101.44
387.588	90.44
387.813	86.44
388.038	109.44
388.263	95.44
388.488	92.44
388.713	88.44
388.938	99.44
389.163	110.44
389.387	85.44
389.612	70.44
389.837	101.44
390.062	101.44
390.287	91.44
390.512	82.44
390.736	84.44
390.961	95.44
391.186	98.44
391.411	86.44
391.636	80.44
391.86	91.44
392.085	87.44
392.31	94.44
392.534	85.44
392.759	93.44
392.984	90.44
393.208	99.44
393.433	105.44
393.658	99.44
393.882	87.44
394.107	72.44
394.331	87.44
394.556	83.44
394.78	93.44
395.005	93.44
395.229	94.44
395.454	100.44
395.678	91.44
395.903	97.44
396.127	84.44
396.352	109.44
396.576	96.44
396.801	93.44
397.025	86.44
397.249	86.44
397.474	68.44
397.698	82.44
397.922	95.44
398.147	94.44
398.371	80.44
398.595	91.44
398.82	100.44
399.044	84.44
399.268	93.44
399.492	94.44
399.717	96.44
399.941	83.44
400.165	103.44
400.389	93.44
400.613	96.44
400.837	92.44
401.062	88.44
401.286	95.44
401.51	88.44
401.734	94.44
401.958	100.44
402.182	131.44
402.406	192.44
402.63	128.44
402.854	104.44
403.078	96.44
403.302	101.44
403.526	98.44
403.75	82.44
403.974	87.44
404.198	98.44
404.422	92.44
404.645	98.44
404.869	86.44
405.093	105.44
405.317	101.44
405.541	107.44
405.765	116.44
405.988	127.44
406.212	182.44
406.436	292.44
406.66	188.44
406.883	126.44
407.107	107.44
407.331	118.44
407.555	113.44
407.778	97.44
408.002	101.44
408.226	106.44
408.449	86.44
408.673	76.44
408.896	86.44
409.12	102.44
409.344	97.44
409.567	77.44
409.791	84.44
410.014	95.44
410.238	106.44
410.461	96.44
410.685	98.44
410.908	91.44
411.132	102.44
411.355	101.44
411.578	91.44
411.802	108.44
412.025	76.44
412.249	87.44
412.472	81.44
412.695	105.44
412.919	101.44
413.142	102.44
413.365	89.44
413.589	84.44
413.812	99.44
414.035	106.44
414.258	94.44
414.482	84.44
414.705	89.44
414.928	93.44
415.151	90.44
415.374	101.44
415.597	74.44
415.821	80.44
416.044	81.44
416.267	85.44
416.49	78.44
416.713	80.44
416.936	88.44
417.159	90.44
417.382	85.44
417.605	89.44
417.828	100.44
418.051	87.44
418.274	92.44
418.497	93.44
418.72	89.44
418.943	96.44
419.166	92.44
419.389	94.44
419.611	98.44
419.834	87.44
420.057	87.44
420.28	88.44
420.503	74.44
420.726	80.44
420.948	89.44
421.171	104.44
421.394	91.44
421.617	95.44
421.839	104.44
422.062	90.44
422.285	90.44
422.507	86.44
422.73	121.44
422.953	108.44
423.175	88.44
423.398	89.44
423.621	90.44
423.843	93.44
424.066	91.44
424.288	85.44
424.511	115.44
424.733	103.44
424.956	114.44
425.178	109.44
425.401	110.44
425.623	108.44
425.846	86.44
426.068	98.44
426.291	101.44
426.513	99.44
426.735	101.44
426.958	102.44
427.18	118.44
427.402	160.44
427.625	221.44
427.847	167.44
428.069	116.44
428.292	92.44
428.514	96.44
428.736	96.44
428.958	102.44
429.181	87.44
429.403	81.44
429.625	100.44
429.847	86.44
430.069	117.44
430.292	108.44
430.514	75.44
430.736	75.44
430.958	84.44
431.18	89.44
431.402	80.44
431.624	77.44
431.846	82.44
432.068	84.44
432.29	86.44
432.512	88.44
432.734	98.44
432.956	93.44
433.178	102.44
433.4	113.44
433.622	98.44
433.844	96.44
434.066	92.44
434.287	87.44
434.509	99.44
434.731	100.44
434.953	85.44
435.175	82.44
435.397	101.44
435.618	93.44
435.84	103.44
436.062	152.44
436.284	126.44
436.505	111.44
436.727	96.44
436.949	106.44
437.17	98.44
437.392	94.44
437.614	86.44
437.835	118.44
438.057	141.44
438.278	130.44
438.5	105.44
438.721	152.44
438.943	112.44
439.165	91.44
439.386	84.44
439.608	108.44
439.829	104.44
440.05	145.44
440.272	175.44
440.493	113.44
440.715	101.44
440.936	83.44
441.158	75.44
441.379	92.44
441.6	106.44
441.822	115.44
442.043	94.44
442.264	120.44
442.486	119.44
442.707	103.44
442.928	100.44
443.149	161.44
443.371	154.44
443.592	129.44
443.813	162.44
444.034	119.44
444.255	106.44
444.476	93.44
444.698	85.44
444.919	82.44
445.14	139.44
445.361	136.44
445.582	136.44
445.803	176.44
446.024	160.44
446.245	164.44
446.466	124.44
446.687	93.44
446.908	94.44
447.129	93.44
447.35	82.44
447.571	83.44
447.792	92.44
448.013	106.44
448.234	125.44
448.455	122.44
448.675	123.44
448.896	135.44
449.117	101.44
449.338	108.44
449.559	167.44
449.779	150.44
450	96.44
450.221	80.44
450.442	90.44
450.662	94.44
450.883	129.44
451.104	132.44
451.324	99.44
451.545	84.44
451.766	82.44
451.986	84.44
452.207	81.44
452.428	94.44
452.648	104.44
452.869	128.44
453.089	128.44
453.31	121.44
453.53	97.44
453.751	85.44
453.971	104.44
454.192	122.44
454.412	94.44
454.633	98.44
454.853	93.44
455.073	98.44
455.294	84.44
455.514	118.44
455.734	102.44
455.955	85.44
456.175	89.44
456.395	91.44
456.616	85.44
456.836	89.44
457.056	86.44
457.276	90.44
457.497	100.44
457.717	77.44
457.937	90.44
458.157	101.44
458.377	97.44
458.598	122.44
458.818	192.44
459.038	220.44
459.258	132.44
459.478	102.44
459.698	93.44
459.918	78.44
460.138	84.44
460.358	77.44
460.578	93.44
460.798	94.44
461.018	80.44
461.238	96.44
461.458	70.44
461.678	85.44
461.898	87.44
462.118	83.44
462.338	97.44
462.558	81.44
462.777	68.44
462.997	80.44
463.217	70.44
463.437	86.44
463.657	76.44
463.876	66.44
464.096	83.44
464.316	87.44
464.536	86.44
464.755	91.44
464.975	107.44
465.195	209.44
465.414	230.44
465.634	107.44
465.854	75.44
466.073	90.44
466.293	97.44
466.512	91.44
466.732	72.44
466.951	95.44
467.171	80.44
467.391	85.44
467.61	106.44
467.829	117.44
468.049	105.44
468.268	102.44
468.488	85.44
468.707	71.44
468.927	80.44
469.146	82.44
469.365	82.44
469.585	94.44
469.804	96.44
470.023	95.44
470.243	104.44
470.462	108.44
470.681	121.44
470.901	99.44
471.12	89.44
471.339	89.44
471.558	89.44
471.777	93.44
471.997	91.44
472.216	125.44
472.435	149.44
472.654	105.44
472.873	99.44
473.092	84.44
473.311	86.44
473.53	76.44
473.749	89.44
473.968	106.44
474.187	124.44
474.406	103.44
474.625	92.44
474.844	87.44
475.063	105.44
475.282	92.44
475.501	84.44
475.72	81.44
475.939	96.44
476.158	92.44
476.377	95.44
476.596	89.44
476.814	84.44
477.033	89.44
477.252	85.44
477.471	92.44
477.69	81.44
477.908	85.44
478.127	85.44
478.346	103.44
478.564	81.44
478.783	101.44
479.002	92.44
479.22	96.44
479.439	108.44
479.658	116.44
479.876	97.44
480.095	80.44
480.313	95.44
480.532	100.44
480.751	94.44
480.969	113.44
481.188	229.44
481.406	161.44
481.624	95.44
481.843	75.44
482.061	74.44
482.28	74.44
482.498	95.44
482.717	95.44
482.935	83.44
483.153	94.44
483.372	105.44
483.59	93.44
483.808	78.44
484.027	100.44
484.245	76.44
484.463	90.44
484.681	92.44
484.9	75.44
485.118	92.44
485.336	96.44
485.554	96.44
485.772	89.44
485.99	113.44
486.209	108.44
486.427	101.44
486.645	121.44
486.863	119.44
487.081	108.44
487.299	94.44
487.517	86.44
487.735	86.44
487.953	86.44
488.171	88.44
488.389	81.44
488.607	110.44
488.825	81.44
489.043	81.44
489.261	98.44
489.479	95.44
489.696	99.44
489.914	90.44
490.132	76.44
490.35	83.44
490.568	94.44
490.786	98.44
491.003	86.44
491.221	81.44
491.439	71.44
491.657	102.44
491.874	85.44
492.092	81.44
492.31	92.44
492.527	91.44
492.745	94.44
492.963	85.44
493.18	90.44
493.398	78.44
493.615	93.44
493.833	96.44
494.05	91.44
494.268	87.44
494.485	87.44
494.703	86.44
494.92	101.44
495.138	96.44
495.355	97.44
495.573	117.44
495.79	82.44
496.008	100.44
496.225	97.44
496.442	75.44
496.66	77.44
496.877	76.44
497.094	86.44
497.312	90.44
497.529	93.44
497.746	96.44
497.963	91.44
498.181	109.44
498.398	86.44
498.615	117.44
498.832	109.44
499.049	86.44
499.267	84.44
499.484	90.44
499.701	88.44
499.918	80.44
500.135	83.44
500.352	93.44
500.569	78.44
500.786	102.44
501.003	84.44
501.22	89.44
501.437	97.44
501.654	93.44
501.871	111.44
502.088	99.44
502.305	88.44
502.522	93.44
502.739	98.44
502.956	86.44
503.172	87.44
503.389	97.44
503.606	111.44
503.823	93.44
504.04	80.44
504.256	83.44
504.473	98.44
504.69	83.44
504.907	87.44
505.123	96.44
505.34	98.44
505.557	75.44
505.773	93.44
505.99	82.44
506.207	89.44
506.423	84.44
506.64	79.44
506.856	74.44
507.073	85.44
507.289	100.44
507.506	93.44
507.722	117.44
507.939	130.44
508.155	114.44
508.372	93.44
508.588	100.44
508.805	92.44
509.021	105.44
509.238	98.44
509.454	84.44
509.67	99.44
509.887	98.44
510.103	143.44
510.319	232.44
510.536	853.44
510.752	2794.44
510.968	756.44
511.184	169.44
511.401	128.44
511.617	110.44
511.833	95.44
512.049	99.44
512.265	90.44
512.481	94.44
512.698	92.44
512.914	77.44
513.13	95.44
513.346	92.44
513.562	90.44
513.778	101.44
513.994	96.44
514.21	118.44
