Data from Circ_1981_H10_HRD10591_00037.txt Node
Date: Wed Jan 03 12:34:28 EST 2024
User: Yrep
Spectrometer: HR+D1059
Trigger mode: 1
Integration Time (sec): 1.000000E-1
Scans to average: 1
Electric dark correction enabled: true
Nonlinearity correction enabled: false
Boxcar width: 0
XAxis mode: Wavelengths
Number of Pixels in Spectrum: 2048
>>>>>Begin Spectral Data<<<<<
223.165	4.62
223.4	4.62
223.635	4.62
223.869	-22.38
224.104	-19.38
224.338	-9.38
224.573	-17.38
224.808	-6.38
225.042	-13.38
225.277	-4.38
225.511	12.62
225.746	5.62
225.98	-7.38
226.215	1.62
226.449	11.62
226.683	11.62
226.918	21.62
227.152	30.62
227.387	25.62
227.621	41.62
227.856	41.62
228.09	59.62
228.324	44.62
228.559	59.62
228.793	62.62
229.027	58.62
229.262	64.62
229.496	75.62
229.73	86.62
229.964	85.62
230.199	69.62
230.433	73.62
230.667	86.62
230.901	88.62
231.136	77.62
231.37	90.62
231.604	83.62
231.838	89.62
232.072	77.62
232.306	85.62
232.541	77.62
232.775	90.62
233.009	86.62
233.243	83.62
233.477	89.62
233.711	80.62
233.945	69.62
234.179	86.62
234.413	90.62
234.647	70.62
234.881	88.62
235.115	76.62
235.349	92.62
235.583	85.62
235.817	77.62
236.051	87.62
236.285	61.62
236.519	86.62
236.753	78.62
236.987	88.62
237.221	100.62
237.455	101.62
237.689	87.62
237.922	76.62
238.156	73.62
238.39	65.62
238.624	65.62
238.858	64.62
239.091	74.62
239.325	60.62
239.559	80.62
239.793	82.62
240.027	72.62
240.26	84.62
240.494	84.62
240.728	85.62
240.961	68.62
241.195	85.62
241.429	93.62
241.662	82.62
241.896	84.62
242.13	74.62
242.363	84.62
242.597	85.62
242.83	64.62
243.064	73.62
243.298	71.62
243.531	82.62
243.765	84.62
243.998	81.62
244.232	93.62
244.465	70.62
244.699	83.62
244.932	70.62
245.166	76.62
245.399	78.62
245.633	76.62
245.866	82.62
246.099	86.62
246.333	88.62
246.566	66.62
246.8	76.62
247.033	74.62
247.266	78.62
247.5	74.62
247.733	77.62
247.966	71.62
248.2	93.62
248.433	81.62
248.666	69.62
248.899	88.62
249.133	86.62
249.366	87.62
249.599	96.62
249.832	76.62
250.066	86.62
250.299	72.62
250.532	84.62
250.765	84.62
250.998	70.62
251.231	81.62
251.465	80.62
251.698	72.62
251.931	83.62
252.164	80.62
252.397	74.62
252.63	92.62
252.863	79.62
253.096	78.62
253.329	86.62
253.562	72.62
253.795	96.62
254.028	100.62
254.261	82.62
254.494	78.62
254.727	72.62
254.96	76.62
255.193	75.62
255.426	79.62
255.659	76.62
255.892	72.62
256.124	77.62
256.357	80.62
256.59	76.62
256.823	76.62
257.056	81.62
257.289	86.62
257.521	86.62
257.754	91.62
257.987	87.62
258.22	86.62
258.452	91.62
258.685	88.62
258.918	93.62
259.151	84.62
259.383	84.62
259.616	84.62
259.849	86.62
260.081	78.62
260.314	94.62
260.547	76.62
260.779	73.62
261.012	90.62
261.244	77.62
261.477	80.62
261.71	92.62
261.942	120.62
262.175	124.62
262.407	99.62
262.64	71.62
262.872	87.62
263.105	78.62
263.337	91.62
263.57	77.62
263.802	88.62
264.035	86.62
264.267	93.62
264.499	81.62
264.732	86.62
264.964	90.62
265.197	81.62
265.429	89.62
265.661	73.62
265.894	82.62
266.126	92.62
266.358	83.62
266.591	68.62
266.823	84.62
267.055	92.62
267.287	86.62
267.52	73.62
267.752	70.62
267.984	83.62
268.216	84.62
268.448	76.62
268.681	75.62
268.913	67.62
269.145	77.62
269.377	85.62
269.609	97.62
269.841	69.62
270.073	71.62
270.306	88.62
270.538	90.62
270.77	98.62
271.002	100.62
271.234	89.62
271.466	84.62
271.698	81.62
271.93	74.62
272.162	91.62
272.394	88.62
272.626	83.62
272.858	90.62
273.09	100.62
273.322	96.62
273.553	91.62
273.785	80.62
274.017	71.62
274.249	84.62
274.481	86.62
274.713	89.62
274.945	92.62
275.176	104.62
275.408	77.62
275.64	84.62
275.872	63.62
276.104	89.62
276.335	97.62
276.567	101.62
276.799	122.62
277.031	110.62
277.262	103.62
277.494	84.62
277.726	82.62
277.957	82.62
278.189	93.62
278.421	73.62
278.652	81.62
278.884	87.62
279.115	87.62
279.347	106.62
279.579	84.62
279.81	76.62
280.042	81.62
280.273	80.62
280.505	86.62
280.736	90.62
280.968	99.62
281.199	83.62
281.431	88.62
281.662	80.62
281.894	100.62
282.125	104.62
282.356	108.62
282.588	161.62
282.819	120.62
283.051	98.62
283.282	84.62
283.513	92.62
283.745	90.62
283.976	80.62
284.207	88.62
284.439	77.62
284.67	87.62
284.901	102.62
285.132	100.62
285.364	96.62
285.595	87.62
285.826	76.62
286.057	84.62
286.288	88.62
286.52	91.62
286.751	70.62
286.982	80.62
287.213	72.62
287.444	80.62
287.675	94.62
287.906	101.62
288.138	98.62
288.369	112.62
288.6	100.62
288.831	99.62
289.062	89.62
289.293	92.62
289.524	75.62
289.755	92.62
289.986	80.62
290.217	81.62
290.448	89.62
290.679	94.62
290.91	96.62
291.141	81.62
291.371	77.62
291.602	85.62
291.833	80.62
292.064	106.62
292.295	74.62
292.526	96.62
292.757	90.62
292.987	87.62
293.218	91.62
293.449	95.62
293.68	67.62
293.91	81.62
294.141	86.62
294.372	73.62
294.603	89.62
294.833	95.62
295.064	95.62
295.295	89.62
295.525	106.62
295.756	111.62
295.987	122.62
296.217	148.62
296.448	135.62
296.679	88.62
296.909	88.62
297.14	105.62
297.37	106.62
297.601	105.62
297.831	105.62
298.062	102.62
298.292	98.62
298.523	77.62
298.753	93.62
298.984	98.62
299.214	86.62
299.445	89.62
299.675	84.62
299.905	96.62
300.136	81.62
300.366	91.62
300.597	81.62
300.827	107.62
301.057	107.62
301.288	118.62
301.518	107.62
301.748	87.62
301.979	89.62
302.209	105.62
302.439	89.62
302.669	80.62
302.9	84.62
303.13	102.62
303.36	89.62
303.59	109.62
303.82	106.62
304.051	76.62
304.281	90.62
304.511	105.62
304.741	89.62
304.971	99.62
305.201	92.62
305.431	84.62
305.661	92.62
305.891	96.62
306.121	97.62
306.352	88.62
306.582	92.62
306.812	92.62
307.042	104.62
307.272	81.62
307.502	103.62
307.731	82.62
307.961	91.62
308.191	83.62
308.421	110.62
308.651	86.62
308.881	99.62
309.111	102.62
309.341	105.62
309.571	105.62
309.8	89.62
310.03	98.62
310.26	116.62
310.49	84.62
310.72	112.62
310.949	118.62
311.179	114.62
311.409	96.62
311.639	93.62
311.868	98.62
312.098	89.62
312.328	97.62
312.557	112.62
312.787	116.62
313.017	112.62
313.246	92.62
313.476	94.62
313.706	104.62
313.935	101.62
314.165	104.62
314.394	121.62
314.624	110.62
314.853	105.62
315.083	99.62
315.312	108.62
315.542	88.62
315.771	104.62
316.001	101.62
316.23	92.62
316.46	100.62
316.689	89.62
316.919	77.62
317.148	93.62
317.377	85.62
317.607	102.62
317.836	95.62
318.065	92.62
318.295	96.62
318.524	104.62
318.753	93.62
318.983	94.62
319.212	107.62
319.441	105.62
319.67	108.62
319.9	101.62
320.129	97.62
320.358	83.62
320.587	93.62
320.816	88.62
321.046	113.62
321.275	100.62
321.504	94.62
321.733	110.62
321.962	101.62
322.191	103.62
322.42	112.62
322.649	122.62
322.878	108.62
323.108	116.62
323.337	128.62
323.566	148.62
323.795	178.62
324.024	244.62
324.253	468.62
324.482	1008.62
324.71	2082.62
324.939	2964.62
325.168	1017.62
325.397	308.62
325.626	178.62
325.855	140.62
326.084	146.62
326.313	135.62
326.542	166.62
326.77	269.62
326.999	542.62
327.228	1155.62
327.457	2188.62
327.686	1784.62
327.914	457.62
328.143	226.62
328.372	188.62
328.6	150.62
328.829	126.62
329.058	165.62
329.287	152.62
329.515	118.62
329.744	125.62
329.972	116.62
330.201	129.62
330.43	139.62
330.658	150.62
330.887	192.62
331.115	162.62
331.344	109.62
331.572	104.62
331.801	109.62
332.03	106.62
332.258	105.62
332.486	75.62
332.715	88.62
332.943	86.62
333.172	88.62
333.4	96.62
333.629	123.62
333.857	116.62
334.085	128.62
334.314	130.62
334.542	153.62
334.771	154.62
334.999	105.62
335.227	119.62
335.455	92.62
335.684	101.62
335.912	92.62
336.14	104.62
336.369	116.62
336.597	110.62
336.825	100.62
337.053	92.62
337.281	87.62
337.51	92.62
337.738	110.62
337.966	103.62
338.194	108.62
338.422	104.62
338.65	110.62
338.878	92.62
339.106	101.62
339.334	101.62
339.562	95.62
339.79	102.62
340.018	102.62
340.246	108.62
340.474	105.62
340.702	100.62
340.93	80.62
341.158	90.62
341.386	100.62
341.614	93.62
341.842	89.62
342.07	89.62
342.298	90.62
342.526	94.62
342.754	98.62
342.981	87.62
343.209	96.62
343.437	112.62
343.665	65.62
343.893	80.62
344.12	95.62
344.348	77.62
344.576	91.62
344.804	92.62
345.031	108.62
345.259	109.62
345.487	89.62
345.714	78.62
345.942	98.62
346.17	110.62
346.397	96.62
346.625	93.62
346.853	90.62
347.08	82.62
347.308	89.62
347.535	101.62
347.763	101.62
347.99	99.62
348.218	121.62
348.445	114.62
348.673	108.62
348.9	102.62
349.128	92.62
349.355	100.62
349.583	97.62
349.81	104.62
350.037	101.62
350.265	90.62
350.492	84.62
350.72	91.62
350.947	103.62
351.174	107.62
351.402	117.62
351.629	102.62
351.856	109.62
352.083	103.62
352.311	113.62
352.538	126.62
352.765	122.62
352.992	114.62
353.22	93.62
353.447	110.62
353.674	93.62
353.901	102.62
354.128	97.62
354.355	99.62
354.583	107.62
354.81	96.62
355.037	103.62
355.264	91.62
355.491	90.62
355.718	99.62
355.945	97.62
356.172	88.62
356.399	88.62
356.626	113.62
356.853	88.62
357.08	96.62
357.307	99.62
357.534	84.62
357.761	93.62
357.988	109.62
358.215	110.62
358.441	100.62
358.668	91.62
358.895	96.62
359.122	90.62
359.349	86.62
359.576	108.62
359.802	114.62
360.029	133.62
360.256	124.62
360.483	104.62
360.709	86.62
360.936	93.62
361.163	99.62
361.39	106.62
361.616	105.62
361.843	96.62
362.07	94.62
362.296	101.62
362.523	105.62
362.749	97.62
362.976	103.62
363.203	92.62
363.429	90.62
363.656	97.62
363.882	113.62
364.109	89.62
364.335	96.62
364.562	92.62
364.788	105.62
365.015	78.62
365.241	103.62
365.468	117.62
365.694	101.62
365.92	108.62
366.147	105.62
366.373	93.62
366.599	89.62
366.826	108.62
367.052	95.62
367.278	101.62
367.505	102.62
367.731	105.62
367.957	100.62
368.184	101.62
368.41	98.62
368.636	116.62
368.862	123.62
369.089	114.62
369.315	95.62
369.541	101.62
369.767	101.62
369.993	100.62
370.219	107.62
370.445	90.62
370.672	82.62
370.898	85.62
371.124	85.62
371.35	86.62
371.576	82.62
371.802	87.62
372.028	70.62
372.254	75.62
372.48	94.62
372.706	92.62
372.932	91.62
373.158	84.62
373.384	101.62
373.61	78.62
373.835	76.62
374.061	98.62
374.287	108.62
374.513	100.62
374.739	79.62
374.965	91.62
375.191	97.62
375.416	86.62
375.642	86.62
375.868	85.62
376.094	90.62
376.319	103.62
376.545	85.62
376.771	82.62
376.997	85.62
377.222	84.62
377.448	88.62
377.674	74.62
377.899	101.62
378.125	89.62
378.35	90.62
378.576	76.62
378.802	86.62
379.027	100.62
379.253	98.62
379.478	103.62
379.704	91.62
379.929	81.62
380.155	88.62
380.38	91.62
380.606	94.62
380.831	94.62
381.057	96.62
381.282	101.62
381.507	101.62
381.733	82.62
381.958	102.62
382.184	98.62
382.409	97.62
382.634	106.62
382.86	97.62
383.085	104.62
383.31	104.62
383.535	104.62
383.761	102.62
383.986	89.62
384.211	98.62
384.436	94.62
384.662	97.62
384.887	99.62
385.112	101.62
385.337	108.62
385.562	100.62
385.787	100.62
386.013	113.62
386.238	117.62
386.463	105.62
386.688	110.62
386.913	84.62
387.138	103.62
387.363	100.62
387.588	105.62
387.813	95.62
388.038	100.62
388.263	94.62
388.488	107.62
388.713	105.62
388.938	82.62
389.163	99.62
389.387	99.62
389.612	93.62
389.837	94.62
390.062	110.62
390.287	92.62
390.512	81.62
390.736	86.62
390.961	82.62
391.186	94.62
391.411	91.62
391.636	86.62
391.86	67.62
392.085	81.62
392.31	77.62
392.534	86.62
392.759	98.62
392.984	77.62
393.208	102.62
393.433	112.62
393.658	106.62
393.882	106.62
394.107	101.62
394.331	92.62
394.556	91.62
394.78	106.62
395.005	89.62
395.229	90.62
395.454	82.62
395.678	90.62
395.903	85.62
396.127	96.62
396.352	90.62
396.576	84.62
396.801	90.62
397.025	103.62
397.249	84.62
397.474	95.62
397.698	86.62
397.922	94.62
398.147	88.62
398.371	71.62
398.595	86.62
398.82	106.62
399.044	90.62
399.268	68.62
399.492	77.62
399.717	97.62
399.941	99.62
400.165	100.62
400.389	98.62
400.613	105.62
400.837	90.62
401.062	89.62
401.286	91.62
401.51	80.62
401.734	99.62
401.958	100.62
402.182	137.62
402.406	172.62
402.63	125.62
402.854	101.62
403.078	74.62
403.302	99.62
403.526	96.62
403.75	94.62
403.974	90.62
404.198	88.62
404.422	76.62
404.645	89.62
404.869	83.62
405.093	98.62
405.317	105.62
405.541	114.62
405.765	100.62
405.988	133.62
406.212	189.62
406.436	273.62
406.66	170.62
406.883	113.62
407.107	102.62
407.331	116.62
407.555	120.62
407.778	123.62
408.002	104.62
408.226	84.62
408.449	88.62
408.673	92.62
408.896	90.62
409.12	107.62
409.344	82.62
409.567	83.62
409.791	85.62
410.014	83.62
410.238	91.62
410.461	83.62
410.685	84.62
410.908	108.62
411.132	121.62
411.355	104.62
411.578	83.62
411.802	91.62
412.025	96.62
412.249	89.62
412.472	90.62
412.695	92.62
412.919	91.62
413.142	90.62
413.365	84.62
413.589	85.62
413.812	78.62
414.035	94.62
414.258	95.62
414.482	84.62
414.705	89.62
414.928	90.62
415.151	111.62
415.374	96.62
415.597	86.62
415.821	95.62
416.044	87.62
416.267	87.62
416.49	89.62
416.713	87.62
416.936	92.62
417.159	86.62
417.382	100.62
417.605	90.62
417.828	113.62
418.051	95.62
418.274	86.62
418.497	102.62
418.72	86.62
418.943	95.62
419.166	69.62
419.389	99.62
419.611	82.62
419.834	96.62
420.057	86.62
420.28	88.62
420.503	86.62
420.726	85.62
420.948	90.62
421.171	102.62
421.394	92.62
421.617	90.62
421.839	100.62
422.062	111.62
422.285	108.62
422.507	99.62
422.73	121.62
422.953	96.62
423.175	83.62
423.398	96.62
423.621	87.62
423.843	80.62
424.066	72.62
424.288	103.62
424.511	89.62
424.733	98.62
424.956	131.62
425.178	104.62
425.401	112.62
425.623	110.62
425.846	86.62
426.068	101.62
426.291	97.62
426.513	100.62
426.735	86.62
426.958	105.62
427.18	110.62
427.402	180.62
427.625	221.62
427.847	154.62
428.069	127.62
428.292	98.62
428.514	101.62
428.736	96.62
428.958	83.62
429.181	80.62
429.403	82.62
429.625	92.62
429.847	116.62
430.069	108.62
430.292	104.62
430.514	93.62
430.736	88.62
430.958	84.62
431.18	89.62
431.402	90.62
431.624	96.62
431.846	108.62
432.068	92.62
432.29	90.62
432.512	84.62
432.734	93.62
432.956	89.62
433.178	111.62
433.4	93.62
433.622	86.62
433.844	87.62
434.066	93.62
434.287	91.62
434.509	92.62
434.731	84.62
434.953	86.62
435.175	93.62
435.397	88.62
435.618	102.62
435.84	108.62
436.062	147.62
436.284	121.62
436.505	107.62
436.727	112.62
436.949	94.62
437.17	95.62
437.392	98.62
437.614	96.62
437.835	119.62
438.057	154.62
438.278	130.62
438.5	129.62
438.721	165.62
438.943	100.62
439.165	98.62
439.386	90.62
439.608	88.62
439.829	102.62
440.05	160.62
440.272	192.62
440.493	129.62
440.715	72.62
440.936	86.62
441.158	96.62
441.379	92.62
441.6	105.62
441.822	89.62
442.043	99.62
442.264	122.62
442.486	118.62
442.707	110.62
442.928	128.62
443.149	150.62
443.371	140.62
443.592	124.62
443.813	141.62
444.034	133.62
444.255	112.62
444.476	94.62
444.698	96.62
444.919	105.62
445.14	131.62
445.361	125.62
445.582	130.62
445.803	184.62
446.024	189.62
446.245	191.62
446.466	138.62
446.687	106.62
446.908	93.62
447.129	84.62
447.35	105.62
447.571	98.62
447.792	92.62
448.013	105.62
448.234	108.62
448.455	110.62
448.675	136.62
448.896	152.62
449.117	123.62
449.338	109.62
449.559	158.62
449.779	181.62
450	107.62
450.221	102.62
450.442	95.62
450.662	97.62
450.883	114.62
451.104	130.62
451.324	112.62
451.545	76.62
451.766	89.62
451.986	80.62
452.207	97.62
452.428	101.62
452.648	108.62
452.869	123.62
453.089	107.62
453.31	142.62
453.53	107.62
453.751	96.62
453.971	106.62
454.192	117.62
454.412	100.62
454.633	76.62
454.853	84.62
455.073	95.62
455.294	106.62
455.514	120.62
455.734	119.62
455.955	82.62
456.175	93.62
456.395	77.62
456.616	84.62
456.836	72.62
457.056	73.62
457.276	81.62
457.497	86.62
457.717	99.62
457.937	72.62
458.157	88.62
458.377	87.62
458.598	119.62
458.818	182.62
459.038	198.62
459.258	142.62
459.478	96.62
459.698	102.62
459.918	97.62
460.138	83.62
460.358	70.62
460.578	74.62
460.798	94.62
461.018	86.62
461.238	84.62
461.458	87.62
461.678	69.62
461.898	89.62
462.118	77.62
462.338	84.62
462.558	74.62
462.777	80.62
462.997	63.62
463.217	98.62
463.437	84.62
463.657	81.62
463.876	107.62
464.096	102.62
464.316	90.62
464.536	81.62
464.755	87.62
464.975	114.62
465.195	211.62
465.414	209.62
465.634	108.62
465.854	96.62
466.073	68.62
466.293	97.62
466.512	90.62
466.732	92.62
466.951	85.62
467.171	76.62
467.391	92.62
467.61	106.62
467.829	114.62
468.049	109.62
468.268	101.62
468.488	79.62
468.707	102.62
468.927	84.62
469.146	89.62
469.365	90.62
469.585	86.62
469.804	105.62
470.023	104.62
470.243	97.62
470.462	108.62
470.681	128.62
470.901	92.62
471.12	88.62
471.339	79.62
471.558	87.62
471.777	93.62
471.997	93.62
472.216	120.62
472.435	151.62
472.654	80.62
472.873	90.62
473.092	86.62
473.311	91.62
473.53	88.62
473.749	88.62
473.968	90.62
474.187	124.62
474.406	114.62
474.625	82.62
474.844	80.62
475.063	89.62
475.282	88.62
475.501	87.62
475.72	92.62
475.939	85.62
476.158	86.62
476.377	91.62
476.596	98.62
476.814	93.62
477.033	85.62
477.252	88.62
477.471	93.62
477.69	100.62
477.908	102.62
478.127	86.62
478.346	84.62
478.564	94.62
478.783	99.62
479.002	114.62
479.22	107.62
479.439	108.62
479.658	108.62
479.876	91.62
480.095	91.62
480.313	97.62
480.532	87.62
480.751	98.62
480.969	117.62
481.188	217.62
481.406	180.62
481.624	93.62
481.843	94.62
482.061	96.62
482.28	91.62
482.498	106.62
482.717	96.62
482.935	87.62
483.153	72.62
483.372	82.62
483.59	92.62
483.808	81.62
484.027	92.62
484.245	93.62
484.463	103.62
484.681	96.62
484.9	82.62
485.118	97.62
485.336	84.62
485.554	89.62
485.772	94.62
485.99	122.62
486.209	114.62
486.427	108.62
486.645	123.62
486.863	128.62
487.081	118.62
487.299	91.62
487.517	78.62
487.735	90.62
487.953	89.62
488.171	94.62
488.389	94.62
488.607	106.62
488.825	88.62
489.043	84.62
489.261	91.62
489.479	98.62
489.696	92.62
489.914	92.62
490.132	95.62
490.35	83.62
490.568	90.62
490.786	93.62
491.003	100.62
491.221	87.62
491.439	77.62
491.657	108.62
491.874	90.62
492.092	91.62
492.31	81.62
492.527	70.62
492.745	90.62
492.963	81.62
493.18	80.62
493.398	88.62
493.615	86.62
493.833	104.62
494.05	81.62
494.268	92.62
494.485	92.62
494.703	88.62
494.92	84.62
495.138	102.62
495.355	96.62
495.573	83.62
495.79	95.62
496.008	96.62
496.225	75.62
496.442	94.62
496.66	91.62
496.877	82.62
497.094	96.62
497.312	77.62
497.529	88.62
497.746	90.62
497.963	104.62
498.181	92.62
498.398	93.62
498.615	114.62
498.832	94.62
499.049	94.62
499.267	82.62
499.484	90.62
499.701	100.62
499.918	88.62
500.135	82.62
500.352	85.62
500.569	77.62
500.786	84.62
501.003	105.62
501.22	62.62
501.437	100.62
501.654	82.62
501.871	109.62
502.088	89.62
502.305	103.62
502.522	85.62
502.739	86.62
502.956	86.62
503.172	106.62
503.389	93.62
503.606	106.62
503.823	108.62
504.04	71.62
504.256	86.62
504.473	73.62
504.69	101.62
504.907	103.62
505.123	95.62
505.34	84.62
505.557	93.62
505.773	83.62
505.99	88.62
506.207	97.62
506.423	89.62
506.64	77.62
506.856	87.62
507.073	100.62
507.289	88.62
507.506	100.62
507.722	123.62
507.939	114.62
508.155	91.62
508.372	98.62
508.588	102.62
508.805	103.62
509.021	106.62
509.238	105.62
509.454	113.62
509.67	101.62
509.887	93.62
510.103	125.62
510.319	217.62
510.536	765.62
510.752	2507.62
510.968	706.62
511.184	162.62
511.401	112.62
511.617	93.62
511.833	89.62
512.049	97.62
512.265	80.62
512.481	90.62
512.698	86.62
512.914	89.62
513.13	101.62
513.346	91.62
513.562	100.62
513.778	99.62
