Data from Circ_1981_H10_HRD10591_00058.txt Node
Date: Wed Jan 03 12:34:32 EST 2024
User: Yrep
Spectrometer: HR+D1059
Trigger mode: 1
Integration Time (sec): 1.000000E-1
Scans to average: 1
Electric dark correction enabled: true
Nonlinearity correction enabled: false
Boxcar width: 0
XAxis mode: Wavelengths
Number of Pixels in Spectrum: 2048
>>>>>Begin Spectral Data<<<<<
223.165	-19.38
223.4	-19.38
223.635	-19.38
223.869	-19.38
224.104	-24.38
224.338	-13.38
224.573	-24.38
224.808	-1.38
225.042	3.62
225.277	-14.38
225.511	1.62
225.746	-5.38
225.98	1.62
226.215	17.62
226.449	29.62
226.683	16.62
226.918	32.62
227.152	18.62
227.387	20.62
227.621	40.62
227.856	42.62
228.09	46.62
228.324	48.62
228.559	59.62
228.793	55.62
229.027	56.62
229.262	78.62
229.496	82.62
229.73	104.62
229.964	104.62
230.199	87.62
230.433	71.62
230.667	91.62
230.901	86.62
231.136	87.62
231.37	78.62
231.604	77.62
231.838	89.62
232.072	72.62
232.306	78.62
232.541	87.62
232.775	87.62
233.009	78.62
233.243	84.62
233.477	74.62
233.711	68.62
233.945	87.62
234.179	86.62
234.413	108.62
234.647	93.62
234.881	71.62
235.115	91.62
235.349	84.62
235.583	86.62
235.817	83.62
236.051	85.62
236.285	92.62
236.519	80.62
236.753	87.62
236.987	78.62
237.221	82.62
237.455	101.62
237.689	88.62
237.922	82.62
238.156	82.62
238.39	75.62
238.624	82.62
238.858	69.62
239.091	87.62
239.325	75.62
239.559	91.62
239.793	73.62
240.027	92.62
240.26	64.62
240.494	77.62
240.728	81.62
240.961	78.62
241.195	75.62
241.429	82.62
241.662	89.62
241.896	80.62
242.13	74.62
242.363	72.62
242.597	85.62
242.83	85.62
243.064	79.62
243.298	69.62
243.531	88.62
243.765	76.62
243.998	88.62
244.232	72.62
244.465	90.62
244.699	91.62
244.932	72.62
245.166	79.62
245.399	66.62
245.633	77.62
245.866	70.62
246.099	81.62
246.333	84.62
246.566	90.62
246.8	77.62
247.033	79.62
247.266	73.62
247.5	90.62
247.733	79.62
247.966	83.62
248.2	74.62
248.433	80.62
248.666	77.62
248.899	74.62
249.133	92.62
249.366	103.62
249.599	96.62
249.832	84.62
250.066	76.62
250.299	74.62
250.532	60.62
250.765	75.62
250.998	84.62
251.231	79.62
251.465	81.62
251.698	77.62
251.931	82.62
252.164	80.62
252.397	82.62
252.63	84.62
252.863	77.62
253.096	74.62
253.329	91.62
253.562	90.62
253.795	83.62
254.028	63.62
254.261	86.62
254.494	80.62
254.727	78.62
254.96	89.62
255.193	87.62
255.426	93.62
255.659	88.62
255.892	81.62
256.124	88.62
256.357	84.62
256.59	76.62
256.823	94.62
257.056	90.62
257.289	77.62
257.521	70.62
257.754	87.62
257.987	78.62
258.22	96.62
258.452	82.62
258.685	90.62
258.918	83.62
259.151	68.62
259.383	99.62
259.616	94.62
259.849	90.62
260.081	77.62
260.314	98.62
260.547	70.62
260.779	88.62
261.012	89.62
261.244	89.62
261.477	94.62
261.71	101.62
261.942	107.62
262.175	127.62
262.407	101.62
262.64	107.62
262.872	80.62
263.105	100.62
263.337	92.62
263.57	100.62
263.802	87.62
264.035	102.62
264.267	83.62
264.499	86.62
264.732	86.62
264.964	101.62
265.197	92.62
265.429	97.62
265.661	76.62
265.894	72.62
266.126	77.62
266.358	86.62
266.591	93.62
266.823	87.62
267.055	87.62
267.287	89.62
267.52	103.62
267.752	76.62
267.984	84.62
268.216	94.62
268.448	83.62
268.681	85.62
268.913	81.62
269.145	94.62
269.377	90.62
269.609	97.62
269.841	93.62
270.073	92.62
270.306	93.62
270.538	104.62
270.77	82.62
271.002	77.62
271.234	79.62
271.466	88.62
271.698	85.62
271.93	96.62
272.162	84.62
272.394	92.62
272.626	81.62
272.858	86.62
273.09	105.62
273.322	102.62
273.553	87.62
273.785	98.62
274.017	93.62
274.249	87.62
274.481	85.62
274.713	78.62
274.945	89.62
275.176	71.62
275.408	88.62
275.64	82.62
275.872	82.62
276.104	95.62
276.335	96.62
276.567	125.62
276.799	119.62
277.031	114.62
277.262	91.62
277.494	94.62
277.726	99.62
277.957	95.62
278.189	95.62
278.421	84.62
278.652	90.62
278.884	89.62
279.115	95.62
279.347	81.62
279.579	92.62
279.81	81.62
280.042	93.62
280.273	78.62
280.505	87.62
280.736	77.62
280.968	92.62
281.199	89.62
281.431	88.62
281.662	84.62
281.894	95.62
282.125	95.62
282.356	121.62
282.588	149.62
282.819	133.62
283.051	96.62
283.282	93.62
283.513	96.62
283.745	96.62
283.976	105.62
284.207	87.62
284.439	85.62
284.67	91.62
284.901	81.62
285.132	77.62
285.364	77.62
285.595	93.62
285.826	84.62
286.057	92.62
286.288	72.62
286.52	77.62
286.751	92.62
286.982	93.62
287.213	101.62
287.444	84.62
287.675	85.62
287.906	84.62
288.138	99.62
288.369	92.62
288.6	91.62
288.831	88.62
289.062	93.62
289.293	88.62
289.524	84.62
289.755	90.62
289.986	92.62
290.217	93.62
290.448	97.62
290.679	90.62
290.91	97.62
291.141	91.62
291.371	99.62
291.602	86.62
291.833	86.62
292.064	104.62
292.295	85.62
292.526	87.62
292.757	96.62
292.987	96.62
293.218	91.62
293.449	93.62
293.68	93.62
293.91	96.62
294.141	95.62
294.372	110.62
294.603	96.62
294.833	100.62
295.064	82.62
295.295	87.62
295.525	90.62
295.756	94.62
295.987	112.62
296.217	178.62
296.448	135.62
296.679	91.62
296.909	81.62
297.14	96.62
297.37	99.62
297.601	92.62
297.831	95.62
298.062	91.62
298.292	95.62
298.523	98.62
298.753	91.62
298.984	81.62
299.214	81.62
299.445	96.62
299.675	102.62
299.905	89.62
300.136	88.62
300.366	84.62
300.597	93.62
300.827	104.62
301.057	98.62
301.288	112.62
301.518	90.62
301.748	85.62
301.979	99.62
302.209	89.62
302.439	93.62
302.669	92.62
302.9	82.62
303.13	88.62
303.36	74.62
303.59	106.62
303.82	108.62
304.051	96.62
304.281	112.62
304.511	106.62
304.741	111.62
304.971	80.62
305.201	79.62
305.431	85.62
305.661	100.62
305.891	93.62
306.121	84.62
306.352	92.62
306.582	120.62
306.812	93.62
307.042	89.62
307.272	101.62
307.502	107.62
307.731	88.62
307.961	111.62
308.191	93.62
308.421	91.62
308.651	112.62
308.881	88.62
309.111	105.62
309.341	97.62
309.571	103.62
309.8	94.62
310.03	113.62
310.26	98.62
310.49	108.62
310.72	106.62
310.949	118.62
311.179	118.62
311.409	112.62
311.639	96.62
311.868	117.62
312.098	99.62
312.328	103.62
312.557	106.62
312.787	130.62
313.017	104.62
313.246	100.62
313.476	97.62
313.706	101.62
313.935	93.62
314.165	103.62
314.394	122.62
314.624	100.62
314.853	102.62
315.083	110.62
315.312	97.62
315.542	97.62
315.771	90.62
316.001	96.62
316.23	96.62
316.46	103.62
316.689	88.62
316.919	98.62
317.148	100.62
317.377	90.62
317.607	110.62
317.836	109.62
318.065	80.62
318.295	90.62
318.524	92.62
318.753	108.62
318.983	102.62
319.212	101.62
319.441	118.62
319.67	117.62
319.9	102.62
320.129	102.62
320.358	94.62
320.587	108.62
320.816	103.62
321.046	115.62
321.275	102.62
321.504	99.62
321.733	101.62
321.962	105.62
322.191	117.62
322.42	119.62
322.649	120.62
322.878	129.62
323.108	134.62
323.337	152.62
323.566	138.62
323.795	172.62
324.024	214.62
324.253	451.62
324.482	902.62
324.71	1868.62
324.939	2442.62
325.168	916.62
325.397	282.62
325.626	157.62
325.855	138.62
326.084	139.62
326.313	130.62
326.542	167.62
326.77	251.62
326.999	482.62
327.228	945.62
327.457	1763.62
327.686	1378.62
327.914	410.62
328.143	240.62
328.372	198.62
328.6	148.62
328.829	144.62
329.058	153.62
329.287	150.62
329.515	130.62
329.744	112.62
329.972	102.62
330.201	134.62
330.43	153.62
330.658	141.62
330.887	189.62
331.115	153.62
331.344	109.62
331.572	105.62
331.801	105.62
332.03	114.62
332.258	105.62
332.486	92.62
332.715	113.62
332.943	102.62
333.172	108.62
333.4	100.62
333.629	114.62
333.857	116.62
334.085	122.62
334.314	137.62
334.542	169.62
334.771	151.62
334.999	114.62
335.227	107.62
335.455	96.62
335.684	111.62
335.912	101.62
336.14	94.62
336.369	95.62
336.597	111.62
336.825	108.62
337.053	103.62
337.281	106.62
337.51	90.62
337.738	100.62
337.966	104.62
338.194	110.62
338.422	110.62
338.65	109.62
338.878	108.62
339.106	96.62
339.334	102.62
339.562	98.62
339.79	110.62
340.018	85.62
340.246	105.62
340.474	117.62
340.702	97.62
340.93	110.62
341.158	93.62
341.386	101.62
341.614	105.62
341.842	111.62
342.07	98.62
342.298	108.62
342.526	107.62
342.754	90.62
342.981	84.62
343.209	81.62
343.437	95.62
343.665	100.62
343.893	90.62
344.12	98.62
344.348	89.62
344.576	100.62
344.804	88.62
345.031	112.62
345.259	125.62
345.487	97.62
345.714	106.62
345.942	108.62
346.17	101.62
346.397	99.62
346.625	95.62
346.853	103.62
347.08	90.62
347.308	99.62
347.535	105.62
347.763	101.62
347.99	99.62
348.218	111.62
348.445	119.62
348.673	114.62
348.9	109.62
349.128	100.62
349.355	102.62
349.583	95.62
349.81	99.62
350.037	104.62
350.265	106.62
350.492	103.62
350.72	99.62
350.947	106.62
351.174	113.62
351.402	120.62
351.629	104.62
351.856	100.62
352.083	120.62
352.311	120.62
352.538	119.62
352.765	122.62
352.992	129.62
353.22	118.62
353.447	114.62
353.674	115.62
353.901	95.62
354.128	97.62
354.355	96.62
354.583	98.62
354.81	115.62
355.037	112.62
355.264	84.62
355.491	94.62
355.718	101.62
355.945	105.62
356.172	97.62
356.399	108.62
356.626	94.62
356.853	109.62
357.08	103.62
357.307	101.62
357.534	100.62
357.761	110.62
357.988	86.62
358.215	101.62
358.441	94.62
358.668	95.62
358.895	92.62
359.122	89.62
359.349	93.62
359.576	94.62
359.802	101.62
360.029	133.62
360.256	137.62
360.483	107.62
360.709	99.62
360.936	102.62
361.163	110.62
361.39	112.62
361.616	108.62
361.843	95.62
362.07	94.62
362.296	101.62
362.523	90.62
362.749	90.62
362.976	98.62
363.203	87.62
363.429	95.62
363.656	87.62
363.882	99.62
364.109	102.62
364.335	96.62
364.562	96.62
364.788	106.62
365.015	85.62
365.241	105.62
365.468	121.62
365.694	128.62
365.92	120.62
366.147	106.62
366.373	97.62
366.599	96.62
366.826	111.62
367.052	94.62
367.278	103.62
367.505	102.62
367.731	95.62
367.957	101.62
368.184	96.62
368.41	122.62
368.636	130.62
368.862	135.62
369.089	124.62
369.315	104.62
369.541	105.62
369.767	90.62
369.993	100.62
370.219	96.62
370.445	98.62
370.672	97.62
370.898	77.62
371.124	82.62
371.35	98.62
371.576	88.62
371.802	89.62
372.028	89.62
372.254	100.62
372.48	91.62
372.706	94.62
372.932	95.62
373.158	106.62
373.384	73.62
373.61	92.62
373.835	104.62
374.061	96.62
374.287	100.62
374.513	100.62
374.739	105.62
374.965	86.62
375.191	92.62
375.416	82.62
375.642	77.62
375.868	97.62
376.094	100.62
376.319	104.62
376.545	104.62
376.771	90.62
376.997	98.62
377.222	96.62
377.448	95.62
377.674	97.62
377.899	104.62
378.125	80.62
378.35	96.62
378.576	98.62
378.802	90.62
379.027	94.62
379.253	95.62
379.478	94.62
379.704	93.62
379.929	106.62
380.155	89.62
380.38	101.62
380.606	114.62
380.831	99.62
381.057	102.62
381.282	98.62
381.507	94.62
381.733	105.62
381.958	108.62
382.184	100.62
382.409	93.62
382.634	104.62
382.86	117.62
383.085	100.62
383.31	101.62
383.535	91.62
383.761	105.62
383.986	94.62
384.211	109.62
384.436	104.62
384.662	96.62
384.887	95.62
385.112	98.62
385.337	103.62
385.562	117.62
385.787	107.62
386.013	118.62
386.238	123.62
386.463	126.62
386.688	121.62
386.913	88.62
387.138	85.62
387.363	92.62
387.588	100.62
387.813	114.62
388.038	104.62
388.263	108.62
388.488	118.62
388.713	108.62
388.938	105.62
389.163	117.62
389.387	98.62
389.612	100.62
389.837	100.62
390.062	89.62
390.287	94.62
390.512	93.62
390.736	91.62
390.961	97.62
391.186	93.62
391.411	98.62
391.636	98.62
391.86	97.62
392.085	98.62
392.31	89.62
392.534	97.62
392.759	90.62
392.984	84.62
393.208	120.62
393.433	128.62
393.658	135.62
393.882	97.62
394.107	90.62
394.331	89.62
394.556	87.62
394.78	95.62
395.005	87.62
395.229	97.62
395.454	80.62
395.678	84.62
395.903	101.62
396.127	80.62
396.352	96.62
396.576	98.62
396.801	112.62
397.025	117.62
397.249	104.62
397.474	95.62
397.698	100.62
397.922	79.62
398.147	102.62
398.371	77.62
398.595	80.62
398.82	96.62
399.044	81.62
399.268	89.62
399.492	94.62
399.717	78.62
399.941	95.62
400.165	91.62
400.389	98.62
400.613	86.62
400.837	88.62
401.062	71.62
401.286	104.62
401.51	95.62
401.734	98.62
401.958	110.62
402.182	141.62
402.406	191.62
402.63	132.62
402.854	94.62
403.078	103.62
403.302	88.62
403.526	94.62
403.75	73.62
403.974	88.62
404.198	99.62
404.422	97.62
404.645	86.62
404.869	110.62
405.093	84.62
405.317	122.62
405.541	121.62
405.765	111.62
405.988	128.62
406.212	215.62
406.436	290.62
406.66	182.62
406.883	123.62
407.107	104.62
407.331	108.62
407.555	102.62
407.778	111.62
408.002	88.62
408.226	104.62
408.449	99.62
408.673	99.62
408.896	100.62
409.12	100.62
409.344	103.62
409.567	91.62
409.791	94.62
410.014	93.62
410.238	90.62
410.461	104.62
410.685	97.62
410.908	105.62
411.132	119.62
411.355	109.62
411.578	101.62
411.802	96.62
412.025	79.62
412.249	98.62
412.472	101.62
412.695	104.62
412.919	115.62
413.142	89.62
413.365	91.62
413.589	102.62
413.812	99.62
414.035	93.62
414.258	96.62
414.482	94.62
414.705	77.62
414.928	90.62
415.151	85.62
415.374	103.62
415.597	103.62
415.821	104.62
416.044	88.62
416.267	93.62
416.49	92.62
416.713	103.62
416.936	88.62
417.159	92.62
417.382	84.62
417.605	96.62
417.828	97.62
418.051	104.62
418.274	100.62
418.497	95.62
418.72	101.62
418.943	109.62
419.166	89.62
419.389	82.62
419.611	94.62
419.834	96.62
420.057	92.62
420.28	101.62
420.503	92.62
420.726	102.62
420.948	97.62
421.171	92.62
421.394	81.62
421.617	102.62
421.839	102.62
422.062	94.62
422.285	116.62
422.507	121.62
422.73	131.62
422.953	112.62
423.175	104.62
423.398	98.62
423.621	87.62
423.843	97.62
424.066	98.62
424.288	99.62
424.511	109.62
424.733	99.62
424.956	112.62
425.178	118.62
425.401	86.62
425.623	110.62
425.846	101.62
426.068	112.62
426.291	114.62
426.513	94.62
426.735	108.62
426.958	112.62
427.18	121.62
427.402	148.62
427.625	198.62
427.847	147.62
428.069	130.62
428.292	98.62
428.514	96.62
428.736	86.62
428.958	74.62
429.181	74.62
429.403	82.62
429.625	100.62
429.847	109.62
430.069	119.62
430.292	105.62
430.514	110.62
430.736	89.62
430.958	91.62
431.18	88.62
431.402	96.62
431.624	90.62
431.846	102.62
432.068	98.62
432.29	102.62
432.512	88.62
432.734	89.62
432.956	105.62
433.178	98.62
433.4	102.62
433.622	80.62
433.844	77.62
434.066	96.62
434.287	90.62
434.509	111.62
434.731	88.62
434.953	104.62
435.175	89.62
435.397	86.62
435.618	84.62
435.84	119.62
436.062	136.62
436.284	114.62
436.505	107.62
436.727	101.62
436.949	107.62
437.17	81.62
437.392	94.62
437.614	95.62
437.835	120.62
438.057	135.62
438.278	135.62
438.5	110.62
438.721	146.62
438.943	109.62
439.165	97.62
439.386	85.62
439.608	98.62
439.829	112.62
440.05	142.62
440.272	155.62
440.493	121.62
440.715	101.62
440.936	93.62
441.158	95.62
441.379	89.62
441.6	99.62
441.822	101.62
442.043	94.62
442.264	102.62
442.486	110.62
442.707	109.62
442.928	110.62
443.149	152.62
443.371	160.62
443.592	120.62
443.813	122.62
444.034	123.62
444.255	94.62
444.476	86.62
444.698	92.62
444.919	101.62
445.14	112.62
445.361	124.62
445.582	128.62
445.803	168.62
446.024	155.62
446.245	162.62
446.466	128.62
446.687	92.62
446.908	82.62
447.129	84.62
447.35	93.62
447.571	104.62
447.792	100.62
448.013	111.62
448.234	115.62
448.455	109.62
448.675	126.62
448.896	132.62
449.117	123.62
449.338	109.62
449.559	139.62
449.779	138.62
450	86.62
450.221	81.62
450.442	97.62
450.662	95.62
450.883	106.62
451.104	132.62
451.324	111.62
451.545	98.62
451.766	101.62
451.986	90.62
452.207	96.62
452.428	90.62
452.648	104.62
452.869	115.62
453.089	128.62
453.31	148.62
453.53	111.62
453.751	90.62
453.971	130.62
454.192	140.62
454.412	92.62
454.633	85.62
454.853	94.62
455.073	99.62
455.294	100.62
455.514	112.62
455.734	110.62
455.955	94.62
456.175	96.62
456.395	96.62
456.616	83.62
456.836	82.62
457.056	94.62
457.276	87.62
457.497	95.62
457.717	93.62
457.937	82.62
458.157	116.62
458.377	95.62
458.598	123.62
458.818	176.62
459.038	203.62
459.258	130.62
459.478	94.62
459.698	91.62
459.918	98.62
460.138	95.62
460.358	93.62
460.578	92.62
460.798	69.62
461.018	76.62
461.238	95.62
461.458	85.62
461.678	86.62
461.898	97.62
462.118	74.62
462.338	94.62
462.558	105.62
462.777	83.62
462.997	92.62
463.217	96.62
463.437	88.62
463.657	87.62
463.876	86.62
464.096	102.62
464.316	95.62
464.536	105.62
464.755	90.62
464.975	110.62
465.195	201.62
465.414	202.62
465.634	112.62
465.854	92.62
466.073	96.62
466.293	100.62
466.512	97.62
466.732	86.62
466.951	103.62
467.171	92.62
467.391	102.62
467.61	117.62
467.829	109.62
468.049	100.62
468.268	113.62
468.488	99.62
468.707	86.62
468.927	92.62
469.146	81.62
469.365	84.62
469.585	85.62
469.804	110.62
470.023	108.62
470.243	101.62
470.462	111.62
470.681	131.62
470.901	91.62
471.12	92.62
471.339	90.62
471.558	80.62
471.777	76.62
471.997	84.62
472.216	110.62
472.435	163.62
472.654	97.62
472.873	88.62
473.092	94.62
473.311	106.62
473.53	92.62
473.749	86.62
473.968	90.62
474.187	120.62
474.406	111.62
474.625	109.62
474.844	97.62
475.063	94.62
475.282	92.62
475.501	78.62
475.72	103.62
475.939	89.62
476.158	85.62
476.377	89.62
476.596	98.62
476.814	114.62
477.033	97.62
477.252	115.62
477.471	94.62
477.69	86.62
477.908	84.62
478.127	89.62
478.346	78.62
478.564	104.62
478.783	87.62
479.002	98.62
479.22	104.62
479.439	108.62
479.658	114.62
479.876	105.62
480.095	96.62
480.313	96.62
480.532	104.62
480.751	101.62
480.969	119.62
481.188	239.62
481.406	171.62
481.624	120.62
481.843	88.62
482.061	87.62
482.28	83.62
482.498	97.62
482.717	86.62
482.935	84.62
483.153	99.62
483.372	108.62
483.59	88.62
483.808	93.62
484.027	102.62
484.245	107.62
484.463	96.62
484.681	90.62
484.9	106.62
485.118	109.62
485.336	101.62
485.554	100.62
485.772	98.62
485.99	93.62
486.209	109.62
486.427	95.62
486.645	120.62
486.863	104.62
487.081	104.62
487.299	109.62
487.517	119.62
487.735	87.62
487.953	97.62
488.171	99.62
488.389	98.62
488.607	109.62
488.825	90.62
489.043	108.62
489.261	88.62
489.479	79.62
489.696	88.62
489.914	82.62
490.132	97.62
490.35	92.62
490.568	88.62
490.786	93.62
491.003	94.62
491.221	89.62
491.439	96.62
491.657	93.62
491.874	98.62
492.092	90.62
492.31	100.62
492.527	86.62
492.745	102.62
492.963	84.62
493.18	99.62
493.398	93.62
493.615	105.62
493.833	106.62
494.05	84.62
494.268	88.62
494.485	106.62
494.703	93.62
494.92	95.62
495.138	89.62
495.355	104.62
495.573	98.62
495.79	109.62
496.008	89.62
496.225	88.62
496.442	93.62
496.66	100.62
496.877	80.62
497.094	90.62
497.312	86.62
497.529	91.62
497.746	101.62
497.963	102.62
498.181	98.62
498.398	92.62
498.615	104.62
498.832	97.62
499.049	90.62
499.267	88.62
499.484	80.62
499.701	104.62
499.918	103.62
500.135	90.62
500.352	100.62
500.569	96.62
500.786	94.62
501.003	104.62
501.22	78.62
501.437	108.62
501.654	102.62
501.871	119.62
502.088	100.62
502.305	107.62
502.522	88.62
502.739	90.62
502.956	97.62
503.172	101.62
503.389	110.62
503.606	122.62
503.823	116.62
504.04	98.62
504.256	103.62
504.473	88.62
504.69	105.62
504.907	90.62
505.123	89.62
505.34	83.62
505.557	94.62
505.773	84.62
505.99	106.62
506.207	92.62
506.423	82.62
506.64	90.62
506.856	101.62
507.073	105.62
507.289	91.62
507.506	97.62
507.722	110.62
507.939	137.62
508.155	104.62
508.372	94.62
508.588	100.62
508.805	90.62
509.021	96.62
509.238	107.62
509.454	96.62
509.67	100.62
509.887	112.62
510.103	151.62
510.319	252.62
510.536	879.62
510.752	2913.62
510.968	772.62
511.184	176.62
511.401	137.62
511.617	106.62
511.833	96.62
512.049	104.62
512.265	102.62
512.481	105.62
512.698	90.62
