Data from Circ_1981_H10_HRD10591_00008.txt Node
Date: Wed Jan 03 12:34:22 EST 2024
User: Yrep
Spectrometer: HR+D1059
Trigger mode: 1
Integration Time (sec): 1.000000E-1
Scans to average: 1
Electric dark correction enabled: true
Nonlinearity correction enabled: false
Boxcar width: 0
XAxis mode: Wavelengths
Number of Pixels in Spectrum: 2048
>>>>>Begin Spectral Data<<<<<
223.165	-8.06
223.4	-8.06
223.635	-8.06
223.869	-16.06
224.104	-18.06
224.338	-4.06
224.573	-16.06
224.808	-0.06
225.042	-14.06
225.277	-13.06
225.511	-22.06
225.746	-5.06
225.98	5.94
226.215	22.94
226.449	15.94
226.683	20.94
226.918	22.94
227.152	27.94
227.387	25.94
227.621	28.94
227.856	28.94
228.09	41.94
228.324	52.94
228.559	63.94
228.793	55.94
229.027	63.94
229.262	52.94
229.496	64.94
229.73	94.94
229.964	87.94
230.199	87.94
230.433	68.94
230.667	91.94
230.901	74.94
231.136	74.94
231.37	79.94
231.604	83.94
231.838	82.94
232.072	88.94
232.306	77.94
232.541	95.94
232.775	82.94
233.009	77.94
233.243	76.94
233.477	89.94
233.711	77.94
233.945	74.94
234.179	84.94
234.413	70.94
234.647	78.94
234.881	67.94
235.115	79.94
235.349	66.94
235.583	78.94
235.817	75.94
236.051	90.94
236.285	79.94
236.519	87.94
236.753	90.94
236.987	79.94
237.221	86.94
237.455	79.94
237.689	85.94
237.922	68.94
238.156	68.94
238.39	74.94
238.624	79.94
238.858	67.94
239.091	72.94
239.325	76.94
239.559	82.94
239.793	77.94
240.027	89.94
240.26	78.94
240.494	88.94
240.728	78.94
240.961	79.94
241.195	68.94
241.429	75.94
241.662	81.94
241.896	82.94
242.13	78.94
242.363	59.94
242.597	72.94
242.83	64.94
243.064	86.94
243.298	81.94
243.531	83.94
243.765	83.94
243.998	86.94
244.232	79.94
244.465	82.94
244.699	88.94
244.932	73.94
245.166	75.94
245.399	71.94
245.633	76.94
245.866	71.94
246.099	78.94
246.333	86.94
246.566	70.94
246.8	73.94
247.033	84.94
247.266	87.94
247.5	94.94
247.733	90.94
247.966	84.94
248.2	81.94
248.433	80.94
248.666	91.94
248.899	84.94
249.133	103.94
249.366	104.94
249.599	118.94
249.832	82.94
250.066	80.94
250.299	86.94
250.532	80.94
250.765	88.94
250.998	68.94
251.231	85.94
251.465	74.94
251.698	76.94
251.931	89.94
252.164	78.94
252.397	79.94
252.63	83.94
252.863	82.94
253.096	86.94
253.329	82.94
253.562	76.94
253.795	81.94
254.028	75.94
254.261	84.94
254.494	90.94
254.727	91.94
254.96	87.94
255.193	83.94
255.426	86.94
255.659	81.94
255.892	89.94
256.124	79.94
256.357	92.94
256.59	87.94
256.823	84.94
257.056	72.94
257.289	71.94
257.521	91.94
257.754	86.94
257.987	85.94
258.22	90.94
258.452	84.94
258.685	78.94
258.918	90.94
259.151	75.94
259.383	79.94
259.616	99.94
259.849	90.94
260.081	70.94
260.314	86.94
260.547	70.94
260.779	83.94
261.012	95.94
261.244	88.94
261.477	94.94
261.71	98.94
261.942	110.94
262.175	141.94
262.407	100.94
262.64	91.94
262.872	87.94
263.105	82.94
263.337	88.94
263.57	73.94
263.802	79.94
264.035	98.94
264.267	92.94
264.499	83.94
264.732	91.94
264.964	91.94
265.197	97.94
265.429	79.94
265.661	93.94
265.894	86.94
266.126	88.94
266.358	88.94
266.591	76.94
266.823	84.94
267.055	101.94
267.287	89.94
267.52	82.94
267.752	81.94
267.984	94.94
268.216	94.94
268.448	80.94
268.681	101.94
268.913	95.94
269.145	87.94
269.377	100.94
269.609	78.94
269.841	88.94
270.073	93.94
270.306	83.94
270.538	63.94
270.77	89.94
271.002	76.94
271.234	94.94
271.466	94.94
271.698	83.94
271.93	92.94
272.162	97.94
272.394	91.94
272.626	75.94
272.858	74.94
273.09	77.94
273.322	88.94
273.553	80.94
273.785	96.94
274.017	89.94
274.249	74.94
274.481	90.94
274.713	87.94
274.945	80.94
275.176	82.94
275.408	92.94
275.64	97.94
275.872	83.94
276.104	94.94
276.335	105.94
276.567	105.94
276.799	122.94
277.031	106.94
277.262	89.94
277.494	100.94
277.726	100.94
277.957	88.94
278.189	90.94
278.421	100.94
278.652	95.94
278.884	89.94
279.115	86.94
279.347	95.94
279.579	82.94
279.81	76.94
280.042	84.94
280.273	78.94
280.505	91.94
280.736	77.94
280.968	84.94
281.199	98.94
281.431	85.94
281.662	99.94
281.894	96.94
282.125	108.94
282.356	122.94
282.588	155.94
282.819	107.94
283.051	95.94
283.282	73.94
283.513	95.94
283.745	85.94
283.976	76.94
284.207	98.94
284.439	98.94
284.67	87.94
284.901	104.94
285.132	87.94
285.364	98.94
285.595	86.94
285.826	90.94
286.057	88.94
286.288	85.94
286.52	91.94
286.751	90.94
286.982	87.94
287.213	91.94
287.444	77.94
287.675	100.94
287.906	102.94
288.138	97.94
288.369	108.94
288.6	93.94
288.831	80.94
289.062	88.94
289.293	84.94
289.524	86.94
289.755	102.94
289.986	86.94
290.217	76.94
290.448	95.94
290.679	90.94
290.91	92.94
291.141	86.94
291.371	77.94
291.602	85.94
291.833	95.94
292.064	88.94
292.295	111.94
292.526	90.94
292.757	94.94
292.987	87.94
293.218	82.94
293.449	95.94
293.68	92.94
293.91	90.94
294.141	93.94
294.372	86.94
294.603	91.94
294.833	87.94
295.064	77.94
295.295	90.94
295.525	96.94
295.756	110.94
295.987	117.94
296.217	162.94
296.448	141.94
296.679	105.94
296.909	100.94
297.14	82.94
297.37	84.94
297.601	93.94
297.831	106.94
298.062	94.94
298.292	83.94
298.523	86.94
298.753	85.94
298.984	86.94
299.214	84.94
299.445	90.94
299.675	94.94
299.905	95.94
300.136	86.94
300.366	86.94
300.597	80.94
300.827	94.94
301.057	107.94
301.288	104.94
301.518	88.94
301.748	91.94
301.979	107.94
302.209	91.94
302.439	106.94
302.669	92.94
302.9	91.94
303.13	103.94
303.36	93.94
303.59	95.94
303.82	106.94
304.051	97.94
304.281	75.94
304.511	100.94
304.741	98.94
304.971	90.94
305.201	93.94
305.431	93.94
305.661	91.94
305.891	111.94
306.121	94.94
306.352	105.94
306.582	120.94
306.812	90.94
307.042	88.94
307.272	109.94
307.502	107.94
307.731	98.94
307.961	86.94
308.191	93.94
308.421	86.94
308.651	104.94
308.881	99.94
309.111	103.94
309.341	99.94
309.571	97.94
309.8	94.94
310.03	112.94
310.26	118.94
310.49	112.94
310.72	84.94
310.949	119.94
311.179	107.94
311.409	86.94
311.639	101.94
311.868	100.94
312.098	101.94
312.328	86.94
312.557	103.94
312.787	107.94
313.017	121.94
313.246	104.94
313.476	109.94
313.706	102.94
313.935	116.94
314.165	115.94
314.394	102.94
314.624	119.94
314.853	102.94
315.083	94.94
315.312	79.94
315.542	97.94
315.771	98.94
316.001	91.94
316.23	83.94
316.46	87.94
316.689	84.94
316.919	85.94
317.148	83.94
317.377	86.94
317.607	87.94
317.836	97.94
318.065	85.94
318.295	98.94
318.524	101.94
318.753	88.94
318.983	100.94
319.212	124.94
319.441	104.94
319.67	112.94
319.9	97.94
320.129	104.94
320.358	101.94
320.587	104.94
320.816	92.94
321.046	106.94
321.275	108.94
321.504	93.94
321.733	103.94
321.962	102.94
322.191	94.94
322.42	98.94
322.649	117.94
322.878	118.94
323.108	124.94
323.337	122.94
323.566	126.94
323.795	148.94
324.024	206.94
324.253	394.94
324.482	863.94
324.71	1760.94
324.939	2348.94
325.168	860.94
325.397	266.94
325.626	152.94
325.855	124.94
326.084	125.94
326.313	112.94
326.542	142.94
326.77	238.94
326.999	454.94
327.228	932.94
327.457	1735.94
327.686	1339.94
327.914	380.94
328.143	209.94
328.372	186.94
328.6	146.94
328.829	129.94
329.058	157.94
329.287	154.94
329.515	112.94
329.744	116.94
329.972	110.94
330.201	136.94
330.43	138.94
330.658	147.94
330.887	148.94
331.115	132.94
331.344	110.94
331.572	104.94
331.801	101.94
332.03	112.94
332.258	102.94
332.486	98.94
332.715	106.94
332.943	96.94
333.172	102.94
333.4	99.94
333.629	107.94
333.857	118.94
334.085	123.94
334.314	115.94
334.542	151.94
334.771	146.94
334.999	113.94
335.227	108.94
335.455	98.94
335.684	100.94
335.912	108.94
336.14	94.94
336.369	93.94
336.597	113.94
336.825	94.94
337.053	96.94
337.281	99.94
337.51	73.94
337.738	90.94
337.966	100.94
338.194	104.94
338.422	102.94
338.65	90.94
338.878	99.94
339.106	111.94
339.334	98.94
339.562	88.94
339.79	92.94
340.018	83.94
340.246	101.94
340.474	103.94
340.702	93.94
340.93	94.94
341.158	93.94
341.386	100.94
341.614	105.94
341.842	94.94
342.07	97.94
342.298	94.94
342.526	90.94
342.754	108.94
342.981	103.94
343.209	99.94
343.437	111.94
343.665	84.94
343.893	90.94
344.12	83.94
344.348	90.94
344.576	90.94
344.804	95.94
345.031	106.94
345.259	101.94
345.487	95.94
345.714	98.94
345.942	94.94
346.17	94.94
346.397	114.94
346.625	99.94
346.853	83.94
347.08	92.94
347.308	95.94
347.535	105.94
347.763	121.94
347.99	102.94
348.218	98.94
348.445	112.94
348.673	96.94
348.9	107.94
349.128	91.94
349.355	96.94
349.583	108.94
349.81	103.94
350.037	93.94
350.265	90.94
350.492	102.94
350.72	92.94
350.947	122.94
351.174	117.94
351.402	117.94
351.629	106.94
351.856	105.94
352.083	110.94
352.311	122.94
352.538	120.94
352.765	116.94
352.992	120.94
353.22	119.94
353.447	111.94
353.674	108.94
353.901	94.94
354.128	109.94
354.355	100.94
354.583	100.94
354.81	106.94
355.037	108.94
355.264	86.94
355.491	98.94
355.718	96.94
355.945	100.94
356.172	87.94
356.399	99.94
356.626	99.94
356.853	92.94
357.08	102.94
357.307	104.94
357.534	93.94
357.761	111.94
357.988	99.94
358.215	106.94
358.441	103.94
358.668	96.94
358.895	82.94
359.122	99.94
359.349	93.94
359.576	90.94
359.802	108.94
360.029	125.94
360.256	126.94
360.483	110.94
360.709	98.94
360.936	89.94
361.163	102.94
361.39	85.94
361.616	98.94
361.843	111.94
362.07	93.94
362.296	110.94
362.523	105.94
362.749	101.94
362.976	81.94
363.203	91.94
363.429	83.94
363.656	101.94
363.882	92.94
364.109	88.94
364.335	99.94
364.562	95.94
364.788	93.94
365.015	112.94
365.241	107.94
365.468	107.94
365.694	96.94
365.92	100.94
366.147	93.94
366.373	101.94
366.599	87.94
366.826	92.94
367.052	103.94
367.278	92.94
367.505	86.94
367.731	93.94
367.957	97.94
368.184	106.94
368.41	104.94
368.636	129.94
368.862	127.94
369.089	98.94
369.315	106.94
369.541	100.94
369.767	102.94
369.993	96.94
370.219	90.94
370.445	93.94
370.672	82.94
370.898	103.94
371.124	84.94
371.35	79.94
371.576	93.94
371.802	92.94
372.028	95.94
372.254	95.94
372.48	98.94
372.706	88.94
372.932	98.94
373.158	95.94
373.384	90.94
373.61	85.94
373.835	96.94
374.061	102.94
374.287	90.94
374.513	106.94
374.739	92.94
374.965	90.94
375.191	95.94
375.416	89.94
375.642	91.94
375.868	102.94
376.094	79.94
376.319	89.94
376.545	90.94
376.771	94.94
376.997	97.94
377.222	100.94
377.448	109.94
377.674	97.94
377.899	87.94
378.125	88.94
378.35	103.94
378.576	95.94
378.802	91.94
379.027	94.94
379.253	98.94
379.478	90.94
379.704	91.94
379.929	107.94
380.155	96.94
380.38	105.94
380.606	100.94
380.831	102.94
381.057	85.94
381.282	100.94
381.507	100.94
381.733	103.94
381.958	101.94
382.184	111.94
382.409	109.94
382.634	126.94
382.86	100.94
383.085	100.94
383.31	107.94
383.535	108.94
383.761	106.94
383.986	108.94
384.211	97.94
384.436	106.94
384.662	109.94
384.887	110.94
385.112	107.94
385.337	112.94
385.562	122.94
385.787	125.94
386.013	112.94
386.238	127.94
386.463	121.94
386.688	113.94
386.913	112.94
387.138	114.94
387.363	104.94
387.588	103.94
387.813	109.94
388.038	108.94
388.263	127.94
388.488	122.94
388.713	98.94
388.938	86.94
389.163	93.94
389.387	106.94
389.612	85.94
389.837	99.94
390.062	96.94
390.287	82.94
390.512	89.94
390.736	106.94
390.961	102.94
391.186	85.94
391.411	93.94
391.636	85.94
391.86	103.94
392.085	80.94
392.31	82.94
392.534	92.94
392.759	99.94
392.984	106.94
393.208	94.94
393.433	130.94
393.658	112.94
393.882	94.94
394.107	94.94
394.331	84.94
394.556	94.94
394.78	95.94
395.005	89.94
395.229	90.94
395.454	88.94
395.678	82.94
395.903	83.94
396.127	107.94
396.352	91.94
396.576	100.94
396.801	112.94
397.025	117.94
397.249	86.94
397.474	93.94
397.698	86.94
397.922	77.94
398.147	91.94
398.371	83.94
398.595	91.94
398.82	92.94
399.044	84.94
399.268	90.94
399.492	96.94
399.717	87.94
399.941	87.94
400.165	106.94
400.389	98.94
400.613	92.94
400.837	77.94
401.062	92.94
401.286	107.94
401.51	95.94
401.734	100.94
401.958	109.94
402.182	143.94
402.406	179.94
402.63	121.94
402.854	100.94
403.078	89.94
403.302	100.94
403.526	87.94
403.75	92.94
403.974	75.94
404.198	95.94
404.422	94.94
404.645	100.94
404.869	101.94
405.093	100.94
405.317	106.94
405.541	104.94
405.765	97.94
405.988	128.94
406.212	186.94
406.436	259.94
406.66	175.94
406.883	123.94
407.107	100.94
407.331	96.94
407.555	94.94
407.778	85.94
408.002	98.94
408.226	86.94
408.449	95.94
408.673	87.94
408.896	99.94
409.12	86.94
409.344	96.94
409.567	104.94
409.791	86.94
410.014	97.94
410.238	100.94
410.461	87.94
410.685	86.94
410.908	87.94
411.132	109.94
411.355	85.94
411.578	93.94
411.802	83.94
412.025	107.94
412.249	91.94
412.472	94.94
412.695	94.94
412.919	93.94
413.142	104.94
413.365	86.94
413.589	94.94
413.812	80.94
414.035	95.94
414.258	92.94
414.482	92.94
414.705	90.94
414.928	101.94
415.151	99.94
415.374	104.94
415.597	87.94
415.821	94.94
416.044	93.94
416.267	74.94
416.49	92.94
416.713	89.94
416.936	90.94
417.159	89.94
417.382	115.94
417.605	105.94
417.828	93.94
418.051	89.94
418.274	97.94
418.497	94.94
418.72	92.94
418.943	98.94
419.166	98.94
419.389	90.94
419.611	99.94
419.834	85.94
420.057	92.94
420.28	88.94
420.503	83.94
420.726	89.94
420.948	93.94
421.171	91.94
421.394	90.94
421.617	104.94
421.839	98.94
422.062	92.94
422.285	100.94
422.507	87.94
422.73	108.94
422.953	101.94
423.175	101.94
423.398	100.94
423.621	90.94
423.843	90.94
424.066	88.94
424.288	75.94
424.511	102.94
424.733	96.94
424.956	110.94
425.178	97.94
425.401	105.94
425.623	110.94
425.846	102.94
426.068	96.94
426.291	101.94
426.513	107.94
426.735	76.94
426.958	84.94
427.18	118.94
427.402	148.94
427.625	187.94
427.847	148.94
428.069	122.94
428.292	93.94
428.514	80.94
428.736	72.94
428.958	85.94
429.181	84.94
429.403	86.94
429.625	99.94
429.847	93.94
430.069	110.94
430.292	101.94
430.514	89.94
430.736	95.94
430.958	76.94
431.18	90.94
431.402	88.94
431.624	96.94
431.846	100.94
432.068	90.94
432.29	91.94
432.512	84.94
432.734	87.94
432.956	85.94
433.178	92.94
433.4	114.94
433.622	88.94
433.844	95.94
434.066	88.94
434.287	83.94
434.509	85.94
434.731	90.94
434.953	84.94
435.175	107.94
435.397	103.94
435.618	90.94
435.84	102.94
436.062	118.94
436.284	119.94
436.505	108.94
436.727	101.94
436.949	82.94
437.17	95.94
437.392	87.94
437.614	98.94
437.835	112.94
438.057	128.94
438.278	110.94
438.5	118.94
438.721	110.94
438.943	99.94
439.165	87.94
439.386	81.94
439.608	90.94
439.829	103.94
440.05	140.94
440.272	163.94
440.493	106.94
440.715	93.94
440.936	93.94
441.158	94.94
441.379	91.94
441.6	105.94
441.822	105.94
442.043	98.94
442.264	103.94
442.486	98.94
442.707	102.94
442.928	107.94
443.149	140.94
443.371	153.94
443.592	116.94
443.813	115.94
444.034	119.94
444.255	89.94
444.476	88.94
444.698	99.94
444.919	79.94
445.14	132.94
445.361	125.94
445.582	132.94
445.803	153.94
446.024	150.94
446.245	140.94
446.466	116.94
446.687	106.94
446.908	99.94
447.129	86.94
447.35	92.94
447.571	92.94
447.792	89.94
448.013	92.94
448.234	108.94
448.455	96.94
448.675	117.94
448.896	126.94
449.117	97.94
449.338	119.94
449.559	152.94
449.779	162.94
450	87.94
450.221	90.94
450.442	77.94
450.662	95.94
450.883	123.94
451.104	120.94
451.324	102.94
451.545	86.94
451.766	88.94
451.986	95.94
452.207	83.94
452.428	94.94
452.648	96.94
452.869	116.94
453.089	131.94
453.31	136.94
453.53	106.94
453.751	94.94
453.971	106.94
454.192	116.94
454.412	81.94
454.633	83.94
454.853	100.94
455.073	96.94
455.294	98.94
455.514	108.94
455.734	87.94
455.955	101.94
456.175	89.94
456.395	88.94
456.616	86.94
456.836	94.94
457.056	94.94
457.276	87.94
457.497	100.94
457.717	90.94
457.937	88.94
458.157	103.94
458.377	102.94
458.598	116.94
458.818	167.94
459.038	204.94
459.258	132.94
459.478	106.94
459.698	82.94
459.918	98.94
460.138	92.94
460.358	82.94
460.578	93.94
460.798	83.94
461.018	92.94
461.238	103.94
461.458	90.94
461.678	85.94
461.898	80.94
462.118	86.94
462.338	87.94
462.558	86.94
462.777	76.94
462.997	85.94
463.217	88.94
463.437	97.94
463.657	90.94
463.876	84.94
464.096	97.94
464.316	90.94
464.536	104.94
464.755	88.94
464.975	119.94
465.195	191.94
465.414	196.94
465.634	111.94
465.854	86.94
466.073	98.94
466.293	85.94
466.512	87.94
466.732	86.94
466.951	86.94
467.171	99.94
467.391	95.94
467.61	108.94
467.829	94.94
468.049	113.94
468.268	110.94
468.488	100.94
468.707	88.94
468.927	78.94
469.146	92.94
469.365	89.94
469.585	91.94
469.804	104.94
470.023	96.94
470.243	92.94
470.462	100.94
470.681	132.94
470.901	94.94
471.12	94.94
471.339	92.94
471.558	85.94
471.777	101.94
471.997	102.94
472.216	128.94
472.435	159.94
472.654	99.94
472.873	93.94
473.092	82.94
473.311	94.94
473.53	96.94
473.749	100.94
473.968	105.94
474.187	128.94
474.406	109.94
474.625	95.94
474.844	75.94
475.063	96.94
475.282	85.94
475.501	86.94
475.72	73.94
475.939	87.94
476.158	82.94
476.377	75.94
476.596	82.94
476.814	100.94
477.033	101.94
477.252	84.94
477.471	67.94
477.69	95.94
477.908	93.94
478.127	83.94
478.346	88.94
478.564	97.94
478.783	117.94
479.002	101.94
479.22	104.94
479.439	103.94
479.658	102.94
479.876	104.94
480.095	110.94
480.313	91.94
480.532	102.94
480.751	108.94
480.969	131.94
481.188	213.94
481.406	170.94
481.624	106.94
481.843	95.94
482.061	90.94
482.28	80.94
482.498	98.94
482.717	87.94
482.935	92.94
483.153	89.94
483.372	90.94
483.59	92.94
483.808	89.94
484.027	90.94
484.245	90.94
484.463	98.94
484.681	100.94
484.9	91.94
485.118	92.94
485.336	91.94
485.554	91.94
485.772	102.94
485.99	106.94
486.209	106.94
486.427	110.94
486.645	108.94
486.863	119.94
487.081	108.94
487.299	110.94
487.517	107.94
487.735	94.94
487.953	104.94
488.171	95.94
488.389	99.94
488.607	119.94
488.825	105.94
489.043	82.94
489.261	94.94
489.479	90.94
489.696	86.94
489.914	82.94
490.132	84.94
490.35	92.94
490.568	89.94
490.786	109.94
491.003	76.94
491.221	93.94
491.439	92.94
491.657	87.94
491.874	102.94
492.092	88.94
492.31	94.94
492.527	86.94
492.745	89.94
492.963	99.94
493.18	95.94
493.398	94.94
493.615	95.94
493.833	108.94
494.05	85.94
494.268	86.94
494.485	83.94
494.703	90.94
494.92	84.94
495.138	86.94
495.355	102.94
495.573	100.94
495.79	96.94
496.008	81.94
496.225	106.94
496.442	98.94
496.66	89.94
496.877	86.94
497.094	107.94
497.312	90.94
497.529	77.94
497.746	84.94
497.963	94.94
498.181	92.94
498.398	106.94
498.615	96.94
498.832	94.94
499.049	69.94
499.267	95.94
499.484	87.94
499.701	86.94
499.918	93.94
500.135	91.94
500.352	96.94
500.569	86.94
500.786	103.94
501.003	102.94
501.22	96.94
501.437	93.94
501.654	107.94
501.871	95.94
502.088	77.94
502.305	80.94
502.522	96.94
502.739	87.94
502.956	97.94
503.172	86.94
503.389	108.94
503.606	113.94
503.823	86.94
504.04	95.94
504.256	92.94
504.473	95.94
504.69	93.94
504.907	85.94
505.123	91.94
505.34	88.94
505.557	84.94
505.773	98.94
505.99	93.94
506.207	90.94
506.423	92.94
506.64	94.94
506.856	104.94
507.073	86.94
507.289	102.94
507.506	106.94
507.722	117.94
507.939	110.94
508.155	104.94
508.372	100.94
508.588	90.94
508.805	86.94
509.021	98.94
509.238	94.94
509.454	96.94
509.67	112.94
509.887	106.94
510.103	135.94
510.319	243.94
510.536	821.94
510.752	2674.94
510.968	716.94
511.184	167.94
511.401	126.94
511.617	102.94
511.833	107.94
512.049	88.94
512.265	99.94
512.481	93.94
512.698	90.94
512.914	107.94
513.13	92.94
513.346	92.94
513.562	103.94
