Data from Circ_1981_H10_HRD10591_00033.txt Node
Date: Wed Jan 03 12:34:27 EST 2024
User: Yrep
Spectrometer: HR+D1059
Trigger mode: 1
Integration Time (sec): 1.000000E-1
Scans to average: 1
Electric dark correction enabled: true
Nonlinearity correction enabled: false
Boxcar width: 0
XAxis mode: Wavelengths
Number of Pixels in Spectrum: 2048
>>>>>Begin Spectral Data<<<<<
223.165	-27.94
223.4	-27.94
223.635	-27.94
223.869	-19.94
224.104	-23.94
224.338	-27.94
224.573	-4.94
224.808	-13.94
225.042	2.06
225.277	-12.94
225.511	19.06
225.746	-4.94
225.98	6.06
226.215	16.06
226.449	23.06
226.683	21.06
226.918	25.06
227.152	24.06
227.387	34.06
227.621	41.06
227.856	44.06
228.09	51.06
228.324	64.06
228.559	49.06
228.793	52.06
229.027	52.06
229.262	75.06
229.496	85.06
229.73	85.06
229.964	85.06
230.199	83.06
230.433	65.06
230.667	87.06
230.901	84.06
231.136	90.06
231.37	85.06
231.604	68.06
231.838	84.06
232.072	85.06
232.306	82.06
232.541	75.06
232.775	72.06
233.009	92.06
233.243	71.06
233.477	85.06
233.711	83.06
233.945	72.06
234.179	73.06
234.413	76.06
234.647	78.06
234.881	90.06
235.115	71.06
235.349	82.06
235.583	62.06
235.817	78.06
236.051	74.06
236.285	66.06
236.519	93.06
236.753	88.06
236.987	82.06
237.221	95.06
237.455	108.06
237.689	77.06
237.922	67.06
238.156	84.06
238.39	76.06
238.624	75.06
238.858	89.06
239.091	76.06
239.325	64.06
239.559	84.06
239.793	77.06
240.027	68.06
240.26	96.06
240.494	70.06
240.728	68.06
240.961	76.06
241.195	73.06
241.429	75.06
241.662	77.06
241.896	66.06
242.13	66.06
242.363	72.06
242.597	73.06
242.83	86.06
243.064	77.06
243.298	92.06
243.531	80.06
243.765	80.06
243.998	71.06
244.232	70.06
244.465	78.06
244.699	97.06
244.932	61.06
245.166	72.06
245.399	83.06
245.633	79.06
245.866	61.06
246.099	87.06
246.333	80.06
246.566	64.06
246.8	74.06
247.033	68.06
247.266	69.06
247.5	90.06
247.733	75.06
247.966	62.06
248.2	70.06
248.433	81.06
248.666	80.06
248.899	78.06
249.133	95.06
249.366	105.06
249.599	108.06
249.832	83.06
250.066	67.06
250.299	70.06
250.532	77.06
250.765	71.06
250.998	74.06
251.231	85.06
251.465	91.06
251.698	77.06
251.931	94.06
252.164	94.06
252.397	82.06
252.63	69.06
252.863	90.06
253.096	84.06
253.329	78.06
253.562	68.06
253.795	74.06
254.028	82.06
254.261	75.06
254.494	67.06
254.727	77.06
254.96	75.06
255.193	75.06
255.426	66.06
255.659	84.06
255.892	88.06
256.124	82.06
256.357	80.06
256.59	87.06
256.823	91.06
257.056	74.06
257.289	86.06
257.521	71.06
257.754	84.06
257.987	80.06
258.22	73.06
258.452	74.06
258.685	68.06
258.918	85.06
259.151	89.06
259.383	92.06
259.616	76.06
259.849	97.06
260.081	90.06
260.314	84.06
260.547	93.06
260.779	88.06
261.012	69.06
261.244	82.06
261.477	89.06
261.71	97.06
261.942	114.06
262.175	121.06
262.407	95.06
262.64	80.06
262.872	80.06
263.105	98.06
263.337	91.06
263.57	92.06
263.802	82.06
264.035	86.06
264.267	81.06
264.499	74.06
264.732	85.06
264.964	70.06
265.197	78.06
265.429	80.06
265.661	84.06
265.894	72.06
266.126	90.06
266.358	81.06
266.591	90.06
266.823	83.06
267.055	81.06
267.287	87.06
267.52	61.06
267.752	84.06
267.984	78.06
268.216	88.06
268.448	81.06
268.681	84.06
268.913	85.06
269.145	82.06
269.377	86.06
269.609	96.06
269.841	105.06
270.073	83.06
270.306	84.06
270.538	78.06
270.77	86.06
271.002	86.06
271.234	85.06
271.466	82.06
271.698	82.06
271.93	85.06
272.162	89.06
272.394	86.06
272.626	83.06
272.858	91.06
273.09	81.06
273.322	96.06
273.553	87.06
273.785	75.06
274.017	94.06
274.249	75.06
274.481	79.06
274.713	81.06
274.945	87.06
275.176	95.06
275.408	89.06
275.64	86.06
275.872	103.06
276.104	99.06
276.335	79.06
276.567	97.06
276.799	117.06
277.031	107.06
277.262	107.06
277.494	89.06
277.726	93.06
277.957	78.06
278.189	84.06
278.421	94.06
278.652	99.06
278.884	88.06
279.115	98.06
279.347	84.06
279.579	80.06
279.81	90.06
280.042	86.06
280.273	86.06
280.505	86.06
280.736	73.06
280.968	89.06
281.199	82.06
281.431	100.06
281.662	81.06
281.894	104.06
282.125	83.06
282.356	109.06
282.588	140.06
282.819	112.06
283.051	91.06
283.282	82.06
283.513	80.06
283.745	94.06
283.976	81.06
284.207	80.06
284.439	81.06
284.67	96.06
284.901	84.06
285.132	94.06
285.364	101.06
285.595	103.06
285.826	87.06
286.057	96.06
286.288	83.06
286.52	83.06
286.751	81.06
286.982	85.06
287.213	72.06
287.444	96.06
287.675	83.06
287.906	78.06
288.138	85.06
288.369	77.06
288.6	93.06
288.831	85.06
289.062	83.06
289.293	85.06
289.524	84.06
289.755	93.06
289.986	105.06
290.217	81.06
290.448	71.06
290.679	74.06
290.91	88.06
291.141	82.06
291.371	79.06
291.602	83.06
291.833	87.06
292.064	78.06
292.295	84.06
292.526	85.06
292.757	121.06
292.987	88.06
293.218	89.06
293.449	80.06
293.68	83.06
293.91	92.06
294.141	104.06
294.372	84.06
294.603	100.06
294.833	102.06
295.064	88.06
295.295	107.06
295.525	99.06
295.756	97.06
295.987	113.06
296.217	150.06
296.448	136.06
296.679	90.06
296.909	88.06
297.14	71.06
297.37	100.06
297.601	99.06
297.831	77.06
298.062	98.06
298.292	90.06
298.523	88.06
298.753	74.06
298.984	88.06
299.214	91.06
299.445	91.06
299.675	88.06
299.905	97.06
300.136	98.06
300.366	91.06
300.597	88.06
300.827	93.06
301.057	101.06
301.288	128.06
301.518	93.06
301.748	93.06
301.979	115.06
302.209	96.06
302.439	104.06
302.669	94.06
302.9	90.06
303.13	92.06
303.36	92.06
303.59	110.06
303.82	112.06
304.051	77.06
304.281	92.06
304.511	89.06
304.741	83.06
304.971	98.06
305.201	86.06
305.431	85.06
305.661	91.06
305.891	81.06
306.121	94.06
306.352	99.06
306.582	108.06
306.812	102.06
307.042	85.06
307.272	84.06
307.502	113.06
307.731	98.06
307.961	87.06
308.191	93.06
308.421	88.06
308.651	83.06
308.881	100.06
309.111	107.06
309.341	99.06
309.571	106.06
309.8	97.06
310.03	103.06
310.26	100.06
310.49	106.06
310.72	91.06
310.949	106.06
311.179	120.06
311.409	88.06
311.639	103.06
311.868	113.06
312.098	100.06
312.328	108.06
312.557	115.06
312.787	137.06
313.017	104.06
313.246	101.06
313.476	86.06
313.706	97.06
313.935	99.06
314.165	100.06
314.394	107.06
314.624	109.06
314.853	104.06
315.083	99.06
315.312	90.06
315.542	84.06
315.771	94.06
316.001	91.06
316.23	92.06
316.46	92.06
316.689	72.06
316.919	106.06
317.148	94.06
317.377	93.06
317.607	99.06
317.836	107.06
318.065	89.06
318.295	88.06
318.524	86.06
318.753	109.06
318.983	91.06
319.212	115.06
319.441	110.06
319.67	107.06
319.9	100.06
320.129	90.06
320.358	92.06
320.587	92.06
320.816	111.06
321.046	107.06
321.275	105.06
321.504	102.06
321.733	100.06
321.962	110.06
322.191	110.06
322.42	98.06
322.649	121.06
322.878	110.06
323.108	117.06
323.337	128.06
323.566	150.06
323.795	183.06
324.024	235.06
324.253	473.06
324.482	1080.06
324.71	2273.06
324.939	3058.06
325.168	1070.06
325.397	284.06
325.626	172.06
325.855	163.06
326.084	134.06
326.313	137.06
326.542	165.06
326.77	272.06
326.999	561.06
327.228	1198.06
327.457	2240.06
327.686	1789.06
327.914	478.06
328.143	236.06
328.372	188.06
328.6	159.06
328.829	150.06
329.058	152.06
329.287	174.06
329.515	118.06
329.744	110.06
329.972	117.06
330.201	122.06
330.43	165.06
330.658	161.06
330.887	202.06
331.115	155.06
331.344	123.06
331.572	105.06
331.801	121.06
332.03	121.06
332.258	78.06
332.486	91.06
332.715	100.06
332.943	93.06
333.172	98.06
333.4	98.06
333.629	108.06
333.857	123.06
334.085	113.06
334.314	111.06
334.542	138.06
334.771	150.06
334.999	115.06
335.227	107.06
335.455	106.06
335.684	110.06
335.912	99.06
336.14	102.06
336.369	120.06
336.597	100.06
336.825	98.06
337.053	92.06
337.281	94.06
337.51	94.06
337.738	95.06
337.966	95.06
338.194	94.06
338.422	99.06
338.65	84.06
338.878	110.06
339.106	93.06
339.334	102.06
339.562	98.06
339.79	82.06
340.018	100.06
340.246	115.06
340.474	91.06
340.702	104.06
340.93	103.06
341.158	103.06
341.386	94.06
341.614	105.06
341.842	104.06
342.07	90.06
342.298	98.06
342.526	84.06
342.754	100.06
342.981	99.06
343.209	93.06
343.437	92.06
343.665	93.06
343.893	91.06
344.12	87.06
344.348	96.06
344.576	95.06
344.804	92.06
345.031	99.06
345.259	113.06
345.487	90.06
345.714	99.06
345.942	94.06
346.17	106.06
346.397	86.06
346.625	88.06
346.853	101.06
347.08	94.06
347.308	88.06
347.535	97.06
347.763	121.06
347.99	113.06
348.218	108.06
348.445	121.06
348.673	108.06
348.9	90.06
349.128	96.06
349.355	91.06
349.583	100.06
349.81	102.06
350.037	114.06
350.265	94.06
350.492	86.06
350.72	108.06
350.947	98.06
351.174	114.06
351.402	120.06
351.629	101.06
351.856	114.06
352.083	107.06
352.311	100.06
352.538	115.06
352.765	89.06
352.992	115.06
353.22	120.06
353.447	98.06
353.674	117.06
353.901	101.06
354.128	93.06
354.355	93.06
354.583	94.06
354.81	115.06
355.037	100.06
355.264	93.06
355.491	102.06
355.718	78.06
355.945	101.06
356.172	110.06
356.399	89.06
356.626	90.06
356.853	99.06
357.08	98.06
357.307	98.06
357.534	94.06
357.761	87.06
357.988	97.06
358.215	96.06
358.441	104.06
358.668	100.06
358.895	81.06
359.122	102.06
359.349	75.06
359.576	102.06
359.802	108.06
360.029	139.06
360.256	137.06
360.483	118.06
360.709	96.06
360.936	112.06
361.163	98.06
361.39	107.06
361.616	82.06
361.843	92.06
362.07	91.06
362.296	105.06
362.523	100.06
362.749	98.06
362.976	103.06
363.203	90.06
363.429	90.06
363.656	86.06
363.882	101.06
364.109	93.06
364.335	86.06
364.562	103.06
364.788	112.06
365.015	122.06
365.241	109.06
365.468	102.06
365.694	122.06
365.92	94.06
366.147	89.06
366.373	96.06
366.599	88.06
366.826	92.06
367.052	90.06
367.278	100.06
367.505	74.06
367.731	94.06
367.957	97.06
368.184	91.06
368.41	109.06
368.636	103.06
368.862	109.06
369.089	106.06
369.315	110.06
369.541	94.06
369.767	100.06
369.993	102.06
370.219	97.06
370.445	80.06
370.672	74.06
370.898	92.06
371.124	82.06
371.35	87.06
371.576	90.06
371.802	84.06
372.028	106.06
372.254	106.06
372.48	104.06
372.706	108.06
372.932	88.06
373.158	92.06
373.384	88.06
373.61	102.06
373.835	97.06
374.061	93.06
374.287	87.06
374.513	96.06
374.739	88.06
374.965	88.06
375.191	97.06
375.416	104.06
375.642	99.06
375.868	103.06
376.094	97.06
376.319	96.06
376.545	94.06
376.771	102.06
376.997	85.06
377.222	96.06
377.448	82.06
377.674	96.06
377.899	102.06
378.125	100.06
378.35	78.06
378.576	86.06
378.802	82.06
379.027	89.06
379.253	83.06
379.478	98.06
379.704	92.06
379.929	85.06
380.155	78.06
380.38	89.06
380.606	89.06
380.831	100.06
381.057	104.06
381.282	106.06
381.507	89.06
381.733	85.06
381.958	97.06
382.184	90.06
382.409	96.06
382.634	106.06
382.86	110.06
383.085	83.06
383.31	90.06
383.535	109.06
383.761	96.06
383.986	95.06
384.211	95.06
384.436	98.06
384.662	92.06
384.887	114.06
385.112	92.06
385.337	100.06
385.562	80.06
385.787	107.06
386.013	112.06
386.238	108.06
386.463	103.06
386.688	110.06
386.913	109.06
387.138	98.06
387.363	111.06
387.588	90.06
387.813	96.06
388.038	105.06
388.263	112.06
388.488	101.06
388.713	94.06
388.938	93.06
389.163	90.06
389.387	100.06
389.612	94.06
389.837	82.06
390.062	76.06
390.287	77.06
390.512	89.06
390.736	90.06
390.961	100.06
391.186	86.06
391.411	83.06
391.636	80.06
391.86	66.06
392.085	95.06
392.31	80.06
392.534	93.06
392.759	98.06
392.984	88.06
393.208	86.06
393.433	106.06
393.658	103.06
393.882	87.06
394.107	96.06
394.331	88.06
394.556	99.06
394.78	98.06
395.005	86.06
395.229	77.06
395.454	89.06
395.678	81.06
395.903	97.06
396.127	82.06
396.352	82.06
396.576	88.06
396.801	82.06
397.025	108.06
397.249	83.06
397.474	89.06
397.698	89.06
397.922	84.06
398.147	93.06
398.371	88.06
398.595	88.06
398.82	89.06
399.044	97.06
399.268	82.06
399.492	104.06
399.717	99.06
399.941	90.06
400.165	89.06
400.389	86.06
400.613	74.06
400.837	94.06
401.062	78.06
401.286	105.06
401.51	86.06
401.734	88.06
401.958	98.06
402.182	125.06
402.406	183.06
402.63	128.06
402.854	112.06
403.078	102.06
403.302	83.06
403.526	92.06
403.75	101.06
403.974	84.06
404.198	82.06
404.422	91.06
404.645	91.06
404.869	106.06
405.093	101.06
405.317	96.06
405.541	116.06
405.765	100.06
405.988	114.06
406.212	171.06
406.436	256.06
406.66	165.06
406.883	96.06
407.107	113.06
407.331	102.06
407.555	107.06
407.778	116.06
408.002	109.06
408.226	89.06
408.449	80.06
408.673	99.06
408.896	99.06
409.12	100.06
409.344	82.06
409.567	81.06
409.791	97.06
410.014	99.06
410.238	89.06
410.461	82.06
410.685	105.06
410.908	107.06
411.132	104.06
411.355	100.06
411.578	84.06
411.802	96.06
412.025	84.06
412.249	88.06
412.472	83.06
412.695	88.06
412.919	85.06
413.142	82.06
413.365	85.06
413.589	81.06
413.812	76.06
414.035	99.06
414.258	81.06
414.482	90.06
414.705	86.06
414.928	91.06
415.151	94.06
415.374	85.06
415.597	86.06
415.821	80.06
416.044	92.06
416.267	88.06
416.49	82.06
416.713	91.06
416.936	99.06
417.159	83.06
417.382	89.06
417.605	84.06
417.828	100.06
418.051	98.06
418.274	95.06
418.497	90.06
418.72	98.06
418.943	90.06
419.166	85.06
419.389	102.06
419.611	81.06
419.834	96.06
420.057	86.06
420.28	100.06
420.503	89.06
420.726	88.06
420.948	93.06
421.171	105.06
421.394	83.06
421.617	86.06
421.839	105.06
422.062	76.06
422.285	90.06
422.507	107.06
422.73	136.06
422.953	107.06
423.175	88.06
423.398	82.06
423.621	102.06
423.843	78.06
424.066	81.06
424.288	95.06
424.511	89.06
424.733	106.06
424.956	116.06
425.178	122.06
425.401	109.06
425.623	122.06
425.846	89.06
426.068	96.06
426.291	101.06
426.513	83.06
426.735	93.06
426.958	100.06
427.18	110.06
427.402	189.06
427.625	244.06
427.847	166.06
428.069	129.06
428.292	92.06
428.514	91.06
428.736	76.06
428.958	92.06
429.181	83.06
429.403	96.06
429.625	93.06
429.847	100.06
430.069	112.06
430.292	117.06
430.514	80.06
430.736	81.06
430.958	79.06
431.18	90.06
431.402	87.06
431.624	96.06
431.846	89.06
432.068	99.06
432.29	96.06
432.512	83.06
432.734	92.06
432.956	90.06
433.178	112.06
433.4	109.06
433.622	86.06
433.844	98.06
434.066	93.06
434.287	91.06
434.509	87.06
434.731	92.06
434.953	79.06
435.175	78.06
435.397	93.06
435.618	91.06
435.84	99.06
436.062	153.06
436.284	146.06
436.505	116.06
436.727	106.06
436.949	95.06
437.17	85.06
437.392	83.06
437.614	100.06
437.835	126.06
438.057	146.06
438.278	127.06
438.5	123.06
438.721	164.06
438.943	116.06
439.165	77.06
439.386	86.06
439.608	97.06
439.829	122.06
440.05	144.06
440.272	173.06
440.493	110.06
440.715	85.06
440.936	82.06
441.158	97.06
441.379	75.06
441.6	102.06
441.822	110.06
442.043	91.06
442.264	131.06
442.486	119.06
442.707	94.06
442.928	118.06
443.149	151.06
443.371	162.06
443.592	133.06
443.813	140.06
444.034	145.06
444.255	114.06
444.476	101.06
444.698	85.06
444.919	97.06
445.14	143.06
445.361	136.06
445.582	155.06
445.803	187.06
446.024	179.06
446.245	174.06
446.466	141.06
446.687	86.06
446.908	80.06
447.129	89.06
447.35	90.06
447.571	91.06
447.792	82.06
448.013	109.06
448.234	117.06
448.455	130.06
448.675	137.06
448.896	147.06
449.117	111.06
449.338	123.06
449.559	160.06
449.779	160.06
450	114.06
450.221	93.06
450.442	89.06
450.662	94.06
450.883	119.06
451.104	134.06
451.324	102.06
451.545	84.06
451.766	84.06
451.986	97.06
452.207	93.06
452.428	82.06
452.648	107.06
452.869	120.06
453.089	116.06
453.31	120.06
453.53	96.06
453.751	94.06
453.971	119.06
454.192	119.06
454.412	97.06
454.633	81.06
454.853	84.06
455.073	90.06
455.294	97.06
455.514	103.06
455.734	108.06
455.955	93.06
456.175	91.06
456.395	88.06
456.616	80.06
456.836	75.06
457.056	75.06
457.276	78.06
457.497	84.06
457.717	84.06
457.937	95.06
458.157	100.06
458.377	93.06
458.598	109.06
458.818	188.06
459.038	206.06
459.258	152.06
459.478	103.06
459.698	94.06
459.918	93.06
460.138	91.06
460.358	77.06
460.578	86.06
460.798	94.06
461.018	85.06
461.238	80.06
461.458	76.06
461.678	86.06
461.898	87.06
462.118	75.06
462.338	94.06
462.558	76.06
462.777	76.06
462.997	93.06
463.217	79.06
463.437	86.06
463.657	76.06
463.876	81.06
464.096	77.06
464.316	93.06
464.536	96.06
464.755	88.06
464.975	121.06
465.195	215.06
465.414	218.06
465.634	104.06
465.854	90.06
466.073	87.06
466.293	91.06
466.512	94.06
466.732	91.06
466.951	90.06
467.171	88.06
467.391	96.06
467.61	113.06
467.829	104.06
468.049	84.06
468.268	98.06
468.488	86.06
468.707	96.06
468.927	80.06
469.146	78.06
469.365	84.06
469.585	85.06
469.804	93.06
470.023	109.06
470.243	102.06
470.462	106.06
470.681	114.06
470.901	90.06
471.12	104.06
471.339	92.06
471.558	84.06
471.777	102.06
471.997	83.06
472.216	119.06
472.435	134.06
472.654	93.06
472.873	91.06
473.092	96.06
473.311	77.06
473.53	80.06
473.749	90.06
473.968	108.06
474.187	134.06
474.406	121.06
474.625	92.06
474.844	81.06
475.063	76.06
475.282	78.06
475.501	82.06
475.72	96.06
475.939	84.06
476.158	91.06
476.377	81.06
476.596	97.06
476.814	101.06
477.033	80.06
477.252	83.06
477.471	76.06
477.69	85.06
477.908	88.06
478.127	93.06
478.346	88.06
478.564	82.06
478.783	91.06
479.002	106.06
479.22	98.06
479.439	104.06
479.658	111.06
479.876	114.06
480.095	83.06
480.313	91.06
480.532	96.06
480.751	94.06
480.969	118.06
481.188	228.06
481.406	181.06
481.624	100.06
481.843	100.06
482.061	74.06
482.28	83.06
482.498	87.06
482.717	82.06
482.935	88.06
483.153	98.06
483.372	100.06
483.59	102.06
483.808	90.06
484.027	100.06
484.245	83.06
484.463	76.06
484.681	95.06
484.9	79.06
485.118	107.06
485.336	80.06
485.554	106.06
485.772	96.06
485.99	100.06
486.209	85.06
486.427	103.06
486.645	114.06
486.863	129.06
487.081	90.06
487.299	83.06
487.517	80.06
487.735	97.06
487.953	85.06
488.171	104.06
488.389	85.06
488.607	99.06
488.825	110.06
489.043	81.06
489.261	81.06
489.479	89.06
489.696	79.06
489.914	98.06
490.132	93.06
490.35	78.06
490.568	88.06
490.786	84.06
491.003	90.06
491.221	97.06
491.439	90.06
491.657	87.06
491.874	89.06
492.092	87.06
492.31	104.06
492.527	92.06
492.745	86.06
492.963	81.06
493.18	74.06
493.398	83.06
493.615	84.06
493.833	85.06
494.05	95.06
494.268	90.06
494.485	81.06
494.703	100.06
494.92	96.06
495.138	95.06
495.355	85.06
495.573	91.06
495.79	80.06
496.008	104.06
496.225	90.06
496.442	87.06
496.66	101.06
496.877	79.06
497.094	61.06
497.312	89.06
497.529	97.06
497.746	90.06
497.963	91.06
498.181	87.06
498.398	96.06
498.615	100.06
498.832	92.06
499.049	89.06
499.267	89.06
499.484	94.06
499.701	85.06
499.918	76.06
500.135	80.06
500.352	88.06
500.569	77.06
500.786	82.06
501.003	77.06
501.22	94.06
501.437	102.06
501.654	101.06
501.871	127.06
502.088	91.06
502.305	92.06
502.522	89.06
502.739	93.06
502.956	75.06
503.172	100.06
503.389	98.06
503.606	104.06
503.823	107.06
504.04	94.06
504.256	93.06
504.473	93.06
504.69	94.06
504.907	96.06
505.123	96.06
505.34	82.06
505.557	83.06
505.773	94.06
505.99	91.06
506.207	91.06
506.423	86.06
506.64	82.06
506.856	82.06
507.073	92.06
507.289	106.06
507.506	85.06
507.722	113.06
507.939	117.06
508.155	104.06
508.372	93.06
508.588	91.06
508.805	83.06
509.021	109.06
509.238	103.06
509.454	100.06
509.67	106.06
509.887	109.06
510.103	129.06
510.319	211.06
510.536	774.06
510.752	2508.06
510.968	682.06
511.184	149.06
511.401	117.06
511.617	98.06
511.833	100.06
512.049	100.06
512.265	100.06
512.481	75.06
512.698	92.06
512.914	81.06
513.13	87.06
513.346	93.06
513.562	101.06
513.778	99.06
513.994	113.06
514.21	105.06
