Data from Circ_1981_H10_HRD10591_00089.txt Node
Date: Wed Jan 03 12:34:38 EST 2024
User: Yrep
Spectrometer: HR+D1059
Trigger mode: 1
Integration Time (sec): 1.000000E-1
Scans to average: 1
Electric dark correction enabled: true
Nonlinearity correction enabled: false
Boxcar width: 0
XAxis mode: Wavelengths
Number of Pixels in Spectrum: 2048
>>>>>Begin Spectral Data<<<<<
223.165	-26
223.4	-26
223.635	-26
223.869	-11
224.104	-26
224.338	-9
224.573	-5
224.808	0
225.042	-19
225.277	-20
225.511	-5
225.746	-1
225.98	10
226.215	20
226.449	21
226.683	17
226.918	21
227.152	33
227.387	31
227.621	26
227.856	36
228.09	35
228.324	52
228.559	38
228.793	56
229.027	65
229.262	55
229.496	74
229.73	82
229.964	85
230.199	84
230.433	74
230.667	82
230.901	78
231.136	83
231.37	79
231.604	67
231.838	65
232.072	73
232.306	74
232.541	91
232.775	72
233.009	76
233.243	77
233.477	77
233.711	95
233.945	78
234.179	73
234.413	79
234.647	67
234.881	86
235.115	72
235.349	62
235.583	73
235.817	86
236.051	78
236.285	69
236.519	61
236.753	77
236.987	77
237.221	89
237.455	83
237.689	84
237.922	77
238.156	72
238.39	81
238.624	68
238.858	79
239.091	71
239.325	90
239.559	69
239.793	56
240.027	73
240.26	70
240.494	69
240.728	75
240.961	70
241.195	72
241.429	74
241.662	71
241.896	74
242.13	67
242.363	64
242.597	78
242.83	81
243.064	78
243.298	74
243.531	64
243.765	72
243.998	69
244.232	72
244.465	78
244.699	69
244.932	74
245.166	76
245.399	66
245.633	73
245.866	75
246.099	62
246.333	83
246.566	77
246.8	86
247.033	75
247.266	69
247.5	72
247.733	73
247.966	89
248.2	78
248.433	79
248.666	85
248.899	79
249.133	95
249.366	101
249.599	91
249.832	68
250.066	71
250.299	72
250.532	75
250.765	72
250.998	75
251.231	61
251.465	73
251.698	72
251.931	74
252.164	72
252.397	80
252.63	74
252.863	72
253.096	79
253.329	91
253.562	78
253.795	86
254.028	74
254.261	74
254.494	72
254.727	62
254.96	72
255.193	84
255.426	68
255.659	82
255.892	69
256.124	83
256.357	86
256.59	70
256.823	55
257.056	93
257.289	79
257.521	79
257.754	69
257.987	82
258.22	77
258.452	73
258.685	72
258.918	93
259.151	81
259.383	72
259.616	79
259.849	80
260.081	78
260.314	81
260.547	80
260.779	79
261.012	73
261.244	73
261.477	85
261.71	90
261.942	104
262.175	123
262.407	65
262.64	78
262.872	81
263.105	80
263.337	80
263.57	87
263.802	88
264.035	74
264.267	87
264.499	86
264.732	90
264.964	85
265.197	74
265.429	62
265.661	74
265.894	96
266.126	85
266.358	89
266.591	73
266.823	68
267.055	91
267.287	94
267.52	81
267.752	77
267.984	76
268.216	81
268.448	77
268.681	77
268.913	86
269.145	90
269.377	73
269.609	86
269.841	85
270.073	84
270.306	74
270.538	91
270.77	89
271.002	73
271.234	79
271.466	81
271.698	91
271.93	86
272.162	87
272.394	94
272.626	83
272.858	90
273.09	70
273.322	84
273.553	79
273.785	86
274.017	79
274.249	82
274.481	81
274.713	106
274.945	93
275.176	78
275.408	86
275.64	91
275.872	93
276.104	96
276.335	71
276.567	95
276.799	105
277.031	103
277.262	89
277.494	101
277.726	79
277.957	79
278.189	80
278.421	95
278.652	88
278.884	78
279.115	75
279.347	83
279.579	71
279.81	91
280.042	78
280.273	85
280.505	91
280.736	80
280.968	70
281.199	66
281.431	96
281.662	81
281.894	75
282.125	102
282.356	116
282.588	144
282.819	118
283.051	93
283.282	96
283.513	88
283.745	90
283.976	76
284.207	91
284.439	73
284.67	73
284.901	86
285.132	72
285.364	85
285.595	89
285.826	95
286.057	97
286.288	86
286.52	82
286.751	80
286.982	84
287.213	89
287.444	84
287.675	89
287.906	82
288.138	99
288.369	91
288.6	98
288.831	83
289.062	94
289.293	80
289.524	93
289.755	80
289.986	74
290.217	75
290.448	87
290.679	89
290.91	83
291.141	80
291.371	82
291.602	87
291.833	74
292.064	80
292.295	89
292.526	89
292.757	87
292.987	84
293.218	70
293.449	81
293.68	85
293.91	91
294.141	86
294.372	80
294.603	101
294.833	86
295.064	80
295.295	80
295.525	81
295.756	94
295.987	97
296.217	152
296.448	127
296.679	93
296.909	68
297.14	90
297.37	96
297.601	83
297.831	80
298.062	70
298.292	96
298.523	95
298.753	97
298.984	91
299.214	80
299.445	82
299.675	82
299.905	96
300.136	75
300.366	90
300.597	75
300.827	95
301.057	121
301.288	102
301.518	80
301.748	86
301.979	84
302.209	89
302.439	89
302.669	104
302.9	88
303.13	88
303.36	72
303.59	89
303.82	94
304.051	100
304.281	86
304.511	86
304.741	87
304.971	73
305.201	79
305.431	89
305.661	81
305.891	80
306.121	85
306.352	95
306.582	110
306.812	93
307.042	83
307.272	93
307.502	91
307.731	86
307.961	93
308.191	97
308.421	95
308.651	91
308.881	90
309.111	94
309.341	75
309.571	96
309.8	93
310.03	111
310.26	97
310.49	89
310.72	104
310.949	106
311.179	95
311.409	103
311.639	97
311.868	93
312.098	101
312.328	99
312.557	104
312.787	108
313.017	99
313.246	89
313.476	84
313.706	86
313.935	92
314.165	98
314.394	117
314.624	115
314.853	102
315.083	89
315.312	78
315.542	101
315.771	94
316.001	87
316.23	85
316.46	97
316.689	101
316.919	94
317.148	100
317.377	106
317.607	94
317.836	90
318.065	87
318.295	90
318.524	95
318.753	104
318.983	103
319.212	92
319.441	111
319.67	98
319.9	100
320.129	101
320.358	89
320.587	98
320.816	93
321.046	109
321.275	103
321.504	90
321.733	87
321.962	107
322.191	107
322.42	105
322.649	131
322.878	104
323.108	112
323.337	137
323.566	126
323.795	172
324.024	218
324.253	431
324.482	932
324.71	1989
324.939	2679
325.168	961
325.397	273
325.626	152
325.855	129
326.084	111
326.313	137
326.542	164
326.77	245
326.999	493
327.228	1050
327.457	1940
327.686	1557
327.914	405
328.143	195
328.372	155
328.6	150
328.829	136
329.058	157
329.287	175
329.515	120
329.744	93
329.972	106
330.201	117
330.43	153
330.658	147
330.887	182
331.115	146
331.344	106
331.572	105
331.801	103
332.03	102
332.258	95
332.486	81
332.715	98
332.943	104
333.172	94
333.4	94
333.629	102
333.857	116
334.085	110
334.314	125
334.542	143
334.771	151
334.999	97
335.227	97
335.455	99
335.684	104
335.912	90
336.14	87
336.369	97
336.597	109
336.825	104
337.053	96
337.281	102
337.51	78
337.738	91
337.966	81
338.194	99
338.422	113
338.65	106
338.878	72
339.106	88
339.334	89
339.562	97
339.79	93
340.018	84
340.246	91
340.474	87
340.702	88
340.93	86
341.158	113
341.386	84
341.614	101
341.842	70
342.07	79
342.298	96
342.526	71
342.754	96
342.981	87
343.209	72
343.437	93
343.665	89
343.893	89
344.12	68
344.348	77
344.576	81
344.804	97
345.031	99
345.259	110
345.487	99
345.714	104
345.942	90
346.17	92
346.397	91
346.625	105
346.853	101
347.08	89
347.308	94
347.535	101
347.763	109
347.99	105
348.218	112
348.445	113
348.673	93
348.9	93
349.128	90
349.355	90
349.583	92
349.81	82
350.037	84
350.265	78
350.492	90
350.72	113
350.947	89
351.174	119
351.402	115
351.629	105
351.856	103
352.083	106
352.311	106
352.538	99
352.765	110
352.992	112
353.22	103
353.447	108
353.674	83
353.901	87
354.128	107
354.355	95
354.583	88
354.81	103
355.037	105
355.264	107
355.491	87
355.718	84
355.945	95
356.172	80
356.399	84
356.626	95
356.853	81
357.08	81
357.307	86
357.534	87
357.761	91
357.988	108
358.215	84
358.441	87
358.668	90
358.895	76
359.122	85
359.349	86
359.576	89
359.802	89
360.029	122
360.256	122
360.483	99
360.709	91
360.936	87
361.163	101
361.39	95
361.616	105
361.843	75
362.07	85
362.296	93
362.523	102
362.749	91
362.976	81
363.203	94
363.429	95
363.656	95
363.882	77
364.109	89
364.335	93
364.562	93
364.788	99
365.015	98
365.241	97
365.468	107
365.694	108
365.92	101
366.147	88
366.373	95
366.599	84
366.826	85
367.052	91
367.278	78
367.505	86
367.731	94
367.957	73
368.184	93
368.41	100
368.636	114
368.862	128
369.089	118
369.315	78
369.541	93
369.767	95
369.993	97
370.219	94
370.445	79
370.672	92
370.898	66
371.124	79
371.35	83
371.576	71
371.802	77
372.028	74
372.254	85
372.48	87
372.706	84
372.932	93
373.158	86
373.384	99
373.61	93
373.835	100
374.061	86
374.287	70
374.513	98
374.739	87
374.965	80
375.191	78
375.416	88
375.642	96
375.868	102
376.094	81
376.319	85
376.545	95
376.771	85
376.997	96
377.222	94
377.448	94
377.674	84
377.899	97
378.125	87
378.35	87
378.576	95
378.802	90
379.027	84
379.253	94
379.478	96
379.704	88
379.929	98
380.155	74
380.38	74
380.606	79
380.831	93
381.057	83
381.282	80
381.507	93
381.733	86
381.958	86
382.184	89
382.409	92
382.634	78
382.86	90
383.085	101
383.31	104
383.535	101
383.761	92
383.986	95
384.211	90
384.436	85
384.662	95
384.887	94
385.112	105
385.337	106
385.562	92
385.787	102
386.013	102
386.238	110
386.463	113
386.688	118
386.913	89
387.138	94
387.363	100
387.588	99
387.813	85
388.038	91
388.263	114
388.488	98
388.713	103
388.938	105
389.163	91
389.387	83
389.612	95
389.837	88
390.062	90
390.287	88
390.512	89
390.736	86
390.961	83
391.186	87
391.411	95
391.636	85
391.86	85
392.085	86
392.31	87
392.534	89
392.759	88
392.984	82
393.208	103
393.433	93
393.658	97
393.882	67
394.107	86
394.331	91
394.556	90
394.78	86
395.005	93
395.229	83
395.454	82
395.678	73
395.903	83
396.127	90
396.352	90
396.576	95
396.801	87
397.025	93
397.249	91
397.474	77
397.698	80
397.922	77
398.147	79
398.371	75
398.595	85
398.82	78
399.044	77
399.268	77
399.492	87
399.717	86
399.941	76
400.165	92
400.389	103
400.613	70
400.837	77
401.062	84
401.286	80
401.51	79
401.734	102
401.958	95
402.182	115
402.406	153
402.63	119
402.854	102
403.078	94
403.302	94
403.526	89
403.75	79
403.974	78
404.198	80
404.422	99
404.645	80
404.869	75
405.093	88
405.317	104
405.541	104
405.765	85
405.988	111
406.212	179
406.436	251
406.66	160
406.883	116
407.107	114
407.331	113
407.555	99
407.778	90
408.002	85
408.226	101
408.449	94
408.673	79
408.896	93
409.12	81
409.344	83
409.567	71
409.791	84
410.014	103
410.238	85
410.461	81
410.685	101
410.908	85
411.132	104
411.355	90
411.578	88
411.802	82
412.025	87
412.249	90
412.472	92
412.695	115
412.919	90
413.142	77
413.365	99
413.589	86
413.812	89
414.035	86
414.258	91
414.482	86
414.705	89
414.928	86
415.151	99
415.374	90
415.597	83
415.821	73
416.044	71
416.267	78
416.49	92
416.713	97
416.936	88
417.159	80
417.382	81
417.605	93
417.828	100
418.051	94
418.274	77
418.497	79
418.72	88
418.943	91
419.166	72
419.389	81
419.611	95
419.834	83
420.057	81
420.28	90
420.503	71
420.726	79
420.948	83
421.171	98
421.394	90
421.617	70
421.839	81
422.062	83
422.285	95
422.507	91
422.73	104
422.953	93
423.175	81
423.398	86
423.621	97
423.843	82
424.066	88
424.288	89
424.511	97
424.733	86
424.956	104
425.178	106
425.401	100
425.623	102
425.846	91
426.068	92
426.291	98
426.513	72
426.735	81
426.958	90
427.18	113
427.402	142
427.625	218
427.847	168
428.069	116
428.292	96
428.514	86
428.736	87
428.958	81
429.181	90
429.403	74
429.625	76
429.847	117
430.069	110
430.292	93
430.514	84
430.736	66
430.958	70
431.18	78
431.402	74
431.624	81
431.846	86
432.068	83
432.29	76
432.512	95
432.734	91
432.956	94
433.178	85
433.4	110
433.622	90
433.844	79
434.066	88
434.287	85
434.509	86
434.731	88
434.953	89
435.175	90
435.397	84
435.618	95
435.84	104
436.062	141
436.284	129
436.505	96
436.727	107
436.949	96
437.17	94
437.392	81
437.614	105
437.835	111
438.057	128
438.278	132
438.5	118
438.721	137
438.943	109
439.165	71
439.386	103
439.608	79
439.829	118
440.05	135
440.272	185
440.493	111
440.715	86
440.936	92
441.158	85
441.379	77
441.6	89
441.822	94
442.043	95
442.264	117
442.486	103
442.707	86
442.928	107
443.149	135
443.371	138
443.592	108
443.813	127
444.034	113
444.255	86
444.476	82
444.698	86
444.919	88
445.14	117
445.361	128
445.582	118
445.803	167
446.024	181
446.245	167
446.466	126
446.687	99
446.908	82
447.129	82
447.35	91
447.571	87
447.792	94
448.013	98
448.234	120
448.455	121
448.675	114
448.896	136
449.117	102
449.338	106
449.559	136
449.779	151
450	98
450.221	87
450.442	102
450.662	106
450.883	106
451.104	103
451.324	112
451.545	91
451.766	89
451.986	87
452.207	83
452.428	95
452.648	96
452.869	112
453.089	109
453.31	116
453.53	86
453.751	99
453.971	104
454.192	118
454.412	95
454.633	85
454.853	69
455.073	71
455.294	88
455.514	107
455.734	93
455.955	77
456.175	76
456.395	78
456.616	65
456.836	80
457.056	82
457.276	82
457.497	84
457.717	80
457.937	95
458.157	73
458.377	95
458.598	113
458.818	167
459.038	220
459.258	146
459.478	109
459.698	86
459.918	90
460.138	79
460.358	72
460.578	75
460.798	85
461.018	88
461.238	71
461.458	77
461.678	89
461.898	84
462.118	97
462.338	69
462.558	75
462.777	95
462.997	79
463.217	94
463.437	94
463.657	86
463.876	92
464.096	86
464.316	87
464.536	79
464.755	83
464.975	93
465.195	192
465.414	205
465.634	107
465.854	89
466.073	81
466.293	90
466.512	68
466.732	77
466.951	77
467.171	98
467.391	97
467.61	110
467.829	95
468.049	101
468.268	105
468.488	79
468.707	89
468.927	89
469.146	71
469.365	85
469.585	94
469.804	93
470.023	108
470.243	83
470.462	95
470.681	117
470.901	90
471.12	91
471.339	69
471.558	79
471.777	87
471.997	88
472.216	114
472.435	148
472.654	91
472.873	91
473.092	77
473.311	73
473.53	87
473.749	82
473.968	115
474.187	123
474.406	109
474.625	83
474.844	84
475.063	81
475.282	80
475.501	84
475.72	80
475.939	69
476.158	83
476.377	65
476.596	75
476.814	93
477.033	89
477.252	96
477.471	81
477.69	93
477.908	86
478.127	95
478.346	95
478.564	77
478.783	97
479.002	87
479.22	86
479.439	109
479.658	100
479.876	76
480.095	89
480.313	99
480.532	86
480.751	93
480.969	122
481.188	223
481.406	165
481.624	97
481.843	93
482.061	86
482.28	85
482.498	91
482.717	101
482.935	72
483.153	81
483.372	82
483.59	80
483.808	71
484.027	78
484.245	94
484.463	79
484.681	98
484.9	102
485.118	100
485.336	92
485.554	104
485.772	95
485.99	100
486.209	100
486.427	97
486.645	90
486.863	102
487.081	100
487.299	87
487.517	87
487.735	94
487.953	105
488.171	111
488.389	90
488.607	101
488.825	98
489.043	94
489.261	94
489.479	85
489.696	95
489.914	94
490.132	91
490.35	88
490.568	78
490.786	93
491.003	81
491.221	82
491.439	82
491.657	96
491.874	84
492.092	79
492.31	90
492.527	89
492.745	92
492.963	89
493.18	84
493.398	107
493.615	90
493.833	92
494.05	97
494.268	86
494.485	97
494.703	86
494.92	87
495.138	86
495.355	87
495.573	82
495.79	87
496.008	90
496.225	96
496.442	85
496.66	92
496.877	85
497.094	92
497.312	93
497.529	73
497.746	90
497.963	77
498.181	89
498.398	94
498.615	129
498.832	95
499.049	85
499.267	90
499.484	81
499.701	65
499.918	89
500.135	83
500.352	85
500.569	86
500.786	91
501.003	81
501.22	97
501.437	95
501.654	92
501.871	117
502.088	77
502.305	92
502.522	90
502.739	83
502.956	85
503.172	91
503.389	89
503.606	109
503.823	103
504.04	94
504.256	93
504.473	84
504.69	96
504.907	84
505.123	93
505.34	90
505.557	92
505.773	90
505.99	88
506.207	87
506.423	80
506.64	101
506.856	88
507.073	87
507.289	96
507.506	93
507.722	108
507.939	114
508.155	92
508.372	89
508.588	85
508.805	85
509.021	89
509.238	99
509.454	101
509.67	101
509.887	89
510.103	121
510.319	203
510.536	718
510.752	2427
510.968	654
511.184	157
511.401	118
511.617	109
511.833	101
512.049	90
512.265	94
512.481	107
512.698	75
512.914	86
513.13	83
513.346	88
513.562	89
513.778	100
513.994	106
514.21	114
514.426	114
514.642	145
514.858	141
515.074	194
515.29	520
515.506	1766
515.721	631
515.937	166
516.153	115
516.369	93
516.585	95
516.801	84
517.016	88
517.232	82
517.448	95
517.664	89
517.879	96
518.095	81
518.311	99
518.527	80
518.742	93
518.958	92
519.173	85
519.389	83
519.605	96
519.82	98
520.036	110
520.251	121
520.467	105
520.682	104
520.898	114
521.113	122
521.329	151
521.544	237
521.76	666
521.975	2941
522.19	1741
522.406	358
522.621	143
522.836	113
523.052	107
523.267	90
523.482	91
523.698	103
523.913	127
524.128	107
524.343	93
524.559	91
524.774	83
524.989	101
525.204	126
525.419	102
525.634	87
525.849	82
526.064	74
526.28	80
526.495	91
526.71	98
526.925	93
527.14	96
527.355	95
527.57	95
527.785	89
527.999	100
528.214	82
528.429	80
528.644	93
528.859	88
529.074	94
529.289	128
529.503	213
529.718	107
529.933	107
530.148	85
530.363	90
530.577	81
530.792	88
531.007	79
531.221	81
531.436	79
531.651	89
531.865	87
532.08	91
532.295	87
532.509	95
532.724	98
532.938	83
533.153	102
533.367	86
533.582	84
533.796	105
534.011	78
534.225	88
534.44	87
534.654	99
534.868	104
535.083	82
535.297	91
535.511	90
535.726	110
535.94	91
536.154	88
536.369	92
536.583	80
536.797	87
537.011	72
537.225	99
537.44	89
537.654	94
537.868	88
538.082	80
538.296	93
538.51	94
538.724	83
538.938	100
539.153	102
539.367	106
539.581	96
539.795	84
540.009	84
540.222	81
540.436	83
540.65	88
540.864	87
541.078	91
541.292	104
541.506	93
541.72	88
541.934	90
542.147	84
542.361	89
542.575	95
542.789	71
543.002	84
543.216	81
543.43	93
543.644	74
543.857	83
544.071	72
544.285	87
544.498	89
544.712	89
544.925	86
545.139	85
545.352	93
545.566	86
545.779	72
545.993	89
546.206	91
546.42	86
546.633	86
546.847	77
547.06	91
547.274	79
547.487	83
547.7	81
547.914	82
548.127	97
548.34	82
548.554	74
548.767	79
548.98	86
549.193	83
549.407	85
549.62	93
549.833	91
550.046	82
550.259	73
550.473	87
550.686	89
550.899	79
551.112	80
551.325	68
551.538	94
551.751	81
551.964	94
552.177	88
552.39	83
552.603	84
552.816	81
553.029	98
553.242	103
553.455	98
553.667	107
553.88	83
554.093	81
554.306	94
554.519	85
554.732	79
554.944	93
555.157	101
555.37	91
555.583	78
555.795	89
556.008	93
556.221	83
556.433	82
556.646	98
556.859	88
557.071	89
557.284	88
557.496	91
557.709	80
557.921	79
558.134	79
558.346	82
558.559	90
558.771	98
558.984	98
559.196	83
559.409	90
559.621	81
559.833	84
560.046	99
560.258	86
560.47	87
560.683	75
560.895	85
561.107	89
561.32	78
561.532	78
561.744	90
561.956	80
562.168	86
562.381	89
562.593	87
562.805	96
563.017	84
563.229	85
563.441	87
563.653	98
563.865	83
564.077	83
564.289	91
564.501	78
564.713	86
564.925	95
565.137	98
565.349	84
565.561	79
565.773	81
565.985	79
566.197	88
566.408	85
566.62	91
566.832	90
567.044	90
567.255	82
567.467	87
567.679	80
567.891	88
568.102	95
568.314	87
568.526	83
568.737	98
568.949	81
569.161	63
569.372	84
569.584	97
569.795	95
570.007	114
570.218	242
570.43	143
570.641	95
570.853	86
571.064	79
571.276	81
571.487	77
571.698	81
571.91	79
572.121	97
572.333	81
572.544	88
572.755	78
572.966	83
573.178	84
573.389	73
573.6	94
573.811	101
574.023	95
574.234	96
574.445	94
574.656	75
574.867	81
575.078	79
575.289	86
575.501	83
575.712	87
575.923	83
576.134	81
576.345	73
576.556	96
576.767	82
576.978	87
577.188	85
577.399	86
577.61	78
577.821	88
578.032	106
578.243	245
578.454	738
578.665	200
578.875	95
579.086	86
579.297	85
579.508	74
579.718	87
579.929	87
580.14	103
580.35	67
580.561	70
580.772	82
580.982	90
581.193	94
581.403	86
581.614	73
581.825	100
582.035	73
582.246	97
582.456	70
582.667	73
582.877	81
583.087	77
583.298	88
583.508	84
583.719	93
583.929	75
584.139	76
584.35	85
584.56	73
584.77	94
