Data from Circ_1981_H10_HRD10591_00064.txt Node
Date: Wed Jan 03 12:34:33 EST 2024
User: Yrep
Spectrometer: HR+D1059
Trigger mode: 1
Integration Time (sec): 1.000000E-1
Scans to average: 1
Electric dark correction enabled: true
Nonlinearity correction enabled: false
Boxcar width: 0
XAxis mode: Wavelengths
Number of Pixels in Spectrum: 2048
>>>>>Begin Spectral Data<<<<<
223.165	-18.19
223.4	-18.19
223.635	-18.19
223.869	-26.19
224.104	-16.19
224.338	-16.19
224.573	-7.19
224.808	-12.19
225.042	-4.19
225.277	-5.19
225.511	-5.19
225.746	-6.19
225.98	4.81
226.215	1.81
226.449	14.81
226.683	25.81
226.918	34.81
227.152	34.81
227.387	39.81
227.621	36.81
227.856	61.81
228.09	38.81
228.324	48.81
228.559	58.81
228.793	59.81
229.027	57.81
229.262	64.81
229.496	69.81
229.73	89.81
229.964	90.81
230.199	90.81
230.433	73.81
230.667	86.81
230.901	74.81
231.136	75.81
231.37	69.81
231.604	71.81
231.838	84.81
232.072	76.81
232.306	83.81
232.541	77.81
232.775	76.81
233.009	71.81
233.243	74.81
233.477	80.81
233.711	88.81
233.945	80.81
234.179	70.81
234.413	84.81
234.647	73.81
234.881	72.81
235.115	75.81
235.349	68.81
235.583	76.81
235.817	69.81
236.051	70.81
236.285	73.81
236.519	80.81
236.753	82.81
236.987	78.81
237.221	86.81
237.455	81.81
237.689	76.81
237.922	84.81
238.156	68.81
238.39	70.81
238.624	88.81
238.858	77.81
239.091	85.81
239.325	90.81
239.559	86.81
239.793	69.81
240.027	87.81
240.26	64.81
240.494	75.81
240.728	87.81
240.961	77.81
241.195	67.81
241.429	71.81
241.662	81.81
241.896	85.81
242.13	73.81
242.363	77.81
242.597	70.81
242.83	83.81
243.064	87.81
243.298	74.81
243.531	73.81
243.765	76.81
243.998	93.81
244.232	73.81
244.465	83.81
244.699	88.81
244.932	89.81
245.166	55.81
245.399	83.81
245.633	65.81
245.866	80.81
246.099	74.81
246.333	78.81
246.566	75.81
246.8	81.81
247.033	81.81
247.266	77.81
247.5	61.81
247.733	95.81
247.966	94.81
248.2	77.81
248.433	71.81
248.666	86.81
248.899	75.81
249.133	90.81
249.366	100.81
249.599	99.81
249.832	87.81
250.066	89.81
250.299	78.81
250.532	77.81
250.765	89.81
250.998	87.81
251.231	78.81
251.465	73.81
251.698	82.81
251.931	98.81
252.164	87.81
252.397	98.81
252.63	82.81
252.863	76.81
253.096	73.81
253.329	81.81
253.562	83.81
253.795	98.81
254.028	85.81
254.261	84.81
254.494	73.81
254.727	82.81
254.96	86.81
255.193	85.81
255.426	76.81
255.659	62.81
255.892	81.81
256.124	84.81
256.357	84.81
256.59	81.81
256.823	59.81
257.056	73.81
257.289	80.81
257.521	86.81
257.754	80.81
257.987	82.81
258.22	70.81
258.452	80.81
258.685	95.81
258.918	81.81
259.151	88.81
259.383	80.81
259.616	85.81
259.849	80.81
260.081	86.81
260.314	76.81
260.547	76.81
260.779	78.81
261.012	85.81
261.244	75.81
261.477	80.81
261.71	108.81
261.942	116.81
262.175	115.81
262.407	96.81
262.64	82.81
262.872	90.81
263.105	73.81
263.337	96.81
263.57	80.81
263.802	91.81
264.035	80.81
264.267	81.81
264.499	97.81
264.732	91.81
264.964	89.81
265.197	68.81
265.429	82.81
265.661	80.81
265.894	95.81
266.126	85.81
266.358	87.81
266.591	90.81
266.823	89.81
267.055	83.81
267.287	83.81
267.52	83.81
267.752	89.81
267.984	73.81
268.216	93.81
268.448	90.81
268.681	76.81
268.913	82.81
269.145	84.81
269.377	72.81
269.609	85.81
269.841	82.81
270.073	73.81
270.306	80.81
270.538	82.81
270.77	72.81
271.002	68.81
271.234	80.81
271.466	75.81
271.698	86.81
271.93	82.81
272.162	83.81
272.394	90.81
272.626	91.81
272.858	71.81
273.09	73.81
273.322	75.81
273.553	93.81
273.785	92.81
274.017	84.81
274.249	82.81
274.481	80.81
274.713	90.81
274.945	90.81
275.176	81.81
275.408	81.81
275.64	70.81
275.872	72.81
276.104	88.81
276.335	101.81
276.567	97.81
276.799	107.81
277.031	106.81
277.262	84.81
277.494	85.81
277.726	98.81
277.957	80.81
278.189	75.81
278.421	107.81
278.652	93.81
278.884	87.81
279.115	82.81
279.347	77.81
279.579	81.81
279.81	88.81
280.042	96.81
280.273	86.81
280.505	97.81
280.736	76.81
280.968	90.81
281.199	82.81
281.431	93.81
281.662	102.81
281.894	89.81
282.125	98.81
282.356	134.81
282.588	163.81
282.819	123.81
283.051	80.81
283.282	86.81
283.513	77.81
283.745	90.81
283.976	85.81
284.207	101.81
284.439	98.81
284.67	81.81
284.901	94.81
285.132	95.81
285.364	71.81
285.595	81.81
285.826	68.81
286.057	82.81
286.288	74.81
286.52	84.81
286.751	110.81
286.982	80.81
287.213	87.81
287.444	88.81
287.675	102.81
287.906	102.81
288.138	98.81
288.369	102.81
288.6	105.81
288.831	97.81
289.062	84.81
289.293	72.81
289.524	82.81
289.755	85.81
289.986	84.81
290.217	72.81
290.448	68.81
290.679	87.81
290.91	86.81
291.141	76.81
291.371	84.81
291.602	74.81
291.833	91.81
292.064	81.81
292.295	82.81
292.526	78.81
292.757	85.81
292.987	86.81
293.218	84.81
293.449	93.81
293.68	92.81
293.91	81.81
294.141	101.81
294.372	76.81
294.603	78.81
294.833	71.81
295.064	88.81
295.295	92.81
295.525	102.81
295.756	100.81
295.987	126.81
296.217	152.81
296.448	128.81
296.679	100.81
296.909	74.81
297.14	82.81
297.37	96.81
297.601	97.81
297.831	93.81
298.062	85.81
298.292	89.81
298.523	85.81
298.753	90.81
298.984	82.81
299.214	97.81
299.445	97.81
299.675	92.81
299.905	101.81
300.136	96.81
300.366	83.81
300.597	86.81
300.827	90.81
301.057	102.81
301.288	108.81
301.518	98.81
301.748	81.81
301.979	102.81
302.209	81.81
302.439	90.81
302.669	99.81
302.9	80.81
303.13	93.81
303.36	91.81
303.59	108.81
303.82	121.81
304.051	74.81
304.281	75.81
304.511	80.81
304.741	99.81
304.971	99.81
305.201	85.81
305.431	81.81
305.661	90.81
305.891	75.81
306.121	91.81
306.352	105.81
306.582	111.81
306.812	100.81
307.042	100.81
307.272	84.81
307.502	82.81
307.731	94.81
307.961	97.81
308.191	81.81
308.421	98.81
308.651	78.81
308.881	101.81
309.111	94.81
309.341	101.81
309.571	94.81
309.8	107.81
310.03	92.81
310.26	114.81
310.49	101.81
310.72	99.81
310.949	114.81
311.179	110.81
311.409	97.81
311.639	96.81
311.868	102.81
312.098	98.81
312.328	97.81
312.557	104.81
312.787	113.81
313.017	115.81
313.246	95.81
313.476	93.81
313.706	98.81
313.935	90.81
314.165	120.81
314.394	105.81
314.624	114.81
314.853	101.81
315.083	98.81
315.312	87.81
315.542	94.81
315.771	65.81
316.001	104.81
316.23	89.81
316.46	84.81
316.689	96.81
316.919	95.81
317.148	96.81
317.377	96.81
317.607	114.81
317.836	97.81
318.065	85.81
318.295	90.81
318.524	84.81
318.753	96.81
318.983	89.81
319.212	92.81
319.441	117.81
319.67	115.81
319.9	102.81
320.129	83.81
320.358	89.81
320.587	91.81
320.816	91.81
321.046	94.81
321.275	88.81
321.504	90.81
321.733	100.81
321.962	104.81
322.191	102.81
322.42	118.81
322.649	113.81
322.878	126.81
323.108	121.81
323.337	132.81
323.566	138.81
323.795	172.81
324.024	217.81
324.253	446.81
324.482	953.81
324.71	1914.81
324.939	2562.81
325.168	962.81
325.397	291.81
325.626	174.81
325.855	127.81
326.084	122.81
326.313	132.81
326.542	167.81
326.77	226.81
326.999	460.81
327.228	1000.81
327.457	1877.81
327.686	1483.81
327.914	408.81
328.143	230.81
328.372	192.81
328.6	152.81
328.829	137.81
329.058	155.81
329.287	162.81
329.515	115.81
329.744	112.81
329.972	117.81
330.201	131.81
330.43	166.81
330.658	172.81
330.887	196.81
331.115	151.81
331.344	115.81
331.572	84.81
331.801	118.81
332.03	112.81
332.258	96.81
332.486	87.81
332.715	94.81
332.943	91.81
333.172	93.81
333.4	104.81
333.629	104.81
333.857	104.81
334.085	121.81
334.314	117.81
334.542	151.81
334.771	158.81
334.999	109.81
335.227	100.81
335.455	105.81
335.684	97.81
335.912	91.81
336.14	104.81
336.369	96.81
336.597	106.81
336.825	89.81
337.053	96.81
337.281	96.81
337.51	94.81
337.738	102.81
337.966	97.81
338.194	108.81
338.422	103.81
338.65	98.81
338.878	92.81
339.106	80.81
339.334	85.81
339.562	85.81
339.79	88.81
340.018	89.81
340.246	112.81
340.474	94.81
340.702	96.81
340.93	91.81
341.158	98.81
341.386	103.81
341.614	107.81
341.842	96.81
342.07	90.81
342.298	109.81
342.526	96.81
342.754	86.81
342.981	90.81
343.209	92.81
343.437	98.81
343.665	90.81
343.893	107.81
344.12	96.81
344.348	95.81
344.576	90.81
344.804	96.81
345.031	103.81
345.259	97.81
345.487	98.81
345.714	110.81
345.942	84.81
346.17	94.81
346.397	104.81
346.625	85.81
346.853	93.81
347.08	91.81
347.308	99.81
347.535	116.81
347.763	109.81
347.99	109.81
348.218	101.81
348.445	115.81
348.673	106.81
348.9	107.81
349.128	104.81
349.355	102.81
349.583	94.81
349.81	86.81
350.037	103.81
350.265	93.81
350.492	101.81
350.72	102.81
350.947	107.81
351.174	125.81
351.402	129.81
351.629	114.81
351.856	104.81
352.083	109.81
352.311	113.81
352.538	105.81
352.765	116.81
352.992	125.81
353.22	128.81
353.447	102.81
353.674	109.81
353.901	117.81
354.128	98.81
354.355	90.81
354.583	93.81
354.81	88.81
355.037	85.81
355.264	88.81
355.491	76.81
355.718	88.81
355.945	82.81
356.172	86.81
356.399	101.81
356.626	93.81
356.853	88.81
357.08	89.81
357.307	89.81
357.534	92.81
357.761	91.81
357.988	101.81
358.215	98.81
358.441	80.81
358.668	91.81
358.895	89.81
359.122	108.81
359.349	97.81
359.576	97.81
359.802	98.81
360.029	140.81
360.256	137.81
360.483	101.81
360.709	85.81
360.936	88.81
361.163	99.81
361.39	89.81
361.616	94.81
361.843	97.81
362.07	96.81
362.296	115.81
362.523	91.81
362.749	96.81
362.976	94.81
363.203	88.81
363.429	114.81
363.656	100.81
363.882	102.81
364.109	109.81
364.335	93.81
364.562	78.81
364.788	94.81
365.015	109.81
365.241	104.81
365.468	114.81
365.694	108.81
365.92	101.81
366.147	101.81
366.373	78.81
366.599	65.81
366.826	90.81
367.052	88.81
367.278	80.81
367.505	92.81
367.731	90.81
367.957	101.81
368.184	84.81
368.41	94.81
368.636	124.81
368.862	121.81
369.089	124.81
369.315	101.81
369.541	93.81
369.767	93.81
369.993	105.81
370.219	97.81
370.445	94.81
370.672	86.81
370.898	101.81
371.124	100.81
371.35	84.81
371.576	94.81
371.802	92.81
372.028	86.81
372.254	87.81
372.48	85.81
372.706	76.81
372.932	77.81
373.158	79.81
373.384	97.81
373.61	96.81
373.835	98.81
374.061	86.81
374.287	99.81
374.513	101.81
374.739	92.81
374.965	91.81
375.191	93.81
375.416	106.81
375.642	104.81
375.868	89.81
376.094	92.81
376.319	75.81
376.545	82.81
376.771	81.81
376.997	89.81
377.222	97.81
377.448	93.81
377.674	84.81
377.899	102.81
378.125	89.81
378.35	84.81
378.576	86.81
378.802	94.81
379.027	80.81
379.253	97.81
379.478	107.81
379.704	88.81
379.929	94.81
380.155	109.81
380.38	85.81
380.606	81.81
380.831	85.81
381.057	88.81
381.282	93.81
381.507	95.81
381.733	96.81
381.958	83.81
382.184	93.81
382.409	85.81
382.634	110.81
382.86	91.81
383.085	97.81
383.31	88.81
383.535	90.81
383.761	100.81
383.986	99.81
384.211	100.81
384.436	102.81
384.662	85.81
384.887	96.81
385.112	91.81
385.337	96.81
385.562	102.81
385.787	90.81
386.013	106.81
386.238	120.81
386.463	100.81
386.688	92.81
386.913	84.81
387.138	109.81
387.363	102.81
387.588	106.81
387.813	96.81
388.038	104.81
388.263	113.81
388.488	96.81
388.713	86.81
388.938	91.81
389.163	82.81
389.387	97.81
389.612	106.81
389.837	100.81
390.062	87.81
390.287	71.81
390.512	93.81
390.736	94.81
390.961	83.81
391.186	83.81
391.411	95.81
391.636	99.81
391.86	89.81
392.085	88.81
392.31	83.81
392.534	89.81
392.759	91.81
392.984	83.81
393.208	91.81
393.433	102.81
393.658	91.81
393.882	77.81
394.107	80.81
394.331	93.81
394.556	73.81
394.78	97.81
395.005	86.81
395.229	87.81
395.454	85.81
395.678	82.81
395.903	98.81
396.127	86.81
396.352	95.81
396.576	81.81
396.801	96.81
397.025	94.81
397.249	88.81
397.474	90.81
397.698	90.81
397.922	83.81
398.147	104.81
398.371	84.81
398.595	85.81
398.82	86.81
399.044	105.81
399.268	99.81
399.492	77.81
399.717	98.81
399.941	78.81
400.165	91.81
400.389	92.81
400.613	92.81
400.837	95.81
401.062	91.81
401.286	88.81
401.51	102.81
401.734	98.81
401.958	100.81
402.182	140.81
402.406	177.81
402.63	144.81
402.854	101.81
403.078	86.81
403.302	88.81
403.526	93.81
403.75	93.81
403.974	108.81
404.198	86.81
404.422	96.81
404.645	91.81
404.869	92.81
405.093	99.81
405.317	119.81
405.541	109.81
405.765	105.81
405.988	137.81
406.212	184.81
406.436	297.81
406.66	182.81
406.883	104.81
407.107	104.81
407.331	113.81
407.555	107.81
407.778	103.81
408.002	77.81
408.226	82.81
408.449	85.81
408.673	86.81
408.896	120.81
409.12	95.81
409.344	89.81
409.567	86.81
409.791	96.81
410.014	100.81
410.238	85.81
410.461	88.81
410.685	88.81
410.908	101.81
411.132	89.81
411.355	107.81
411.578	99.81
411.802	88.81
412.025	82.81
412.249	90.81
412.472	84.81
412.695	103.81
412.919	98.81
413.142	84.81
413.365	87.81
413.589	82.81
413.812	67.81
414.035	81.81
414.258	91.81
414.482	89.81
414.705	106.81
414.928	83.81
415.151	101.81
415.374	103.81
415.597	88.81
415.821	81.81
416.044	106.81
416.267	90.81
416.49	80.81
416.713	112.81
416.936	95.81
417.159	95.81
417.382	107.81
417.605	86.81
417.828	100.81
418.051	102.81
418.274	87.81
418.497	87.81
418.72	84.81
418.943	88.81
419.166	94.81
419.389	103.81
419.611	92.81
419.834	80.81
420.057	96.81
420.28	76.81
420.503	93.81
420.726	100.81
420.948	82.81
421.171	102.81
421.394	102.81
421.617	107.81
421.839	102.81
422.062	101.81
422.285	97.81
422.507	114.81
422.73	121.81
422.953	82.81
423.175	98.81
423.398	93.81
423.621	94.81
423.843	81.81
424.066	75.81
424.288	89.81
424.511	106.81
424.733	110.81
424.956	121.81
425.178	107.81
425.401	111.81
425.623	114.81
425.846	85.81
426.068	88.81
426.291	94.81
426.513	90.81
426.735	96.81
426.958	90.81
427.18	108.81
427.402	159.81
427.625	210.81
427.847	157.81
428.069	118.81
428.292	93.81
428.514	94.81
428.736	96.81
428.958	77.81
429.181	86.81
429.403	84.81
429.625	89.81
429.847	107.81
430.069	109.81
430.292	97.81
430.514	85.81
430.736	73.81
430.958	96.81
431.18	78.81
431.402	81.81
431.624	88.81
431.846	75.81
432.068	90.81
432.29	101.81
432.512	97.81
432.734	86.81
432.956	90.81
433.178	109.81
433.4	104.81
433.622	100.81
433.844	89.81
434.066	86.81
434.287	98.81
434.509	97.81
434.731	81.81
434.953	89.81
435.175	92.81
435.397	85.81
435.618	100.81
435.84	101.81
436.062	130.81
436.284	114.81
436.505	96.81
436.727	103.81
436.949	89.81
437.17	72.81
437.392	87.81
437.614	104.81
437.835	120.81
438.057	148.81
438.278	121.81
438.5	127.81
438.721	141.81
438.943	120.81
439.165	97.81
439.386	96.81
439.608	96.81
439.829	106.81
440.05	139.81
440.272	186.81
440.493	114.81
440.715	77.81
440.936	93.81
441.158	86.81
441.379	86.81
441.6	102.81
441.822	101.81
442.043	96.81
442.264	109.81
442.486	108.81
442.707	98.81
442.928	119.81
443.149	170.81
443.371	168.81
443.592	119.81
443.813	123.81
444.034	117.81
444.255	93.81
444.476	86.81
444.698	83.81
444.919	90.81
445.14	126.81
445.361	127.81
445.582	128.81
445.803	171.81
446.024	166.81
446.245	154.81
446.466	132.81
446.687	96.81
446.908	84.81
447.129	104.81
447.35	82.81
447.571	99.81
447.792	86.81
448.013	106.81
448.234	112.81
448.455	105.81
448.675	129.81
448.896	142.81
449.117	113.81
449.338	97.81
449.559	124.81
449.779	158.81
450	99.81
450.221	104.81
450.442	89.81
450.662	96.81
450.883	113.81
451.104	139.81
451.324	98.81
451.545	104.81
451.766	85.81
451.986	91.81
452.207	86.81
452.428	86.81
452.648	101.81
452.869	127.81
453.089	128.81
453.31	126.81
453.53	101.81
453.751	93.81
453.971	119.81
454.192	133.81
454.412	101.81
454.633	80.81
454.853	90.81
455.073	72.81
455.294	89.81
455.514	111.81
455.734	92.81
455.955	77.81
456.175	88.81
456.395	86.81
456.616	80.81
456.836	88.81
457.056	87.81
457.276	102.81
457.497	93.81
457.717	97.81
457.937	92.81
458.157	81.81
458.377	87.81
458.598	116.81
458.818	184.81
459.038	214.81
459.258	138.81
459.478	88.81
459.698	94.81
459.918	86.81
460.138	109.81
460.358	90.81
460.578	91.81
460.798	80.81
461.018	75.81
461.238	85.81
461.458	92.81
461.678	100.81
461.898	82.81
462.118	78.81
462.338	84.81
462.558	84.81
462.777	89.81
462.997	93.81
463.217	91.81
463.437	84.81
463.657	97.81
463.876	78.81
464.096	100.81
464.316	92.81
464.536	100.81
464.755	99.81
464.975	129.81
465.195	199.81
465.414	221.81
465.634	101.81
465.854	88.81
466.073	84.81
466.293	102.81
466.512	96.81
466.732	74.81
466.951	97.81
467.171	74.81
467.391	89.81
467.61	117.81
467.829	103.81
468.049	110.81
468.268	109.81
468.488	89.81
468.707	83.81
468.927	74.81
469.146	82.81
469.365	77.81
469.585	97.81
469.804	102.81
470.023	110.81
470.243	102.81
470.462	108.81
470.681	129.81
470.901	80.81
471.12	85.81
471.339	91.81
471.558	89.81
471.777	93.81
471.997	97.81
472.216	118.81
472.435	166.81
472.654	105.81
472.873	109.81
473.092	94.81
473.311	90.81
473.53	88.81
473.749	86.81
473.968	87.81
474.187	123.81
474.406	109.81
474.625	84.81
474.844	97.81
475.063	97.81
475.282	82.81
475.501	92.81
475.72	81.81
475.939	85.81
476.158	82.81
476.377	75.81
476.596	86.81
476.814	106.81
477.033	94.81
477.252	103.81
477.471	86.81
477.69	81.81
477.908	108.81
478.127	82.81
478.346	84.81
478.564	77.81
478.783	102.81
479.002	97.81
479.22	105.81
479.439	116.81
479.658	120.81
479.876	104.81
480.095	96.81
480.313	108.81
480.532	90.81
480.751	107.81
480.969	122.81
481.188	234.81
481.406	187.81
481.624	106.81
481.843	92.81
482.061	85.81
482.28	97.81
482.498	80.81
482.717	76.81
482.935	87.81
483.153	91.81
483.372	92.81
483.59	71.81
483.808	79.81
484.027	95.81
484.245	95.81
484.463	102.81
484.681	90.81
484.9	87.81
485.118	92.81
485.336	95.81
485.554	89.81
485.772	97.81
485.99	90.81
486.209	103.81
486.427	105.81
486.645	123.81
486.863	117.81
487.081	101.81
487.299	93.81
487.517	93.81
487.735	86.81
487.953	80.81
488.171	100.81
488.389	92.81
488.607	107.81
488.825	94.81
489.043	104.81
489.261	90.81
489.479	88.81
489.696	93.81
489.914	91.81
490.132	85.81
490.35	99.81
490.568	100.81
490.786	90.81
491.003	93.81
491.221	101.81
491.439	91.81
491.657	94.81
491.874	101.81
492.092	81.81
492.31	93.81
492.527	93.81
492.745	96.81
492.963	93.81
493.18	85.81
493.398	97.81
493.615	104.81
493.833	100.81
494.05	82.81
494.268	80.81
494.485	93.81
494.703	109.81
494.92	96.81
495.138	94.81
495.355	92.81
495.573	87.81
495.79	78.81
496.008	98.81
496.225	83.81
496.442	100.81
496.66	91.81
496.877	87.81
497.094	99.81
497.312	77.81
497.529	99.81
497.746	93.81
497.963	89.81
498.181	91.81
498.398	98.81
498.615	116.81
498.832	112.81
499.049	88.81
499.267	99.81
499.484	88.81
499.701	80.81
499.918	82.81
500.135	90.81
500.352	96.81
500.569	87.81
500.786	99.81
501.003	93.81
501.22	106.81
501.437	86.81
501.654	87.81
501.871	121.81
502.088	90.81
502.305	108.81
502.522	100.81
502.739	86.81
502.956	81.81
503.172	80.81
503.389	94.81
503.606	103.81
503.823	100.81
504.04	91.81
504.256	108.81
504.473	94.81
504.69	85.81
504.907	97.81
505.123	78.81
505.34	95.81
505.557	92.81
505.773	86.81
505.99	101.81
506.207	86.81
506.423	86.81
506.64	92.81
506.856	83.81
507.073	88.81
507.289	92.81
507.506	105.81
507.722	125.81
507.939	123.81
508.155	94.81
508.372	105.81
508.588	113.81
508.805	91.81
509.021	100.81
509.238	94.81
509.454	108.81
509.67	105.81
509.887	108.81
510.103	146.81
510.319	228.81
510.536	887.81
510.752	2972.81
510.968	790.81
511.184	187.81
511.401	114.81
511.617	95.81
511.833	96.81
512.049	98.81
512.265	76.81
512.481	91.81
512.698	94.81
512.914	97.81
513.13	96.81
513.346	82.81
513.562	93.81
513.778	110.81
513.994	119.81
514.21	118.81
514.426	128.81
