Data from Circ_1981_H10_HRD10591_00067.txt Node
Date: Wed Jan 03 12:34:34 EST 2024
User: Yrep
Spectrometer: HR+D1059
Trigger mode: 1
Integration Time (sec): 1.000000E-1
Scans to average: 1
Electric dark correction enabled: true
Nonlinearity correction enabled: false
Boxcar width: 0
XAxis mode: Wavelengths
Number of Pixels in Spectrum: 2048
>>>>>Begin Spectral Data<<<<<
223.165	-13
223.4	-13
223.635	-13
223.869	-9
224.104	-12
224.338	-19
224.573	-15
224.808	-13
225.042	-5
225.277	4
225.511	-1
225.746	-7
225.98	1
226.215	4
226.449	10
226.683	22
226.918	20
227.152	33
227.387	27
227.621	27
227.856	41
228.09	41
228.324	35
228.559	58
228.793	43
229.027	56
229.262	75
229.496	70
229.73	85
229.964	79
230.199	59
230.433	74
230.667	76
230.901	91
231.136	71
231.37	86
231.604	78
231.838	74
232.072	65
232.306	65
232.541	70
232.775	81
233.009	74
233.243	78
233.477	85
233.711	87
233.945	75
234.179	88
234.413	95
234.647	66
234.881	72
235.115	79
235.349	85
235.583	63
235.817	78
236.051	58
236.285	77
236.519	70
236.753	81
236.987	83
237.221	84
237.455	77
237.689	70
237.922	63
238.156	76
238.39	66
238.624	72
238.858	69
239.091	74
239.325	72
239.559	90
239.793	67
240.027	66
240.26	75
240.494	78
240.728	69
240.961	77
241.195	76
241.429	80
241.662	81
241.896	63
242.13	74
242.363	72
242.597	67
242.83	75
243.064	81
243.298	69
243.531	73
243.765	73
243.998	64
244.232	61
244.465	81
244.699	84
244.932	77
245.166	75
245.399	85
245.633	73
245.866	65
246.099	69
246.333	78
246.566	65
246.8	67
247.033	76
247.266	81
247.5	65
247.733	63
247.966	84
248.2	67
248.433	63
248.666	83
248.899	77
249.133	81
249.366	97
249.599	90
249.832	74
250.066	86
250.299	77
250.532	89
250.765	80
250.998	93
251.231	87
251.465	78
251.698	92
251.931	65
252.164	53
252.397	71
252.63	57
252.863	64
253.096	72
253.329	77
253.562	92
253.795	80
254.028	81
254.261	79
254.494	70
254.727	66
254.96	79
255.193	84
255.426	86
255.659	82
255.892	81
256.124	84
256.357	79
256.59	71
256.823	79
257.056	79
257.289	77
257.521	74
257.754	85
257.987	72
258.22	75
258.452	79
258.685	83
258.918	90
259.151	79
259.383	65
259.616	73
259.849	86
260.081	63
260.314	89
260.547	80
260.779	75
261.012	82
261.244	71
261.477	91
261.71	83
261.942	131
262.175	132
262.407	102
262.64	80
262.872	72
263.105	77
263.337	81
263.57	64
263.802	86
264.035	73
264.267	67
264.499	76
264.732	79
264.964	95
265.197	83
265.429	91
265.661	88
265.894	73
266.126	73
266.358	90
266.591	74
266.823	81
267.055	86
267.287	81
267.52	73
267.752	85
267.984	74
268.216	84
268.448	86
268.681	78
268.913	81
269.145	85
269.377	66
269.609	86
269.841	65
270.073	91
270.306	91
270.538	88
270.77	79
271.002	73
271.234	90
271.466	72
271.698	84
271.93	87
272.162	86
272.394	87
272.626	87
272.858	61
273.09	72
273.322	71
273.553	87
273.785	69
274.017	90
274.249	75
274.481	91
274.713	83
274.945	86
275.176	97
275.408	78
275.64	60
275.872	88
276.104	64
276.335	94
276.567	102
276.799	99
277.031	101
277.262	84
277.494	95
277.726	89
277.957	86
278.189	82
278.421	72
278.652	81
278.884	82
279.115	84
279.347	74
279.579	72
279.81	80
280.042	83
280.273	86
280.505	93
280.736	81
280.968	88
281.199	90
281.431	82
281.662	94
281.894	82
282.125	95
282.356	112
282.588	151
282.819	120
283.051	80
283.282	85
283.513	93
283.745	89
283.976	84
284.207	74
284.439	80
284.67	91
284.901	81
285.132	80
285.364	71
285.595	81
285.826	89
286.057	88
286.288	98
286.52	67
286.751	83
286.982	79
287.213	87
287.444	79
287.675	86
287.906	81
288.138	77
288.369	82
288.6	103
288.831	86
289.062	89
289.293	79
289.524	86
289.755	81
289.986	79
290.217	83
290.448	85
290.679	86
290.91	82
291.141	85
291.371	91
291.602	86
291.833	80
292.064	78
292.295	76
292.526	89
292.757	84
292.987	86
293.218	77
293.449	84
293.68	79
293.91	73
294.141	92
294.372	78
294.603	85
294.833	81
295.064	89
295.295	89
295.525	81
295.756	93
295.987	118
296.217	142
296.448	136
296.679	92
296.909	86
297.14	69
297.37	75
297.601	69
297.831	86
298.062	77
298.292	88
298.523	81
298.753	93
298.984	87
299.214	95
299.445	85
299.675	89
299.905	106
300.136	86
300.366	90
300.597	88
300.827	95
301.057	99
301.288	92
301.518	81
301.748	81
301.979	95
302.209	73
302.439	79
302.669	81
302.9	92
303.13	92
303.36	87
303.59	105
303.82	105
304.051	93
304.281	89
304.511	79
304.741	83
304.971	79
305.201	75
305.431	89
305.661	83
305.891	83
306.121	88
306.352	97
306.582	100
306.812	90
307.042	85
307.272	80
307.502	82
307.731	97
307.961	86
308.191	81
308.421	80
308.651	85
308.881	83
309.111	92
309.341	102
309.571	101
309.8	99
310.03	90
310.26	105
310.49	96
310.72	100
310.949	118
311.179	91
311.409	93
311.639	101
311.868	102
312.098	91
312.328	71
312.557	78
312.787	111
313.017	105
313.246	101
313.476	94
313.706	104
313.935	79
314.165	102
314.394	94
314.624	98
314.853	107
315.083	108
315.312	94
315.542	85
315.771	101
316.001	98
316.23	84
316.46	85
316.689	93
316.919	89
317.148	93
317.377	95
317.607	104
317.836	109
318.065	93
318.295	85
318.524	85
318.753	81
318.983	96
319.212	93
319.441	98
319.67	109
319.9	87
320.129	70
320.358	83
320.587	92
320.816	96
321.046	103
321.275	103
321.504	89
321.733	93
321.962	90
322.191	101
322.42	94
322.649	123
322.878	125
323.108	124
323.337	138
323.566	143
323.795	181
324.024	213
324.253	422
324.482	901
324.71	1851
324.939	2519
325.168	913
325.397	262
325.626	159
325.855	132
326.084	130
326.313	137
326.542	164
326.77	234
326.999	441
327.228	959
327.457	1761
327.686	1435
327.914	401
328.143	214
328.372	191
328.6	157
328.829	124
329.058	137
329.287	153
329.515	111
329.744	97
329.972	111
330.201	120
330.43	141
330.658	161
330.887	181
331.115	130
331.344	95
331.572	106
331.801	109
332.03	107
332.258	101
332.486	94
332.715	73
332.943	94
333.172	97
333.4	101
333.629	94
333.857	114
334.085	106
334.314	129
334.542	159
334.771	152
334.999	102
335.227	107
335.455	112
335.684	125
335.912	92
336.14	109
336.369	93
336.597	101
336.825	106
337.053	96
337.281	80
337.51	92
337.738	90
337.966	93
338.194	94
338.422	85
338.65	96
338.878	101
339.106	96
339.334	100
339.562	84
339.79	105
340.018	100
340.246	96
340.474	94
340.702	95
340.93	83
341.158	85
341.386	102
341.614	102
341.842	103
342.07	87
342.298	97
342.526	84
342.754	88
342.981	81
343.209	86
343.437	91
343.665	77
343.893	85
344.12	86
344.348	77
344.576	104
344.804	91
345.031	105
345.259	105
345.487	94
345.714	92
345.942	90
346.17	86
346.397	90
346.625	87
346.853	82
347.08	84
347.308	110
347.535	101
347.763	97
347.99	102
348.218	96
348.445	104
348.673	104
348.9	89
349.128	83
349.355	88
349.583	85
349.81	91
350.037	95
350.265	57
350.492	93
350.72	91
350.947	85
351.174	98
351.402	126
351.629	97
351.856	97
352.083	100
352.311	101
352.538	113
352.765	116
352.992	122
353.22	115
353.447	112
353.674	102
353.901	97
354.128	102
354.355	78
354.583	87
354.81	93
355.037	79
355.264	81
355.491	88
355.718	73
355.945	91
356.172	94
356.399	100
356.626	91
356.853	102
357.08	92
357.307	92
357.534	85
357.761	95
357.988	69
358.215	90
358.441	85
358.668	88
358.895	81
359.122	90
359.349	93
359.576	96
359.802	92
360.029	137
360.256	132
360.483	105
360.709	74
360.936	93
361.163	88
361.39	105
361.616	99
361.843	85
362.07	87
362.296	99
362.523	94
362.749	81
362.976	95
363.203	95
363.429	90
363.656	71
363.882	86
364.109	83
364.335	93
364.562	100
364.788	96
365.015	94
365.241	95
365.468	102
365.694	97
365.92	93
366.147	97
366.373	78
366.599	74
366.826	87
367.052	89
367.278	88
367.505	77
367.731	98
367.957	91
368.184	89
368.41	107
368.636	117
368.862	128
369.089	105
369.315	118
369.541	101
369.767	97
369.993	103
370.219	83
370.445	95
370.672	78
370.898	83
371.124	99
371.35	87
371.576	96
371.802	88
372.028	76
372.254	100
372.48	85
372.706	91
372.932	80
373.158	94
373.384	98
373.61	96
373.835	94
374.061	83
374.287	89
374.513	88
374.739	89
374.965	86
375.191	87
375.416	77
375.642	89
375.868	94
376.094	94
376.319	75
376.545	80
376.771	84
376.997	89
377.222	86
377.448	102
377.674	82
377.899	93
378.125	81
378.35	83
378.576	87
378.802	81
379.027	79
379.253	83
379.478	94
379.704	103
379.929	88
380.155	91
380.38	80
380.606	77
380.831	97
381.057	98
381.282	98
381.507	93
381.733	80
381.958	84
382.184	92
382.409	87
382.634	94
382.86	98
383.085	100
383.31	97
383.535	99
383.761	113
383.986	98
384.211	93
384.436	94
384.662	94
384.887	92
385.112	90
385.337	94
385.562	101
385.787	84
386.013	107
386.238	109
386.463	90
386.688	103
386.913	94
387.138	115
387.363	97
387.588	91
387.813	104
388.038	94
388.263	115
388.488	94
388.713	87
388.938	96
389.163	96
389.387	96
389.612	89
389.837	97
390.062	90
390.287	96
390.512	72
390.736	85
390.961	91
391.186	95
391.411	99
391.636	109
391.86	71
392.085	92
392.31	83
392.534	86
392.759	85
392.984	90
393.208	87
393.433	92
393.658	88
393.882	84
394.107	84
394.331	91
394.556	83
394.78	89
395.005	78
395.229	95
395.454	87
395.678	79
395.903	89
396.127	81
396.352	93
396.576	101
396.801	84
397.025	81
397.249	87
397.474	97
397.698	97
397.922	91
398.147	95
398.371	86
398.595	90
398.82	99
399.044	85
399.268	81
399.492	106
399.717	90
399.941	93
400.165	88
400.389	85
400.613	77
400.837	70
401.062	90
401.286	96
401.51	101
401.734	103
401.958	94
402.182	128
402.406	195
402.63	134
402.854	89
403.078	77
403.302	86
403.526	93
403.75	79
403.974	83
404.198	89
404.422	96
404.645	97
404.869	100
405.093	101
405.317	103
405.541	109
405.765	103
405.988	115
406.212	206
406.436	305
406.66	197
406.883	119
407.107	90
407.331	97
407.555	114
407.778	94
408.002	81
408.226	87
408.449	85
408.673	95
408.896	84
409.12	107
409.344	89
409.567	91
409.791	95
410.014	89
410.238	103
410.461	91
410.685	90
410.908	90
411.132	99
411.355	97
411.578	81
411.802	83
412.025	86
412.249	81
412.472	100
412.695	105
412.919	96
413.142	79
413.365	89
413.589	98
413.812	95
414.035	101
414.258	89
414.482	87
414.705	85
414.928	90
415.151	95
415.374	93
415.597	81
415.821	83
416.044	74
416.267	77
416.49	91
416.713	83
416.936	83
417.159	73
417.382	81
417.605	97
417.828	83
418.051	95
418.274	83
418.497	85
418.72	81
418.943	90
419.166	91
419.389	88
419.611	82
419.834	67
420.057	94
420.28	85
420.503	85
420.726	84
420.948	96
421.171	94
421.394	80
421.617	85
421.839	74
422.062	86
422.285	85
422.507	94
422.73	106
422.953	94
423.175	92
423.398	101
423.621	90
423.843	79
424.066	82
424.288	86
424.511	91
424.733	99
424.956	105
425.178	95
425.401	100
425.623	105
425.846	87
426.068	85
426.291	81
426.513	98
426.735	105
426.958	91
427.18	95
427.402	160
427.625	202
427.847	161
428.069	118
428.292	97
428.514	96
428.736	90
428.958	73
429.181	99
429.403	69
429.625	87
429.847	96
430.069	110
430.292	92
430.514	86
430.736	82
430.958	87
431.18	98
431.402	97
431.624	85
431.846	100
432.068	86
432.29	92
432.512	94
432.734	94
432.956	97
433.178	99
433.4	95
433.622	96
433.844	92
434.066	82
434.287	85
434.509	75
434.731	90
434.953	86
435.175	85
435.397	96
435.618	86
435.84	99
436.062	117
436.284	118
436.505	114
436.727	94
436.949	74
437.17	77
437.392	87
437.614	104
437.835	113
438.057	130
438.278	121
438.5	93
438.721	133
438.943	114
439.165	71
439.386	99
439.608	98
439.829	114
440.05	139
440.272	162
440.493	90
440.715	96
440.936	95
441.158	72
441.379	81
441.6	97
441.822	91
442.043	98
442.264	98
442.486	99
442.707	101
442.928	116
443.149	154
443.371	138
443.592	122
443.813	120
444.034	114
444.255	95
444.476	81
444.698	82
444.919	98
445.14	130
445.361	130
445.582	115
445.803	149
446.024	159
446.245	144
446.466	114
446.687	75
446.908	90
447.129	93
447.35	85
447.571	89
447.792	98
448.013	97
448.234	115
448.455	110
448.675	107
448.896	138
449.117	109
449.338	103
449.559	141
449.779	142
450	97
450.221	95
450.442	94
450.662	95
450.883	102
451.104	146
451.324	99
451.545	82
451.766	72
451.986	93
452.207	99
452.428	99
452.648	105
452.869	115
453.089	119
453.31	134
453.53	103
453.751	99
453.971	108
454.192	114
454.412	106
454.633	87
454.853	86
455.073	72
455.294	72
455.514	87
455.734	97
455.955	83
456.175	75
456.395	83
456.616	93
456.836	93
457.056	74
457.276	74
457.497	69
457.717	68
457.937	86
458.157	86
458.377	90
458.598	126
458.818	186
459.038	190
459.258	119
459.478	87
459.698	72
459.918	75
460.138	87
460.358	80
460.578	82
460.798	80
461.018	84
461.238	75
461.458	81
461.678	89
461.898	88
462.118	93
462.338	91
462.558	81
462.777	78
462.997	73
463.217	79
463.437	82
463.657	90
463.876	87
464.096	94
464.316	88
464.536	90
464.755	101
464.975	102
465.195	201
465.414	205
465.634	92
465.854	85
466.073	81
466.293	83
466.512	75
466.732	82
466.951	74
467.171	87
467.391	89
467.61	107
467.829	103
468.049	106
468.268	106
468.488	78
468.707	80
468.927	98
469.146	85
469.365	85
469.585	92
469.804	96
470.023	90
470.243	75
470.462	117
470.681	111
470.901	86
471.12	79
471.339	69
471.558	89
471.777	89
471.997	90
472.216	123
472.435	172
472.654	100
472.873	85
473.092	89
473.311	86
473.53	81
473.749	107
473.968	94
474.187	113
474.406	96
474.625	87
474.844	86
475.063	73
475.282	96
475.501	91
475.72	80
475.939	85
476.158	80
476.377	87
476.596	96
476.814	90
477.033	77
477.252	85
477.471	85
477.69	91
477.908	88
478.127	86
478.346	84
478.564	82
478.783	85
479.002	96
479.22	85
479.439	107
479.658	99
479.876	97
480.095	83
480.313	101
480.532	89
480.751	84
480.969	103
481.188	246
481.406	176
481.624	104
481.843	89
482.061	89
482.28	91
482.498	90
482.717	73
482.935	94
483.153	77
483.372	96
483.59	88
483.808	89
484.027	101
484.245	92
484.463	93
484.681	87
484.9	77
485.118	95
485.336	92
485.554	87
485.772	74
485.99	96
486.209	112
486.427	95
486.645	112
486.863	138
487.081	101
487.299	85
487.517	96
487.735	77
487.953	80
488.171	77
488.389	81
488.607	105
488.825	105
489.043	87
489.261	79
489.479	79
489.696	78
489.914	73
490.132	98
490.35	89
490.568	79
490.786	83
491.003	81
491.221	94
491.439	91
491.657	95
491.874	77
492.092	89
492.31	92
492.527	78
492.745	81
492.963	93
493.18	89
493.398	92
493.615	94
493.833	91
494.05	80
494.268	83
494.485	90
494.703	88
494.92	92
495.138	94
495.355	79
495.573	81
495.79	86
496.008	91
496.225	91
496.442	91
496.66	111
496.877	93
497.094	88
497.312	87
497.529	83
497.746	81
497.963	81
498.181	84
498.398	78
498.615	105
498.832	120
499.049	87
499.267	88
499.484	83
499.701	85
499.918	89
500.135	85
500.352	70
500.569	97
500.786	83
501.003	94
501.22	83
501.437	100
501.654	87
501.871	103
502.088	89
502.305	90
502.522	93
502.739	87
502.956	83
503.172	81
503.389	103
503.606	111
503.823	89
504.04	95
504.256	91
504.473	91
504.69	85
504.907	92
505.123	82
505.34	87
505.557	88
505.773	91
505.99	82
506.207	93
506.423	93
506.64	93
506.856	93
507.073	100
507.289	85
507.506	97
507.722	117
507.939	136
508.155	92
508.372	95
508.588	104
508.805	98
509.021	98
509.238	115
509.454	106
509.67	109
509.887	122
510.103	135
510.319	209
510.536	875
510.752	3057
510.968	795
511.184	177
511.401	119
511.617	102
511.833	100
512.049	80
512.265	86
512.481	83
512.698	86
512.914	76
513.13	88
513.346	91
513.562	91
513.778	88
513.994	106
514.21	106
514.426	120
514.642	174
514.858	132
515.074	210
515.29	601
515.506	2287
515.721	802
515.937	201
516.153	136
516.369	107
516.585	101
516.801	85
517.016	85
517.232	86
517.448	83
517.664	83
517.879	88
518.095	93
518.311	93
518.527	95
518.742	86
518.958	87
519.173	103
519.389	88
519.605	90
519.82	95
520.036	114
520.251	128
520.467	138
520.682	107
520.898	104
521.113	120
521.329	154
521.544	257
521.76	740
521.975	3681
522.19	2235
522.406	439
522.621	142
522.836	99
523.052	98
523.267	86
523.482	103
523.698	94
523.913	139
524.128	115
524.343	86
524.559	87
524.774	91
524.989	93
525.204	115
525.419	112
525.634	89
525.849	101
526.064	85
526.28	91
526.495	91
526.71	97
526.925	84
527.14	81
527.355	88
527.57	92
527.785	86
527.999	99
528.214	86
528.429	106
528.644	84
528.859	96
529.074	86
529.289	123
529.503	235
529.718	96
529.933	94
530.148	89
530.363	93
530.577	82
530.792	98
531.007	86
531.221	87
531.436	88
531.651	80
531.865	88
532.08	81
532.295	97
532.509	95
532.724	87
532.938	91
533.153	85
533.367	88
533.582	87
533.796	94
534.011	81
534.225	83
534.44	87
534.654	81
534.868	85
535.083	84
535.297	96
535.511	97
535.726	101
535.94	113
536.154	90
536.369	95
536.583	85
536.797	97
537.011	103
537.225	86
537.44	93
537.654	94
537.868	86
538.082	89
538.296	99
538.51	86
538.724	84
538.938	86
539.153	85
539.367	116
539.581	101
539.795	81
540.009	80
540.222	84
540.436	72
540.65	95
540.864	96
541.078	96
541.292	98
541.506	81
541.72	99
541.934	78
542.147	90
542.361	81
542.575	84
542.789	70
543.002	98
543.216	88
543.43	94
543.644	81
543.857	90
544.071	80
544.285	96
544.498	93
544.712	85
544.925	74
545.139	79
545.352	86
545.566	93
545.779	87
545.993	84
546.206	93
546.42	103
546.633	83
546.847	77
547.06	89
547.274	79
547.487	79
547.7	86
547.914	98
548.127	79
548.34	104
548.554	84
548.767	94
548.98	76
549.193	83
549.407	91
549.62	81
549.833	95
550.046	79
550.259	91
550.473	89
550.686	84
550.899	97
551.112	90
551.325	69
551.538	103
551.751	88
551.964	89
552.177	86
552.39	93
552.603	75
552.816	99
553.029	81
553.242	72
553.455	111
553.667	118
553.88	112
554.093	97
554.306	98
554.519	83
554.732	92
554.944	85
555.157	89
555.37	88
555.583	92
555.795	100
556.008	97
556.221	91
556.433	82
556.646	83
556.859	88
557.071	96
557.284	77
557.496	85
557.709	83
557.921	74
558.134	88
558.346	85
558.559	77
558.771	82
558.984	85
559.196	81
559.409	88
559.621	83
559.833	81
560.046	86
560.258	74
560.47	81
560.683	90
560.895	85
561.107	64
561.32	87
561.532	80
561.744	94
561.956	93
562.168	91
562.381	79
562.593	92
562.805	101
563.017	110
563.229	88
563.441	90
563.653	83
563.865	88
564.077	89
564.289	97
564.501	92
564.713	92
564.925	87
565.137	105
565.349	99
565.561	87
565.773	83
565.985	67
566.197	92
566.408	93
566.62	96
566.832	81
567.044	81
567.255	77
567.467	72
567.679	90
567.891	81
568.102	78
568.314	73
568.526	79
568.737	93
568.949	100
569.161	90
569.372	88
569.584	83
569.795	93
570.007	122
570.218	291
570.43	157
570.641	83
570.853	80
571.064	88
571.276	81
571.487	78
571.698	78
571.91	90
572.121	94
572.333	88
572.544	85
572.755	98
572.966	93
573.178	85
573.389	87
573.6	85
573.811	90
574.023	71
574.234	94
574.445	85
574.656	86
574.867	85
575.078	88
575.289	88
575.501	81
575.712	75
575.923	97
576.134	94
576.345	79
576.556	94
576.767	83
576.978	92
577.188	80
577.399	102
577.61	99
577.821	101
578.032	113
578.243	321
578.454	932
578.665	248
578.875	106
579.086	73
579.297	85
579.508	77
579.718	84
579.929	91
580.14	81
580.35	84
580.561	87
580.772	86
580.982	83
581.193	77
581.403	74
581.614	79
581.825	78
582.035	98
582.246	86
582.456	97
582.667	77
582.877	94
583.087	87
583.298	88
583.508	90
583.719	81
583.929	82
584.139	86
584.35	88
584.56	83
584.77	90
584.981	85
