Data from Circ_1981_H10_HRD10591_00013.txt Node
Date: Wed Jan 03 12:34:23 EST 2024
User: Yrep
Spectrometer: HR+D1059
Trigger mode: 1
Integration Time (sec): 1.000000E-1
Scans to average: 1
Electric dark correction enabled: true
Nonlinearity correction enabled: false
Boxcar width: 0
XAxis mode: Wavelengths
Number of Pixels in Spectrum: 2048
>>>>>Begin Spectral Data<<<<<
223.165	-9.81
223.4	-9.81
223.635	-9.81
223.869	-13.81
224.104	-8.81
224.338	-26.81
224.573	-25.81
224.808	-13.81
225.042	-10.81
225.277	10.19
225.511	-1.81
225.746	4.19
225.98	7.19
226.215	5.19
226.449	11.19
226.683	12.19
226.918	28.19
227.152	33.19
227.387	23.19
227.621	37.19
227.856	36.19
228.09	40.19
228.324	50.19
228.559	50.19
228.793	55.19
229.027	53.19
229.262	61.19
229.496	61.19
229.73	89.19
229.964	86.19
230.199	79.19
230.433	68.19
230.667	64.19
230.901	76.19
231.136	70.19
231.37	70.19
231.604	81.19
231.838	84.19
232.072	89.19
232.306	83.19
232.541	77.19
232.775	74.19
233.009	63.19
233.243	63.19
233.477	83.19
233.711	85.19
233.945	70.19
234.179	75.19
234.413	71.19
234.647	77.19
234.881	71.19
235.115	77.19
235.349	71.19
235.583	69.19
235.817	71.19
236.051	73.19
236.285	78.19
236.519	65.19
236.753	59.19
236.987	100.19
237.221	66.19
237.455	70.19
237.689	82.19
237.922	77.19
238.156	77.19
238.39	62.19
238.624	72.19
238.858	85.19
239.091	64.19
239.325	65.19
239.559	77.19
239.793	87.19
240.027	79.19
240.26	82.19
240.494	85.19
240.728	64.19
240.961	79.19
241.195	77.19
241.429	70.19
241.662	77.19
241.896	72.19
242.13	61.19
242.363	78.19
242.597	86.19
242.83	75.19
243.064	65.19
243.298	62.19
243.531	81.19
243.765	79.19
243.998	58.19
244.232	79.19
244.465	90.19
244.699	84.19
244.932	80.19
245.166	70.19
245.399	85.19
245.633	67.19
245.866	69.19
246.099	89.19
246.333	98.19
246.566	70.19
246.8	81.19
247.033	69.19
247.266	69.19
247.5	80.19
247.733	79.19
247.966	74.19
248.2	81.19
248.433	67.19
248.666	79.19
248.899	79.19
249.133	91.19
249.366	104.19
249.599	94.19
249.832	79.19
250.066	71.19
250.299	86.19
250.532	75.19
250.765	73.19
250.998	74.19
251.231	69.19
251.465	78.19
251.698	76.19
251.931	70.19
252.164	78.19
252.397	62.19
252.63	74.19
252.863	70.19
253.096	82.19
253.329	74.19
253.562	79.19
253.795	73.19
254.028	78.19
254.261	81.19
254.494	69.19
254.727	86.19
254.96	87.19
255.193	84.19
255.426	74.19
255.659	77.19
255.892	77.19
256.124	78.19
256.357	74.19
256.59	87.19
256.823	93.19
257.056	70.19
257.289	85.19
257.521	66.19
257.754	72.19
257.987	77.19
258.22	77.19
258.452	90.19
258.685	83.19
258.918	67.19
259.151	77.19
259.383	79.19
259.616	93.19
259.849	68.19
260.081	89.19
260.314	90.19
260.547	86.19
260.779	77.19
261.012	86.19
261.244	85.19
261.477	76.19
261.71	99.19
261.942	118.19
262.175	136.19
262.407	87.19
262.64	80.19
262.872	78.19
263.105	90.19
263.337	99.19
263.57	101.19
263.802	89.19
264.035	63.19
264.267	77.19
264.499	75.19
264.732	72.19
264.964	91.19
265.197	82.19
265.429	68.19
265.661	81.19
265.894	79.19
266.126	75.19
266.358	70.19
266.591	84.19
266.823	73.19
267.055	79.19
267.287	70.19
267.52	92.19
267.752	85.19
267.984	85.19
268.216	78.19
268.448	74.19
268.681	81.19
268.913	79.19
269.145	77.19
269.377	83.19
269.609	73.19
269.841	75.19
270.073	85.19
270.306	81.19
270.538	89.19
270.77	79.19
271.002	95.19
271.234	87.19
271.466	81.19
271.698	85.19
271.93	69.19
272.162	79.19
272.394	90.19
272.626	66.19
272.858	85.19
273.09	85.19
273.322	71.19
273.553	74.19
273.785	77.19
274.017	85.19
274.249	89.19
274.481	65.19
274.713	75.19
274.945	81.19
275.176	95.19
275.408	82.19
275.64	80.19
275.872	78.19
276.104	84.19
276.335	83.19
276.567	109.19
276.799	118.19
277.031	98.19
277.262	95.19
277.494	82.19
277.726	95.19
277.957	77.19
278.189	70.19
278.421	72.19
278.652	82.19
278.884	68.19
279.115	87.19
279.347	86.19
279.579	89.19
279.81	79.19
280.042	84.19
280.273	81.19
280.505	84.19
280.736	85.19
280.968	78.19
281.199	91.19
281.431	82.19
281.662	95.19
281.894	90.19
282.125	83.19
282.356	116.19
282.588	141.19
282.819	105.19
283.051	87.19
283.282	99.19
283.513	85.19
283.745	80.19
283.976	91.19
284.207	73.19
284.439	72.19
284.67	89.19
284.901	81.19
285.132	81.19
285.364	96.19
285.595	89.19
285.826	86.19
286.057	86.19
286.288	74.19
286.52	81.19
286.751	70.19
286.982	91.19
287.213	86.19
287.444	81.19
287.675	87.19
287.906	81.19
288.138	88.19
288.369	85.19
288.6	80.19
288.831	98.19
289.062	85.19
289.293	79.19
289.524	80.19
289.755	80.19
289.986	80.19
290.217	83.19
290.448	98.19
290.679	85.19
290.91	78.19
291.141	75.19
291.371	80.19
291.602	87.19
291.833	81.19
292.064	81.19
292.295	81.19
292.526	64.19
292.757	87.19
292.987	91.19
293.218	78.19
293.449	84.19
293.68	85.19
293.91	88.19
294.141	88.19
294.372	93.19
294.603	86.19
294.833	85.19
295.064	91.19
295.295	89.19
295.525	94.19
295.756	101.19
295.987	121.19
296.217	150.19
296.448	135.19
296.679	107.19
296.909	92.19
297.14	95.19
297.37	78.19
297.601	97.19
297.831	83.19
298.062	84.19
298.292	90.19
298.523	99.19
298.753	101.19
298.984	96.19
299.214	85.19
299.445	88.19
299.675	97.19
299.905	99.19
300.136	88.19
300.366	97.19
300.597	85.19
300.827	91.19
301.057	100.19
301.288	102.19
301.518	95.19
301.748	87.19
301.979	94.19
302.209	113.19
302.439	93.19
302.669	74.19
302.9	103.19
303.13	79.19
303.36	87.19
303.59	99.19
303.82	98.19
304.051	98.19
304.281	102.19
304.511	96.19
304.741	81.19
304.971	102.19
305.201	98.19
305.431	87.19
305.661	74.19
305.891	89.19
306.121	104.19
306.352	97.19
306.582	116.19
306.812	97.19
307.042	102.19
307.272	97.19
307.502	92.19
307.731	106.19
307.961	84.19
308.191	79.19
308.421	90.19
308.651	86.19
308.881	93.19
309.111	98.19
309.341	107.19
309.571	98.19
309.8	90.19
310.03	97.19
310.26	85.19
310.49	97.19
310.72	118.19
310.949	106.19
311.179	105.19
311.409	82.19
311.639	98.19
311.868	95.19
312.098	91.19
312.328	93.19
312.557	117.19
312.787	109.19
313.017	108.19
313.246	80.19
313.476	82.19
313.706	90.19
313.935	99.19
314.165	112.19
314.394	109.19
314.624	111.19
314.853	103.19
315.083	97.19
315.312	92.19
315.542	75.19
315.771	88.19
316.001	102.19
316.23	79.19
316.46	75.19
316.689	89.19
316.919	81.19
317.148	90.19
317.377	87.19
317.607	99.19
317.836	83.19
318.065	86.19
318.295	99.19
318.524	88.19
318.753	92.19
318.983	97.19
319.212	89.19
319.441	111.19
319.67	114.19
319.9	109.19
320.129	98.19
320.358	88.19
320.587	94.19
320.816	103.19
321.046	89.19
321.275	113.19
321.504	105.19
321.733	97.19
321.962	107.19
322.191	108.19
322.42	115.19
322.649	115.19
322.878	117.19
323.108	118.19
323.337	129.19
323.566	139.19
323.795	154.19
324.024	232.19
324.253	440.19
324.482	980.19
324.71	2018.19
324.939	2708.19
325.168	991.19
325.397	274.19
325.626	153.19
325.855	129.19
326.084	128.19
326.313	146.19
326.542	157.19
326.77	234.19
326.999	494.19
327.228	1048.19
327.457	1973.19
327.686	1574.19
327.914	430.19
328.143	244.19
328.372	182.19
328.6	148.19
328.829	138.19
329.058	141.19
329.287	160.19
329.515	110.19
329.744	118.19
329.972	115.19
330.201	150.19
330.43	152.19
330.658	154.19
330.887	187.19
331.115	158.19
331.344	102.19
331.572	90.19
331.801	109.19
332.03	118.19
332.258	108.19
332.486	87.19
332.715	90.19
332.943	98.19
333.172	102.19
333.4	103.19
333.629	107.19
333.857	119.19
334.085	122.19
334.314	127.19
334.542	163.19
334.771	170.19
334.999	100.19
335.227	98.19
335.455	106.19
335.684	97.19
335.912	109.19
336.14	99.19
336.369	99.19
336.597	113.19
336.825	98.19
337.053	103.19
337.281	101.19
337.51	98.19
337.738	93.19
337.966	95.19
338.194	112.19
338.422	94.19
338.65	104.19
338.878	88.19
339.106	79.19
339.334	98.19
339.562	90.19
339.79	80.19
340.018	88.19
340.246	93.19
340.474	92.19
340.702	80.19
340.93	99.19
341.158	97.19
341.386	106.19
341.614	115.19
341.842	85.19
342.07	92.19
342.298	78.19
342.526	83.19
342.754	88.19
342.981	88.19
343.209	87.19
343.437	63.19
343.665	83.19
343.893	90.19
344.12	83.19
344.348	94.19
344.576	83.19
344.804	99.19
345.031	105.19
345.259	101.19
345.487	89.19
345.714	90.19
345.942	94.19
346.17	92.19
346.397	99.19
346.625	86.19
346.853	96.19
347.08	85.19
347.308	90.19
347.535	97.19
347.763	109.19
347.99	87.19
348.218	97.19
348.445	103.19
348.673	105.19
348.9	94.19
349.128	91.19
349.355	93.19
349.583	93.19
349.81	108.19
350.037	105.19
350.265	101.19
350.492	78.19
350.72	87.19
350.947	103.19
351.174	111.19
351.402	119.19
351.629	116.19
351.856	98.19
352.083	109.19
352.311	96.19
352.538	117.19
352.765	116.19
352.992	114.19
353.22	121.19
353.447	107.19
353.674	98.19
353.901	91.19
354.128	95.19
354.355	87.19
354.583	103.19
354.81	89.19
355.037	80.19
355.264	88.19
355.491	79.19
355.718	97.19
355.945	85.19
356.172	87.19
356.399	90.19
356.626	77.19
356.853	77.19
357.08	86.19
357.307	75.19
357.534	88.19
357.761	90.19
357.988	101.19
358.215	101.19
358.441	99.19
358.668	91.19
358.895	94.19
359.122	103.19
359.349	88.19
359.576	81.19
359.802	105.19
360.029	129.19
360.256	136.19
360.483	104.19
360.709	90.19
360.936	116.19
361.163	87.19
361.39	83.19
361.616	103.19
361.843	95.19
362.07	97.19
362.296	98.19
362.523	107.19
362.749	85.19
362.976	84.19
363.203	90.19
363.429	86.19
363.656	83.19
363.882	83.19
364.109	89.19
364.335	86.19
364.562	102.19
364.788	85.19
365.015	108.19
365.241	106.19
365.468	109.19
365.694	119.19
365.92	91.19
366.147	83.19
366.373	87.19
366.599	96.19
366.826	84.19
367.052	101.19
367.278	90.19
367.505	91.19
367.731	97.19
367.957	104.19
368.184	89.19
368.41	103.19
368.636	122.19
368.862	144.19
369.089	136.19
369.315	92.19
369.541	77.19
369.767	102.19
369.993	89.19
370.219	101.19
370.445	83.19
370.672	91.19
370.898	86.19
371.124	92.19
371.35	84.19
371.576	72.19
371.802	74.19
372.028	89.19
372.254	92.19
372.48	93.19
372.706	85.19
372.932	94.19
373.158	70.19
373.384	82.19
373.61	82.19
373.835	94.19
374.061	88.19
374.287	95.19
374.513	89.19
374.739	90.19
374.965	85.19
375.191	103.19
375.416	85.19
375.642	85.19
375.868	102.19
376.094	103.19
376.319	97.19
376.545	80.19
376.771	99.19
376.997	81.19
377.222	88.19
377.448	87.19
377.674	87.19
377.899	87.19
378.125	80.19
378.35	77.19
378.576	93.19
378.802	93.19
379.027	95.19
379.253	82.19
379.478	86.19
379.704	83.19
379.929	98.19
380.155	91.19
380.38	95.19
380.606	79.19
380.831	94.19
381.057	105.19
381.282	85.19
381.507	86.19
381.733	88.19
381.958	89.19
382.184	93.19
382.409	106.19
382.634	116.19
382.86	101.19
383.085	91.19
383.31	104.19
383.535	109.19
383.761	94.19
383.986	91.19
384.211	91.19
384.436	104.19
384.662	103.19
384.887	88.19
385.112	112.19
385.337	106.19
385.562	113.19
385.787	106.19
386.013	120.19
386.238	126.19
386.463	107.19
386.688	110.19
386.913	118.19
387.138	109.19
387.363	103.19
387.588	95.19
387.813	112.19
388.038	113.19
388.263	118.19
388.488	97.19
388.713	89.19
388.938	100.19
389.163	98.19
389.387	99.19
389.612	110.19
389.837	86.19
390.062	87.19
390.287	87.19
390.512	81.19
390.736	90.19
390.961	83.19
391.186	80.19
391.411	62.19
391.636	87.19
391.86	82.19
392.085	90.19
392.31	83.19
392.534	93.19
392.759	83.19
392.984	91.19
393.208	82.19
393.433	131.19
393.658	95.19
393.882	86.19
394.107	85.19
394.331	78.19
394.556	99.19
394.78	93.19
395.005	81.19
395.229	95.19
395.454	80.19
395.678	85.19
395.903	80.19
396.127	93.19
396.352	90.19
396.576	89.19
396.801	91.19
397.025	93.19
397.249	89.19
397.474	91.19
397.698	89.19
397.922	73.19
398.147	76.19
398.371	77.19
398.595	96.19
398.82	89.19
399.044	85.19
399.268	71.19
399.492	74.19
399.717	91.19
399.941	96.19
400.165	97.19
400.389	95.19
400.613	97.19
400.837	79.19
401.062	68.19
401.286	93.19
401.51	77.19
401.734	104.19
401.958	102.19
402.182	134.19
402.406	182.19
402.63	141.19
402.854	101.19
403.078	84.19
403.302	94.19
403.526	90.19
403.75	94.19
403.974	74.19
404.198	84.19
404.422	81.19
404.645	82.19
404.869	81.19
405.093	103.19
405.317	122.19
405.541	94.19
405.765	105.19
405.988	117.19
406.212	211.19
406.436	298.19
406.66	177.19
406.883	119.19
407.107	77.19
407.331	92.19
407.555	103.19
407.778	89.19
408.002	93.19
408.226	95.19
408.449	89.19
408.673	90.19
408.896	84.19
409.12	101.19
409.344	101.19
409.567	94.19
409.791	74.19
410.014	93.19
410.238	83.19
410.461	79.19
410.685	85.19
410.908	103.19
411.132	90.19
411.355	101.19
411.578	90.19
411.802	90.19
412.025	90.19
412.249	72.19
412.472	88.19
412.695	107.19
412.919	84.19
413.142	70.19
413.365	100.19
413.589	73.19
413.812	86.19
414.035	84.19
414.258	75.19
414.482	88.19
414.705	84.19
414.928	89.19
415.151	90.19
415.374	81.19
415.597	96.19
415.821	91.19
416.044	94.19
416.267	85.19
416.49	85.19
416.713	83.19
416.936	79.19
417.159	101.19
417.382	87.19
417.605	97.19
417.828	84.19
418.051	95.19
418.274	81.19
418.497	85.19
418.72	83.19
418.943	82.19
419.166	96.19
419.389	91.19
419.611	89.19
419.834	85.19
420.057	79.19
420.28	83.19
420.503	87.19
420.726	77.19
420.948	100.19
421.171	97.19
421.394	110.19
421.617	83.19
421.839	102.19
422.062	85.19
422.285	93.19
422.507	101.19
422.73	111.19
422.953	88.19
423.175	88.19
423.398	89.19
423.621	92.19
423.843	86.19
424.066	85.19
424.288	76.19
424.511	87.19
424.733	88.19
424.956	112.19
425.178	96.19
425.401	93.19
425.623	95.19
425.846	87.19
426.068	89.19
426.291	90.19
426.513	95.19
426.735	88.19
426.958	96.19
427.18	101.19
427.402	143.19
427.625	205.19
427.847	151.19
428.069	107.19
428.292	91.19
428.514	68.19
428.736	88.19
428.958	92.19
429.181	81.19
429.403	73.19
429.625	78.19
429.847	90.19
430.069	104.19
430.292	97.19
430.514	85.19
430.736	86.19
430.958	96.19
431.18	81.19
431.402	83.19
431.624	72.19
431.846	87.19
432.068	79.19
432.29	110.19
432.512	89.19
432.734	103.19
432.956	75.19
433.178	95.19
433.4	83.19
433.622	90.19
433.844	84.19
434.066	95.19
434.287	98.19
434.509	101.19
434.731	97.19
434.953	88.19
435.175	86.19
435.397	98.19
435.618	87.19
435.84	92.19
436.062	135.19
436.284	120.19
436.505	103.19
436.727	100.19
436.949	88.19
437.17	88.19
437.392	86.19
437.614	93.19
437.835	102.19
438.057	132.19
438.278	117.19
438.5	107.19
438.721	133.19
438.943	103.19
439.165	86.19
439.386	93.19
439.608	80.19
439.829	107.19
440.05	130.19
440.272	170.19
440.493	113.19
440.715	91.19
440.936	87.19
441.158	102.19
441.379	94.19
441.6	97.19
441.822	105.19
442.043	93.19
442.264	102.19
442.486	109.19
442.707	85.19
442.928	96.19
443.149	141.19
443.371	135.19
443.592	122.19
443.813	111.19
444.034	123.19
444.255	99.19
444.476	93.19
444.698	85.19
444.919	91.19
445.14	120.19
445.361	119.19
445.582	125.19
445.803	163.19
446.024	158.19
446.245	145.19
446.466	111.19
446.687	86.19
446.908	90.19
447.129	84.19
447.35	89.19
447.571	97.19
447.792	92.19
448.013	102.19
448.234	107.19
448.455	112.19
448.675	122.19
448.896	127.19
449.117	95.19
449.338	96.19
449.559	120.19
449.779	148.19
450	100.19
450.221	80.19
450.442	90.19
450.662	97.19
450.883	116.19
451.104	120.19
451.324	93.19
451.545	90.19
451.766	85.19
451.986	82.19
452.207	86.19
452.428	96.19
452.648	104.19
452.869	102.19
453.089	123.19
453.31	137.19
453.53	89.19
453.751	78.19
453.971	122.19
454.192	120.19
454.412	106.19
454.633	74.19
454.853	77.19
455.073	86.19
455.294	93.19
455.514	89.19
455.734	90.19
455.955	77.19
456.175	79.19
456.395	74.19
456.616	87.19
456.836	92.19
457.056	65.19
457.276	74.19
457.497	91.19
457.717	81.19
457.937	96.19
458.157	81.19
458.377	98.19
458.598	115.19
458.818	184.19
459.038	194.19
459.258	134.19
459.478	94.19
459.698	91.19
459.918	77.19
460.138	91.19
460.358	85.19
460.578	70.19
460.798	85.19
461.018	90.19
461.238	80.19
461.458	90.19
461.678	87.19
461.898	83.19
462.118	81.19
462.338	94.19
462.558	70.19
462.777	79.19
462.997	93.19
463.217	83.19
463.437	83.19
463.657	95.19
463.876	88.19
464.096	87.19
464.316	93.19
464.536	82.19
464.755	109.19
464.975	113.19
465.195	210.19
465.414	223.19
465.634	87.19
465.854	86.19
466.073	83.19
466.293	88.19
466.512	79.19
466.732	81.19
466.951	91.19
467.171	87.19
467.391	98.19
467.61	119.19
467.829	100.19
468.049	98.19
468.268	89.19
468.488	85.19
468.707	67.19
468.927	83.19
469.146	71.19
469.365	70.19
469.585	95.19
469.804	88.19
470.023	98.19
470.243	89.19
470.462	118.19
470.681	113.19
470.901	89.19
471.12	87.19
471.339	83.19
471.558	83.19
471.777	84.19
471.997	91.19
472.216	111.19
472.435	174.19
472.654	99.19
472.873	89.19
473.092	77.19
473.311	90.19
473.53	95.19
473.749	78.19
473.968	98.19
474.187	103.19
474.406	98.19
474.625	80.19
474.844	96.19
475.063	79.19
475.282	95.19
475.501	85.19
475.72	96.19
475.939	86.19
476.158	78.19
476.377	78.19
476.596	75.19
476.814	103.19
477.033	85.19
477.252	101.19
477.471	81.19
477.69	82.19
477.908	90.19
478.127	89.19
478.346	82.19
478.564	90.19
478.783	91.19
479.002	101.19
479.22	97.19
479.439	94.19
479.658	111.19
479.876	105.19
480.095	99.19
480.313	88.19
480.532	97.19
480.751	88.19
480.969	136.19
481.188	224.19
481.406	177.19
481.624	85.19
481.843	89.19
482.061	81.19
482.28	87.19
482.498	89.19
482.717	75.19
482.935	85.19
483.153	85.19
483.372	66.19
483.59	88.19
483.808	78.19
484.027	90.19
484.245	91.19
484.463	98.19
484.681	104.19
484.9	94.19
485.118	76.19
485.336	79.19
485.554	91.19
485.772	98.19
485.99	106.19
486.209	117.19
486.427	115.19
486.645	105.19
486.863	111.19
487.081	109.19
487.299	96.19
487.517	97.19
487.735	112.19
487.953	92.19
488.171	109.19
488.389	103.19
488.607	87.19
488.825	80.19
489.043	94.19
489.261	96.19
489.479	95.19
489.696	88.19
489.914	81.19
490.132	79.19
490.35	78.19
490.568	90.19
490.786	100.19
491.003	98.19
491.221	82.19
491.439	81.19
491.657	85.19
491.874	78.19
492.092	85.19
492.31	91.19
492.527	84.19
492.745	92.19
492.963	88.19
493.18	77.19
493.398	77.19
493.615	77.19
493.833	89.19
494.05	97.19
494.268	95.19
494.485	79.19
494.703	92.19
494.92	101.19
495.138	98.19
495.355	94.19
495.573	93.19
495.79	102.19
496.008	94.19
496.225	91.19
496.442	82.19
496.66	92.19
496.877	80.19
497.094	82.19
497.312	86.19
497.529	93.19
497.746	89.19
497.963	97.19
498.181	95.19
498.398	89.19
498.615	100.19
498.832	106.19
499.049	89.19
499.267	88.19
499.484	89.19
499.701	83.19
499.918	79.19
500.135	87.19
500.352	89.19
500.569	85.19
500.786	88.19
501.003	84.19
501.22	84.19
501.437	90.19
501.654	100.19
501.871	111.19
502.088	94.19
502.305	71.19
502.522	84.19
502.739	95.19
502.956	91.19
503.172	103.19
503.389	101.19
503.606	105.19
503.823	90.19
504.04	97.19
504.256	90.19
504.473	99.19
504.69	93.19
504.907	80.19
505.123	81.19
505.34	88.19
505.557	91.19
505.773	92.19
505.99	85.19
506.207	86.19
506.423	101.19
506.64	93.19
506.856	79.19
507.073	91.19
507.289	87.19
507.506	99.19
507.722	117.19
507.939	123.19
508.155	96.19
508.372	83.19
508.588	104.19
508.805	102.19
509.021	93.19
509.238	102.19
509.454	111.19
509.67	101.19
509.887	94.19
510.103	150.19
510.319	239.19
510.536	859.19
510.752	2888.19
510.968	753.19
511.184	170.19
511.401	114.19
511.617	105.19
511.833	99.19
512.049	90.19
512.265	100.19
512.481	83.19
512.698	93.19
512.914	95.19
513.13	99.19
513.346	94.19
513.562	99.19
513.778	84.19
513.994	101.19
514.21	96.19
514.426	127.19
514.642	164.19
514.858	150.19
515.074	230.19
515.29	653.19
515.506	2378.19
