Data from Circ_1981_H10_HRD10591_00055.txt Node
Date: Wed Jan 03 12:34:32 EST 2024
User: Yrep
Spectrometer: HR+D1059
Trigger mode: 1
Integration Time (sec): 1.000000E-1
Scans to average: 1
Electric dark correction enabled: true
Nonlinearity correction enabled: false
Boxcar width: 0
XAxis mode: Wavelengths
Number of Pixels in Spectrum: 2048
>>>>>Begin Spectral Data<<<<<
223.165	-4.75
223.4	-4.75
223.635	-4.75
223.869	-22.75
224.104	-19.75
224.338	-26.75
224.573	5.25
224.808	-12.75
225.042	0.25
225.277	-19.75
225.511	-3.75
225.746	14.25
225.98	9.25
226.215	1.25
226.449	11.25
226.683	23.25
226.918	18.25
227.152	27.25
227.387	41.25
227.621	30.25
227.856	49.25
228.09	51.25
228.324	66.25
228.559	69.25
228.793	51.25
229.027	54.25
229.262	79.25
229.496	66.25
229.73	90.25
229.964	95.25
230.199	77.25
230.433	77.25
230.667	68.25
230.901	64.25
231.136	78.25
231.37	77.25
231.604	82.25
231.838	80.25
232.072	96.25
232.306	102.25
232.541	75.25
232.775	79.25
233.009	75.25
233.243	88.25
233.477	78.25
233.711	79.25
233.945	73.25
234.179	81.25
234.413	76.25
234.647	73.25
234.881	81.25
235.115	89.25
235.349	92.25
235.583	89.25
235.817	81.25
236.051	87.25
236.285	85.25
236.519	66.25
236.753	88.25
236.987	93.25
237.221	93.25
237.455	98.25
237.689	87.25
237.922	75.25
238.156	83.25
238.39	82.25
238.624	74.25
238.858	87.25
239.091	73.25
239.325	72.25
239.559	77.25
239.793	93.25
240.027	89.25
240.26	82.25
240.494	81.25
240.728	92.25
240.961	76.25
241.195	85.25
241.429	78.25
241.662	89.25
241.896	82.25
242.13	87.25
242.363	96.25
242.597	73.25
242.83	77.25
243.064	93.25
243.298	88.25
243.531	81.25
243.765	71.25
243.998	73.25
244.232	92.25
244.465	95.25
244.699	81.25
244.932	85.25
245.166	77.25
245.399	95.25
245.633	76.25
245.866	73.25
246.099	92.25
246.333	80.25
246.566	69.25
246.8	82.25
247.033	92.25
247.266	95.25
247.5	83.25
247.733	79.25
247.966	75.25
248.2	73.25
248.433	74.25
248.666	81.25
248.899	87.25
249.133	94.25
249.366	99.25
249.599	98.25
249.832	105.25
250.066	81.25
250.299	93.25
250.532	85.25
250.765	78.25
250.998	87.25
251.231	83.25
251.465	87.25
251.698	70.25
251.931	82.25
252.164	81.25
252.397	82.25
252.63	78.25
252.863	86.25
253.096	80.25
253.329	89.25
253.562	77.25
253.795	80.25
254.028	90.25
254.261	102.25
254.494	88.25
254.727	90.25
254.96	91.25
255.193	87.25
255.426	79.25
255.659	78.25
255.892	80.25
256.124	91.25
256.357	84.25
256.59	83.25
256.823	74.25
257.056	80.25
257.289	94.25
257.521	91.25
257.754	94.25
257.987	74.25
258.22	89.25
258.452	75.25
258.685	78.25
258.918	78.25
259.151	74.25
259.383	89.25
259.616	91.25
259.849	80.25
260.081	83.25
260.314	87.25
260.547	93.25
260.779	90.25
261.012	98.25
261.244	88.25
261.477	78.25
261.71	117.25
261.942	117.25
262.175	151.25
262.407	101.25
262.64	89.25
262.872	92.25
263.105	97.25
263.337	91.25
263.57	82.25
263.802	87.25
264.035	79.25
264.267	101.25
264.499	88.25
264.732	102.25
264.964	80.25
265.197	82.25
265.429	93.25
265.661	94.25
265.894	73.25
266.126	88.25
266.358	93.25
266.591	84.25
266.823	85.25
267.055	78.25
267.287	83.25
267.52	81.25
267.752	89.25
267.984	76.25
268.216	91.25
268.448	92.25
268.681	98.25
268.913	80.25
269.145	87.25
269.377	91.25
269.609	86.25
269.841	105.25
270.073	72.25
270.306	93.25
270.538	85.25
270.77	87.25
271.002	83.25
271.234	86.25
271.466	90.25
271.698	99.25
271.93	85.25
272.162	95.25
272.394	93.25
272.626	93.25
272.858	77.25
273.09	85.25
273.322	90.25
273.553	95.25
273.785	98.25
274.017	105.25
274.249	91.25
274.481	77.25
274.713	77.25
274.945	83.25
275.176	79.25
275.408	79.25
275.64	79.25
275.872	106.25
276.104	106.25
276.335	91.25
276.567	118.25
276.799	115.25
277.031	106.25
277.262	93.25
277.494	89.25
277.726	102.25
277.957	92.25
278.189	101.25
278.421	93.25
278.652	91.25
278.884	92.25
279.115	88.25
279.347	94.25
279.579	99.25
279.81	87.25
280.042	96.25
280.273	114.25
280.505	82.25
280.736	94.25
280.968	94.25
281.199	102.25
281.431	94.25
281.662	89.25
281.894	101.25
282.125	105.25
282.356	115.25
282.588	167.25
282.819	122.25
283.051	90.25
283.282	91.25
283.513	87.25
283.745	79.25
283.976	96.25
284.207	95.25
284.439	88.25
284.67	90.25
284.901	80.25
285.132	103.25
285.364	87.25
285.595	100.25
285.826	94.25
286.057	87.25
286.288	101.25
286.52	85.25
286.751	83.25
286.982	97.25
287.213	92.25
287.444	80.25
287.675	113.25
287.906	96.25
288.138	104.25
288.369	106.25
288.6	88.25
288.831	83.25
289.062	89.25
289.293	88.25
289.524	102.25
289.755	102.25
289.986	102.25
290.217	90.25
290.448	82.25
290.679	105.25
290.91	104.25
291.141	95.25
291.371	95.25
291.602	99.25
291.833	101.25
292.064	89.25
292.295	96.25
292.526	91.25
292.757	97.25
292.987	78.25
293.218	86.25
293.449	101.25
293.68	92.25
293.91	85.25
294.141	84.25
294.372	106.25
294.603	104.25
294.833	104.25
295.064	92.25
295.295	85.25
295.525	86.25
295.756	117.25
295.987	118.25
296.217	153.25
296.448	152.25
296.679	105.25
296.909	91.25
297.14	85.25
297.37	85.25
297.601	99.25
297.831	91.25
298.062	115.25
298.292	106.25
298.523	98.25
298.753	99.25
298.984	95.25
299.214	85.25
299.445	94.25
299.675	118.25
299.905	101.25
300.136	87.25
300.366	110.25
300.597	73.25
300.827	91.25
301.057	104.25
301.288	110.25
301.518	94.25
301.748	94.25
301.979	113.25
302.209	112.25
302.439	111.25
302.669	97.25
302.9	82.25
303.13	98.25
303.36	92.25
303.59	121.25
303.82	116.25
304.051	98.25
304.281	94.25
304.511	96.25
304.741	96.25
304.971	83.25
305.201	93.25
305.431	84.25
305.661	83.25
305.891	93.25
306.121	109.25
306.352	107.25
306.582	125.25
306.812	83.25
307.042	92.25
307.272	93.25
307.502	91.25
307.731	85.25
307.961	95.25
308.191	105.25
308.421	96.25
308.651	95.25
308.881	93.25
309.111	93.25
309.341	113.25
309.571	109.25
309.8	98.25
310.03	103.25
310.26	123.25
310.49	106.25
310.72	101.25
310.949	104.25
311.179	119.25
311.409	101.25
311.639	86.25
311.868	103.25
312.098	124.25
312.328	97.25
312.557	117.25
312.787	121.25
313.017	126.25
313.246	110.25
313.476	98.25
313.706	103.25
313.935	103.25
314.165	107.25
314.394	115.25
314.624	105.25
314.853	110.25
315.083	98.25
315.312	106.25
315.542	101.25
315.771	99.25
316.001	95.25
316.23	90.25
316.46	91.25
316.689	93.25
316.919	94.25
317.148	102.25
317.377	114.25
317.607	102.25
317.836	96.25
318.065	100.25
318.295	98.25
318.524	95.25
318.753	117.25
318.983	103.25
319.212	114.25
319.441	113.25
319.67	123.25
319.9	102.25
320.129	94.25
320.358	92.25
320.587	117.25
320.816	103.25
321.046	118.25
321.275	105.25
321.504	106.25
321.733	98.25
321.962	103.25
322.191	121.25
322.42	106.25
322.649	127.25
322.878	122.25
323.108	118.25
323.337	149.25
323.566	155.25
323.795	180.25
324.024	242.25
324.253	455.25
324.482	966.25
324.71	2072.25
324.939	2810.25
325.168	1017.25
325.397	281.25
325.626	163.25
325.855	127.25
326.084	137.25
326.313	155.25
326.542	183.25
326.77	246.25
326.999	529.25
327.228	1114.25
327.457	2052.25
327.686	1639.25
327.914	452.25
328.143	229.25
328.372	199.25
328.6	161.25
328.829	138.25
329.058	160.25
329.287	165.25
329.515	125.25
329.744	111.25
329.972	122.25
330.201	137.25
330.43	155.25
330.658	157.25
330.887	193.25
331.115	171.25
331.344	98.25
331.572	89.25
331.801	114.25
332.03	102.25
332.258	105.25
332.486	101.25
332.715	105.25
332.943	109.25
333.172	110.25
333.4	109.25
333.629	115.25
333.857	131.25
334.085	123.25
334.314	144.25
334.542	157.25
334.771	172.25
334.999	122.25
335.227	113.25
335.455	104.25
335.684	106.25
335.912	98.25
336.14	110.25
336.369	109.25
336.597	125.25
336.825	103.25
337.053	100.25
337.281	94.25
337.51	97.25
337.738	95.25
337.966	98.25
338.194	125.25
338.422	118.25
338.65	98.25
338.878	110.25
339.106	97.25
339.334	94.25
339.562	103.25
339.79	98.25
340.018	96.25
340.246	82.25
340.474	111.25
340.702	107.25
340.93	104.25
341.158	109.25
341.386	114.25
341.614	97.25
341.842	91.25
342.07	98.25
342.298	99.25
342.526	97.25
342.754	99.25
342.981	105.25
343.209	90.25
343.437	113.25
343.665	83.25
343.893	105.25
344.12	106.25
344.348	104.25
344.576	91.25
344.804	105.25
345.031	113.25
345.259	119.25
345.487	109.25
345.714	101.25
345.942	83.25
346.17	95.25
346.397	106.25
346.625	89.25
346.853	105.25
347.08	107.25
347.308	93.25
347.535	100.25
347.763	105.25
347.99	112.25
348.218	107.25
348.445	97.25
348.673	109.25
348.9	96.25
349.128	101.25
349.355	101.25
349.583	107.25
349.81	107.25
350.037	97.25
350.265	104.25
350.492	87.25
350.72	96.25
350.947	121.25
351.174	127.25
351.402	127.25
351.629	101.25
351.856	111.25
352.083	115.25
352.311	109.25
352.538	117.25
352.765	119.25
352.992	134.25
353.22	113.25
353.447	107.25
353.674	104.25
353.901	102.25
354.128	107.25
354.355	96.25
354.583	106.25
354.81	97.25
355.037	94.25
355.264	99.25
355.491	88.25
355.718	95.25
355.945	88.25
356.172	97.25
356.399	90.25
356.626	92.25
356.853	103.25
357.08	89.25
357.307	103.25
357.534	113.25
357.761	98.25
357.988	90.25
358.215	101.25
358.441	98.25
358.668	102.25
358.895	91.25
359.122	95.25
359.349	93.25
359.576	109.25
359.802	118.25
360.029	147.25
360.256	130.25
360.483	113.25
360.709	105.25
360.936	103.25
361.163	103.25
361.39	111.25
361.616	103.25
361.843	89.25
362.07	112.25
362.296	123.25
362.523	107.25
362.749	108.25
362.976	89.25
363.203	97.25
363.429	86.25
363.656	110.25
363.882	105.25
364.109	98.25
364.335	111.25
364.562	91.25
364.788	89.25
365.015	83.25
365.241	105.25
365.468	126.25
365.694	97.25
365.92	108.25
366.147	103.25
366.373	90.25
366.599	87.25
366.826	102.25
367.052	102.25
367.278	105.25
367.505	104.25
367.731	94.25
367.957	98.25
368.184	97.25
368.41	110.25
368.636	115.25
368.862	115.25
369.089	114.25
369.315	113.25
369.541	113.25
369.767	88.25
369.993	96.25
370.219	115.25
370.445	90.25
370.672	93.25
370.898	94.25
371.124	102.25
371.35	89.25
371.576	94.25
371.802	94.25
372.028	99.25
372.254	104.25
372.48	81.25
372.706	91.25
372.932	93.25
373.158	90.25
373.384	109.25
373.61	97.25
373.835	97.25
374.061	112.25
374.287	105.25
374.513	103.25
374.739	105.25
374.965	107.25
375.191	101.25
375.416	89.25
375.642	109.25
375.868	93.25
376.094	93.25
376.319	80.25
376.545	106.25
376.771	87.25
376.997	81.25
377.222	88.25
377.448	70.25
377.674	95.25
377.899	85.25
378.125	100.25
378.35	97.25
378.576	107.25
378.802	98.25
379.027	105.25
379.253	103.25
379.478	98.25
379.704	88.25
379.929	109.25
380.155	102.25
380.38	110.25
380.606	96.25
380.831	97.25
381.057	96.25
381.282	96.25
381.507	95.25
381.733	105.25
381.958	99.25
382.184	98.25
382.409	106.25
382.634	104.25
382.86	105.25
383.085	110.25
383.31	106.25
383.535	102.25
383.761	108.25
383.986	93.25
384.211	105.25
384.436	93.25
384.662	99.25
384.887	107.25
385.112	101.25
385.337	96.25
385.562	109.25
385.787	113.25
386.013	107.25
386.238	103.25
386.463	119.25
386.688	108.25
386.913	101.25
387.138	118.25
387.363	107.25
387.588	103.25
387.813	116.25
388.038	101.25
388.263	113.25
388.488	107.25
388.713	94.25
388.938	111.25
389.163	92.25
389.387	94.25
389.612	98.25
389.837	101.25
390.062	93.25
390.287	93.25
390.512	87.25
390.736	95.25
390.961	90.25
391.186	92.25
391.411	98.25
391.636	96.25
391.86	107.25
392.085	89.25
392.31	86.25
392.534	92.25
392.759	90.25
392.984	97.25
393.208	105.25
393.433	104.25
393.658	102.25
393.882	93.25
394.107	106.25
394.331	99.25
394.556	105.25
394.78	96.25
395.005	83.25
395.229	87.25
395.454	107.25
395.678	77.25
395.903	100.25
396.127	97.25
396.352	85.25
396.576	94.25
396.801	96.25
397.025	97.25
397.249	99.25
397.474	97.25
397.698	90.25
397.922	92.25
398.147	89.25
398.371	104.25
398.595	94.25
398.82	96.25
399.044	90.25
399.268	91.25
399.492	101.25
399.717	87.25
399.941	93.25
400.165	91.25
400.389	95.25
400.613	93.25
400.837	101.25
401.062	96.25
401.286	103.25
401.51	89.25
401.734	94.25
401.958	103.25
402.182	135.25
402.406	178.25
402.63	134.25
402.854	108.25
403.078	107.25
403.302	106.25
403.526	102.25
403.75	92.25
403.974	80.25
404.198	106.25
404.422	100.25
404.645	89.25
404.869	109.25
405.093	106.25
405.317	106.25
405.541	114.25
405.765	109.25
405.988	133.25
406.212	204.25
406.436	281.25
406.66	183.25
406.883	114.25
407.107	105.25
407.331	102.25
407.555	126.25
407.778	101.25
408.002	89.25
408.226	105.25
408.449	88.25
408.673	99.25
408.896	110.25
409.12	104.25
409.344	101.25
409.567	106.25
409.791	104.25
410.014	97.25
410.238	88.25
410.461	104.25
410.685	107.25
410.908	102.25
411.132	119.25
411.355	106.25
411.578	91.25
411.802	96.25
412.025	80.25
412.249	88.25
412.472	119.25
412.695	111.25
412.919	104.25
413.142	88.25
413.365	95.25
413.589	103.25
413.812	109.25
414.035	99.25
414.258	87.25
414.482	101.25
414.705	97.25
414.928	95.25
415.151	89.25
415.374	97.25
415.597	91.25
415.821	99.25
416.044	90.25
416.267	89.25
416.49	88.25
416.713	85.25
416.936	85.25
417.159	94.25
417.382	85.25
417.605	95.25
417.828	103.25
418.051	93.25
418.274	98.25
418.497	88.25
418.72	101.25
418.943	94.25
419.166	96.25
419.389	76.25
419.611	86.25
419.834	91.25
420.057	89.25
420.28	82.25
420.503	103.25
420.726	102.25
420.948	102.25
421.171	106.25
421.394	104.25
421.617	99.25
421.839	104.25
422.062	105.25
422.285	91.25
422.507	110.25
422.73	122.25
422.953	119.25
423.175	101.25
423.398	81.25
423.621	109.25
423.843	93.25
424.066	86.25
424.288	98.25
424.511	111.25
424.733	105.25
424.956	115.25
425.178	124.25
425.401	99.25
425.623	113.25
425.846	89.25
426.068	103.25
426.291	94.25
426.513	96.25
426.735	122.25
426.958	98.25
427.18	122.25
427.402	167.25
427.625	241.25
427.847	165.25
428.069	116.25
428.292	119.25
428.514	94.25
428.736	92.25
428.958	99.25
429.181	97.25
429.403	82.25
429.625	89.25
429.847	98.25
430.069	118.25
430.292	101.25
430.514	80.25
430.736	90.25
430.958	89.25
431.18	75.25
431.402	101.25
431.624	102.25
431.846	81.25
432.068	98.25
432.29	97.25
432.512	89.25
432.734	81.25
432.956	94.25
433.178	103.25
433.4	102.25
433.622	112.25
433.844	95.25
434.066	100.25
434.287	89.25
434.509	89.25
434.731	96.25
434.953	86.25
435.175	85.25
435.397	105.25
435.618	107.25
435.84	113.25
436.062	147.25
436.284	135.25
436.505	127.25
436.727	105.25
436.949	86.25
437.17	99.25
437.392	94.25
437.614	107.25
437.835	136.25
438.057	137.25
438.278	120.25
438.5	122.25
438.721	155.25
438.943	104.25
439.165	93.25
439.386	89.25
439.608	94.25
439.829	119.25
440.05	157.25
440.272	197.25
440.493	137.25
440.715	96.25
440.936	93.25
441.158	104.25
441.379	95.25
441.6	102.25
441.822	121.25
442.043	105.25
442.264	125.25
442.486	112.25
442.707	106.25
442.928	99.25
443.149	165.25
443.371	161.25
443.592	143.25
443.813	129.25
444.034	121.25
444.255	106.25
444.476	93.25
444.698	91.25
444.919	80.25
445.14	127.25
445.361	144.25
445.582	145.25
445.803	185.25
446.024	187.25
446.245	182.25
446.466	123.25
446.687	82.25
446.908	106.25
447.129	89.25
447.35	100.25
447.571	102.25
447.792	93.25
448.013	103.25
448.234	114.25
448.455	130.25
448.675	135.25
448.896	130.25
449.117	115.25
449.338	118.25
449.559	136.25
449.779	165.25
450	110.25
450.221	91.25
450.442	98.25
450.662	109.25
450.883	126.25
451.104	145.25
451.324	131.25
451.545	84.25
451.766	91.25
451.986	93.25
452.207	103.25
452.428	105.25
452.648	107.25
452.869	119.25
453.089	122.25
453.31	135.25
453.53	106.25
453.751	107.25
453.971	106.25
454.192	124.25
454.412	97.25
454.633	83.25
454.853	98.25
455.073	98.25
455.294	96.25
455.514	130.25
455.734	89.25
455.955	85.25
456.175	93.25
456.395	76.25
456.616	85.25
456.836	80.25
457.056	78.25
457.276	73.25
457.497	95.25
457.717	86.25
457.937	86.25
458.157	88.25
458.377	96.25
458.598	126.25
458.818	188.25
459.038	205.25
459.258	144.25
459.478	102.25
459.698	103.25
459.918	99.25
460.138	104.25
460.358	105.25
460.578	91.25
460.798	97.25
461.018	106.25
461.238	92.25
461.458	94.25
461.678	88.25
461.898	90.25
462.118	102.25
462.338	99.25
462.558	97.25
462.777	88.25
462.997	85.25
463.217	101.25
463.437	95.25
463.657	99.25
463.876	110.25
464.096	99.25
464.316	101.25
464.536	103.25
464.755	113.25
464.975	110.25
465.195	202.25
465.414	214.25
465.634	108.25
465.854	97.25
466.073	91.25
466.293	95.25
466.512	97.25
466.732	90.25
466.951	107.25
467.171	93.25
467.391	93.25
467.61	114.25
467.829	110.25
468.049	104.25
468.268	125.25
468.488	103.25
468.707	80.25
468.927	96.25
469.146	101.25
469.365	91.25
469.585	93.25
469.804	116.25
470.023	120.25
470.243	100.25
470.462	108.25
470.681	129.25
470.901	113.25
471.12	93.25
471.339	100.25
471.558	93.25
471.777	100.25
471.997	93.25
472.216	126.25
472.435	169.25
472.654	107.25
472.873	98.25
473.092	85.25
473.311	97.25
473.53	89.25
473.749	93.25
473.968	120.25
474.187	108.25
474.406	98.25
474.625	99.25
474.844	86.25
475.063	91.25
475.282	91.25
475.501	90.25
475.72	104.25
475.939	97.25
476.158	89.25
476.377	86.25
476.596	99.25
476.814	109.25
477.033	91.25
477.252	97.25
477.471	95.25
477.69	95.25
477.908	89.25
478.127	90.25
478.346	107.25
478.564	99.25
478.783	108.25
479.002	106.25
479.22	111.25
479.439	112.25
479.658	107.25
479.876	104.25
480.095	94.25
480.313	87.25
480.532	102.25
480.751	93.25
480.969	122.25
481.188	229.25
481.406	174.25
481.624	83.25
481.843	102.25
482.061	92.25
482.28	91.25
482.498	80.25
482.717	103.25
482.935	94.25
483.153	98.25
483.372	91.25
483.59	111.25
483.808	96.25
484.027	99.25
484.245	89.25
484.463	100.25
484.681	105.25
484.9	93.25
485.118	102.25
485.336	95.25
485.554	96.25
485.772	99.25
485.99	94.25
486.209	98.25
486.427	110.25
486.645	140.25
486.863	125.25
487.081	108.25
487.299	97.25
487.517	119.25
487.735	70.25
487.953	85.25
488.171	98.25
488.389	100.25
488.607	96.25
488.825	105.25
489.043	91.25
489.261	97.25
489.479	94.25
489.696	81.25
489.914	105.25
490.132	91.25
490.35	101.25
490.568	99.25
490.786	104.25
491.003	85.25
491.221	89.25
491.439	79.25
491.657	97.25
491.874	108.25
492.092	94.25
492.31	90.25
492.527	83.25
492.745	91.25
492.963	91.25
493.18	72.25
493.398	85.25
493.615	94.25
493.833	96.25
494.05	95.25
494.268	101.25
494.485	83.25
494.703	108.25
494.92	103.25
495.138	93.25
495.355	105.25
495.573	101.25
495.79	92.25
496.008	103.25
496.225	92.25
496.442	100.25
496.66	109.25
496.877	99.25
497.094	93.25
497.312	94.25
497.529	99.25
497.746	94.25
497.963	92.25
498.181	102.25
498.398	95.25
498.615	121.25
498.832	109.25
499.049	97.25
499.267	86.25
499.484	97.25
499.701	90.25
499.918	95.25
500.135	89.25
500.352	91.25
500.569	97.25
500.786	90.25
501.003	91.25
501.22	93.25
501.437	97.25
501.654	102.25
501.871	124.25
502.088	97.25
502.305	99.25
502.522	97.25
502.739	82.25
502.956	98.25
503.172	86.25
503.389	96.25
503.606	114.25
503.823	98.25
504.04	88.25
504.256	89.25
504.473	90.25
504.69	99.25
504.907	98.25
505.123	95.25
505.34	89.25
505.557	94.25
505.773	92.25
505.99	104.25
506.207	102.25
506.423	85.25
506.64	90.25
506.856	91.25
507.073	96.25
507.289	100.25
507.506	102.25
507.722	134.25
507.939	150.25
508.155	98.25
508.372	111.25
508.588	97.25
508.805	107.25
509.021	118.25
509.238	115.25
509.454	104.25
509.67	99.25
509.887	119.25
510.103	146.25
510.319	234.25
510.536	813.25
510.752	2741.25
510.968	746.25
511.184	181.25
511.401	125.25
511.617	95.25
511.833	90.25
512.049	101.25
512.265	93.25
