Data from Circ_1981_H10_HRD10591_00081.txt Node
Date: Wed Jan 03 12:34:37 EST 2024
User: Yrep
Spectrometer: HR+D1059
Trigger mode: 1
Integration Time (sec): 1.000000E-1
Scans to average: 1
Electric dark correction enabled: true
Nonlinearity correction enabled: false
Boxcar width: 0
XAxis mode: Wavelengths
Number of Pixels in Spectrum: 2048
>>>>>Begin Spectral Data<<<<<
223.165	-17.81
223.4	-17.81
223.635	-17.81
223.869	-8.81
224.104	-26.81
224.338	-8.81
224.573	-22.81
224.808	-12.81
225.042	-13.81
225.277	-8.81
225.511	-9.81
225.746	2.19
225.98	4.19
226.215	13.19
226.449	23.19
226.683	23.19
226.918	30.19
227.152	34.19
227.387	25.19
227.621	44.19
227.856	36.19
228.09	55.19
228.324	45.19
228.559	50.19
228.793	67.19
229.027	65.19
229.262	68.19
229.496	76.19
229.73	105.19
229.964	92.19
230.199	85.19
230.433	86.19
230.667	86.19
230.901	75.19
231.136	71.19
231.37	73.19
231.604	86.19
231.838	81.19
232.072	94.19
232.306	81.19
232.541	67.19
232.775	78.19
233.009	79.19
233.243	82.19
233.477	97.19
233.711	67.19
233.945	86.19
234.179	89.19
234.413	94.19
234.647	89.19
234.881	91.19
235.115	79.19
235.349	83.19
235.583	78.19
235.817	87.19
236.051	81.19
236.285	90.19
236.519	89.19
236.753	75.19
236.987	84.19
237.221	85.19
237.455	97.19
237.689	90.19
237.922	92.19
238.156	85.19
238.39	73.19
238.624	69.19
238.858	77.19
239.091	78.19
239.325	79.19
239.559	78.19
239.793	86.19
240.027	85.19
240.26	85.19
240.494	70.19
240.728	76.19
240.961	87.19
241.195	69.19
241.429	67.19
241.662	85.19
241.896	89.19
242.13	74.19
242.363	85.19
242.597	80.19
242.83	91.19
243.064	87.19
243.298	89.19
243.531	73.19
243.765	85.19
243.998	85.19
244.232	84.19
244.465	97.19
244.699	84.19
244.932	86.19
245.166	92.19
245.399	78.19
245.633	80.19
245.866	95.19
246.099	82.19
246.333	87.19
246.566	85.19
246.8	68.19
247.033	81.19
247.266	87.19
247.5	93.19
247.733	71.19
247.966	91.19
248.2	84.19
248.433	74.19
248.666	88.19
248.899	78.19
249.133	90.19
249.366	108.19
249.599	89.19
249.832	83.19
250.066	90.19
250.299	86.19
250.532	79.19
250.765	86.19
250.998	90.19
251.231	73.19
251.465	65.19
251.698	91.19
251.931	69.19
252.164	95.19
252.397	83.19
252.63	84.19
252.863	89.19
253.096	83.19
253.329	81.19
253.562	85.19
253.795	87.19
254.028	66.19
254.261	75.19
254.494	81.19
254.727	81.19
254.96	69.19
255.193	83.19
255.426	73.19
255.659	74.19
255.892	74.19
256.124	84.19
256.357	83.19
256.59	86.19
256.823	88.19
257.056	95.19
257.289	70.19
257.521	96.19
257.754	89.19
257.987	77.19
258.22	70.19
258.452	82.19
258.685	93.19
258.918	85.19
259.151	78.19
259.383	85.19
259.616	78.19
259.849	86.19
260.081	83.19
260.314	89.19
260.547	88.19
260.779	76.19
261.012	83.19
261.244	98.19
261.477	95.19
261.71	97.19
261.942	130.19
262.175	127.19
262.407	97.19
262.64	82.19
262.872	76.19
263.105	91.19
263.337	94.19
263.57	83.19
263.802	89.19
264.035	86.19
264.267	93.19
264.499	90.19
264.732	90.19
264.964	77.19
265.197	75.19
265.429	78.19
265.661	99.19
265.894	76.19
266.126	89.19
266.358	90.19
266.591	84.19
266.823	89.19
267.055	76.19
267.287	78.19
267.52	79.19
267.752	79.19
267.984	83.19
268.216	105.19
268.448	88.19
268.681	83.19
268.913	83.19
269.145	102.19
269.377	89.19
269.609	91.19
269.841	88.19
270.073	91.19
270.306	82.19
270.538	83.19
270.77	88.19
271.002	89.19
271.234	80.19
271.466	78.19
271.698	89.19
271.93	95.19
272.162	89.19
272.394	88.19
272.626	90.19
272.858	78.19
273.09	90.19
273.322	89.19
273.553	83.19
273.785	92.19
274.017	83.19
274.249	88.19
274.481	85.19
274.713	84.19
274.945	92.19
275.176	77.19
275.408	103.19
275.64	93.19
275.872	85.19
276.104	84.19
276.335	91.19
276.567	117.19
276.799	124.19
277.031	102.19
277.262	103.19
277.494	93.19
277.726	82.19
277.957	87.19
278.189	82.19
278.421	88.19
278.652	94.19
278.884	82.19
279.115	90.19
279.347	85.19
279.579	91.19
279.81	78.19
280.042	90.19
280.273	95.19
280.505	86.19
280.736	87.19
280.968	84.19
281.199	94.19
281.431	82.19
281.662	90.19
281.894	89.19
282.125	98.19
282.356	135.19
282.588	168.19
282.819	127.19
283.051	98.19
283.282	83.19
283.513	88.19
283.745	106.19
283.976	85.19
284.207	86.19
284.439	81.19
284.67	90.19
284.901	89.19
285.132	86.19
285.364	98.19
285.595	92.19
285.826	87.19
286.057	100.19
286.288	96.19
286.52	86.19
286.751	91.19
286.982	92.19
287.213	95.19
287.444	82.19
287.675	76.19
287.906	97.19
288.138	85.19
288.369	93.19
288.6	87.19
288.831	82.19
289.062	76.19
289.293	93.19
289.524	87.19
289.755	76.19
289.986	94.19
290.217	97.19
290.448	86.19
290.679	83.19
290.91	91.19
291.141	96.19
291.371	81.19
291.602	94.19
291.833	73.19
292.064	84.19
292.295	84.19
292.526	100.19
292.757	82.19
292.987	97.19
293.218	78.19
293.449	97.19
293.68	109.19
293.91	91.19
294.141	76.19
294.372	87.19
294.603	79.19
294.833	89.19
295.064	75.19
295.295	83.19
295.525	105.19
295.756	94.19
295.987	133.19
296.217	151.19
296.448	142.19
296.679	105.19
296.909	95.19
297.14	94.19
297.37	91.19
297.601	82.19
297.831	93.19
298.062	109.19
298.292	93.19
298.523	94.19
298.753	82.19
298.984	101.19
299.214	79.19
299.445	87.19
299.675	109.19
299.905	111.19
300.136	91.19
300.366	94.19
300.597	90.19
300.827	88.19
301.057	103.19
301.288	114.19
301.518	99.19
301.748	90.19
301.979	95.19
302.209	86.19
302.439	102.19
302.669	100.19
302.9	98.19
303.13	93.19
303.36	97.19
303.59	85.19
303.82	101.19
304.051	97.19
304.281	92.19
304.511	88.19
304.741	81.19
304.971	82.19
305.201	98.19
305.431	99.19
305.661	92.19
305.891	78.19
306.121	94.19
306.352	84.19
306.582	114.19
306.812	106.19
307.042	95.19
307.272	98.19
307.502	82.19
307.731	102.19
307.961	85.19
308.191	91.19
308.421	110.19
308.651	99.19
308.881	109.19
309.111	100.19
309.341	101.19
309.571	102.19
309.8	94.19
310.03	114.19
310.26	99.19
310.49	104.19
310.72	115.19
310.949	130.19
311.179	108.19
311.409	107.19
311.639	91.19
311.868	100.19
312.098	108.19
312.328	101.19
312.557	107.19
312.787	122.19
313.017	116.19
313.246	92.19
313.476	102.19
313.706	100.19
313.935	103.19
314.165	102.19
314.394	113.19
314.624	105.19
314.853	98.19
315.083	95.19
315.312	113.19
315.542	90.19
315.771	102.19
316.001	83.19
316.23	88.19
316.46	104.19
316.689	105.19
316.919	99.19
317.148	108.19
317.377	99.19
317.607	101.19
317.836	101.19
318.065	98.19
318.295	86.19
318.524	100.19
318.753	84.19
318.983	101.19
319.212	107.19
319.441	109.19
319.67	118.19
319.9	97.19
320.129	86.19
320.358	89.19
320.587	96.19
320.816	99.19
321.046	103.19
321.275	102.19
321.504	96.19
321.733	103.19
321.962	97.19
322.191	99.19
322.42	117.19
322.649	126.19
322.878	113.19
323.108	141.19
323.337	147.19
323.566	156.19
323.795	186.19
324.024	227.19
324.253	478.19
324.482	1086.19
324.71	2343.19
324.939	3247.19
325.168	1103.19
325.397	314.19
325.626	181.19
325.855	139.19
326.084	138.19
326.313	141.19
326.542	187.19
326.77	277.19
326.999	584.19
327.228	1232.19
327.457	2358.19
327.686	1891.19
327.914	484.19
328.143	242.19
328.372	183.19
328.6	139.19
328.829	140.19
329.058	151.19
329.287	158.19
329.515	128.19
329.744	120.19
329.972	106.19
330.201	133.19
330.43	161.19
330.658	179.19
330.887	194.19
331.115	167.19
331.344	125.19
331.572	118.19
331.801	101.19
332.03	121.19
332.258	80.19
332.486	114.19
332.715	107.19
332.943	102.19
333.172	103.19
333.4	104.19
333.629	116.19
333.857	120.19
334.085	126.19
334.314	133.19
334.542	157.19
334.771	142.19
334.999	101.19
335.227	101.19
335.455	91.19
335.684	105.19
335.912	93.19
336.14	115.19
336.369	107.19
336.597	105.19
336.825	102.19
337.053	84.19
337.281	93.19
337.51	95.19
337.738	87.19
337.966	101.19
338.194	111.19
338.422	96.19
338.65	117.19
338.878	78.19
339.106	89.19
339.334	94.19
339.562	97.19
339.79	97.19
340.018	88.19
340.246	100.19
340.474	95.19
340.702	106.19
340.93	102.19
341.158	110.19
341.386	98.19
341.614	108.19
341.842	94.19
342.07	94.19
342.298	107.19
342.526	97.19
342.754	93.19
342.981	99.19
343.209	86.19
343.437	93.19
343.665	81.19
343.893	99.19
344.12	94.19
344.348	91.19
344.576	82.19
344.804	89.19
345.031	89.19
345.259	108.19
345.487	102.19
345.714	101.19
345.942	100.19
346.17	94.19
346.397	102.19
346.625	89.19
346.853	98.19
347.08	101.19
347.308	98.19
347.535	111.19
347.763	107.19
347.99	98.19
348.218	106.19
348.445	99.19
348.673	108.19
348.9	105.19
349.128	97.19
349.355	83.19
349.583	95.19
349.81	92.19
350.037	106.19
350.265	89.19
350.492	88.19
350.72	107.19
350.947	108.19
351.174	110.19
351.402	116.19
351.629	111.19
351.856	120.19
352.083	125.19
352.311	120.19
352.538	123.19
352.765	116.19
352.992	116.19
353.22	119.19
353.447	122.19
353.674	104.19
353.901	88.19
354.128	91.19
354.355	83.19
354.583	115.19
354.81	96.19
355.037	97.19
355.264	91.19
355.491	89.19
355.718	93.19
355.945	101.19
356.172	82.19
356.399	93.19
356.626	84.19
356.853	91.19
357.08	93.19
357.307	97.19
357.534	99.19
357.761	99.19
357.988	93.19
358.215	103.19
358.441	93.19
358.668	92.19
358.895	89.19
359.122	87.19
359.349	102.19
359.576	99.19
359.802	116.19
360.029	147.19
360.256	127.19
360.483	133.19
360.709	90.19
360.936	90.19
361.163	93.19
361.39	87.19
361.616	110.19
361.843	94.19
362.07	102.19
362.296	99.19
362.523	105.19
362.749	89.19
362.976	92.19
363.203	97.19
363.429	93.19
363.656	93.19
363.882	89.19
364.109	102.19
364.335	94.19
364.562	115.19
364.788	99.19
365.015	100.19
365.241	106.19
365.468	118.19
365.694	113.19
365.92	106.19
366.147	100.19
366.373	90.19
366.599	102.19
366.826	94.19
367.052	102.19
367.278	109.19
367.505	89.19
367.731	90.19
367.957	106.19
368.184	106.19
368.41	111.19
368.636	116.19
368.862	130.19
369.089	125.19
369.315	87.19
369.541	102.19
369.767	101.19
369.993	98.19
370.219	94.19
370.445	86.19
370.672	95.19
370.898	84.19
371.124	88.19
371.35	91.19
371.576	86.19
371.802	98.19
372.028	101.19
372.254	96.19
372.48	85.19
372.706	82.19
372.932	102.19
373.158	87.19
373.384	81.19
373.61	89.19
373.835	97.19
374.061	86.19
374.287	102.19
374.513	94.19
374.739	89.19
374.965	91.19
375.191	94.19
375.416	78.19
375.642	98.19
375.868	105.19
376.094	90.19
376.319	90.19
376.545	86.19
376.771	85.19
376.997	91.19
377.222	97.19
377.448	81.19
377.674	94.19
377.899	77.19
378.125	94.19
378.35	97.19
378.576	97.19
378.802	77.19
379.027	86.19
379.253	97.19
379.478	97.19
379.704	87.19
379.929	101.19
380.155	83.19
380.38	95.19
380.606	106.19
380.831	96.19
381.057	97.19
381.282	80.19
381.507	90.19
381.733	88.19
381.958	81.19
382.184	102.19
382.409	97.19
382.634	100.19
382.86	104.19
383.085	100.19
383.31	114.19
383.535	91.19
383.761	96.19
383.986	107.19
384.211	105.19
384.436	88.19
384.662	94.19
384.887	105.19
385.112	110.19
385.337	93.19
385.562	99.19
385.787	103.19
386.013	110.19
386.238	117.19
386.463	122.19
386.688	107.19
386.913	107.19
387.138	100.19
387.363	88.19
387.588	93.19
387.813	105.19
388.038	102.19
388.263	116.19
388.488	102.19
388.713	115.19
388.938	110.19
389.163	92.19
389.387	94.19
389.612	86.19
389.837	93.19
390.062	90.19
390.287	105.19
390.512	84.19
390.736	91.19
390.961	95.19
391.186	94.19
391.411	78.19
391.636	98.19
391.86	98.19
392.085	83.19
392.31	94.19
392.534	84.19
392.759	105.19
392.984	81.19
393.208	88.19
393.433	98.19
393.658	100.19
393.882	77.19
394.107	94.19
394.331	93.19
394.556	93.19
394.78	97.19
395.005	78.19
395.229	83.19
395.454	85.19
395.678	91.19
395.903	100.19
396.127	94.19
396.352	78.19
396.576	102.19
396.801	99.19
397.025	89.19
397.249	91.19
397.474	90.19
397.698	97.19
397.922	90.19
398.147	90.19
398.371	101.19
398.595	94.19
398.82	95.19
399.044	93.19
399.268	83.19
399.492	91.19
399.717	94.19
399.941	102.19
400.165	112.19
400.389	96.19
400.613	83.19
400.837	90.19
401.062	78.19
401.286	87.19
401.51	102.19
401.734	94.19
401.958	111.19
402.182	131.19
402.406	181.19
402.63	131.19
402.854	97.19
403.078	84.19
403.302	77.19
403.526	99.19
403.75	88.19
403.974	88.19
404.198	87.19
404.422	95.19
404.645	101.19
404.869	90.19
405.093	108.19
405.317	104.19
405.541	102.19
405.765	117.19
405.988	121.19
406.212	186.19
406.436	255.19
406.66	194.19
406.883	126.19
407.107	115.19
407.331	91.19
407.555	114.19
407.778	106.19
408.002	87.19
408.226	97.19
408.449	81.19
408.673	81.19
408.896	105.19
409.12	99.19
409.344	73.19
409.567	96.19
409.791	98.19
410.014	91.19
410.238	75.19
410.461	103.19
410.685	100.19
410.908	96.19
411.132	104.19
411.355	108.19
411.578	85.19
411.802	84.19
412.025	80.19
412.249	91.19
412.472	98.19
412.695	90.19
412.919	95.19
413.142	93.19
413.365	83.19
413.589	82.19
413.812	91.19
414.035	88.19
414.258	90.19
414.482	82.19
414.705	93.19
414.928	93.19
415.151	91.19
415.374	98.19
415.597	78.19
415.821	84.19
416.044	90.19
416.267	96.19
416.49	101.19
416.713	72.19
416.936	82.19
417.159	97.19
417.382	96.19
417.605	93.19
417.828	95.19
418.051	87.19
418.274	97.19
418.497	97.19
418.72	94.19
418.943	88.19
419.166	93.19
419.389	97.19
419.611	69.19
419.834	81.19
420.057	89.19
420.28	106.19
420.503	100.19
420.726	77.19
420.948	85.19
421.171	90.19
421.394	93.19
421.617	100.19
421.839	87.19
422.062	99.19
422.285	81.19
422.507	104.19
422.73	109.19
422.953	100.19
423.175	92.19
423.398	106.19
423.621	94.19
423.843	84.19
424.066	78.19
424.288	93.19
424.511	107.19
424.733	119.19
424.956	135.19
425.178	122.19
425.401	108.19
425.623	118.19
425.846	89.19
426.068	98.19
426.291	95.19
426.513	85.19
426.735	71.19
426.958	101.19
427.18	127.19
427.402	173.19
427.625	225.19
427.847	161.19
428.069	113.19
428.292	96.19
428.514	86.19
428.736	92.19
428.958	86.19
429.181	89.19
429.403	91.19
429.625	82.19
429.847	86.19
430.069	132.19
430.292	105.19
430.514	85.19
430.736	88.19
430.958	92.19
431.18	83.19
431.402	84.19
431.624	87.19
431.846	83.19
432.068	79.19
432.29	92.19
432.512	79.19
432.734	94.19
432.956	100.19
433.178	101.19
433.4	98.19
433.622	110.19
433.844	94.19
434.066	99.19
434.287	92.19
434.509	87.19
434.731	84.19
434.953	78.19
435.175	95.19
435.397	91.19
435.618	89.19
435.84	110.19
436.062	164.19
436.284	141.19
436.505	109.19
436.727	104.19
436.949	92.19
437.17	81.19
437.392	99.19
437.614	101.19
437.835	113.19
438.057	163.19
438.278	141.19
438.5	128.19
438.721	163.19
438.943	122.19
439.165	89.19
439.386	103.19
439.608	104.19
439.829	106.19
440.05	158.19
440.272	200.19
440.493	123.19
440.715	89.19
440.936	73.19
441.158	99.19
441.379	102.19
441.6	104.19
441.822	109.19
442.043	110.19
442.264	123.19
442.486	120.19
442.707	95.19
442.928	112.19
443.149	187.19
443.371	158.19
443.592	124.19
443.813	134.19
444.034	115.19
444.255	89.19
444.476	87.19
444.698	89.19
444.919	71.19
445.14	135.19
445.361	139.19
445.582	130.19
445.803	191.19
446.024	202.19
446.245	182.19
446.466	127.19
446.687	87.19
446.908	86.19
447.129	88.19
447.35	98.19
447.571	105.19
447.792	89.19
448.013	114.19
448.234	124.19
448.455	114.19
448.675	133.19
448.896	148.19
449.117	106.19
449.338	113.19
449.559	153.19
449.779	175.19
450	103.19
450.221	95.19
450.442	71.19
450.662	97.19
450.883	115.19
451.104	124.19
451.324	102.19
451.545	92.19
451.766	83.19
451.986	97.19
452.207	93.19
452.428	96.19
452.648	108.19
452.869	105.19
453.089	126.19
453.31	133.19
453.53	94.19
453.751	94.19
453.971	111.19
454.192	139.19
454.412	103.19
454.633	92.19
454.853	87.19
455.073	94.19
455.294	97.19
455.514	129.19
455.734	100.19
455.955	90.19
456.175	79.19
456.395	78.19
456.616	90.19
456.836	92.19
457.056	92.19
457.276	87.19
457.497	93.19
457.717	77.19
457.937	103.19
458.157	101.19
458.377	85.19
458.598	140.19
458.818	181.19
459.038	209.19
459.258	154.19
459.478	96.19
459.698	107.19
459.918	94.19
460.138	78.19
460.358	73.19
460.578	92.19
460.798	97.19
461.018	85.19
461.238	86.19
461.458	90.19
461.678	89.19
461.898	87.19
462.118	81.19
462.338	92.19
462.558	76.19
462.777	93.19
462.997	90.19
463.217	87.19
463.437	83.19
463.657	95.19
463.876	94.19
464.096	91.19
464.316	82.19
464.536	96.19
464.755	104.19
464.975	136.19
465.195	229.19
465.414	214.19
465.634	105.19
465.854	94.19
466.073	92.19
466.293	101.19
466.512	98.19
466.732	86.19
466.951	90.19
467.171	105.19
467.391	101.19
467.61	108.19
467.829	111.19
468.049	103.19
468.268	110.19
468.488	94.19
468.707	86.19
468.927	88.19
469.146	93.19
469.365	102.19
469.585	98.19
469.804	95.19
470.023	105.19
470.243	99.19
470.462	106.19
470.681	130.19
470.901	89.19
471.12	98.19
471.339	86.19
471.558	98.19
471.777	72.19
471.997	93.19
472.216	123.19
472.435	167.19
472.654	83.19
472.873	97.19
473.092	92.19
473.311	75.19
473.53	89.19
473.749	81.19
473.968	96.19
474.187	134.19
474.406	94.19
474.625	88.19
474.844	87.19
475.063	90.19
475.282	85.19
475.501	90.19
475.72	87.19
475.939	89.19
476.158	89.19
476.377	98.19
476.596	99.19
476.814	103.19
477.033	95.19
477.252	91.19
477.471	83.19
477.69	80.19
477.908	93.19
478.127	105.19
478.346	88.19
478.564	86.19
478.783	99.19
479.002	107.19
479.22	92.19
479.439	109.19
479.658	105.19
479.876	82.19
480.095	97.19
480.313	109.19
480.532	93.19
480.751	106.19
480.969	124.19
481.188	239.19
481.406	178.19
481.624	97.19
481.843	97.19
482.061	101.19
482.28	78.19
482.498	95.19
482.717	86.19
482.935	87.19
483.153	86.19
483.372	97.19
483.59	89.19
483.808	89.19
484.027	96.19
484.245	78.19
484.463	93.19
484.681	110.19
484.9	104.19
485.118	85.19
485.336	91.19
485.554	97.19
485.772	101.19
485.99	103.19
486.209	104.19
486.427	97.19
486.645	116.19
486.863	123.19
487.081	106.19
487.299	102.19
487.517	97.19
487.735	105.19
487.953	90.19
488.171	96.19
488.389	103.19
488.607	105.19
488.825	86.19
489.043	95.19
489.261	94.19
489.479	77.19
489.696	90.19
489.914	96.19
490.132	101.19
490.35	107.19
490.568	94.19
490.786	84.19
491.003	92.19
491.221	94.19
491.439	86.19
491.657	80.19
491.874	97.19
492.092	102.19
492.31	95.19
492.527	97.19
492.745	97.19
492.963	99.19
493.18	88.19
493.398	100.19
493.615	97.19
493.833	105.19
494.05	91.19
494.268	87.19
494.485	100.19
494.703	87.19
494.92	85.19
495.138	92.19
495.355	79.19
495.573	80.19
495.79	88.19
496.008	91.19
496.225	88.19
496.442	86.19
496.66	74.19
496.877	100.19
497.094	98.19
497.312	97.19
497.529	88.19
497.746	95.19
497.963	99.19
498.181	103.19
498.398	101.19
498.615	111.19
498.832	102.19
499.049	83.19
499.267	91.19
499.484	93.19
499.701	87.19
499.918	89.19
500.135	93.19
500.352	88.19
500.569	92.19
500.786	90.19
501.003	85.19
501.22	72.19
501.437	92.19
501.654	109.19
501.871	117.19
502.088	107.19
502.305	86.19
502.522	83.19
502.739	94.19
502.956	97.19
503.172	93.19
503.389	93.19
503.606	107.19
503.823	106.19
504.04	86.19
504.256	96.19
504.473	83.19
504.69	106.19
504.907	104.19
505.123	89.19
505.34	93.19
505.557	104.19
505.773	90.19
505.99	73.19
506.207	88.19
506.423	102.19
506.64	93.19
506.856	98.19
507.073	79.19
507.289	98.19
507.506	103.19
507.722	121.19
507.939	126.19
508.155	107.19
508.372	99.19
508.588	79.19
508.805	93.19
509.021	97.19
509.238	90.19
509.454	97.19
509.67	99.19
509.887	114.19
510.103	134.19
510.319	217.19
510.536	781.19
510.752	2661.19
510.968	714.19
511.184	168.19
511.401	106.19
511.617	105.19
511.833	98.19
512.049	89.19
512.265	98.19
512.481	97.19
512.698	111.19
512.914	96.19
513.13	99.19
513.346	104.19
513.562	113.19
513.778	95.19
513.994	84.19
