Data from Circ_1981_H10_HRD10591_00005.txt Node
Date: Wed Jan 03 12:34:22 EST 2024
User: Yrep
Spectrometer: HR+D1059
Trigger mode: 1
Integration Time (sec): 1.000000E-1
Scans to average: 1
Electric dark correction enabled: true
Nonlinearity correction enabled: false
Boxcar width: 0
XAxis mode: Wavelengths
Number of Pixels in Spectrum: 2048
>>>>>Begin Spectral Data<<<<<
223.165	-29.81
223.4	-29.81
223.635	-29.81
223.869	-19.81
224.104	-21.81
224.338	-18.81
224.573	-15.81
224.808	-10.81
225.042	-4.81
225.277	-3.81
225.511	-11.81
225.746	9.19
225.98	-0.81
226.215	19.19
226.449	26.19
226.683	21.19
226.918	17.19
227.152	45.19
227.387	33.19
227.621	37.19
227.856	28.19
228.09	45.19
228.324	48.19
228.559	61.19
228.793	54.19
229.027	57.19
229.262	65.19
229.496	70.19
229.73	81.19
229.964	100.19
230.199	73.19
230.433	68.19
230.667	83.19
230.901	85.19
231.136	73.19
231.37	81.19
231.604	87.19
231.838	82.19
232.072	65.19
232.306	63.19
232.541	67.19
232.775	80.19
233.009	68.19
233.243	65.19
233.477	82.19
233.711	76.19
233.945	73.19
234.179	84.19
234.413	85.19
234.647	67.19
234.881	82.19
235.115	86.19
235.349	72.19
235.583	72.19
235.817	65.19
236.051	79.19
236.285	65.19
236.519	77.19
236.753	73.19
236.987	87.19
237.221	81.19
237.455	89.19
237.689	73.19
237.922	70.19
238.156	82.19
238.39	89.19
238.624	79.19
238.858	88.19
239.091	73.19
239.325	58.19
239.559	69.19
239.793	91.19
240.027	77.19
240.26	66.19
240.494	65.19
240.728	71.19
240.961	77.19
241.195	55.19
241.429	77.19
241.662	70.19
241.896	72.19
242.13	67.19
242.363	83.19
242.597	60.19
242.83	85.19
243.064	65.19
243.298	73.19
243.531	71.19
243.765	71.19
243.998	70.19
244.232	68.19
244.465	61.19
244.699	67.19
244.932	64.19
245.166	82.19
245.399	87.19
245.633	77.19
245.866	81.19
246.099	67.19
246.333	68.19
246.566	77.19
246.8	79.19
247.033	77.19
247.266	76.19
247.5	85.19
247.733	71.19
247.966	67.19
248.2	72.19
248.433	90.19
248.666	70.19
248.899	81.19
249.133	86.19
249.366	83.19
249.599	109.19
249.832	84.19
250.066	67.19
250.299	68.19
250.532	83.19
250.765	85.19
250.998	80.19
251.231	76.19
251.465	74.19
251.698	72.19
251.931	59.19
252.164	72.19
252.397	68.19
252.63	83.19
252.863	65.19
253.096	76.19
253.329	74.19
253.562	78.19
253.795	86.19
254.028	83.19
254.261	74.19
254.494	81.19
254.727	83.19
254.96	70.19
255.193	59.19
255.426	74.19
255.659	88.19
255.892	79.19
256.124	70.19
256.357	80.19
256.59	83.19
256.823	71.19
257.056	79.19
257.289	75.19
257.521	85.19
257.754	82.19
257.987	84.19
258.22	85.19
258.452	85.19
258.685	89.19
258.918	71.19
259.151	71.19
259.383	73.19
259.616	72.19
259.849	74.19
260.081	94.19
260.314	71.19
260.547	75.19
260.779	83.19
261.012	76.19
261.244	80.19
261.477	104.19
261.71	95.19
261.942	112.19
262.175	130.19
262.407	92.19
262.64	77.19
262.872	77.19
263.105	81.19
263.337	87.19
263.57	83.19
263.802	87.19
264.035	84.19
264.267	68.19
264.499	83.19
264.732	83.19
264.964	76.19
265.197	83.19
265.429	83.19
265.661	91.19
265.894	94.19
266.126	91.19
266.358	83.19
266.591	95.19
266.823	86.19
267.055	79.19
267.287	79.19
267.52	66.19
267.752	74.19
267.984	79.19
268.216	79.19
268.448	86.19
268.681	79.19
268.913	79.19
269.145	70.19
269.377	83.19
269.609	88.19
269.841	84.19
270.073	70.19
270.306	87.19
270.538	93.19
270.77	77.19
271.002	90.19
271.234	69.19
271.466	87.19
271.698	87.19
271.93	74.19
272.162	85.19
272.394	89.19
272.626	87.19
272.858	81.19
273.09	88.19
273.322	76.19
273.553	89.19
273.785	91.19
274.017	69.19
274.249	98.19
274.481	77.19
274.713	85.19
274.945	83.19
275.176	88.19
275.408	84.19
275.64	78.19
275.872	91.19
276.104	79.19
276.335	99.19
276.567	92.19
276.799	104.19
277.031	115.19
277.262	107.19
277.494	88.19
277.726	87.19
277.957	82.19
278.189	81.19
278.421	77.19
278.652	99.19
278.884	75.19
279.115	92.19
279.347	81.19
279.579	88.19
279.81	80.19
280.042	80.19
280.273	75.19
280.505	87.19
280.736	92.19
280.968	89.19
281.199	85.19
281.431	85.19
281.662	82.19
281.894	92.19
282.125	105.19
282.356	117.19
282.588	157.19
282.819	121.19
283.051	78.19
283.282	71.19
283.513	97.19
283.745	83.19
283.976	72.19
284.207	79.19
284.439	72.19
284.67	75.19
284.901	85.19
285.132	91.19
285.364	79.19
285.595	85.19
285.826	80.19
286.057	88.19
286.288	81.19
286.52	98.19
286.751	85.19
286.982	88.19
287.213	90.19
287.444	93.19
287.675	87.19
287.906	95.19
288.138	84.19
288.369	85.19
288.6	95.19
288.831	93.19
289.062	80.19
289.293	86.19
289.524	89.19
289.755	84.19
289.986	75.19
290.217	75.19
290.448	91.19
290.679	85.19
290.91	60.19
291.141	64.19
291.371	87.19
291.602	93.19
291.833	83.19
292.064	79.19
292.295	76.19
292.526	87.19
292.757	95.19
292.987	83.19
293.218	93.19
293.449	75.19
293.68	80.19
293.91	88.19
294.141	99.19
294.372	92.19
294.603	90.19
294.833	88.19
295.064	82.19
295.295	90.19
295.525	95.19
295.756	98.19
295.987	112.19
296.217	145.19
296.448	127.19
296.679	88.19
296.909	86.19
297.14	87.19
297.37	87.19
297.601	77.19
297.831	91.19
298.062	93.19
298.292	90.19
298.523	91.19
298.753	101.19
298.984	81.19
299.214	92.19
299.445	94.19
299.675	97.19
299.905	88.19
300.136	80.19
300.366	89.19
300.597	92.19
300.827	91.19
301.057	83.19
301.288	97.19
301.518	96.19
301.748	98.19
301.979	101.19
302.209	97.19
302.439	105.19
302.669	88.19
302.9	87.19
303.13	97.19
303.36	93.19
303.59	122.19
303.82	100.19
304.051	110.19
304.281	87.19
304.511	95.19
304.741	79.19
304.971	85.19
305.201	85.19
305.431	87.19
305.661	84.19
305.891	86.19
306.121	83.19
306.352	92.19
306.582	120.19
306.812	97.19
307.042	86.19
307.272	86.19
307.502	97.19
307.731	107.19
307.961	89.19
308.191	91.19
308.421	88.19
308.651	97.19
308.881	87.19
309.111	89.19
309.341	94.19
309.571	94.19
309.8	91.19
310.03	101.19
310.26	88.19
310.49	91.19
310.72	105.19
310.949	110.19
311.179	105.19
311.409	100.19
311.639	84.19
311.868	97.19
312.098	87.19
312.328	90.19
312.557	109.19
312.787	100.19
313.017	99.19
313.246	97.19
313.476	90.19
313.706	93.19
313.935	82.19
314.165	108.19
314.394	108.19
314.624	99.19
314.853	100.19
315.083	91.19
315.312	104.19
315.542	107.19
315.771	88.19
316.001	68.19
316.23	69.19
316.46	90.19
316.689	81.19
316.919	92.19
317.148	107.19
317.377	97.19
317.607	93.19
317.836	102.19
318.065	91.19
318.295	101.19
318.524	87.19
318.753	99.19
318.983	83.19
319.212	100.19
319.441	111.19
319.67	104.19
319.9	82.19
320.129	81.19
320.358	100.19
320.587	99.19
320.816	99.19
321.046	93.19
321.275	107.19
321.504	89.19
321.733	109.19
321.962	100.19
322.191	90.19
322.42	108.19
322.649	131.19
322.878	127.19
323.108	104.19
323.337	145.19
323.566	137.19
323.795	180.19
324.024	223.19
324.253	456.19
324.482	982.19
324.71	2118.19
324.939	2863.19
325.168	1033.19
325.397	289.19
325.626	157.19
325.855	148.19
326.084	124.19
326.313	132.19
326.542	148.19
326.77	250.19
326.999	506.19
327.228	1072.19
327.457	2115.19
327.686	1711.19
327.914	434.19
328.143	237.19
328.372	163.19
328.6	155.19
328.829	138.19
329.058	150.19
329.287	153.19
329.515	109.19
329.744	104.19
329.972	100.19
330.201	116.19
330.43	177.19
330.658	144.19
330.887	175.19
331.115	159.19
331.344	80.19
331.572	100.19
331.801	114.19
332.03	113.19
332.258	105.19
332.486	90.19
332.715	87.19
332.943	91.19
333.172	103.19
333.4	104.19
333.629	113.19
333.857	122.19
334.085	103.19
334.314	127.19
334.542	147.19
334.771	139.19
334.999	111.19
335.227	103.19
335.455	79.19
335.684	106.19
335.912	91.19
336.14	102.19
336.369	100.19
336.597	96.19
336.825	107.19
337.053	99.19
337.281	85.19
337.51	82.19
337.738	101.19
337.966	103.19
338.194	99.19
338.422	84.19
338.65	93.19
338.878	91.19
339.106	91.19
339.334	89.19
339.562	81.19
339.79	100.19
340.018	107.19
340.246	97.19
340.474	95.19
340.702	102.19
340.93	92.19
341.158	78.19
341.386	92.19
341.614	101.19
341.842	104.19
342.07	81.19
342.298	80.19
342.526	91.19
342.754	87.19
342.981	93.19
343.209	96.19
343.437	91.19
343.665	83.19
343.893	88.19
344.12	89.19
344.348	79.19
344.576	82.19
344.804	88.19
345.031	106.19
345.259	96.19
345.487	99.19
345.714	88.19
345.942	83.19
346.17	90.19
346.397	89.19
346.625	74.19
346.853	93.19
347.08	94.19
347.308	85.19
347.535	95.19
347.763	87.19
347.99	101.19
348.218	110.19
348.445	116.19
348.673	103.19
348.9	100.19
349.128	102.19
349.355	83.19
349.583	99.19
349.81	96.19
350.037	87.19
350.265	101.19
350.492	92.19
350.72	105.19
350.947	104.19
351.174	109.19
351.402	101.19
351.629	97.19
351.856	103.19
352.083	98.19
352.311	113.19
352.538	101.19
352.765	113.19
352.992	112.19
353.22	105.19
353.447	103.19
353.674	97.19
353.901	99.19
354.128	108.19
354.355	101.19
354.583	93.19
354.81	85.19
355.037	111.19
355.264	99.19
355.491	98.19
355.718	90.19
355.945	83.19
356.172	96.19
356.399	104.19
356.626	84.19
356.853	87.19
357.08	81.19
357.307	95.19
357.534	82.19
357.761	100.19
357.988	93.19
358.215	108.19
358.441	101.19
358.668	100.19
358.895	84.19
359.122	97.19
359.349	93.19
359.576	90.19
359.802	108.19
360.029	133.19
360.256	123.19
360.483	116.19
360.709	69.19
360.936	87.19
361.163	84.19
361.39	102.19
361.616	97.19
361.843	94.19
362.07	107.19
362.296	100.19
362.523	85.19
362.749	103.19
362.976	96.19
363.203	93.19
363.429	86.19
363.656	89.19
363.882	99.19
364.109	102.19
364.335	91.19
364.562	99.19
364.788	92.19
365.015	101.19
365.241	106.19
365.468	116.19
365.694	114.19
365.92	100.19
366.147	91.19
366.373	90.19
366.599	79.19
366.826	85.19
367.052	90.19
367.278	91.19
367.505	90.19
367.731	103.19
367.957	91.19
368.184	94.19
368.41	115.19
368.636	100.19
368.862	132.19
369.089	123.19
369.315	88.19
369.541	95.19
369.767	99.19
369.993	102.19
370.219	89.19
370.445	80.19
370.672	74.19
370.898	93.19
371.124	98.19
371.35	87.19
371.576	95.19
371.802	80.19
372.028	83.19
372.254	91.19
372.48	100.19
372.706	91.19
372.932	92.19
373.158	88.19
373.384	99.19
373.61	91.19
373.835	97.19
374.061	91.19
374.287	102.19
374.513	86.19
374.739	95.19
374.965	91.19
375.191	92.19
375.416	98.19
375.642	92.19
375.868	95.19
376.094	86.19
376.319	91.19
376.545	86.19
376.771	88.19
376.997	92.19
377.222	90.19
377.448	83.19
377.674	97.19
377.899	93.19
378.125	93.19
378.35	91.19
378.576	76.19
378.802	80.19
379.027	91.19
379.253	105.19
379.478	97.19
379.704	99.19
379.929	93.19
380.155	87.19
380.38	101.19
380.606	108.19
380.831	95.19
381.057	116.19
381.282	104.19
381.507	102.19
381.733	106.19
381.958	96.19
382.184	87.19
382.409	106.19
382.634	102.19
382.86	92.19
383.085	102.19
383.31	113.19
383.535	104.19
383.761	90.19
383.986	95.19
384.211	99.19
384.436	87.19
384.662	101.19
384.887	105.19
385.112	110.19
385.337	101.19
385.562	108.19
385.787	124.19
386.013	98.19
386.238	129.19
386.463	121.19
386.688	117.19
386.913	118.19
387.138	110.19
387.363	106.19
387.588	95.19
387.813	107.19
388.038	113.19
388.263	112.19
388.488	119.19
388.713	104.19
388.938	97.19
389.163	103.19
389.387	89.19
389.612	90.19
389.837	80.19
390.062	93.19
390.287	92.19
390.512	83.19
390.736	74.19
390.961	83.19
391.186	83.19
391.411	91.19
391.636	108.19
391.86	101.19
392.085	100.19
392.31	73.19
392.534	97.19
392.759	83.19
392.984	96.19
393.208	99.19
393.433	137.19
393.658	123.19
393.882	88.19
394.107	93.19
394.331	71.19
394.556	95.19
394.78	79.19
395.005	104.19
395.229	85.19
395.454	96.19
395.678	77.19
395.903	88.19
396.127	85.19
396.352	96.19
396.576	95.19
396.801	101.19
397.025	114.19
397.249	91.19
397.474	82.19
397.698	100.19
397.922	99.19
398.147	90.19
398.371	84.19
398.595	84.19
398.82	72.19
399.044	90.19
399.268	92.19
399.492	94.19
399.717	89.19
399.941	90.19
400.165	89.19
400.389	93.19
400.613	98.19
400.837	94.19
401.062	89.19
401.286	87.19
401.51	89.19
401.734	96.19
401.958	100.19
402.182	125.19
402.406	162.19
402.63	124.19
402.854	89.19
403.078	92.19
403.302	93.19
403.526	99.19
403.75	92.19
403.974	77.19
404.198	91.19
404.422	86.19
404.645	97.19
404.869	103.19
405.093	97.19
405.317	108.19
405.541	118.19
405.765	125.19
405.988	123.19
406.212	185.19
406.436	256.19
406.66	176.19
406.883	119.19
407.107	95.19
407.331	98.19
407.555	109.19
407.778	91.19
408.002	80.19
408.226	89.19
408.449	89.19
408.673	85.19
408.896	85.19
409.12	105.19
409.344	93.19
409.567	93.19
409.791	92.19
410.014	85.19
410.238	93.19
410.461	88.19
410.685	97.19
410.908	90.19
411.132	106.19
411.355	106.19
411.578	84.19
411.802	102.19
412.025	93.19
412.249	101.19
412.472	96.19
412.695	92.19
412.919	87.19
413.142	105.19
413.365	82.19
413.589	97.19
413.812	88.19
414.035	81.19
414.258	72.19
414.482	85.19
414.705	91.19
414.928	94.19
415.151	80.19
415.374	89.19
415.597	84.19
415.821	88.19
416.044	73.19
416.267	85.19
416.49	103.19
416.713	95.19
416.936	97.19
417.159	100.19
417.382	86.19
417.605	91.19
417.828	99.19
418.051	91.19
418.274	102.19
418.497	90.19
418.72	99.19
418.943	98.19
419.166	79.19
419.389	100.19
419.611	74.19
419.834	83.19
420.057	103.19
420.28	76.19
420.503	78.19
420.726	95.19
420.948	92.19
421.171	90.19
421.394	89.19
421.617	83.19
421.839	107.19
422.062	82.19
422.285	88.19
422.507	102.19
422.73	100.19
422.953	106.19
423.175	81.19
423.398	76.19
423.621	85.19
423.843	96.19
424.066	98.19
424.288	83.19
424.511	77.19
424.733	91.19
424.956	129.19
425.178	93.19
425.401	99.19
425.623	113.19
425.846	98.19
426.068	104.19
426.291	97.19
426.513	90.19
426.735	79.19
426.958	91.19
427.18	122.19
427.402	162.19
427.625	195.19
427.847	148.19
428.069	133.19
428.292	82.19
428.514	87.19
428.736	93.19
428.958	75.19
429.181	104.19
429.403	75.19
429.625	82.19
429.847	100.19
430.069	103.19
430.292	103.19
430.514	71.19
430.736	77.19
430.958	77.19
431.18	82.19
431.402	87.19
431.624	85.19
431.846	96.19
432.068	85.19
432.29	86.19
432.512	89.19
432.734	80.19
432.956	94.19
433.178	97.19
433.4	111.19
433.622	79.19
433.844	93.19
434.066	96.19
434.287	87.19
434.509	104.19
434.731	81.19
434.953	98.19
435.175	91.19
435.397	93.19
435.618	89.19
435.84	99.19
436.062	138.19
436.284	119.19
436.505	98.19
436.727	106.19
436.949	92.19
437.17	94.19
437.392	88.19
437.614	93.19
437.835	120.19
438.057	138.19
438.278	112.19
438.5	115.19
438.721	148.19
438.943	97.19
439.165	93.19
439.386	82.19
439.608	81.19
439.829	100.19
440.05	139.19
440.272	169.19
440.493	97.19
440.715	91.19
440.936	90.19
441.158	97.19
441.379	90.19
441.6	87.19
441.822	88.19
442.043	103.19
442.264	106.19
442.486	100.19
442.707	109.19
442.928	109.19
443.149	156.19
443.371	163.19
443.592	127.19
443.813	110.19
444.034	120.19
444.255	100.19
444.476	89.19
444.698	97.19
444.919	89.19
445.14	131.19
445.361	144.19
445.582	134.19
445.803	159.19
446.024	153.19
446.245	165.19
446.466	115.19
446.687	89.19
446.908	92.19
447.129	85.19
447.35	98.19
447.571	92.19
447.792	76.19
448.013	99.19
448.234	109.19
448.455	92.19
448.675	122.19
448.896	124.19
449.117	95.19
449.338	105.19
449.559	147.19
449.779	150.19
450	99.19
450.221	91.19
450.442	99.19
450.662	103.19
450.883	121.19
451.104	129.19
451.324	96.19
451.545	84.19
451.766	93.19
451.986	84.19
452.207	88.19
452.428	87.19
452.648	104.19
452.869	116.19
453.089	114.19
453.31	144.19
453.53	93.19
453.751	93.19
453.971	120.19
454.192	115.19
454.412	107.19
454.633	93.19
454.853	81.19
455.073	80.19
455.294	83.19
455.514	111.19
455.734	96.19
455.955	95.19
456.175	85.19
456.395	87.19
456.616	84.19
456.836	83.19
457.056	87.19
457.276	81.19
457.497	88.19
457.717	70.19
457.937	92.19
458.157	83.19
458.377	83.19
458.598	113.19
458.818	163.19
459.038	191.19
459.258	138.19
459.478	91.19
459.698	75.19
459.918	75.19
460.138	82.19
460.358	86.19
460.578	72.19
460.798	87.19
461.018	95.19
461.238	74.19
461.458	83.19
461.678	89.19
461.898	88.19
462.118	88.19
462.338	99.19
462.558	85.19
462.777	84.19
462.997	84.19
463.217	86.19
463.437	76.19
463.657	96.19
463.876	89.19
464.096	95.19
464.316	95.19
464.536	98.19
464.755	95.19
464.975	115.19
465.195	204.19
465.414	210.19
465.634	92.19
465.854	91.19
466.073	90.19
466.293	83.19
466.512	83.19
466.732	99.19
466.951	82.19
467.171	95.19
467.391	100.19
467.61	101.19
467.829	108.19
468.049	110.19
468.268	106.19
468.488	84.19
468.707	91.19
468.927	87.19
469.146	81.19
469.365	75.19
469.585	89.19
469.804	106.19
470.023	112.19
470.243	87.19
470.462	104.19
470.681	133.19
470.901	91.19
471.12	94.19
471.339	89.19
471.558	73.19
471.777	90.19
471.997	96.19
472.216	116.19
472.435	148.19
472.654	98.19
472.873	85.19
473.092	92.19
473.311	86.19
473.53	72.19
473.749	90.19
473.968	97.19
474.187	103.19
474.406	103.19
474.625	97.19
474.844	99.19
475.063	80.19
475.282	90.19
475.501	76.19
475.72	90.19
475.939	86.19
476.158	88.19
476.377	88.19
476.596	89.19
476.814	104.19
477.033	80.19
477.252	102.19
477.471	89.19
477.69	72.19
477.908	88.19
478.127	85.19
478.346	82.19
478.564	84.19
478.783	103.19
479.002	100.19
479.22	104.19
479.439	102.19
479.658	104.19
479.876	106.19
480.095	96.19
480.313	95.19
480.532	97.19
480.751	95.19
480.969	123.19
481.188	255.19
481.406	186.19
481.624	107.19
481.843	96.19
482.061	89.19
482.28	86.19
482.498	96.19
482.717	75.19
482.935	76.19
483.153	75.19
483.372	100.19
483.59	85.19
483.808	103.19
484.027	104.19
484.245	90.19
484.463	89.19
484.681	91.19
484.9	91.19
485.118	94.19
485.336	93.19
485.554	96.19
485.772	109.19
485.99	98.19
486.209	95.19
486.427	105.19
486.645	128.19
486.863	110.19
487.081	86.19
487.299	103.19
487.517	96.19
487.735	107.19
487.953	88.19
488.171	92.19
488.389	98.19
488.607	102.19
488.825	103.19
489.043	93.19
489.261	85.19
489.479	84.19
489.696	74.19
489.914	100.19
490.132	76.19
490.35	77.19
490.568	92.19
490.786	95.19
491.003	83.19
491.221	82.19
491.439	91.19
491.657	96.19
491.874	95.19
492.092	91.19
492.31	88.19
492.527	96.19
492.745	88.19
492.963	83.19
493.18	87.19
493.398	100.19
493.615	101.19
493.833	93.19
494.05	91.19
494.268	84.19
494.485	92.19
494.703	90.19
494.92	89.19
495.138	97.19
495.355	93.19
495.573	95.19
495.79	94.19
496.008	91.19
496.225	72.19
496.442	98.19
496.66	107.19
496.877	99.19
497.094	90.19
497.312	81.19
497.529	88.19
497.746	90.19
497.963	80.19
498.181	98.19
498.398	98.19
498.615	114.19
498.832	103.19
499.049	89.19
499.267	105.19
499.484	86.19
499.701	106.19
499.918	89.19
500.135	96.19
500.352	91.19
500.569	91.19
500.786	81.19
501.003	80.19
501.22	101.19
501.437	87.19
501.654	96.19
501.871	118.19
502.088	92.19
502.305	90.19
502.522	97.19
502.739	83.19
502.956	86.19
503.172	89.19
503.389	84.19
503.606	101.19
503.823	93.19
504.04	89.19
504.256	86.19
504.473	83.19
504.69	85.19
504.907	100.19
505.123	95.19
505.34	77.19
505.557	86.19
505.773	84.19
505.99	98.19
506.207	88.19
506.423	92.19
506.64	103.19
506.856	83.19
507.073	92.19
507.289	91.19
507.506	115.19
507.722	126.19
507.939	127.19
508.155	101.19
508.372	96.19
508.588	93.19
508.805	92.19
509.021	103.19
509.238	98.19
509.454	99.19
509.67	91.19
509.887	120.19
510.103	129.19
510.319	226.19
510.536	779.19
510.752	2573.19
510.968	697.19
511.184	159.19
511.401	117.19
511.617	110.19
511.833	85.19
512.049	92.19
512.265	97.19
512.481	101.19
512.698	97.19
512.914	83.19
513.13	91.19
513.346	90.19
513.562	104.19
513.778	83.19
513.994	87.19
514.21	108.19
514.426	122.19
514.642	146.19
514.858	148.19
