Data from Circ_1981_H10_HRD10591_00045.txt Node
Date: Wed Jan 03 12:34:30 EST 2024
User: Yrep
Spectrometer: HR+D1059
Trigger mode: 1
Integration Time (sec): 1.000000E-1
Scans to average: 1
Electric dark correction enabled: true
Nonlinearity correction enabled: false
Boxcar width: 0
XAxis mode: Wavelengths
Number of Pixels in Spectrum: 2048
>>>>>Begin Spectral Data<<<<<
223.165	0.06
223.4	0.06
223.635	0.06
223.869	-19.94
224.104	-18.94
224.338	-12.94
224.573	-6.94
224.808	-6.94
225.042	-15.94
225.277	-16.94
225.511	-3.94
225.746	4.06
225.98	-3.94
226.215	5.06
226.449	9.06
226.683	28.06
226.918	20.06
227.152	40.06
227.387	38.06
227.621	59.06
227.856	43.06
228.09	44.06
228.324	40.06
228.559	54.06
228.793	66.06
229.027	63.06
229.262	68.06
229.496	74.06
229.73	98.06
229.964	98.06
230.199	87.06
230.433	75.06
230.667	70.06
230.901	76.06
231.136	76.06
231.37	93.06
231.604	92.06
231.838	77.06
232.072	72.06
232.306	86.06
232.541	77.06
232.775	91.06
233.009	70.06
233.243	88.06
233.477	72.06
233.711	80.06
233.945	95.06
234.179	98.06
234.413	81.06
234.647	69.06
234.881	82.06
235.115	86.06
235.349	81.06
235.583	77.06
235.817	84.06
236.051	70.06
236.285	75.06
236.519	86.06
236.753	82.06
236.987	73.06
237.221	88.06
237.455	111.06
237.689	78.06
237.922	80.06
238.156	76.06
238.39	69.06
238.624	85.06
238.858	84.06
239.091	95.06
239.325	71.06
239.559	93.06
239.793	82.06
240.027	86.06
240.26	91.06
240.494	93.06
240.728	95.06
240.961	82.06
241.195	82.06
241.429	86.06
241.662	88.06
241.896	71.06
242.13	79.06
242.363	74.06
242.597	80.06
242.83	82.06
243.064	72.06
243.298	74.06
243.531	75.06
243.765	93.06
243.998	88.06
244.232	94.06
244.465	90.06
244.699	95.06
244.932	95.06
245.166	75.06
245.399	88.06
245.633	79.06
245.866	88.06
246.099	77.06
246.333	71.06
246.566	81.06
246.8	95.06
247.033	80.06
247.266	88.06
247.5	84.06
247.733	83.06
247.966	86.06
248.2	94.06
248.433	67.06
248.666	80.06
248.899	94.06
249.133	76.06
249.366	111.06
249.599	94.06
249.832	99.06
250.066	96.06
250.299	87.06
250.532	85.06
250.765	73.06
250.998	80.06
251.231	83.06
251.465	92.06
251.698	79.06
251.931	86.06
252.164	83.06
252.397	86.06
252.63	92.06
252.863	86.06
253.096	90.06
253.329	81.06
253.562	82.06
253.795	77.06
254.028	86.06
254.261	80.06
254.494	83.06
254.727	87.06
254.96	69.06
255.193	79.06
255.426	78.06
255.659	70.06
255.892	83.06
256.124	84.06
256.357	84.06
256.59	86.06
256.823	78.06
257.056	85.06
257.289	84.06
257.521	74.06
257.754	83.06
257.987	78.06
258.22	84.06
258.452	80.06
258.685	96.06
258.918	83.06
259.151	80.06
259.383	79.06
259.616	67.06
259.849	76.06
260.081	78.06
260.314	81.06
260.547	86.06
260.779	80.06
261.012	84.06
261.244	88.06
261.477	101.06
261.71	89.06
261.942	136.06
262.175	148.06
262.407	93.06
262.64	72.06
262.872	85.06
263.105	90.06
263.337	88.06
263.57	88.06
263.802	88.06
264.035	86.06
264.267	102.06
264.499	92.06
264.732	80.06
264.964	80.06
265.197	83.06
265.429	88.06
265.661	87.06
265.894	82.06
266.126	82.06
266.358	87.06
266.591	86.06
266.823	76.06
267.055	94.06
267.287	88.06
267.52	86.06
267.752	93.06
267.984	74.06
268.216	93.06
268.448	108.06
268.681	94.06
268.913	83.06
269.145	82.06
269.377	95.06
269.609	94.06
269.841	91.06
270.073	90.06
270.306	74.06
270.538	86.06
270.77	98.06
271.002	80.06
271.234	92.06
271.466	99.06
271.698	88.06
271.93	71.06
272.162	90.06
272.394	103.06
272.626	101.06
272.858	88.06
273.09	78.06
273.322	81.06
273.553	86.06
273.785	94.06
274.017	88.06
274.249	88.06
274.481	85.06
274.713	92.06
274.945	99.06
275.176	102.06
275.408	90.06
275.64	91.06
275.872	75.06
276.104	102.06
276.335	102.06
276.567	110.06
276.799	144.06
277.031	118.06
277.262	97.06
277.494	97.06
277.726	96.06
277.957	93.06
278.189	93.06
278.421	86.06
278.652	87.06
278.884	82.06
279.115	87.06
279.347	77.06
279.579	100.06
279.81	98.06
280.042	84.06
280.273	88.06
280.505	98.06
280.736	95.06
280.968	80.06
281.199	98.06
281.431	88.06
281.662	101.06
281.894	91.06
282.125	97.06
282.356	138.06
282.588	176.06
282.819	135.06
283.051	90.06
283.282	83.06
283.513	88.06
283.745	92.06
283.976	84.06
284.207	85.06
284.439	74.06
284.67	86.06
284.901	93.06
285.132	94.06
285.364	106.06
285.595	84.06
285.826	87.06
286.057	67.06
286.288	87.06
286.52	83.06
286.751	87.06
286.982	99.06
287.213	88.06
287.444	94.06
287.675	94.06
287.906	118.06
288.138	101.06
288.369	115.06
288.6	94.06
288.831	101.06
289.062	98.06
289.293	94.06
289.524	110.06
289.755	96.06
289.986	84.06
290.217	89.06
290.448	90.06
290.679	67.06
290.91	102.06
291.141	90.06
291.371	69.06
291.602	96.06
291.833	98.06
292.064	92.06
292.295	96.06
292.526	101.06
292.757	77.06
292.987	96.06
293.218	96.06
293.449	92.06
293.68	89.06
293.91	77.06
294.141	87.06
294.372	74.06
294.603	85.06
294.833	104.06
295.064	91.06
295.295	102.06
295.525	104.06
295.756	114.06
295.987	139.06
296.217	183.06
296.448	182.06
296.679	111.06
296.909	84.06
297.14	104.06
297.37	91.06
297.601	101.06
297.831	82.06
298.062	95.06
298.292	87.06
298.523	83.06
298.753	80.06
298.984	94.06
299.214	94.06
299.445	96.06
299.675	92.06
299.905	101.06
300.136	104.06
300.366	109.06
300.597	83.06
300.827	88.06
301.057	96.06
301.288	108.06
301.518	109.06
301.748	89.06
301.979	115.06
302.209	100.06
302.439	84.06
302.669	88.06
302.9	78.06
303.13	88.06
303.36	99.06
303.59	106.06
303.82	109.06
304.051	100.06
304.281	106.06
304.511	98.06
304.741	82.06
304.971	101.06
305.201	77.06
305.431	91.06
305.661	87.06
305.891	90.06
306.121	100.06
306.352	102.06
306.582	116.06
306.812	94.06
307.042	92.06
307.272	92.06
307.502	89.06
307.731	109.06
307.961	100.06
308.191	93.06
308.421	83.06
308.651	96.06
308.881	105.06
309.111	102.06
309.341	96.06
309.571	112.06
309.8	107.06
310.03	104.06
310.26	119.06
310.49	104.06
310.72	103.06
310.949	140.06
311.179	118.06
311.409	117.06
311.639	108.06
311.868	112.06
312.098	105.06
312.328	102.06
312.557	119.06
312.787	111.06
313.017	115.06
313.246	118.06
313.476	101.06
313.706	106.06
313.935	105.06
314.165	111.06
314.394	98.06
314.624	111.06
314.853	104.06
315.083	96.06
315.312	94.06
315.542	107.06
315.771	93.06
316.001	98.06
316.23	89.06
316.46	100.06
316.689	100.06
316.919	97.06
317.148	108.06
317.377	106.06
317.607	87.06
317.836	103.06
318.065	87.06
318.295	110.06
318.524	102.06
318.753	90.06
318.983	95.06
319.212	107.06
319.441	131.06
319.67	114.06
319.9	99.06
320.129	106.06
320.358	93.06
320.587	82.06
320.816	99.06
321.046	104.06
321.275	100.06
321.504	107.06
321.733	109.06
321.962	101.06
322.191	104.06
322.42	118.06
322.649	131.06
322.878	116.06
323.108	125.06
323.337	150.06
323.566	168.06
323.795	192.06
324.024	240.06
324.253	452.06
324.482	1009.06
324.71	2034.06
324.939	2730.06
325.168	1003.06
325.397	282.06
325.626	173.06
325.855	133.06
326.084	136.06
326.313	127.06
326.542	158.06
326.77	282.06
326.999	500.06
327.228	1031.06
327.457	1929.06
327.686	1568.06
327.914	449.06
328.143	261.06
328.372	194.06
328.6	154.06
328.829	127.06
329.058	168.06
329.287	178.06
329.515	137.06
329.744	112.06
329.972	111.06
330.201	146.06
330.43	174.06
330.658	174.06
330.887	212.06
331.115	160.06
331.344	113.06
331.572	122.06
331.801	128.06
332.03	126.06
332.258	98.06
332.486	95.06
332.715	114.06
332.943	106.06
333.172	112.06
333.4	113.06
333.629	120.06
333.857	118.06
334.085	114.06
334.314	121.06
334.542	166.06
334.771	180.06
334.999	127.06
335.227	102.06
335.455	114.06
335.684	104.06
335.912	100.06
336.14	101.06
336.369	104.06
336.597	90.06
336.825	104.06
337.053	86.06
337.281	95.06
337.51	92.06
337.738	104.06
337.966	101.06
338.194	135.06
338.422	114.06
338.65	87.06
338.878	101.06
339.106	103.06
339.334	106.06
339.562	90.06
339.79	82.06
340.018	90.06
340.246	99.06
340.474	103.06
340.702	107.06
340.93	99.06
341.158	102.06
341.386	110.06
341.614	107.06
341.842	111.06
342.07	101.06
342.298	103.06
342.526	88.06
342.754	88.06
342.981	82.06
343.209	92.06
343.437	105.06
343.665	99.06
343.893	101.06
344.12	99.06
344.348	94.06
344.576	100.06
344.804	98.06
345.031	104.06
345.259	118.06
345.487	100.06
345.714	97.06
345.942	90.06
346.17	89.06
346.397	84.06
346.625	99.06
346.853	90.06
347.08	104.06
347.308	92.06
347.535	104.06
347.763	119.06
347.99	100.06
348.218	120.06
348.445	120.06
348.673	107.06
348.9	98.06
349.128	94.06
349.355	95.06
349.583	91.06
349.81	92.06
350.037	111.06
350.265	90.06
350.492	111.06
350.72	95.06
350.947	93.06
351.174	140.06
351.402	115.06
351.629	103.06
351.856	108.06
352.083	123.06
352.311	132.06
352.538	132.06
352.765	133.06
352.992	126.06
353.22	115.06
353.447	125.06
353.674	111.06
353.901	96.06
354.128	92.06
354.355	92.06
354.583	102.06
354.81	101.06
355.037	97.06
355.264	101.06
355.491	98.06
355.718	96.06
355.945	94.06
356.172	100.06
356.399	102.06
356.626	106.06
356.853	79.06
357.08	94.06
357.307	102.06
357.534	77.06
357.761	98.06
357.988	102.06
358.215	111.06
358.441	99.06
358.668	92.06
358.895	88.06
359.122	104.06
359.349	85.06
359.576	80.06
359.802	127.06
360.029	151.06
360.256	144.06
360.483	106.06
360.709	90.06
360.936	87.06
361.163	102.06
361.39	92.06
361.616	106.06
361.843	91.06
362.07	116.06
362.296	92.06
362.523	108.06
362.749	104.06
362.976	95.06
363.203	100.06
363.429	92.06
363.656	107.06
363.882	90.06
364.109	89.06
364.335	96.06
364.562	95.06
364.788	94.06
365.015	99.06
365.241	113.06
365.468	115.06
365.694	114.06
365.92	112.06
366.147	91.06
366.373	106.06
366.599	98.06
366.826	100.06
367.052	96.06
367.278	95.06
367.505	89.06
367.731	106.06
367.957	109.06
368.184	109.06
368.41	131.06
368.636	135.06
368.862	119.06
369.089	135.06
369.315	106.06
369.541	102.06
369.767	90.06
369.993	90.06
370.219	92.06
370.445	93.06
370.672	83.06
370.898	89.06
371.124	74.06
371.35	103.06
371.576	79.06
371.802	89.06
372.028	94.06
372.254	85.06
372.48	87.06
372.706	94.06
372.932	79.06
373.158	100.06
373.384	99.06
373.61	109.06
373.835	87.06
374.061	98.06
374.287	99.06
374.513	90.06
374.739	93.06
374.965	103.06
375.191	102.06
375.416	96.06
375.642	101.06
375.868	88.06
376.094	96.06
376.319	100.06
376.545	88.06
376.771	93.06
376.997	93.06
377.222	86.06
377.448	107.06
377.674	111.06
377.899	108.06
378.125	101.06
378.35	94.06
378.576	90.06
378.802	98.06
379.027	79.06
379.253	96.06
379.478	81.06
379.704	96.06
379.929	99.06
380.155	90.06
380.38	95.06
380.606	95.06
380.831	109.06
381.057	92.06
381.282	96.06
381.507	104.06
381.733	101.06
381.958	94.06
382.184	103.06
382.409	96.06
382.634	94.06
382.86	86.06
383.085	95.06
383.31	99.06
383.535	101.06
383.761	88.06
383.986	107.06
384.211	106.06
384.436	101.06
384.662	106.06
384.887	106.06
385.112	99.06
385.337	102.06
385.562	100.06
385.787	101.06
386.013	113.06
386.238	126.06
386.463	112.06
386.688	103.06
386.913	109.06
387.138	100.06
387.363	88.06
387.588	100.06
387.813	111.06
388.038	104.06
388.263	120.06
388.488	99.06
388.713	89.06
388.938	103.06
389.163	95.06
389.387	98.06
389.612	103.06
389.837	108.06
390.062	98.06
390.287	101.06
390.512	101.06
390.736	78.06
390.961	88.06
391.186	88.06
391.411	100.06
391.636	96.06
391.86	96.06
392.085	84.06
392.31	102.06
392.534	95.06
392.759	98.06
392.984	96.06
393.208	107.06
393.433	120.06
393.658	100.06
393.882	101.06
394.107	79.06
394.331	88.06
394.556	94.06
394.78	96.06
395.005	73.06
395.229	82.06
395.454	84.06
395.678	81.06
395.903	83.06
396.127	96.06
396.352	95.06
396.576	87.06
396.801	84.06
397.025	88.06
397.249	86.06
397.474	94.06
397.698	100.06
397.922	101.06
398.147	110.06
398.371	84.06
398.595	92.06
398.82	96.06
399.044	101.06
399.268	86.06
399.492	91.06
399.717	105.06
399.941	90.06
400.165	98.06
400.389	107.06
400.613	95.06
400.837	74.06
401.062	88.06
401.286	94.06
401.51	98.06
401.734	95.06
401.958	110.06
402.182	151.06
402.406	193.06
402.63	142.06
402.854	114.06
403.078	96.06
403.302	84.06
403.526	86.06
403.75	98.06
403.974	91.06
404.198	78.06
404.422	96.06
404.645	87.06
404.869	91.06
405.093	103.06
405.317	106.06
405.541	111.06
405.765	130.06
405.988	128.06
406.212	226.06
406.436	341.06
406.66	197.06
406.883	132.06
407.107	89.06
407.331	110.06
407.555	110.06
407.778	106.06
408.002	102.06
408.226	105.06
408.449	90.06
408.673	98.06
408.896	90.06
409.12	93.06
409.344	90.06
409.567	102.06
409.791	83.06
410.014	97.06
410.238	98.06
410.461	93.06
410.685	88.06
410.908	110.06
411.132	105.06
411.355	102.06
411.578	100.06
411.802	94.06
412.025	107.06
412.249	91.06
412.472	94.06
412.695	91.06
412.919	76.06
413.142	86.06
413.365	90.06
413.589	104.06
413.812	103.06
414.035	89.06
414.258	90.06
414.482	78.06
414.705	88.06
414.928	96.06
415.151	95.06
415.374	103.06
415.597	84.06
415.821	99.06
416.044	103.06
416.267	101.06
416.49	76.06
416.713	104.06
416.936	103.06
417.159	102.06
417.382	88.06
417.605	87.06
417.828	100.06
418.051	98.06
418.274	101.06
418.497	76.06
418.72	91.06
418.943	94.06
419.166	87.06
419.389	87.06
419.611	94.06
419.834	78.06
420.057	86.06
420.28	86.06
420.503	93.06
420.726	80.06
420.948	101.06
421.171	106.06
421.394	82.06
421.617	96.06
421.839	103.06
422.062	91.06
422.285	88.06
422.507	107.06
422.73	120.06
422.953	109.06
423.175	94.06
423.398	88.06
423.621	79.06
423.843	90.06
424.066	103.06
424.288	94.06
424.511	94.06
424.733	102.06
424.956	115.06
425.178	103.06
425.401	99.06
425.623	131.06
425.846	103.06
426.068	102.06
426.291	104.06
426.513	79.06
426.735	85.06
426.958	92.06
427.18	120.06
427.402	165.06
427.625	237.06
427.847	174.06
428.069	126.06
428.292	105.06
428.514	102.06
428.736	102.06
428.958	92.06
429.181	97.06
429.403	96.06
429.625	97.06
429.847	93.06
430.069	115.06
430.292	106.06
430.514	88.06
430.736	82.06
430.958	92.06
431.18	85.06
431.402	92.06
431.624	85.06
431.846	90.06
432.068	82.06
432.29	100.06
432.512	80.06
432.734	90.06
432.956	101.06
433.178	104.06
433.4	95.06
433.622	95.06
433.844	96.06
434.066	122.06
434.287	102.06
434.509	96.06
434.731	111.06
434.953	98.06
435.175	86.06
435.397	110.06
435.618	98.06
435.84	123.06
436.062	127.06
436.284	134.06
436.505	103.06
436.727	102.06
436.949	71.06
437.17	90.06
437.392	90.06
437.614	109.06
437.835	122.06
438.057	169.06
438.278	130.06
438.5	116.06
438.721	139.06
438.943	122.06
439.165	92.06
439.386	80.06
439.608	96.06
439.829	108.06
440.05	144.06
440.272	175.06
440.493	109.06
440.715	94.06
440.936	88.06
441.158	103.06
441.379	93.06
441.6	101.06
441.822	92.06
442.043	89.06
442.264	126.06
442.486	108.06
442.707	108.06
442.928	110.06
443.149	177.06
443.371	168.06
443.592	120.06
443.813	125.06
444.034	128.06
444.255	104.06
444.476	88.06
444.698	97.06
444.919	89.06
445.14	137.06
445.361	135.06
445.582	132.06
445.803	177.06
446.024	157.06
446.245	156.06
446.466	133.06
446.687	98.06
446.908	90.06
447.129	104.06
447.35	106.06
447.571	105.06
447.792	102.06
448.013	100.06
448.234	126.06
448.455	110.06
448.675	125.06
448.896	156.06
449.117	105.06
449.338	120.06
449.559	147.06
449.779	147.06
450	91.06
450.221	75.06
450.442	83.06
450.662	109.06
450.883	123.06
451.104	152.06
451.324	114.06
451.545	99.06
451.766	105.06
451.986	98.06
452.207	98.06
452.428	104.06
452.648	111.06
452.869	146.06
453.089	146.06
453.31	153.06
453.53	99.06
453.751	107.06
453.971	119.06
454.192	144.06
454.412	114.06
454.633	90.06
454.853	80.06
455.073	96.06
455.294	95.06
455.514	92.06
455.734	99.06
455.955	103.06
456.175	90.06
456.395	90.06
456.616	82.06
456.836	82.06
457.056	94.06
457.276	81.06
457.497	82.06
457.717	94.06
457.937	99.06
458.157	96.06
458.377	106.06
458.598	136.06
458.818	206.06
459.038	236.06
459.258	151.06
459.478	106.06
459.698	82.06
459.918	87.06
460.138	76.06
460.358	92.06
460.578	94.06
460.798	78.06
461.018	102.06
461.238	89.06
461.458	85.06
461.678	82.06
461.898	84.06
462.118	78.06
462.338	94.06
462.558	95.06
462.777	94.06
462.997	92.06
463.217	98.06
463.437	94.06
463.657	83.06
463.876	83.06
464.096	88.06
464.316	108.06
464.536	107.06
464.755	104.06
464.975	139.06
465.195	259.06
465.414	258.06
465.634	113.06
465.854	103.06
466.073	86.06
466.293	92.06
466.512	88.06
466.732	87.06
466.951	85.06
467.171	99.06
467.391	91.06
467.61	118.06
467.829	113.06
468.049	109.06
468.268	93.06
468.488	89.06
468.707	93.06
468.927	94.06
469.146	101.06
469.365	90.06
469.585	83.06
469.804	87.06
470.023	111.06
470.243	93.06
470.462	106.06
470.681	145.06
470.901	92.06
471.12	83.06
471.339	94.06
471.558	87.06
471.777	102.06
471.997	104.06
472.216	108.06
472.435	180.06
472.654	114.06
472.873	79.06
473.092	86.06
473.311	96.06
473.53	85.06
473.749	93.06
473.968	111.06
474.187	125.06
474.406	119.06
474.625	92.06
474.844	102.06
475.063	77.06
475.282	95.06
475.501	90.06
475.72	84.06
475.939	89.06
476.158	98.06
476.377	95.06
476.596	102.06
476.814	109.06
477.033	105.06
477.252	100.06
477.471	83.06
477.69	88.06
477.908	100.06
478.127	95.06
478.346	90.06
478.564	90.06
478.783	104.06
479.002	103.06
479.22	107.06
479.439	121.06
479.658	135.06
479.876	102.06
480.095	107.06
480.313	101.06
480.532	93.06
480.751	103.06
480.969	130.06
481.188	270.06
481.406	201.06
481.624	117.06
481.843	100.06
482.061	94.06
482.28	98.06
482.498	84.06
482.717	83.06
482.935	86.06
483.153	93.06
483.372	86.06
483.59	85.06
483.808	92.06
484.027	110.06
484.245	111.06
484.463	98.06
484.681	83.06
484.9	93.06
485.118	101.06
485.336	98.06
485.554	94.06
485.772	96.06
485.99	95.06
486.209	107.06
486.427	110.06
486.645	123.06
486.863	143.06
487.081	104.06
487.299	111.06
487.517	106.06
487.735	91.06
487.953	92.06
488.171	107.06
488.389	106.06
488.607	100.06
488.825	91.06
489.043	94.06
489.261	94.06
489.479	110.06
489.696	114.06
489.914	82.06
490.132	89.06
490.35	96.06
490.568	95.06
490.786	89.06
491.003	112.06
491.221	90.06
491.439	87.06
491.657	93.06
491.874	94.06
492.092	90.06
492.31	82.06
492.527	80.06
492.745	98.06
492.963	81.06
493.18	84.06
493.398	82.06
493.615	102.06
493.833	86.06
494.05	99.06
494.268	90.06
494.485	78.06
494.703	88.06
494.92	92.06
495.138	89.06
495.355	103.06
495.573	97.06
495.79	86.06
496.008	99.06
496.225	94.06
496.442	77.06
496.66	82.06
496.877	91.06
497.094	93.06
497.312	97.06
497.529	106.06
497.746	102.06
497.963	96.06
498.181	97.06
498.398	91.06
498.615	122.06
498.832	103.06
499.049	101.06
499.267	102.06
499.484	90.06
499.701	86.06
499.918	86.06
500.135	91.06
500.352	91.06
500.569	92.06
500.786	87.06
501.003	89.06
501.22	107.06
501.437	102.06
501.654	97.06
501.871	131.06
502.088	109.06
502.305	94.06
502.522	89.06
502.739	72.06
502.956	92.06
503.172	93.06
503.389	99.06
503.606	144.06
503.823	112.06
504.04	101.06
504.256	101.06
504.473	91.06
504.69	78.06
504.907	92.06
505.123	91.06
505.34	88.06
505.557	104.06
505.773	87.06
505.99	99.06
506.207	85.06
506.423	90.06
506.64	104.06
506.856	92.06
507.073	90.06
507.289	87.06
507.506	106.06
507.722	134.06
507.939	151.06
508.155	117.06
508.372	91.06
508.588	94.06
508.805	96.06
509.021	82.06
509.238	95.06
509.454	103.06
509.67	87.06
509.887	113.06
510.103	150.06
510.319	289.06
510.536	1008.06
510.752	3456.06
510.968	909.06
511.184	185.06
511.401	130.06
511.617	108.06
511.833	103.06
512.049	100.06
512.265	95.06
512.481	104.06
512.698	100.06
