Data from Circ_1981_H10_HRD10591_00030.txt Node
Date: Wed Jan 03 12:34:27 EST 2024
User: Yrep
Spectrometer: HR+D1059
Trigger mode: 1
Integration Time (sec): 1.000000E-1
Scans to average: 1
Electric dark correction enabled: true
Nonlinearity correction enabled: false
Boxcar width: 0
XAxis mode: Wavelengths
Number of Pixels in Spectrum: 2048
>>>>>Begin Spectral Data<<<<<
223.165	-14.06
223.4	-14.06
223.635	-14.06
223.869	-36.06
224.104	-5.06
224.338	-28.06
224.573	-2.06
224.808	-18.06
225.042	1.94
225.277	-5.06
225.511	-7.06
225.746	7.94
225.98	7.94
226.215	5.94
226.449	17.94
226.683	17.94
226.918	32.94
227.152	22.94
227.387	43.94
227.621	43.94
227.856	42.94
228.09	50.94
228.324	55.94
228.559	55.94
228.793	52.94
229.027	70.94
229.262	74.94
229.496	79.94
229.73	90.94
229.964	95.94
230.199	66.94
230.433	68.94
230.667	83.94
230.901	81.94
231.136	78.94
231.37	82.94
231.604	80.94
231.838	72.94
232.072	83.94
232.306	73.94
232.541	97.94
232.775	83.94
233.009	77.94
233.243	90.94
233.477	90.94
233.711	92.94
233.945	85.94
234.179	81.94
234.413	78.94
234.647	89.94
234.881	86.94
235.115	67.94
235.349	61.94
235.583	85.94
235.817	71.94
236.051	72.94
236.285	85.94
236.519	70.94
236.753	81.94
236.987	69.94
237.221	99.94
237.455	95.94
237.689	82.94
237.922	83.94
238.156	74.94
238.39	76.94
238.624	80.94
238.858	76.94
239.091	81.94
239.325	74.94
239.559	77.94
239.793	85.94
240.027	74.94
240.26	76.94
240.494	77.94
240.728	86.94
240.961	59.94
241.195	73.94
241.429	84.94
241.662	81.94
241.896	73.94
242.13	82.94
242.363	68.94
242.597	62.94
242.83	81.94
243.064	91.94
243.298	93.94
243.531	92.94
243.765	78.94
243.998	77.94
244.232	77.94
244.465	82.94
244.699	74.94
244.932	90.94
245.166	79.94
245.399	86.94
245.633	87.94
245.866	76.94
246.099	75.94
246.333	73.94
246.566	71.94
246.8	68.94
247.033	83.94
247.266	93.94
247.5	97.94
247.733	87.94
247.966	76.94
248.2	92.94
248.433	81.94
248.666	90.94
248.899	89.94
249.133	85.94
249.366	109.94
249.599	100.94
249.832	89.94
250.066	97.94
250.299	69.94
250.532	73.94
250.765	69.94
250.998	84.94
251.231	76.94
251.465	77.94
251.698	85.94
251.931	78.94
252.164	86.94
252.397	79.94
252.63	74.94
252.863	82.94
253.096	75.94
253.329	82.94
253.562	85.94
253.795	90.94
254.028	78.94
254.261	68.94
254.494	78.94
254.727	72.94
254.96	69.94
255.193	82.94
255.426	79.94
255.659	80.94
255.892	93.94
256.124	103.94
256.357	99.94
256.59	78.94
256.823	86.94
257.056	89.94
257.289	79.94
257.521	90.94
257.754	80.94
257.987	88.94
258.22	87.94
258.452	86.94
258.685	73.94
258.918	74.94
259.151	89.94
259.383	84.94
259.616	84.94
259.849	97.94
260.081	97.94
260.314	93.94
260.547	79.94
260.779	79.94
261.012	93.94
261.244	85.94
261.477	100.94
261.71	108.94
261.942	110.94
262.175	131.94
262.407	85.94
262.64	93.94
262.872	74.94
263.105	89.94
263.337	84.94
263.57	75.94
263.802	83.94
264.035	93.94
264.267	83.94
264.499	93.94
264.732	74.94
264.964	77.94
265.197	95.94
265.429	83.94
265.661	76.94
265.894	81.94
266.126	95.94
266.358	92.94
266.591	74.94
266.823	85.94
267.055	95.94
267.287	74.94
267.52	90.94
267.752	83.94
267.984	98.94
268.216	83.94
268.448	92.94
268.681	84.94
268.913	98.94
269.145	74.94
269.377	87.94
269.609	86.94
269.841	81.94
270.073	97.94
270.306	92.94
270.538	74.94
270.77	72.94
271.002	90.94
271.234	79.94
271.466	97.94
271.698	89.94
271.93	70.94
272.162	87.94
272.394	95.94
272.626	91.94
272.858	94.94
273.09	85.94
273.322	94.94
273.553	93.94
273.785	86.94
274.017	76.94
274.249	83.94
274.481	85.94
274.713	83.94
274.945	98.94
275.176	83.94
275.408	94.94
275.64	79.94
275.872	79.94
276.104	91.94
276.335	90.94
276.567	100.94
276.799	116.94
277.031	107.94
277.262	103.94
277.494	92.94
277.726	100.94
277.957	92.94
278.189	93.94
278.421	84.94
278.652	84.94
278.884	80.94
279.115	89.94
279.347	72.94
279.579	87.94
279.81	102.94
280.042	88.94
280.273	97.94
280.505	91.94
280.736	93.94
280.968	91.94
281.199	87.94
281.431	75.94
281.662	94.94
281.894	87.94
282.125	100.94
282.356	132.94
282.588	145.94
282.819	119.94
283.051	97.94
283.282	89.94
283.513	89.94
283.745	84.94
283.976	83.94
284.207	98.94
284.439	99.94
284.67	77.94
284.901	88.94
285.132	77.94
285.364	93.94
285.595	86.94
285.826	88.94
286.057	83.94
286.288	91.94
286.52	80.94
286.751	82.94
286.982	84.94
287.213	85.94
287.444	75.94
287.675	95.94
287.906	95.94
288.138	97.94
288.369	88.94
288.6	107.94
288.831	108.94
289.062	81.94
289.293	88.94
289.524	98.94
289.755	97.94
289.986	97.94
290.217	96.94
290.448	94.94
290.679	102.94
290.91	90.94
291.141	85.94
291.371	90.94
291.602	77.94
291.833	86.94
292.064	76.94
292.295	99.94
292.526	98.94
292.757	100.94
292.987	89.94
293.218	85.94
293.449	84.94
293.68	89.94
293.91	87.94
294.141	73.94
294.372	101.94
294.603	97.94
294.833	101.94
295.064	82.94
295.295	91.94
295.525	91.94
295.756	101.94
295.987	91.94
296.217	135.94
296.448	121.94
296.679	88.94
296.909	94.94
297.14	90.94
297.37	91.94
297.601	98.94
297.831	91.94
298.062	99.94
298.292	113.94
298.523	85.94
298.753	100.94
298.984	90.94
299.214	88.94
299.445	81.94
299.675	95.94
299.905	81.94
300.136	92.94
300.366	78.94
300.597	89.94
300.827	98.94
301.057	112.94
301.288	108.94
301.518	87.94
301.748	94.94
301.979	95.94
302.209	101.94
302.439	102.94
302.669	94.94
302.9	82.94
303.13	75.94
303.36	96.94
303.59	108.94
303.82	104.94
304.051	91.94
304.281	106.94
304.511	85.94
304.741	85.94
304.971	86.94
305.201	94.94
305.431	91.94
305.661	92.94
305.891	92.94
306.121	90.94
306.352	95.94
306.582	109.94
306.812	107.94
307.042	92.94
307.272	106.94
307.502	104.94
307.731	97.94
307.961	72.94
308.191	91.94
308.421	97.94
308.651	82.94
308.881	95.94
309.111	94.94
309.341	102.94
309.571	102.94
309.8	96.94
310.03	99.94
310.26	100.94
310.49	92.94
310.72	100.94
310.949	102.94
311.179	100.94
311.409	91.94
311.639	105.94
311.868	98.94
312.098	109.94
312.328	102.94
312.557	112.94
312.787	107.94
313.017	105.94
313.246	106.94
313.476	102.94
313.706	85.94
313.935	94.94
314.165	98.94
314.394	109.94
314.624	103.94
314.853	112.94
315.083	91.94
315.312	85.94
315.542	94.94
315.771	96.94
316.001	79.94
316.23	87.94
316.46	92.94
316.689	94.94
316.919	95.94
317.148	85.94
317.377	106.94
317.607	106.94
317.836	101.94
318.065	103.94
318.295	85.94
318.524	99.94
318.753	95.94
318.983	106.94
319.212	101.94
319.441	104.94
319.67	119.94
319.9	102.94
320.129	102.94
320.358	95.94
320.587	110.94
320.816	94.94
321.046	111.94
321.275	110.94
321.504	95.94
321.733	99.94
321.962	107.94
322.191	104.94
322.42	117.94
322.649	113.94
322.878	118.94
323.108	132.94
323.337	132.94
323.566	141.94
323.795	169.94
324.024	258.94
324.253	488.94
324.482	1025.94
324.71	2233.94
324.939	3053.94
325.168	1058.94
325.397	293.94
325.626	168.94
325.855	141.94
326.084	127.94
326.313	123.94
326.542	173.94
326.77	264.94
326.999	541.94
327.228	1121.94
327.457	2206.94
327.686	1784.94
327.914	454.94
328.143	222.94
328.372	188.94
328.6	151.94
328.829	125.94
329.058	145.94
329.287	153.94
329.515	130.94
329.744	106.94
329.972	107.94
330.201	137.94
330.43	151.94
330.658	164.94
330.887	173.94
331.115	135.94
331.344	117.94
331.572	114.94
331.801	110.94
332.03	113.94
332.258	107.94
332.486	99.94
332.715	105.94
332.943	92.94
333.172	95.94
333.4	102.94
333.629	109.94
333.857	110.94
334.085	123.94
334.314	125.94
334.542	145.94
334.771	154.94
334.999	109.94
335.227	98.94
335.455	104.94
335.684	95.94
335.912	95.94
336.14	93.94
336.369	107.94
336.597	100.94
336.825	115.94
337.053	92.94
337.281	103.94
337.51	87.94
337.738	86.94
337.966	91.94
338.194	102.94
338.422	95.94
338.65	98.94
338.878	83.94
339.106	92.94
339.334	94.94
339.562	94.94
339.79	94.94
340.018	97.94
340.246	101.94
340.474	98.94
340.702	80.94
340.93	103.94
341.158	101.94
341.386	92.94
341.614	96.94
341.842	102.94
342.07	79.94
342.298	107.94
342.526	82.94
342.754	79.94
342.981	78.94
343.209	89.94
343.437	100.94
343.665	84.94
343.893	94.94
344.12	101.94
344.348	93.94
344.576	90.94
344.804	92.94
345.031	99.94
345.259	106.94
345.487	94.94
345.714	105.94
345.942	101.94
346.17	78.94
346.397	93.94
346.625	92.94
346.853	102.94
347.08	85.94
347.308	117.94
347.535	116.94
347.763	103.94
347.99	104.94
348.218	108.94
348.445	103.94
348.673	116.94
348.9	111.94
349.128	100.94
349.355	99.94
349.583	102.94
349.81	98.94
350.037	104.94
350.265	107.94
350.492	87.94
350.72	98.94
350.947	108.94
351.174	103.94
351.402	118.94
351.629	115.94
351.856	104.94
352.083	102.94
352.311	111.94
352.538	109.94
352.765	111.94
352.992	123.94
353.22	112.94
353.447	99.94
353.674	108.94
353.901	89.94
354.128	102.94
354.355	100.94
354.583	89.94
354.81	104.94
355.037	92.94
355.264	95.94
355.491	87.94
355.718	106.94
355.945	94.94
356.172	105.94
356.399	97.94
356.626	91.94
356.853	82.94
357.08	89.94
357.307	92.94
357.534	99.94
357.761	103.94
357.988	104.94
358.215	101.94
358.441	102.94
358.668	90.94
358.895	91.94
359.122	94.94
359.349	97.94
359.576	89.94
359.802	102.94
360.029	125.94
360.256	113.94
360.483	106.94
360.709	81.94
360.936	97.94
361.163	94.94
361.39	91.94
361.616	115.94
361.843	99.94
362.07	94.94
362.296	110.94
362.523	98.94
362.749	101.94
362.976	90.94
363.203	97.94
363.429	91.94
363.656	94.94
363.882	94.94
364.109	87.94
364.335	98.94
364.562	98.94
364.788	97.94
365.015	103.94
365.241	105.94
365.468	116.94
365.694	118.94
365.92	101.94
366.147	102.94
366.373	73.94
366.599	81.94
366.826	86.94
367.052	84.94
367.278	103.94
367.505	95.94
367.731	99.94
367.957	88.94
368.184	90.94
368.41	110.94
368.636	110.94
368.862	121.94
369.089	110.94
369.315	114.94
369.541	98.94
369.767	98.94
369.993	97.94
370.219	92.94
370.445	77.94
370.672	91.94
370.898	82.94
371.124	99.94
371.35	90.94
371.576	85.94
371.802	73.94
372.028	91.94
372.254	103.94
372.48	94.94
372.706	93.94
372.932	83.94
373.158	87.94
373.384	94.94
373.61	88.94
373.835	91.94
374.061	103.94
374.287	105.94
374.513	89.94
374.739	91.94
374.965	92.94
375.191	81.94
375.416	98.94
375.642	91.94
375.868	94.94
376.094	81.94
376.319	85.94
376.545	87.94
376.771	88.94
376.997	115.94
377.222	83.94
377.448	87.94
377.674	93.94
377.899	92.94
378.125	93.94
378.35	100.94
378.576	84.94
378.802	93.94
379.027	96.94
379.253	85.94
379.478	85.94
379.704	95.94
379.929	96.94
380.155	77.94
380.38	89.94
380.606	81.94
380.831	95.94
381.057	87.94
381.282	109.94
381.507	98.94
381.733	105.94
381.958	95.94
382.184	109.94
382.409	110.94
382.634	105.94
382.86	107.94
383.085	111.94
383.31	91.94
383.535	98.94
383.761	88.94
383.986	93.94
384.211	95.94
384.436	86.94
384.662	103.94
384.887	101.94
385.112	92.94
385.337	87.94
385.562	118.94
385.787	109.94
386.013	107.94
386.238	122.94
386.463	118.94
386.688	113.94
386.913	108.94
387.138	109.94
387.363	103.94
387.588	103.94
387.813	102.94
388.038	105.94
388.263	99.94
388.488	112.94
388.713	94.94
388.938	99.94
389.163	104.94
389.387	97.94
389.612	91.94
389.837	96.94
390.062	84.94
390.287	86.94
390.512	90.94
390.736	103.94
390.961	88.94
391.186	104.94
391.411	99.94
391.636	97.94
391.86	83.94
392.085	76.94
392.31	77.94
392.534	81.94
392.759	87.94
392.984	74.94
393.208	87.94
393.433	106.94
393.658	99.94
393.882	83.94
394.107	86.94
394.331	83.94
394.556	82.94
394.78	94.94
395.005	86.94
395.229	77.94
395.454	85.94
395.678	77.94
395.903	85.94
396.127	89.94
396.352	85.94
396.576	102.94
396.801	99.94
397.025	102.94
397.249	84.94
397.474	94.94
397.698	86.94
397.922	100.94
398.147	75.94
398.371	76.94
398.595	90.94
398.82	97.94
399.044	77.94
399.268	95.94
399.492	81.94
399.717	95.94
399.941	96.94
400.165	94.94
400.389	94.94
400.613	95.94
400.837	103.94
401.062	91.94
401.286	97.94
401.51	103.94
401.734	102.94
401.958	106.94
402.182	113.94
402.406	160.94
402.63	121.94
402.854	101.94
403.078	86.94
403.302	83.94
403.526	94.94
403.75	99.94
403.974	92.94
404.198	94.94
404.422	89.94
404.645	85.94
404.869	89.94
405.093	97.94
405.317	103.94
405.541	121.94
405.765	110.94
405.988	127.94
406.212	181.94
406.436	247.94
406.66	186.94
406.883	100.94
407.107	106.94
407.331	110.94
407.555	115.94
407.778	102.94
408.002	90.94
408.226	86.94
408.449	87.94
408.673	103.94
408.896	102.94
409.12	108.94
409.344	99.94
409.567	87.94
409.791	99.94
410.014	94.94
410.238	70.94
410.461	87.94
410.685	90.94
410.908	91.94
411.132	105.94
411.355	107.94
411.578	89.94
411.802	98.94
412.025	76.94
412.249	83.94
412.472	79.94
412.695	104.94
412.919	85.94
413.142	87.94
413.365	91.94
413.589	95.94
413.812	97.94
414.035	89.94
414.258	95.94
414.482	90.94
414.705	82.94
414.928	85.94
415.151	98.94
415.374	94.94
415.597	99.94
415.821	98.94
416.044	93.94
416.267	91.94
416.49	94.94
416.713	85.94
416.936	82.94
417.159	91.94
417.382	82.94
417.605	84.94
417.828	85.94
418.051	98.94
418.274	110.94
418.497	91.94
418.72	85.94
418.943	92.94
419.166	89.94
419.389	90.94
419.611	88.94
419.834	79.94
420.057	89.94
420.28	83.94
420.503	90.94
420.726	78.94
420.948	88.94
421.171	108.94
421.394	89.94
421.617	95.94
421.839	98.94
422.062	79.94
422.285	91.94
422.507	95.94
422.73	101.94
422.953	100.94
423.175	86.94
423.398	90.94
423.621	106.94
423.843	93.94
424.066	87.94
424.288	89.94
424.511	88.94
424.733	97.94
424.956	129.94
425.178	111.94
425.401	123.94
425.623	115.94
425.846	92.94
426.068	91.94
426.291	89.94
426.513	102.94
426.735	89.94
426.958	89.94
427.18	115.94
427.402	175.94
427.625	209.94
427.847	175.94
428.069	130.94
428.292	95.94
428.514	95.94
428.736	75.94
428.958	84.94
429.181	86.94
429.403	92.94
429.625	87.94
429.847	106.94
430.069	107.94
430.292	105.94
430.514	83.94
430.736	76.94
430.958	97.94
431.18	92.94
431.402	85.94
431.624	75.94
431.846	77.94
432.068	72.94
432.29	90.94
432.512	105.94
432.734	87.94
432.956	106.94
433.178	107.94
433.4	117.94
433.622	93.94
433.844	86.94
434.066	99.94
434.287	83.94
434.509	99.94
434.731	85.94
434.953	98.94
435.175	94.94
435.397	99.94
435.618	94.94
435.84	98.94
436.062	158.94
436.284	122.94
436.505	113.94
436.727	119.94
436.949	106.94
437.17	106.94
437.392	82.94
437.614	103.94
437.835	123.94
438.057	134.94
438.278	120.94
438.5	129.94
438.721	141.94
438.943	132.94
439.165	86.94
439.386	93.94
439.608	102.94
439.829	110.94
440.05	136.94
440.272	183.94
440.493	113.94
440.715	93.94
440.936	94.94
441.158	91.94
441.379	91.94
441.6	112.94
441.822	96.94
442.043	106.94
442.264	136.94
442.486	114.94
442.707	102.94
442.928	119.94
443.149	167.94
443.371	153.94
443.592	110.94
443.813	121.94
444.034	131.94
444.255	88.94
444.476	109.94
444.698	90.94
444.919	100.94
445.14	140.94
445.361	140.94
445.582	149.94
445.803	188.94
446.024	179.94
446.245	169.94
446.466	129.94
446.687	104.94
446.908	97.94
447.129	87.94
447.35	105.94
447.571	95.94
447.792	108.94
448.013	116.94
448.234	125.94
448.455	106.94
448.675	143.94
448.896	147.94
449.117	102.94
449.338	110.94
449.559	172.94
449.779	171.94
450	107.94
450.221	72.94
450.442	89.94
450.662	100.94
450.883	117.94
451.104	108.94
451.324	103.94
451.545	88.94
451.766	90.94
451.986	85.94
452.207	83.94
452.428	91.94
452.648	102.94
452.869	118.94
453.089	116.94
453.31	131.94
453.53	92.94
453.751	85.94
453.971	110.94
454.192	126.94
454.412	92.94
454.633	82.94
454.853	88.94
455.073	82.94
455.294	98.94
455.514	116.94
455.734	105.94
455.955	88.94
456.175	89.94
456.395	80.94
456.616	100.94
456.836	90.94
457.056	88.94
457.276	91.94
457.497	84.94
457.717	93.94
457.937	81.94
458.157	93.94
458.377	86.94
458.598	120.94
458.818	185.94
459.038	202.94
459.258	131.94
459.478	88.94
459.698	73.94
459.918	76.94
460.138	97.94
460.358	79.94
460.578	77.94
460.798	101.94
461.018	100.94
461.238	89.94
461.458	85.94
461.678	98.94
461.898	89.94
462.118	87.94
462.338	90.94
462.558	78.94
462.777	85.94
462.997	76.94
463.217	93.94
463.437	90.94
463.657	83.94
463.876	95.94
464.096	88.94
464.316	97.94
464.536	94.94
464.755	100.94
464.975	121.94
465.195	186.94
465.414	195.94
465.634	101.94
465.854	95.94
466.073	98.94
466.293	87.94
466.512	93.94
466.732	85.94
466.951	97.94
467.171	91.94
467.391	92.94
467.61	116.94
467.829	110.94
468.049	108.94
468.268	104.94
468.488	89.94
468.707	83.94
468.927	70.94
469.146	74.94
469.365	69.94
469.585	104.94
469.804	112.94
470.023	108.94
470.243	88.94
470.462	101.94
470.681	135.94
470.901	90.94
471.12	86.94
471.339	76.94
471.558	97.94
471.777	91.94
471.997	95.94
472.216	110.94
472.435	150.94
472.654	102.94
472.873	85.94
473.092	69.94
473.311	89.94
473.53	86.94
473.749	104.94
473.968	107.94
474.187	119.94
474.406	104.94
474.625	80.94
474.844	75.94
475.063	88.94
475.282	91.94
475.501	90.94
475.72	89.94
475.939	87.94
476.158	91.94
476.377	86.94
476.596	91.94
476.814	84.94
477.033	101.94
477.252	94.94
477.471	98.94
477.69	101.94
477.908	84.94
478.127	85.94
478.346	85.94
478.564	93.94
478.783	105.94
479.002	103.94
479.22	88.94
479.439	100.94
479.658	117.94
479.876	94.94
480.095	101.94
480.313	93.94
480.532	79.94
480.751	90.94
480.969	109.94
481.188	216.94
481.406	171.94
481.624	85.94
481.843	79.94
482.061	101.94
482.28	96.94
482.498	96.94
482.717	97.94
482.935	71.94
483.153	94.94
483.372	91.94
483.59	91.94
483.808	96.94
484.027	107.94
484.245	101.94
484.463	90.94
484.681	107.94
484.9	90.94
485.118	81.94
485.336	87.94
485.554	99.94
485.772	94.94
485.99	96.94
486.209	101.94
486.427	103.94
486.645	111.94
486.863	111.94
487.081	105.94
487.299	97.94
487.517	99.94
487.735	90.94
487.953	93.94
488.171	92.94
488.389	116.94
488.607	107.94
488.825	106.94
489.043	84.94
489.261	102.94
489.479	85.94
489.696	86.94
489.914	98.94
490.132	83.94
490.35	93.94
490.568	91.94
490.786	73.94
491.003	81.94
491.221	91.94
491.439	96.94
491.657	93.94
491.874	89.94
492.092	97.94
492.31	108.94
492.527	92.94
492.745	86.94
492.963	90.94
493.18	94.94
493.398	110.94
493.615	109.94
493.833	88.94
494.05	83.94
494.268	83.94
494.485	95.94
494.703	97.94
494.92	95.94
495.138	85.94
495.355	93.94
495.573	88.94
495.79	86.94
496.008	89.94
496.225	83.94
496.442	88.94
496.66	85.94
496.877	96.94
497.094	86.94
497.312	90.94
497.529	83.94
497.746	97.94
497.963	106.94
498.181	97.94
498.398	101.94
498.615	104.94
498.832	109.94
499.049	107.94
499.267	81.94
499.484	101.94
499.701	100.94
499.918	85.94
500.135	86.94
500.352	87.94
500.569	88.94
500.786	101.94
501.003	96.94
501.22	105.94
501.437	99.94
501.654	113.94
501.871	115.94
502.088	95.94
502.305	99.94
502.522	100.94
502.739	93.94
502.956	97.94
503.172	98.94
503.389	101.94
503.606	127.94
503.823	103.94
504.04	86.94
504.256	92.94
504.473	98.94
504.69	102.94
504.907	95.94
505.123	99.94
505.34	99.94
505.557	91.94
505.773	85.94
505.99	98.94
506.207	98.94
506.423	82.94
506.64	99.94
506.856	99.94
507.073	102.94
507.289	110.94
507.506	99.94
507.722	129.94
507.939	126.94
508.155	106.94
508.372	101.94
508.588	97.94
508.805	111.94
509.021	97.94
509.238	103.94
509.454	97.94
509.67	106.94
509.887	113.94
510.103	120.94
510.319	214.94
510.536	746.94
510.752	2397.94
510.968	657.94
511.184	165.94
511.401	126.94
511.617	93.94
511.833	101.94
512.049	88.94
512.265	86.94
512.481	83.94
512.698	103.94
512.914	101.94
513.13	109.94
513.346	87.94
513.562	98.94
513.778	80.94
513.994	97.94
