Data from Circ_1981_H10_HRD10591_00039.txt Node
Date: Wed Jan 03 12:34:28 EST 2024
User: Yrep
Spectrometer: HR+D1059
Trigger mode: 1
Integration Time (sec): 1.000000E-1
Scans to average: 1
Electric dark correction enabled: true
Nonlinearity correction enabled: false
Boxcar width: 0
XAxis mode: Wavelengths
Number of Pixels in Spectrum: 2048
>>>>>Begin Spectral Data<<<<<
223.165	-18.94
223.4	-18.94
223.635	-18.94
223.869	-22.94
224.104	-25.94
224.338	-19.94
224.573	-5.94
224.808	-1.94
225.042	-17.94
225.277	-7.94
225.511	-5.94
225.746	-0.94
225.98	6.06
226.215	10.06
226.449	25.06
226.683	23.06
226.918	34.06
227.152	30.06
227.387	34.06
227.621	41.06
227.856	46.06
228.09	44.06
228.324	53.06
228.559	50.06
228.793	79.06
229.027	76.06
229.262	57.06
229.496	80.06
229.73	97.06
229.964	99.06
230.199	74.06
230.433	86.06
230.667	70.06
230.901	76.06
231.136	72.06
231.37	74.06
231.604	68.06
231.838	92.06
232.072	85.06
232.306	107.06
232.541	85.06
232.775	82.06
233.009	86.06
233.243	89.06
233.477	71.06
233.711	93.06
233.945	97.06
234.179	94.06
234.413	105.06
234.647	91.06
234.881	82.06
235.115	76.06
235.349	71.06
235.583	83.06
235.817	77.06
236.051	87.06
236.285	70.06
236.519	79.06
236.753	71.06
236.987	85.06
237.221	89.06
237.455	98.06
237.689	76.06
237.922	72.06
238.156	70.06
238.39	87.06
238.624	70.06
238.858	76.06
239.091	76.06
239.325	76.06
239.559	73.06
239.793	61.06
240.027	76.06
240.26	88.06
240.494	85.06
240.728	69.06
240.961	75.06
241.195	68.06
241.429	92.06
241.662	70.06
241.896	80.06
242.13	71.06
242.363	68.06
242.597	74.06
242.83	84.06
243.064	85.06
243.298	76.06
243.531	67.06
243.765	75.06
243.998	86.06
244.232	73.06
244.465	87.06
244.699	81.06
244.932	71.06
245.166	69.06
245.399	78.06
245.633	92.06
245.866	77.06
246.099	74.06
246.333	74.06
246.566	75.06
246.8	79.06
247.033	92.06
247.266	83.06
247.5	84.06
247.733	73.06
247.966	74.06
248.2	81.06
248.433	86.06
248.666	85.06
248.899	93.06
249.133	86.06
249.366	116.06
249.599	99.06
249.832	76.06
250.066	103.06
250.299	89.06
250.532	83.06
250.765	69.06
250.998	82.06
251.231	78.06
251.465	91.06
251.698	83.06
251.931	70.06
252.164	80.06
252.397	74.06
252.63	85.06
252.863	90.06
253.096	83.06
253.329	74.06
253.562	83.06
253.795	96.06
254.028	83.06
254.261	73.06
254.494	83.06
254.727	78.06
254.96	93.06
255.193	83.06
255.426	94.06
255.659	83.06
255.892	79.06
256.124	79.06
256.357	91.06
256.59	82.06
256.823	84.06
257.056	79.06
257.289	81.06
257.521	85.06
257.754	93.06
257.987	80.06
258.22	74.06
258.452	94.06
258.685	70.06
258.918	76.06
259.151	89.06
259.383	81.06
259.616	78.06
259.849	88.06
260.081	87.06
260.314	88.06
260.547	78.06
260.779	76.06
261.012	87.06
261.244	76.06
261.477	85.06
261.71	104.06
261.942	154.06
262.175	129.06
262.407	81.06
262.64	84.06
262.872	80.06
263.105	88.06
263.337	94.06
263.57	97.06
263.802	71.06
264.035	86.06
264.267	97.06
264.499	93.06
264.732	85.06
264.964	70.06
265.197	75.06
265.429	86.06
265.661	74.06
265.894	83.06
266.126	85.06
266.358	75.06
266.591	78.06
266.823	75.06
267.055	74.06
267.287	86.06
267.52	85.06
267.752	67.06
267.984	87.06
268.216	95.06
268.448	97.06
268.681	86.06
268.913	87.06
269.145	82.06
269.377	81.06
269.609	83.06
269.841	93.06
270.073	71.06
270.306	88.06
270.538	87.06
270.77	65.06
271.002	106.06
271.234	83.06
271.466	82.06
271.698	86.06
271.93	82.06
272.162	99.06
272.394	97.06
272.626	78.06
272.858	98.06
273.09	78.06
273.322	82.06
273.553	79.06
273.785	81.06
274.017	81.06
274.249	78.06
274.481	98.06
274.713	105.06
274.945	97.06
275.176	83.06
275.408	83.06
275.64	76.06
275.872	85.06
276.104	79.06
276.335	97.06
276.567	99.06
276.799	109.06
277.031	108.06
277.262	90.06
277.494	111.06
277.726	79.06
277.957	86.06
278.189	89.06
278.421	95.06
278.652	82.06
278.884	90.06
279.115	92.06
279.347	82.06
279.579	74.06
279.81	84.06
280.042	97.06
280.273	91.06
280.505	100.06
280.736	91.06
280.968	89.06
281.199	98.06
281.431	84.06
281.662	88.06
281.894	106.06
282.125	101.06
282.356	135.06
282.588	150.06
282.819	134.06
283.051	100.06
283.282	82.06
283.513	101.06
283.745	86.06
283.976	90.06
284.207	90.06
284.439	71.06
284.67	81.06
284.901	75.06
285.132	86.06
285.364	97.06
285.595	92.06
285.826	89.06
286.057	95.06
286.288	78.06
286.52	89.06
286.751	77.06
286.982	78.06
287.213	97.06
287.444	84.06
287.675	88.06
287.906	92.06
288.138	92.06
288.369	98.06
288.6	94.06
288.831	83.06
289.062	79.06
289.293	85.06
289.524	87.06
289.755	85.06
289.986	86.06
290.217	89.06
290.448	83.06
290.679	95.06
290.91	89.06
291.141	82.06
291.371	85.06
291.602	85.06
291.833	88.06
292.064	90.06
292.295	97.06
292.526	97.06
292.757	95.06
292.987	98.06
293.218	86.06
293.449	101.06
293.68	89.06
293.91	84.06
294.141	84.06
294.372	102.06
294.603	83.06
294.833	101.06
295.064	89.06
295.295	89.06
295.525	93.06
295.756	101.06
295.987	111.06
296.217	174.06
296.448	141.06
296.679	105.06
296.909	98.06
297.14	96.06
297.37	97.06
297.601	102.06
297.831	93.06
298.062	99.06
298.292	91.06
298.523	102.06
298.753	95.06
298.984	95.06
299.214	99.06
299.445	101.06
299.675	87.06
299.905	100.06
300.136	84.06
300.366	85.06
300.597	88.06
300.827	97.06
301.057	112.06
301.288	117.06
301.518	90.06
301.748	87.06
301.979	92.06
302.209	97.06
302.439	94.06
302.669	97.06
302.9	85.06
303.13	86.06
303.36	96.06
303.59	103.06
303.82	108.06
304.051	93.06
304.281	90.06
304.511	87.06
304.741	94.06
304.971	95.06
305.201	98.06
305.431	97.06
305.661	89.06
305.891	90.06
306.121	100.06
306.352	102.06
306.582	110.06
306.812	99.06
307.042	97.06
307.272	98.06
307.502	94.06
307.731	97.06
307.961	89.06
308.191	100.06
308.421	89.06
308.651	94.06
308.881	87.06
309.111	97.06
309.341	91.06
309.571	98.06
309.8	105.06
310.03	107.06
310.26	110.06
310.49	100.06
310.72	94.06
310.949	123.06
311.179	116.06
311.409	90.06
311.639	106.06
311.868	106.06
312.098	102.06
312.328	94.06
312.557	114.06
312.787	120.06
313.017	103.06
313.246	87.06
313.476	94.06
313.706	105.06
313.935	99.06
314.165	114.06
314.394	117.06
314.624	110.06
314.853	101.06
315.083	101.06
315.312	84.06
315.542	97.06
315.771	101.06
316.001	100.06
316.23	94.06
316.46	92.06
316.689	90.06
316.919	103.06
317.148	104.06
317.377	99.06
317.607	114.06
317.836	98.06
318.065	85.06
318.295	92.06
318.524	98.06
318.753	77.06
318.983	107.06
319.212	117.06
319.441	105.06
319.67	129.06
319.9	109.06
320.129	90.06
320.358	101.06
320.587	107.06
320.816	105.06
321.046	112.06
321.275	106.06
321.504	89.06
321.733	113.06
321.962	92.06
322.191	97.06
322.42	83.06
322.649	109.06
322.878	140.06
323.108	131.06
323.337	132.06
323.566	155.06
323.795	185.06
324.024	230.06
324.253	455.06
324.482	983.06
324.71	2054.06
324.939	2788.06
325.168	1009.06
325.397	291.06
325.626	177.06
325.855	147.06
326.084	135.06
326.313	141.06
326.542	163.06
326.77	255.06
326.999	508.06
327.228	1020.06
327.457	1977.06
327.686	1612.06
327.914	427.06
328.143	245.06
328.372	203.06
328.6	163.06
328.829	137.06
329.058	161.06
329.287	175.06
329.515	121.06
329.744	113.06
329.972	118.06
330.201	136.06
330.43	174.06
330.658	185.06
330.887	210.06
331.115	163.06
331.344	97.06
331.572	109.06
331.801	123.06
332.03	114.06
332.258	111.06
332.486	100.06
332.715	85.06
332.943	99.06
333.172	110.06
333.4	100.06
333.629	113.06
333.857	123.06
334.085	116.06
334.314	134.06
334.542	150.06
334.771	159.06
334.999	124.06
335.227	107.06
335.455	97.06
335.684	105.06
335.912	100.06
336.14	106.06
336.369	108.06
336.597	115.06
336.825	87.06
337.053	93.06
337.281	91.06
337.51	91.06
337.738	100.06
337.966	102.06
338.194	112.06
338.422	93.06
338.65	106.06
338.878	101.06
339.106	100.06
339.334	98.06
339.562	85.06
339.79	100.06
340.018	109.06
340.246	99.06
340.474	107.06
340.702	100.06
340.93	85.06
341.158	95.06
341.386	106.06
341.614	102.06
341.842	108.06
342.07	106.06
342.298	92.06
342.526	95.06
342.754	79.06
342.981	99.06
343.209	92.06
343.437	112.06
343.665	91.06
343.893	99.06
344.12	98.06
344.348	90.06
344.576	81.06
344.804	93.06
345.031	112.06
345.259	109.06
345.487	108.06
345.714	92.06
345.942	98.06
346.17	101.06
346.397	95.06
346.625	96.06
346.853	99.06
347.08	103.06
347.308	105.06
347.535	114.06
347.763	119.06
347.99	99.06
348.218	111.06
348.445	108.06
348.673	105.06
348.9	98.06
349.128	91.06
349.355	96.06
349.583	105.06
349.81	92.06
350.037	89.06
350.265	110.06
350.492	100.06
350.72	106.06
350.947	104.06
351.174	111.06
351.402	118.06
351.629	121.06
351.856	115.06
352.083	114.06
352.311	124.06
352.538	117.06
352.765	111.06
352.992	134.06
353.22	125.06
353.447	106.06
353.674	109.06
353.901	94.06
354.128	99.06
354.355	87.06
354.583	100.06
354.81	99.06
355.037	87.06
355.264	82.06
355.491	109.06
355.718	101.06
355.945	91.06
356.172	94.06
356.399	83.06
356.626	95.06
356.853	100.06
357.08	109.06
357.307	86.06
357.534	93.06
357.761	110.06
357.988	85.06
358.215	93.06
358.441	83.06
358.668	114.06
358.895	90.06
359.122	95.06
359.349	93.06
359.576	98.06
359.802	108.06
360.029	152.06
360.256	141.06
360.483	126.06
360.709	108.06
360.936	89.06
361.163	91.06
361.39	101.06
361.616	120.06
361.843	110.06
362.07	111.06
362.296	101.06
362.523	91.06
362.749	104.06
362.976	94.06
363.203	106.06
363.429	91.06
363.656	101.06
363.882	105.06
364.109	90.06
364.335	85.06
364.562	92.06
364.788	108.06
365.015	101.06
365.241	108.06
365.468	123.06
365.694	125.06
365.92	105.06
366.147	96.06
366.373	91.06
366.599	92.06
366.826	97.06
367.052	101.06
367.278	95.06
367.505	93.06
367.731	100.06
367.957	98.06
368.184	101.06
368.41	102.06
368.636	111.06
368.862	139.06
369.089	117.06
369.315	107.06
369.541	102.06
369.767	93.06
369.993	86.06
370.219	101.06
370.445	99.06
370.672	63.06
370.898	76.06
371.124	85.06
371.35	92.06
371.576	96.06
371.802	78.06
372.028	82.06
372.254	85.06
372.48	105.06
372.706	71.06
372.932	92.06
373.158	91.06
373.384	88.06
373.61	108.06
373.835	108.06
374.061	87.06
374.287	93.06
374.513	83.06
374.739	108.06
374.965	93.06
375.191	86.06
375.416	106.06
375.642	95.06
375.868	101.06
376.094	101.06
376.319	88.06
376.545	89.06
376.771	82.06
376.997	89.06
377.222	92.06
377.448	90.06
377.674	91.06
377.899	95.06
378.125	85.06
378.35	104.06
378.576	85.06
378.802	85.06
379.027	82.06
379.253	83.06
379.478	81.06
379.704	96.06
379.929	86.06
380.155	88.06
380.38	87.06
380.606	100.06
380.831	100.06
381.057	100.06
381.282	84.06
381.507	87.06
381.733	93.06
381.958	107.06
382.184	100.06
382.409	100.06
382.634	106.06
382.86	110.06
383.085	106.06
383.31	97.06
383.535	104.06
383.761	95.06
383.986	121.06
384.211	101.06
384.436	99.06
384.662	108.06
384.887	102.06
385.112	115.06
385.337	102.06
385.562	91.06
385.787	101.06
386.013	102.06
386.238	129.06
386.463	111.06
386.688	99.06
386.913	104.06
387.138	102.06
387.363	105.06
387.588	104.06
387.813	106.06
388.038	103.06
388.263	99.06
388.488	100.06
388.713	103.06
388.938	98.06
389.163	100.06
389.387	90.06
389.612	98.06
389.837	79.06
390.062	93.06
390.287	96.06
390.512	108.06
390.736	97.06
390.961	107.06
391.186	101.06
391.411	103.06
391.636	90.06
391.86	95.06
392.085	97.06
392.31	87.06
392.534	92.06
392.759	77.06
392.984	78.06
393.208	100.06
393.433	96.06
393.658	80.06
393.882	87.06
394.107	93.06
394.331	89.06
394.556	76.06
394.78	93.06
395.005	101.06
395.229	90.06
395.454	83.06
395.678	88.06
395.903	90.06
396.127	95.06
396.352	99.06
396.576	97.06
396.801	97.06
397.025	94.06
397.249	65.06
397.474	96.06
397.698	81.06
397.922	93.06
398.147	95.06
398.371	81.06
398.595	74.06
398.82	86.06
399.044	76.06
399.268	95.06
399.492	81.06
399.717	96.06
399.941	90.06
400.165	97.06
400.389	101.06
400.613	64.06
400.837	91.06
401.062	90.06
401.286	99.06
401.51	109.06
401.734	91.06
401.958	107.06
402.182	153.06
402.406	192.06
402.63	145.06
402.854	102.06
403.078	98.06
403.302	82.06
403.526	88.06
403.75	77.06
403.974	86.06
404.198	78.06
404.422	76.06
404.645	89.06
404.869	92.06
405.093	99.06
405.317	113.06
405.541	118.06
405.765	113.06
405.988	140.06
406.212	204.06
406.436	303.06
406.66	195.06
406.883	127.06
407.107	117.06
407.331	104.06
407.555	113.06
407.778	108.06
408.002	108.06
408.226	93.06
408.449	100.06
408.673	87.06
408.896	88.06
409.12	95.06
409.344	95.06
409.567	85.06
409.791	89.06
410.014	102.06
410.238	91.06
410.461	95.06
410.685	86.06
410.908	90.06
411.132	109.06
411.355	107.06
411.578	87.06
411.802	73.06
412.025	93.06
412.249	104.06
412.472	107.06
412.695	85.06
412.919	92.06
413.142	84.06
413.365	93.06
413.589	94.06
413.812	94.06
414.035	89.06
414.258	79.06
414.482	75.06
414.705	91.06
414.928	95.06
415.151	84.06
415.374	87.06
415.597	84.06
415.821	89.06
416.044	91.06
416.267	86.06
416.49	79.06
416.713	79.06
416.936	90.06
417.159	89.06
417.382	92.06
417.605	99.06
417.828	100.06
418.051	115.06
418.274	85.06
418.497	95.06
418.72	86.06
418.943	77.06
419.166	92.06
419.389	96.06
419.611	90.06
419.834	87.06
420.057	102.06
420.28	90.06
420.503	87.06
420.726	89.06
420.948	102.06
421.171	105.06
421.394	107.06
421.617	90.06
421.839	85.06
422.062	75.06
422.285	100.06
422.507	98.06
422.73	97.06
422.953	99.06
423.175	97.06
423.398	90.06
423.621	79.06
423.843	93.06
424.066	91.06
424.288	85.06
424.511	82.06
424.733	103.06
424.956	125.06
425.178	121.06
425.401	108.06
425.623	113.06
425.846	85.06
426.068	100.06
426.291	88.06
426.513	84.06
426.735	95.06
426.958	103.06
427.18	124.06
427.402	155.06
427.625	216.06
427.847	165.06
428.069	116.06
428.292	105.06
428.514	89.06
428.736	91.06
428.958	93.06
429.181	100.06
429.403	95.06
429.625	86.06
429.847	85.06
430.069	107.06
430.292	101.06
430.514	78.06
430.736	89.06
430.958	87.06
431.18	83.06
431.402	97.06
431.624	88.06
431.846	68.06
432.068	85.06
432.29	91.06
432.512	94.06
432.734	93.06
432.956	87.06
433.178	98.06
433.4	110.06
433.622	88.06
433.844	94.06
434.066	85.06
434.287	92.06
434.509	78.06
434.731	81.06
434.953	100.06
435.175	99.06
435.397	91.06
435.618	96.06
435.84	109.06
436.062	122.06
436.284	135.06
436.505	117.06
436.727	102.06
436.949	107.06
437.17	95.06
437.392	95.06
437.614	103.06
437.835	131.06
438.057	157.06
438.278	133.06
438.5	122.06
438.721	148.06
438.943	112.06
439.165	87.06
439.386	102.06
439.608	96.06
439.829	117.06
440.05	155.06
440.272	175.06
440.493	117.06
440.715	107.06
440.936	81.06
441.158	91.06
441.379	96.06
441.6	109.06
441.822	101.06
442.043	89.06
442.264	111.06
442.486	101.06
442.707	101.06
442.928	126.06
443.149	146.06
443.371	177.06
443.592	132.06
443.813	117.06
444.034	120.06
444.255	88.06
444.476	85.06
444.698	93.06
444.919	90.06
445.14	123.06
445.361	130.06
445.582	140.06
445.803	177.06
446.024	169.06
446.245	168.06
446.466	126.06
446.687	93.06
446.908	99.06
447.129	97.06
447.35	104.06
447.571	89.06
447.792	96.06
448.013	99.06
448.234	125.06
448.455	105.06
448.675	104.06
448.896	130.06
449.117	99.06
449.338	114.06
449.559	157.06
449.779	161.06
450	103.06
450.221	104.06
450.442	101.06
450.662	106.06
450.883	142.06
451.104	135.06
451.324	108.06
451.545	99.06
451.766	89.06
451.986	81.06
452.207	82.06
452.428	98.06
452.648	102.06
452.869	126.06
453.089	130.06
453.31	139.06
453.53	112.06
453.751	90.06
453.971	106.06
454.192	124.06
454.412	115.06
454.633	83.06
454.853	93.06
455.073	96.06
455.294	85.06
455.514	115.06
455.734	103.06
455.955	82.06
456.175	79.06
456.395	89.06
456.616	75.06
456.836	101.06
457.056	92.06
457.276	93.06
457.497	81.06
457.717	93.06
457.937	91.06
458.157	86.06
458.377	77.06
458.598	115.06
458.818	177.06
459.038	225.06
459.258	151.06
459.478	100.06
459.698	90.06
459.918	84.06
460.138	90.06
460.358	87.06
460.578	106.06
460.798	89.06
461.018	92.06
461.238	86.06
461.458	79.06
461.678	77.06
461.898	92.06
462.118	85.06
462.338	98.06
462.558	82.06
462.777	91.06
462.997	96.06
463.217	87.06
463.437	83.06
463.657	85.06
463.876	88.06
464.096	85.06
464.316	86.06
464.536	104.06
464.755	105.06
464.975	113.06
465.195	234.06
465.414	241.06
465.634	109.06
465.854	92.06
466.073	88.06
466.293	89.06
466.512	78.06
466.732	93.06
466.951	93.06
467.171	92.06
467.391	104.06
467.61	126.06
467.829	110.06
468.049	119.06
468.268	114.06
468.488	89.06
468.707	95.06
468.927	90.06
469.146	84.06
469.365	100.06
469.585	100.06
469.804	106.06
470.023	118.06
470.243	103.06
470.462	119.06
470.681	151.06
470.901	94.06
471.12	85.06
471.339	97.06
471.558	97.06
471.777	98.06
471.997	87.06
472.216	132.06
472.435	176.06
472.654	109.06
472.873	101.06
473.092	92.06
473.311	93.06
473.53	102.06
473.749	93.06
473.968	101.06
474.187	121.06
474.406	100.06
474.625	81.06
474.844	95.06
475.063	86.06
475.282	81.06
475.501	94.06
475.72	77.06
475.939	91.06
476.158	93.06
476.377	90.06
476.596	94.06
476.814	103.06
477.033	88.06
477.252	88.06
477.471	78.06
477.69	94.06
477.908	86.06
478.127	72.06
478.346	85.06
478.564	87.06
478.783	100.06
479.002	99.06
479.22	101.06
479.439	102.06
479.658	118.06
479.876	109.06
480.095	105.06
480.313	114.06
480.532	87.06
480.751	110.06
480.969	126.06
481.188	243.06
481.406	195.06
481.624	104.06
481.843	89.06
482.061	95.06
482.28	89.06
482.498	91.06
482.717	77.06
482.935	76.06
483.153	81.06
483.372	96.06
483.59	85.06
483.808	88.06
484.027	85.06
484.245	97.06
484.463	87.06
484.681	94.06
484.9	91.06
485.118	101.06
485.336	82.06
485.554	99.06
485.772	98.06
485.99	118.06
486.209	103.06
486.427	102.06
486.645	114.06
486.863	119.06
487.081	104.06
487.299	103.06
487.517	110.06
487.735	99.06
487.953	100.06
488.171	99.06
488.389	92.06
488.607	117.06
488.825	90.06
489.043	94.06
489.261	102.06
489.479	82.06
489.696	102.06
489.914	86.06
490.132	82.06
490.35	86.06
490.568	73.06
490.786	97.06
491.003	92.06
491.221	97.06
491.439	86.06
491.657	79.06
491.874	100.06
492.092	92.06
492.31	99.06
492.527	109.06
492.745	93.06
492.963	81.06
493.18	101.06
493.398	91.06
493.615	84.06
493.833	80.06
494.05	88.06
494.268	89.06
494.485	98.06
494.703	99.06
494.92	81.06
495.138	90.06
495.355	83.06
495.573	100.06
495.79	85.06
496.008	100.06
496.225	93.06
496.442	91.06
496.66	108.06
496.877	95.06
497.094	99.06
497.312	100.06
497.529	104.06
497.746	78.06
497.963	90.06
498.181	81.06
498.398	90.06
498.615	111.06
498.832	113.06
499.049	97.06
499.267	100.06
499.484	83.06
499.701	91.06
499.918	87.06
500.135	101.06
500.352	101.06
500.569	103.06
500.786	100.06
501.003	78.06
501.22	78.06
501.437	107.06
501.654	105.06
501.871	124.06
502.088	85.06
502.305	91.06
502.522	98.06
502.739	103.06
502.956	95.06
503.172	102.06
503.389	86.06
503.606	105.06
503.823	107.06
504.04	93.06
504.256	85.06
504.473	95.06
504.69	98.06
504.907	87.06
505.123	98.06
505.34	92.06
505.557	105.06
505.773	91.06
505.99	86.06
506.207	85.06
506.423	95.06
506.64	96.06
506.856	85.06
507.073	91.06
507.289	111.06
507.506	96.06
507.722	122.06
507.939	123.06
508.155	105.06
508.372	109.06
508.588	89.06
508.805	98.06
509.021	114.06
509.238	129.06
509.454	121.06
509.67	106.06
509.887	115.06
510.103	133.06
510.319	236.06
510.536	914.06
510.752	3063.06
510.968	831.06
511.184	182.06
511.401	132.06
511.617	96.06
511.833	88.06
512.049	94.06
512.265	101.06
512.481	90.06
512.698	94.06
512.914	109.06
513.13	101.06
513.346	103.06
