Data from Circ_1981_H10_HRD10591_00090.txt Node
Date: Wed Jan 03 12:34:39 EST 2024
User: Yrep
Spectrometer: HR+D1059
Trigger mode: 1
Integration Time (sec): 1.000000E-1
Scans to average: 1
Electric dark correction enabled: true
Nonlinearity correction enabled: false
Boxcar width: 0
XAxis mode: Wavelengths
Number of Pixels in Spectrum: 2048
>>>>>Begin Spectral Data<<<<<
223.165	-12.81
223.4	-12.81
223.635	-12.81
223.869	-24.81
224.104	-10.81
224.338	-13.81
224.573	-29.81
224.808	-22.81
225.042	-10.81
225.277	0.19
225.511	-9.81
225.746	9.19
225.98	11.19
226.215	11.19
226.449	23.19
226.683	23.19
226.918	30.19
227.152	27.19
227.387	31.19
227.621	44.19
227.856	41.19
228.09	53.19
228.324	47.19
228.559	64.19
228.793	173.19
229.027	449.19
229.262	556.19
229.496	669.19
229.73	877.19
229.964	889.19
230.199	577.19
230.433	542.19
230.667	507.19
230.901	477.19
231.136	458.19
231.37	475.19
231.604	461.19
231.838	480.19
232.072	464.19
232.306	487.19
232.541	501.19
232.775	486.19
233.009	488.19
233.243	506.19
233.477	505.19
233.711	501.19
233.945	513.19
234.179	550.19
234.413	527.19
234.647	545.19
234.881	543.19
235.115	544.19
235.349	577.19
235.583	569.19
235.817	635.19
236.051	676.19
236.285	660.19
236.519	646.19
236.753	748.19
236.987	992.19
237.221	1486.19
237.455	1626.19
237.689	981.19
237.922	803.19
238.156	784.19
238.39	713.19
238.624	678.19
238.858	674.19
239.091	670.19
239.325	698.19
239.559	710.19
239.793	743.19
240.027	824.19
240.26	991.19
240.494	1071.19
240.728	1049.19
240.961	993.19
241.195	857.19
241.429	831.19
241.662	813.19
241.896	804.19
242.13	797.19
242.363	826.19
242.597	833.19
242.83	889.19
243.064	877.19
243.298	863.19
243.531	864.19
243.765	883.19
243.998	905.19
244.232	885.19
244.465	957.19
244.699	940.19
244.932	963.19
245.166	937.19
245.399	938.19
245.633	946.19
245.866	967.19
246.099	957.19
246.333	998.19
246.566	999.19
246.8	1021.19
247.033	1093.19
247.266	1105.19
247.5	1153.19
247.733	1256.19
247.966	1201.19
248.2	1201.19
248.433	1247.19
248.666	1279.19
248.899	1449.19
249.133	1585.19
249.366	1586.19
249.599	1421.19
249.832	1311.19
250.066	1300.19
250.299	1354.19
250.532	1503.19
250.765	1692.19
250.998	1880.19
251.231	1768.19
251.465	1581.19
251.698	1531.19
251.931	1458.19
252.164	1461.19
252.397	1491.19
252.63	1557.19
252.863	1683.19
253.096	1805.19
253.329	1893.19
253.562	1743.19
253.795	1655.19
254.028	1612.19
254.261	1719.19
254.494	1939.19
254.727	2358.19
254.96	2445.19
255.193	2052.19
255.426	1877.19
255.659	1755.19
255.892	1824.19
256.124	1876.19
256.357	1818.19
256.59	1665.19
256.823	1609.19
257.056	1609.19
257.289	1639.19
257.521	1675.19
257.754	1643.19
257.987	1587.19
258.22	1637.19
258.452	1592.19
258.685	1612.19
258.918	1671.19
259.151	1744.19
259.383	1814.19
259.616	1797.19
259.849	1873.19
260.081	2091.19
260.314	2319.19
260.547	2129.19
260.779	1924.19
261.012	1909.19
261.244	1814.19
261.477	1766.19
261.71	1800.19
261.942	1836.19
262.175	1925.19
262.407	1800.19
262.64	1722.19
262.872	1745.19
263.105	1739.19
263.337	1711.19
263.57	1716.19
263.802	1773.19
264.035	1719.19
264.267	1727.19
264.499	1758.19
264.732	1782.19
264.964	1793.19
265.197	1761.19
265.429	1822.19
265.661	1787.19
265.894	1777.19
266.126	1824.19
266.358	1786.19
266.591	1856.19
266.823	1949.19
267.055	1960.19
267.287	1957.19
267.52	1944.19
267.752	1932.19
267.984	1959.19
268.216	1967.19
268.448	1990.19
268.681	2081.19
268.913	2251.19
269.145	2465.19
269.377	2506.19
269.609	2337.19
269.841	2331.19
270.073	2489.19
270.306	2857.19
270.538	3012.19
270.77	2807.19
271.002	2591.19
271.234	2589.19
271.466	2751.19
271.698	2942.19
271.93	2897.19
272.162	2997.19
272.394	2832.19
272.626	2639.19
272.858	2469.19
273.09	2413.19
273.322	2310.19
273.553	2341.19
273.785	2273.19
274.017	2332.19
274.249	2376.19
274.481	2369.19
274.713	2398.19
274.945	2443.19
275.176	2427.19
275.408	2358.19
275.64	2352.19
275.872	2345.19
276.104	2399.19
276.335	2435.19
276.567	2517.19
276.799	2723.19
277.031	3016.19
277.262	3135.19
277.494	2945.19
277.726	2703.19
277.957	2643.19
278.189	2546.19
278.421	2519.19
278.652	2507.19
278.884	2461.19
279.115	2466.19
279.347	2477.19
279.579	2438.19
279.81	2451.19
280.042	2451.19
280.273	2500.19
280.505	2498.19
280.736	2481.19
280.968	2518.19
281.199	2482.19
281.431	2496.19
281.662	2544.19
281.894	2543.19
282.125	2590.19
282.356	2784.19
282.588	3013.19
282.819	2797.19
283.051	2594.19
283.282	2605.19
283.513	2604.19
283.745	2730.19
283.976	2759.19
284.207	2716.19
284.439	2701.19
284.67	2683.19
284.901	2701.19
285.132	2700.19
285.364	2701.19
285.595	2683.19
285.826	2675.19
286.057	2731.19
286.288	2771.19
286.52	2743.19
286.751	2741.19
286.982	2747.19
287.213	2791.19
287.444	2803.19
287.675	2892.19
287.906	2999.19
288.138	3081.19
288.369	2969.19
288.6	2995.19
288.831	2956.19
289.062	2915.19
289.293	2855.19
289.524	2872.19
289.755	2929.19
289.986	2868.19
290.217	2872.19
290.448	2883.19
290.679	2906.19
290.91	2854.19
291.141	2857.19
291.371	2860.19
291.602	2896.19
291.833	2846.19
292.064	2842.19
292.295	2917.19
292.526	2909.19
292.757	2866.19
292.987	2872.19
293.218	2854.19
293.449	2921.19
293.68	2872.19
293.91	2896.19
294.141	2894.19
294.372	2902.19
294.603	2967.19
294.833	2928.19
295.064	2957.19
295.295	2947.19
295.525	2936.19
295.756	3041.19
295.987	3132.19
296.217	3349.19
296.448	3249.19
296.679	3033.19
296.909	2958.19
297.14	3000.19
297.37	3041.19
297.601	3102.19
297.831	3096.19
298.062	3153.19
298.292	3110.19
298.523	3215.19
298.753	3227.19
298.984	3165.19
299.214	3133.19
299.445	3163.19
299.675	3145.19
299.905	3225.19
300.136	3220.19
300.366	3208.19
300.597	3239.19
300.827	3313.19
301.057	3415.19
301.288	3487.19
301.518	3431.19
301.748	3454.19
301.979	3462.19
302.209	3520.19
302.439	3455.19
302.669	3441.19
302.9	3366.19
303.13	3368.19
303.36	3371.19
303.59	3418.19
303.82	3483.19
304.051	3412.19
304.281	3412.19
304.511	3320.19
304.741	3325.19
304.971	3328.19
305.201	3319.19
305.431	3291.19
305.661	3318.19
305.891	3291.19
306.121	3334.19
306.352	3325.19
306.582	3405.19
306.812	3287.19
307.042	3295.19
307.272	3375.19
307.502	3328.19
307.731	3332.19
307.961	3375.19
308.191	3316.19
308.421	3367.19
308.651	3377.19
308.881	3358.19
309.111	3446.19
309.341	3399.19
309.571	3478.19
309.8	3575.19
310.03	3674.19
310.26	3736.19
310.49	3696.19
310.72	3831.19
310.949	4010.19
311.179	3939.19
311.409	3723.19
311.639	3700.19
311.868	3799.19
312.098	3757.19
312.328	3857.19
312.557	4106.19
312.787	4185.19
313.017	3981.19
313.246	3848.19
313.476	3781.19
313.706	3902.19
313.935	3938.19
314.165	4115.19
314.394	4093.19
314.624	4095.19
314.853	3954.19
315.083	3872.19
315.312	3876.19
315.542	3781.19
315.771	3728.19
316.001	3707.19
316.23	3720.19
316.46	3795.19
316.689	3795.19
316.919	3880.19
317.148	3943.19
317.377	3905.19
317.607	3899.19
317.836	3833.19
318.065	3752.19
318.295	3765.19
318.524	3704.19
318.753	3755.19
318.983	3771.19
319.212	3769.19
319.441	3799.19
319.67	3849.19
319.9	3767.19
320.129	3735.19
320.358	3798.19
320.587	3831.19
320.816	3904.19
321.046	3997.19
321.275	3940.19
321.504	3935.19
321.733	3896.19
321.962	4071.19
322.191	4092.19
322.42	4298.19
322.649	4312.19
322.878	4374.19
323.108	4500.19
323.337	4639.19
323.566	4901.19
323.795	5161.19
324.024	5827.19
324.253	7611.19
324.482	11604.19
324.71	15633.19
324.939	15633.19
325.168	13613.19
325.397	6759.19
325.626	5312.19
325.855	4941.19
326.084	4811.19
326.313	4891.19
326.542	5045.19
326.77	5779.19
326.999	7347.19
327.228	10792.19
327.457	14949.19
327.686	14362.19
327.914	7621.19
328.143	6141.19
328.372	5891.19
328.6	5567.19
328.829	5488.19
329.058	5871.19
329.287	5795.19
329.515	5266.19
329.744	4967.19
329.972	5153.19
330.201	5408.19
330.43	5864.19
330.658	6055.19
330.887	6427.19
331.115	5844.19
331.344	5176.19
331.572	5068.19
331.801	5216.19
332.03	5233.19
332.258	5110.19
332.486	5109.19
332.715	5157.19
332.943	5291.19
333.172	5499.19
333.4	5638.19
333.629	5763.19
333.857	5815.19
334.085	5890.19
334.314	6015.19
334.542	6300.19
334.771	6222.19
334.999	5589.19
335.227	5392.19
335.455	5226.19
335.684	5175.19
335.912	5076.19
336.14	5063.19
336.369	5139.19
336.597	5169.19
336.825	5052.19
337.053	4955.19
337.281	4854.19
337.51	4895.19
337.738	4848.19
337.966	4811.19
338.194	4837.19
338.422	4755.19
338.65	4678.19
338.878	4552.19
339.106	4545.19
339.334	4600.19
339.562	4529.19
339.79	4496.19
340.018	4489.19
340.246	4541.19
340.474	4517.19
340.702	4484.19
340.93	4464.19
341.158	4519.19
341.386	4503.19
341.614	4562.19
341.842	4432.19
342.07	4416.19
342.298	4372.19
342.526	4323.19
342.754	4398.19
342.981	4421.19
343.209	4437.19
343.437	4645.19
343.665	4968.19
343.893	5251.19
344.12	5230.19
344.348	5041.19
344.576	4858.19
344.804	4852.19
345.031	4835.19
345.259	4764.19
345.487	4589.19
345.714	4480.19
345.942	4330.19
346.17	4344.19
346.397	4295.19
346.625	4337.19
346.853	4362.19
347.08	4313.19
347.308	4362.19
347.535	4451.19
347.763	4468.19
347.99	4405.19
348.218	4517.19
348.445	4513.19
348.673	4346.19
348.9	4299.19
349.128	4193.19
349.355	4113.19
349.583	4150.19
349.81	4121.19
350.037	4128.19
350.265	4079.19
350.492	4093.19
350.72	4151.19
350.947	4185.19
351.174	4315.19
351.402	4433.19
351.629	4254.19
351.856	4302.19
352.083	4437.19
352.311	4445.19
352.538	4500.19
352.765	4387.19
352.992	4313.19
353.22	4199.19
353.447	4263.19
353.674	4140.19
353.901	4039.19
354.128	4061.19
354.355	4015.19
354.583	4027.19
354.81	4054.19
355.037	4019.19
355.264	4009.19
355.491	3974.19
355.718	3971.19
355.945	3980.19
356.172	4043.19
356.399	3956.19
356.626	3969.19
356.853	4045.19
357.08	4005.19
357.307	4001.19
357.534	3989.19
357.761	3991.19
357.988	4060.19
358.215	4032.19
358.441	4099.19
358.668	4068.19
358.895	4124.19
359.122	4095.19
359.349	4216.19
359.576	4357.19
359.802	4624.19
360.029	4905.19
360.256	4891.19
360.483	4629.19
360.709	4321.19
360.936	4306.19
361.163	4279.19
361.39	4407.19
361.616	4383.19
361.843	4312.19
362.07	4346.19
362.296	4320.19
362.523	4289.19
362.749	4327.19
362.976	4195.19
363.203	4206.19
363.429	4135.19
363.656	4192.19
363.882	4112.19
364.109	4100.19
364.335	4105.19
364.562	4102.19
364.788	4117.19
365.015	4147.19
365.241	4119.19
365.468	4264.19
365.694	4232.19
365.92	4260.19
366.147	4123.19
366.373	4103.19
366.599	4108.19
366.826	4089.19
367.052	4110.19
367.278	4120.19
367.505	4117.19
367.731	4192.19
367.957	4141.19
368.184	4223.19
368.41	4259.19
368.636	4395.19
368.862	4349.19
369.089	4238.19
369.315	4244.19
369.541	4152.19
369.767	4267.19
369.993	4213.19
370.219	4245.19
370.445	4257.19
370.672	4311.19
370.898	4311.19
371.124	4359.19
371.35	4325.19
371.576	4374.19
371.802	4355.19
372.028	4293.19
372.254	4276.19
372.48	4426.19
372.706	4495.19
372.932	4475.19
373.158	4442.19
373.384	4459.19
373.61	4351.19
373.835	4426.19
374.061	4453.19
374.287	4565.19
374.513	4485.19
374.739	4674.19
374.965	4807.19
375.191	4825.19
375.416	4641.19
375.642	4542.19
375.868	4590.19
376.094	4463.19
376.319	4424.19
376.545	4443.19
376.771	4439.19
376.997	4351.19
377.222	4413.19
377.448	4345.19
377.674	4304.19
377.899	4285.19
378.125	4331.19
378.35	4304.19
378.576	4315.19
378.802	4334.19
379.027	4327.19
379.253	4323.19
379.478	4357.19
379.704	4317.19
379.929	4434.19
380.155	4395.19
380.38	4351.19
380.606	4397.19
380.831	4372.19
381.057	4379.19
381.282	4373.19
381.507	4447.19
381.733	4425.19
381.958	4513.19
382.184	4541.19
382.409	4529.19
382.634	4567.19
382.86	4624.19
383.085	4681.19
383.31	4735.19
383.535	4791.19
383.761	4875.19
383.986	4908.19
384.211	5002.19
384.436	5063.19
384.662	5110.19
384.887	5183.19
385.112	5149.19
385.337	5255.19
385.562	5192.19
385.787	5228.19
386.013	5368.19
386.238	5391.19
386.463	5318.19
386.688	5312.19
386.913	5202.19
387.138	5146.19
387.363	5238.19
387.588	5107.19
387.813	5211.19
388.038	5169.19
388.263	5228.19
388.488	5191.19
388.713	5166.19
388.938	5205.19
389.163	5191.19
389.387	5134.19
389.612	5073.19
389.837	5098.19
390.062	5099.19
390.287	5090.19
390.512	5032.19
390.736	5189.19
390.961	5307.19
391.186	5344.19
391.411	5525.19
391.636	5654.19
391.86	5838.19
392.085	5826.19
392.31	5782.19
392.534	5617.19
392.759	5557.19
392.984	5423.19
393.208	5379.19
393.433	5415.19
393.658	5383.19
393.882	5392.19
394.107	5345.19
394.331	5439.19
394.556	5374.19
394.78	5503.19
395.005	5590.19
395.229	5539.19
395.454	5664.19
395.678	5898.19
395.903	5900.19
396.127	5871.19
396.352	5673.19
396.576	5488.19
396.801	5445.19
397.025	5698.19
397.249	5718.19
397.474	5809.19
397.698	5780.19
397.922	5967.19
398.147	6130.19
398.371	6200.19
398.595	6308.19
398.82	6563.19
399.044	7067.19
399.268	7858.19
399.492	8860.19
399.717	9663.19
399.941	9367.19
400.165	8776.19
400.389	8019.19
400.613	7304.19
400.837	6787.19
401.062	6683.19
401.286	6585.19
401.51	6519.19
401.734	6480.19
401.958	6646.19
402.182	6777.19
402.406	6922.19
402.63	6938.19
402.854	7061.19
403.078	7046.19
403.302	7294.19
403.526	7414.19
403.75	7428.19
403.974	7439.19
404.198	7419.19
404.422	7636.19
404.645	7541.19
404.869	7403.19
405.093	7813.19
405.317	8069.19
405.541	7952.19
405.765	7392.19
405.988	7387.19
406.212	7491.19
406.436	7797.19
406.66	7942.19
406.883	7749.19
407.107	8368.19
407.331	8944.19
407.555	9473.19
407.778	9137.19
408.002	8286.19
408.226	7891.19
408.449	7812.19
408.673	7651.19
408.896	7876.19
409.12	7967.19
409.344	7605.19
409.567	7188.19
409.791	7108.19
410.014	7016.19
410.238	6993.19
410.461	7051.19
410.685	7066.19
410.908	7183.19
411.132	7466.19
411.355	7401.19
411.578	7077.19
411.802	6840.19
412.025	6821.19
412.249	7061.19
412.472	7251.19
412.695	7385.19
412.919	6898.19
413.142	6633.19
413.365	6504.19
413.589	6499.19
413.812	6368.19
414.035	6341.19
414.258	6414.19
414.482	6389.19
414.705	6500.19
414.928	6446.19
415.151	6458.19
415.374	6398.19
415.597	6372.19
415.821	6181.19
416.044	6300.19
416.267	6314.19
416.49	6285.19
416.713	6234.19
416.936	6333.19
417.159	6344.19
417.382	6434.19
417.605	6442.19
417.828	6625.19
418.051	6761.19
418.274	6541.19
418.497	6426.19
418.72	6629.19
418.943	6500.19
419.166	6864.19
419.389	7215.19
419.611	7216.19
419.834	7033.19
420.057	6903.19
420.28	6814.19
420.503	6616.19
420.726	6556.19
420.948	6724.19
421.171	7177.19
421.394	7181.19
421.617	6544.19
421.839	6563.19
422.062	6597.19
422.285	6853.19
422.507	7465.19
422.73	8093.19
422.953	7421.19
423.175	7077.19
423.398	7063.19
423.621	7066.19
423.843	7375.19
424.066	7255.19
424.288	7203.19
424.511	7409.19
424.733	7874.19
424.956	8331.19
425.178	7859.19
425.401	8043.19
425.623	7839.19
425.846	6891.19
426.068	6686.19
426.291	6619.19
426.513	6603.19
426.735	6730.19
426.958	7201.19
427.18	8035.19
427.402	9265.19
427.625	9502.19
427.847	8106.19
428.069	7173.19
428.292	6625.19
428.514	6122.19
428.736	6027.19
428.958	6068.19
429.181	5852.19
429.403	5946.19
429.625	6123.19
429.847	6375.19
430.069	6931.19
430.292	6475.19
430.514	5923.19
430.736	5968.19
430.958	5795.19
431.18	5731.19
431.402	5743.19
431.624	5678.19
431.846	5807.19
432.068	5770.19
432.29	5795.19
432.512	5813.19
432.734	5865.19
432.956	5805.19
433.178	5927.19
433.4	5945.19
433.622	5791.19
433.844	5830.19
434.066	5846.19
434.287	5942.19
434.509	6183.19
434.731	6400.19
434.953	6510.19
435.175	6742.19
435.397	6776.19
435.618	6732.19
435.84	7086.19
436.062	7976.19
436.284	7943.19
436.505	6693.19
436.727	6302.19
436.949	6014.19
437.17	5898.19
437.392	5865.19
437.614	6055.19
437.835	6501.19
438.057	7553.19
438.278	8167.19
438.5	8002.19
438.721	8848.19
438.943	7741.19
439.165	6450.19
439.386	6368.19
439.608	6380.19
439.829	6495.19
440.05	6978.19
440.272	7371.19
440.493	6676.19
440.715	6262.19
440.936	6219.19
441.158	6309.19
441.379	6333.19
441.6	6683.19
441.822	6947.19
442.043	7390.19
442.264	8348.19
442.486	7961.19
442.707	6971.19
442.928	6908.19
443.149	7158.19
443.371	7398.19
443.592	7817.19
443.813	8914.19
444.034	8802.19
444.255	7620.19
444.476	7345.19
444.698	7623.19
444.919	7657.19
445.14	7465.19
445.361	7391.19
445.582	7596.19
445.803	8415.19
446.024	9033.19
446.245	8574.19
446.466	7591.19
446.687	6595.19
446.908	6177.19
447.129	6000.19
447.35	5767.19
447.571	5717.19
447.792	5571.19
448.013	5803.19
448.234	5949.19
448.455	6559.19
448.675	7881.19
448.896	8250.19
449.117	6784.19
449.338	6953.19
449.559	8473.19
449.779	8644.19
450	6615.19
450.221	5852.19
450.442	5682.19
450.662	5609.19
450.883	5803.19
451.104	5986.19
451.324	5667.19
451.545	5522.19
451.766	5337.19
451.986	5164.19
452.207	5177.19
452.428	5114.19
452.648	5221.19
452.869	5224.19
453.089	5303.19
453.31	5385.19
453.53	5144.19
453.751	5117.19
453.971	5193.19
454.192	5351.19
454.412	5128.19
454.633	4951.19
454.853	4971.19
455.073	4973.19
455.294	5470.19
455.514	6096.19
455.734	5519.19
455.955	4894.19
456.175	4823.19
456.395	4693.19
456.616	4674.19
456.836	4710.19
457.056	4599.19
457.276	4609.19
457.497	4763.19
457.717	4793.19
457.937	4929.19
458.157	4944.19
458.377	5072.19
458.598	5472.19
458.818	6330.19
459.038	7210.19
459.258	7009.19
459.478	6099.19
459.698	5902.19
459.918	5931.19
460.138	6069.19
460.358	6320.19
460.578	6341.19
460.798	6397.19
461.018	6433.19
461.238	6231.19
461.458	6233.19
461.678	6172.19
461.898	6246.19
462.118	6385.19
462.338	6774.19
462.558	6842.19
462.777	7163.19
462.997	7675.19
463.217	8079.19
463.437	7830.19
463.657	7260.19
463.876	7070.19
464.096	7184.19
464.316	7159.19
464.536	7317.19
464.755	6980.19
464.975	6965.19
465.195	7351.19
465.414	7515.19
465.634	6389.19
465.854	5931.19
466.073	5732.19
466.293	5500.19
466.512	5382.19
466.732	5228.19
466.951	5340.19
467.171	5213.19
467.391	5362.19
467.61	5504.19
467.829	5502.19
468.049	5310.19
468.268	5201.19
468.488	5054.19
468.707	5059.19
468.927	5054.19
469.146	5033.19
469.365	5109.19
469.585	5150.19
469.804	5384.19
470.023	5578.19
470.243	5467.19
470.462	5615.19
470.681	5806.19
470.901	5654.19
471.12	5421.19
471.339	5426.19
471.558	5310.19
471.777	5305.19
471.997	5219.19
472.216	5251.19
472.435	5568.19
472.654	5327.19
472.873	5033.19
473.092	5023.19
473.311	5037.19
473.53	5086.19
473.749	5182.19
473.968	5751.19
474.187	6915.19
474.406	6423.19
474.625	5358.19
474.844	5098.19
475.063	5064.19
475.282	5110.19
475.501	5196.19
475.72	5116.19
475.939	5216.19
476.158	5219.19
476.377	5258.19
476.596	5263.19
476.814	5403.19
477.033	5485.19
477.252	5463.19
477.471	5541.19
477.69	5727.19
477.908	5759.19
478.127	5949.19
478.346	6032.19
478.564	6159.19
478.783	6225.19
479.002	6356.19
479.22	6375.19
479.439	6456.19
479.658	6644.19
479.876	6809.19
480.095	6975.19
480.313	7473.19
480.532	7238.19
480.751	7017.19
480.969	7120.19
481.188	7524.19
481.406	7324.19
481.624	6665.19
481.843	6336.19
482.061	6275.19
482.28	6131.19
482.498	6079.19
482.717	6027.19
482.935	6030.19
483.153	6025.19
483.372	5937.19
483.59	5997.19
483.808	6026.19
484.027	6016.19
484.245	6071.19
484.463	6067.19
484.681	6212.19
484.9	6167.19
485.118	6267.19
485.336	6299.19
485.554	6394.19
485.772	6371.19
485.99	6382.19
486.209	6444.19
486.427	6454.19
486.645	6499.19
486.863	6661.19
487.081	6563.19
487.299	6442.19
487.517	6374.19
487.735	6396.19
