Data from Circ_1981_H10_HRD10591_00020.txt Node
Date: Wed Jan 03 12:34:25 EST 2024
User: Yrep
Spectrometer: HR+D1059
Trigger mode: 1
Integration Time (sec): 1.000000E-1
Scans to average: 1
Electric dark correction enabled: true
Nonlinearity correction enabled: false
Boxcar width: 0
XAxis mode: Wavelengths
Number of Pixels in Spectrum: 2048
>>>>>Begin Spectral Data<<<<<
223.165	-27.81
223.4	-27.81
223.635	-27.81
223.869	-16.81
224.104	-4.81
224.338	-12.81
224.573	-15.81
224.808	-20.81
225.042	-4.81
225.277	-5.81
225.511	-7.81
225.746	10.19
225.98	-6.81
226.215	-3.81
226.449	24.19
226.683	21.19
226.918	35.19
227.152	37.19
227.387	37.19
227.621	31.19
227.856	39.19
228.09	56.19
228.324	39.19
228.559	51.19
228.793	69.19
229.027	57.19
229.262	62.19
229.496	72.19
229.73	86.19
229.964	103.19
230.199	83.19
230.433	71.19
230.667	91.19
230.901	83.19
231.136	81.19
231.37	80.19
231.604	61.19
231.838	73.19
232.072	74.19
232.306	90.19
232.541	81.19
232.775	79.19
233.009	83.19
233.243	79.19
233.477	73.19
233.711	75.19
233.945	65.19
234.179	77.19
234.413	75.19
234.647	74.19
234.881	79.19
235.115	72.19
235.349	67.19
235.583	93.19
235.817	67.19
236.051	63.19
236.285	73.19
236.519	86.19
236.753	83.19
236.987	77.19
237.221	91.19
237.455	93.19
237.689	75.19
237.922	68.19
238.156	76.19
238.39	68.19
238.624	90.19
238.858	72.19
239.091	79.19
239.325	71.19
239.559	85.19
239.793	65.19
240.027	84.19
240.26	66.19
240.494	72.19
240.728	65.19
240.961	63.19
241.195	81.19
241.429	81.19
241.662	77.19
241.896	80.19
242.13	67.19
242.363	78.19
242.597	83.19
242.83	81.19
243.064	71.19
243.298	68.19
243.531	87.19
243.765	92.19
243.998	76.19
244.232	87.19
244.465	78.19
244.699	68.19
244.932	84.19
245.166	67.19
245.399	77.19
245.633	95.19
245.866	78.19
246.099	67.19
246.333	67.19
246.566	63.19
246.8	80.19
247.033	77.19
247.266	71.19
247.5	71.19
247.733	72.19
247.966	76.19
248.2	82.19
248.433	86.19
248.666	96.19
248.899	79.19
249.133	103.19
249.366	116.19
249.599	108.19
249.832	85.19
250.066	91.19
250.299	59.19
250.532	71.19
250.765	85.19
250.998	75.19
251.231	82.19
251.465	75.19
251.698	69.19
251.931	79.19
252.164	84.19
252.397	69.19
252.63	85.19
252.863	74.19
253.096	67.19
253.329	76.19
253.562	85.19
253.795	79.19
254.028	81.19
254.261	83.19
254.494	75.19
254.727	77.19
254.96	77.19
255.193	95.19
255.426	86.19
255.659	93.19
255.892	64.19
256.124	70.19
256.357	93.19
256.59	83.19
256.823	83.19
257.056	76.19
257.289	73.19
257.521	84.19
257.754	88.19
257.987	92.19
258.22	71.19
258.452	85.19
258.685	84.19
258.918	93.19
259.151	73.19
259.383	76.19
259.616	74.19
259.849	78.19
260.081	65.19
260.314	81.19
260.547	88.19
260.779	83.19
261.012	67.19
261.244	83.19
261.477	91.19
261.71	94.19
261.942	122.19
262.175	145.19
262.407	97.19
262.64	81.19
262.872	84.19
263.105	84.19
263.337	85.19
263.57	85.19
263.802	93.19
264.035	93.19
264.267	74.19
264.499	90.19
264.732	88.19
264.964	83.19
265.197	83.19
265.429	88.19
265.661	69.19
265.894	82.19
266.126	84.19
266.358	81.19
266.591	77.19
266.823	80.19
267.055	76.19
267.287	83.19
267.52	92.19
267.752	95.19
267.984	81.19
268.216	71.19
268.448	93.19
268.681	83.19
268.913	87.19
269.145	81.19
269.377	91.19
269.609	81.19
269.841	74.19
270.073	81.19
270.306	91.19
270.538	83.19
270.77	85.19
271.002	87.19
271.234	83.19
271.466	83.19
271.698	86.19
271.93	85.19
272.162	92.19
272.394	92.19
272.626	83.19
272.858	80.19
273.09	66.19
273.322	69.19
273.553	91.19
273.785	84.19
274.017	81.19
274.249	77.19
274.481	70.19
274.713	91.19
274.945	77.19
275.176	82.19
275.408	82.19
275.64	85.19
275.872	85.19
276.104	92.19
276.335	98.19
276.567	103.19
276.799	121.19
277.031	123.19
277.262	89.19
277.494	81.19
277.726	89.19
277.957	74.19
278.189	82.19
278.421	83.19
278.652	79.19
278.884	83.19
279.115	68.19
279.347	84.19
279.579	87.19
279.81	93.19
280.042	96.19
280.273	99.19
280.505	92.19
280.736	75.19
280.968	86.19
281.199	96.19
281.431	82.19
281.662	89.19
281.894	109.19
282.125	101.19
282.356	139.19
282.588	171.19
282.819	117.19
283.051	82.19
283.282	90.19
283.513	90.19
283.745	86.19
283.976	86.19
284.207	80.19
284.439	83.19
284.67	82.19
284.901	94.19
285.132	102.19
285.364	90.19
285.595	88.19
285.826	79.19
286.057	88.19
286.288	81.19
286.52	97.19
286.751	86.19
286.982	75.19
287.213	74.19
287.444	91.19
287.675	102.19
287.906	95.19
288.138	83.19
288.369	96.19
288.6	93.19
288.831	93.19
289.062	91.19
289.293	87.19
289.524	83.19
289.755	82.19
289.986	71.19
290.217	81.19
290.448	101.19
290.679	85.19
290.91	79.19
291.141	80.19
291.371	81.19
291.602	84.19
291.833	74.19
292.064	81.19
292.295	83.19
292.526	71.19
292.757	98.19
292.987	89.19
293.218	83.19
293.449	85.19
293.68	93.19
293.91	73.19
294.141	89.19
294.372	77.19
294.603	101.19
294.833	93.19
295.064	95.19
295.295	76.19
295.525	101.19
295.756	99.19
295.987	113.19
296.217	155.19
296.448	140.19
296.679	92.19
296.909	96.19
297.14	83.19
297.37	99.19
297.601	86.19
297.831	87.19
298.062	101.19
298.292	90.19
298.523	98.19
298.753	86.19
298.984	87.19
299.214	87.19
299.445	91.19
299.675	85.19
299.905	99.19
300.136	89.19
300.366	91.19
300.597	99.19
300.827	103.19
301.057	109.19
301.288	119.19
301.518	110.19
301.748	89.19
301.979	92.19
302.209	98.19
302.439	96.19
302.669	98.19
302.9	88.19
303.13	88.19
303.36	90.19
303.59	112.19
303.82	124.19
304.051	107.19
304.281	102.19
304.511	94.19
304.741	81.19
304.971	87.19
305.201	90.19
305.431	92.19
305.661	107.19
305.891	104.19
306.121	102.19
306.352	103.19
306.582	94.19
306.812	96.19
307.042	100.19
307.272	89.19
307.502	96.19
307.731	85.19
307.961	82.19
308.191	96.19
308.421	81.19
308.651	95.19
308.881	105.19
309.111	90.19
309.341	102.19
309.571	89.19
309.8	91.19
310.03	107.19
310.26	116.19
310.49	77.19
310.72	108.19
310.949	113.19
311.179	105.19
311.409	101.19
311.639	104.19
311.868	116.19
312.098	106.19
312.328	92.19
312.557	116.19
312.787	125.19
313.017	119.19
313.246	103.19
313.476	89.19
313.706	98.19
313.935	94.19
314.165	106.19
314.394	108.19
314.624	84.19
314.853	96.19
315.083	97.19
315.312	90.19
315.542	93.19
315.771	100.19
316.001	77.19
316.23	95.19
316.46	92.19
316.689	75.19
316.919	90.19
317.148	105.19
317.377	100.19
317.607	92.19
317.836	109.19
318.065	90.19
318.295	80.19
318.524	99.19
318.753	97.19
318.983	102.19
319.212	110.19
319.441	122.19
319.67	105.19
319.9	85.19
320.129	95.19
320.358	88.19
320.587	107.19
320.816	115.19
321.046	117.19
321.275	96.19
321.504	105.19
321.733	99.19
321.962	97.19
322.191	109.19
322.42	111.19
322.649	126.19
322.878	128.19
323.108	135.19
323.337	136.19
323.566	141.19
323.795	185.19
324.024	238.19
324.253	472.19
324.482	1037.19
324.71	2266.19
324.939	3070.19
325.168	1095.19
325.397	297.19
325.626	171.19
325.855	147.19
326.084	138.19
326.313	140.19
326.542	166.19
326.77	279.19
326.999	541.19
327.228	1143.19
327.457	2147.19
327.686	1754.19
327.914	471.19
328.143	250.19
328.372	199.19
328.6	153.19
328.829	146.19
329.058	150.19
329.287	177.19
329.515	127.19
329.744	120.19
329.972	109.19
330.201	137.19
330.43	160.19
330.658	161.19
330.887	212.19
331.115	183.19
331.344	119.19
331.572	105.19
331.801	122.19
332.03	116.19
332.258	108.19
332.486	100.19
332.715	101.19
332.943	91.19
333.172	115.19
333.4	109.19
333.629	117.19
333.857	121.19
334.085	120.19
334.314	139.19
334.542	162.19
334.771	180.19
334.999	112.19
335.227	107.19
335.455	109.19
335.684	101.19
335.912	95.19
336.14	88.19
336.369	88.19
336.597	84.19
336.825	107.19
337.053	89.19
337.281	87.19
337.51	98.19
337.738	105.19
337.966	101.19
338.194	106.19
338.422	107.19
338.65	104.19
338.878	93.19
339.106	80.19
339.334	88.19
339.562	94.19
339.79	82.19
340.018	97.19
340.246	88.19
340.474	112.19
340.702	91.19
340.93	96.19
341.158	97.19
341.386	92.19
341.614	90.19
341.842	99.19
342.07	97.19
342.298	91.19
342.526	88.19
342.754	89.19
342.981	96.19
343.209	104.19
343.437	106.19
343.665	95.19
343.893	73.19
344.12	99.19
344.348	98.19
344.576	95.19
344.804	99.19
345.031	117.19
345.259	118.19
345.487	89.19
345.714	106.19
345.942	81.19
346.17	108.19
346.397	104.19
346.625	102.19
346.853	98.19
347.08	103.19
347.308	95.19
347.535	92.19
347.763	119.19
347.99	106.19
348.218	107.19
348.445	122.19
348.673	96.19
348.9	112.19
349.128	105.19
349.355	95.19
349.583	91.19
349.81	94.19
350.037	96.19
350.265	97.19
350.492	82.19
350.72	95.19
350.947	100.19
351.174	116.19
351.402	115.19
351.629	106.19
351.856	99.19
352.083	100.19
352.311	109.19
352.538	122.19
352.765	103.19
352.992	133.19
353.22	114.19
353.447	117.19
353.674	99.19
353.901	90.19
354.128	79.19
354.355	82.19
354.583	102.19
354.81	98.19
355.037	103.19
355.264	102.19
355.491	83.19
355.718	81.19
355.945	90.19
356.172	99.19
356.399	102.19
356.626	77.19
356.853	95.19
357.08	97.19
357.307	103.19
357.534	96.19
357.761	102.19
357.988	90.19
358.215	103.19
358.441	107.19
358.668	89.19
358.895	95.19
359.122	89.19
359.349	95.19
359.576	106.19
359.802	118.19
360.029	143.19
360.256	137.19
360.483	123.19
360.709	100.19
360.936	93.19
361.163	119.19
361.39	102.19
361.616	102.19
361.843	84.19
362.07	106.19
362.296	108.19
362.523	89.19
362.749	100.19
362.976	92.19
363.203	84.19
363.429	93.19
363.656	95.19
363.882	91.19
364.109	85.19
364.335	94.19
364.562	89.19
364.788	95.19
365.015	88.19
365.241	106.19
365.468	124.19
365.694	109.19
365.92	110.19
366.147	100.19
366.373	85.19
366.599	81.19
366.826	103.19
367.052	79.19
367.278	83.19
367.505	89.19
367.731	100.19
367.957	96.19
368.184	104.19
368.41	107.19
368.636	124.19
368.862	130.19
369.089	105.19
369.315	101.19
369.541	87.19
369.767	95.19
369.993	67.19
370.219	83.19
370.445	87.19
370.672	93.19
370.898	65.19
371.124	90.19
371.35	81.19
371.576	83.19
371.802	94.19
372.028	81.19
372.254	84.19
372.48	83.19
372.706	75.19
372.932	52.19
373.158	79.19
373.384	89.19
373.61	88.19
373.835	83.19
374.061	96.19
374.287	97.19
374.513	98.19
374.739	103.19
374.965	87.19
375.191	92.19
375.416	91.19
375.642	99.19
375.868	89.19
376.094	101.19
376.319	87.19
376.545	100.19
376.771	89.19
376.997	91.19
377.222	90.19
377.448	95.19
377.674	86.19
377.899	82.19
378.125	80.19
378.35	105.19
378.576	87.19
378.802	93.19
379.027	96.19
379.253	89.19
379.478	81.19
379.704	93.19
379.929	95.19
380.155	90.19
380.38	95.19
380.606	88.19
380.831	98.19
381.057	93.19
381.282	88.19
381.507	93.19
381.733	99.19
381.958	92.19
382.184	96.19
382.409	96.19
382.634	107.19
382.86	92.19
383.085	105.19
383.31	115.19
383.535	97.19
383.761	109.19
383.986	105.19
384.211	112.19
384.436	96.19
384.662	121.19
384.887	100.19
385.112	99.19
385.337	98.19
385.562	105.19
385.787	99.19
386.013	108.19
386.238	112.19
386.463	117.19
386.688	117.19
386.913	98.19
387.138	117.19
387.363	117.19
387.588	93.19
387.813	99.19
388.038	119.19
388.263	106.19
388.488	115.19
388.713	95.19
388.938	101.19
389.163	101.19
389.387	88.19
389.612	99.19
389.837	85.19
390.062	94.19
390.287	102.19
390.512	95.19
390.736	83.19
390.961	88.19
391.186	104.19
391.411	103.19
391.636	92.19
391.86	80.19
392.085	93.19
392.31	79.19
392.534	85.19
392.759	94.19
392.984	103.19
393.208	89.19
393.433	103.19
393.658	102.19
393.882	90.19
394.107	87.19
394.331	76.19
394.556	84.19
394.78	79.19
395.005	96.19
395.229	83.19
395.454	80.19
395.678	85.19
395.903	76.19
396.127	83.19
396.352	88.19
396.576	87.19
396.801	100.19
397.025	97.19
397.249	87.19
397.474	81.19
397.698	90.19
397.922	91.19
398.147	92.19
398.371	97.19
398.595	89.19
398.82	69.19
399.044	95.19
399.268	83.19
399.492	96.19
399.717	91.19
399.941	93.19
400.165	103.19
400.389	115.19
400.613	91.19
400.837	83.19
401.062	87.19
401.286	99.19
401.51	97.19
401.734	100.19
401.958	102.19
402.182	138.19
402.406	197.19
402.63	150.19
402.854	100.19
403.078	100.19
403.302	102.19
403.526	95.19
403.75	96.19
403.974	90.19
404.198	92.19
404.422	91.19
404.645	100.19
404.869	100.19
405.093	100.19
405.317	109.19
405.541	110.19
405.765	106.19
405.988	135.19
406.212	216.19
406.436	324.19
406.66	223.19
406.883	111.19
407.107	110.19
407.331	109.19
407.555	112.19
407.778	95.19
408.002	93.19
408.226	118.19
408.449	85.19
408.673	79.19
408.896	89.19
409.12	115.19
409.344	96.19
409.567	89.19
409.791	87.19
410.014	92.19
410.238	83.19
410.461	83.19
410.685	92.19
410.908	104.19
411.132	118.19
411.355	100.19
411.578	79.19
411.802	95.19
412.025	98.19
412.249	98.19
412.472	107.19
412.695	116.19
412.919	103.19
413.142	79.19
413.365	93.19
413.589	94.19
413.812	87.19
414.035	98.19
414.258	92.19
414.482	105.19
414.705	88.19
414.928	94.19
415.151	95.19
415.374	86.19
415.597	99.19
415.821	72.19
416.044	85.19
416.267	77.19
416.49	89.19
416.713	75.19
416.936	87.19
417.159	96.19
417.382	76.19
417.605	81.19
417.828	87.19
418.051	103.19
418.274	102.19
418.497	86.19
418.72	90.19
418.943	81.19
419.166	84.19
419.389	94.19
419.611	86.19
419.834	87.19
420.057	88.19
420.28	90.19
420.503	79.19
420.726	96.19
420.948	93.19
421.171	113.19
421.394	84.19
421.617	89.19
421.839	87.19
422.062	88.19
422.285	99.19
422.507	105.19
422.73	123.19
422.953	92.19
423.175	87.19
423.398	74.19
423.621	80.19
423.843	81.19
424.066	91.19
424.288	77.19
424.511	89.19
424.733	96.19
424.956	118.19
425.178	104.19
425.401	103.19
425.623	103.19
425.846	96.19
426.068	97.19
426.291	98.19
426.513	88.19
426.735	92.19
426.958	113.19
427.18	121.19
427.402	164.19
427.625	228.19
427.847	161.19
428.069	125.19
428.292	95.19
428.514	93.19
428.736	90.19
428.958	88.19
429.181	95.19
429.403	83.19
429.625	88.19
429.847	92.19
430.069	100.19
430.292	116.19
430.514	87.19
430.736	72.19
430.958	77.19
431.18	80.19
431.402	81.19
431.624	87.19
431.846	88.19
432.068	77.19
432.29	101.19
432.512	80.19
432.734	86.19
432.956	89.19
433.178	112.19
433.4	104.19
433.622	93.19
433.844	99.19
434.066	99.19
434.287	98.19
434.509	81.19
434.731	84.19
434.953	86.19
435.175	94.19
435.397	90.19
435.618	88.19
435.84	104.19
436.062	149.19
436.284	137.19
436.505	110.19
436.727	97.19
436.949	86.19
437.17	93.19
437.392	92.19
437.614	98.19
437.835	129.19
438.057	148.19
438.278	118.19
438.5	132.19
438.721	135.19
438.943	117.19
439.165	74.19
439.386	83.19
439.608	107.19
439.829	113.19
440.05	136.19
440.272	208.19
440.493	124.19
440.715	85.19
440.936	83.19
441.158	88.19
441.379	102.19
441.6	85.19
441.822	99.19
442.043	100.19
442.264	122.19
442.486	103.19
442.707	104.19
442.928	124.19
443.149	179.19
443.371	166.19
443.592	124.19
443.813	129.19
444.034	131.19
444.255	96.19
444.476	77.19
444.698	89.19
444.919	99.19
445.14	146.19
445.361	118.19
445.582	145.19
445.803	184.19
446.024	166.19
446.245	179.19
446.466	147.19
446.687	102.19
446.908	92.19
447.129	92.19
447.35	99.19
447.571	90.19
447.792	105.19
448.013	113.19
448.234	123.19
448.455	106.19
448.675	118.19
448.896	131.19
449.117	93.19
449.338	104.19
449.559	132.19
449.779	147.19
450	97.19
450.221	87.19
450.442	107.19
450.662	117.19
450.883	134.19
451.104	125.19
451.324	124.19
451.545	87.19
451.766	92.19
451.986	83.19
452.207	97.19
452.428	103.19
452.648	103.19
452.869	132.19
453.089	132.19
453.31	147.19
453.53	101.19
453.751	84.19
453.971	114.19
454.192	139.19
454.412	100.19
454.633	90.19
454.853	86.19
455.073	66.19
455.294	84.19
455.514	120.19
455.734	87.19
455.955	91.19
456.175	82.19
456.395	83.19
456.616	77.19
456.836	89.19
457.056	77.19
457.276	80.19
457.497	73.19
457.717	85.19
457.937	79.19
458.157	100.19
458.377	93.19
458.598	121.19
458.818	214.19
459.038	238.19
459.258	142.19
459.478	98.19
459.698	86.19
459.918	79.19
460.138	84.19
460.358	89.19
460.578	89.19
460.798	96.19
461.018	87.19
461.238	71.19
461.458	86.19
461.678	75.19
461.898	83.19
462.118	81.19
462.338	84.19
462.558	102.19
462.777	77.19
462.997	90.19
463.217	88.19
463.437	88.19
463.657	86.19
463.876	87.19
464.096	93.19
464.316	99.19
464.536	93.19
464.755	109.19
464.975	120.19
465.195	239.19
465.414	243.19
465.634	120.19
465.854	84.19
466.073	87.19
466.293	76.19
466.512	70.19
466.732	77.19
466.951	92.19
467.171	85.19
467.391	104.19
467.61	110.19
467.829	106.19
468.049	98.19
468.268	106.19
468.488	96.19
468.707	87.19
468.927	84.19
469.146	66.19
469.365	80.19
469.585	91.19
469.804	99.19
470.023	105.19
470.243	111.19
470.462	108.19
470.681	135.19
470.901	96.19
471.12	81.19
471.339	89.19
471.558	72.19
471.777	85.19
471.997	95.19
472.216	119.19
472.435	176.19
472.654	111.19
472.873	96.19
473.092	78.19
473.311	84.19
473.53	98.19
473.749	88.19
473.968	91.19
474.187	121.19
474.406	114.19
474.625	95.19
474.844	84.19
475.063	80.19
475.282	68.19
475.501	86.19
475.72	87.19
475.939	88.19
476.158	83.19
476.377	89.19
476.596	92.19
476.814	93.19
477.033	100.19
477.252	88.19
477.471	93.19
477.69	98.19
477.908	92.19
478.127	105.19
478.346	89.19
478.564	105.19
478.783	106.19
479.002	93.19
479.22	84.19
479.439	105.19
479.658	123.19
479.876	100.19
480.095	87.19
480.313	91.19
480.532	88.19
480.751	103.19
480.969	125.19
481.188	279.19
481.406	189.19
481.624	106.19
481.843	72.19
482.061	83.19
482.28	97.19
482.498	90.19
482.717	73.19
482.935	83.19
483.153	79.19
483.372	91.19
483.59	86.19
483.808	91.19
484.027	93.19
484.245	93.19
484.463	80.19
484.681	93.19
484.9	85.19
485.118	97.19
485.336	95.19
485.554	98.19
485.772	91.19
485.99	94.19
486.209	110.19
486.427	102.19
486.645	131.19
486.863	125.19
487.081	119.19
487.299	106.19
487.517	90.19
487.735	85.19
487.953	88.19
488.171	90.19
488.389	83.19
488.607	96.19
488.825	87.19
489.043	90.19
489.261	85.19
489.479	84.19
489.696	93.19
489.914	83.19
490.132	88.19
490.35	99.19
490.568	85.19
490.786	82.19
491.003	82.19
491.221	92.19
491.439	90.19
491.657	83.19
491.874	82.19
492.092	90.19
492.31	92.19
492.527	107.19
492.745	100.19
492.963	87.19
493.18	91.19
493.398	95.19
493.615	97.19
493.833	100.19
494.05	93.19
494.268	80.19
494.485	98.19
494.703	87.19
494.92	87.19
495.138	92.19
495.355	83.19
495.573	105.19
495.79	91.19
496.008	83.19
496.225	71.19
496.442	90.19
496.66	95.19
496.877	87.19
497.094	87.19
497.312	91.19
497.529	78.19
497.746	96.19
497.963	70.19
498.181	86.19
498.398	108.19
498.615	120.19
498.832	90.19
499.049	89.19
499.267	79.19
499.484	87.19
499.701	96.19
499.918	94.19
500.135	82.19
500.352	88.19
500.569	103.19
500.786	103.19
501.003	92.19
501.22	93.19
501.437	75.19
501.654	108.19
501.871	122.19
502.088	93.19
502.305	95.19
502.522	87.19
502.739	98.19
502.956	79.19
503.172	85.19
503.389	100.19
503.606	123.19
503.823	105.19
504.04	81.19
504.256	96.19
504.473	85.19
504.69	79.19
504.907	85.19
505.123	85.19
505.34	87.19
505.557	89.19
505.773	107.19
505.99	96.19
506.207	70.19
506.423	95.19
506.64	107.19
506.856	89.19
507.073	103.19
507.289	104.19
507.506	99.19
507.722	135.19
507.939	134.19
508.155	104.19
508.372	83.19
508.588	77.19
508.805	89.19
509.021	104.19
509.238	105.19
509.454	105.19
509.67	96.19
509.887	107.19
510.103	139.19
510.319	226.19
510.536	969.19
510.752	3219.19
510.968	827.19
511.184	177.19
511.401	131.19
511.617	106.19
511.833	99.19
512.049	91.19
512.265	100.19
512.481	97.19
512.698	91.19
512.914	95.19
513.13	99.19
513.346	91.19
513.562	100.19
513.778	103.19
513.994	103.19
514.21	119.19
