Data from Circ_1981_H10_HRD10591_00062.txt Node
Date: Wed Jan 03 12:34:33 EST 2024
User: Yrep
Spectrometer: HR+D1059
Trigger mode: 1
Integration Time (sec): 1.000000E-1
Scans to average: 1
Electric dark correction enabled: true
Nonlinearity correction enabled: false
Boxcar width: 0
XAxis mode: Wavelengths
Number of Pixels in Spectrum: 2048
>>>>>Begin Spectral Data<<<<<
223.165	-17.62
223.4	-17.62
223.635	-17.62
223.869	-4.62
224.104	-17.62
224.338	-28.62
224.573	-13.62
224.808	-19.62
225.042	-3.62
225.277	3.38
225.511	2.38
225.746	12.38
225.98	-2.62
226.215	12.38
226.449	10.38
226.683	25.38
226.918	22.38
227.152	19.38
227.387	28.38
227.621	47.38
227.856	40.38
228.09	53.38
228.324	51.38
228.559	51.38
228.793	48.38
229.027	59.38
229.262	76.38
229.496	82.38
229.73	93.38
229.964	105.38
230.199	68.38
230.433	75.38
230.667	74.38
230.901	67.38
231.136	65.38
231.37	71.38
231.604	63.38
231.838	84.38
232.072	73.38
232.306	72.38
232.541	78.38
232.775	74.38
233.009	69.38
233.243	85.38
233.477	75.38
233.711	78.38
233.945	74.38
234.179	69.38
234.413	77.38
234.647	78.38
234.881	86.38
235.115	76.38
235.349	78.38
235.583	72.38
235.817	81.38
236.051	83.38
236.285	78.38
236.519	86.38
236.753	76.38
236.987	96.38
237.221	98.38
237.455	95.38
237.689	78.38
237.922	75.38
238.156	73.38
238.39	87.38
238.624	66.38
238.858	80.38
239.091	67.38
239.325	75.38
239.559	72.38
239.793	88.38
240.027	79.38
240.26	87.38
240.494	71.38
240.728	67.38
240.961	76.38
241.195	88.38
241.429	64.38
241.662	75.38
241.896	82.38
242.13	66.38
242.363	75.38
242.597	81.38
242.83	92.38
243.064	72.38
243.298	71.38
243.531	64.38
243.765	71.38
243.998	76.38
244.232	88.38
244.465	86.38
244.699	85.38
244.932	77.38
245.166	66.38
245.399	63.38
245.633	76.38
245.866	82.38
246.099	91.38
246.333	80.38
246.566	72.38
246.8	52.38
247.033	75.38
247.266	78.38
247.5	86.38
247.733	73.38
247.966	78.38
248.2	83.38
248.433	86.38
248.666	67.38
248.899	86.38
249.133	94.38
249.366	106.38
249.599	90.38
249.832	78.38
250.066	76.38
250.299	77.38
250.532	82.38
250.765	86.38
250.998	70.38
251.231	73.38
251.465	80.38
251.698	70.38
251.931	74.38
252.164	80.38
252.397	75.38
252.63	77.38
252.863	75.38
253.096	86.38
253.329	85.38
253.562	89.38
253.795	90.38
254.028	83.38
254.261	70.38
254.494	89.38
254.727	94.38
254.96	82.38
255.193	70.38
255.426	85.38
255.659	72.38
255.892	75.38
256.124	70.38
256.357	82.38
256.59	82.38
256.823	78.38
257.056	84.38
257.289	98.38
257.521	87.38
257.754	78.38
257.987	76.38
258.22	78.38
258.452	90.38
258.685	82.38
258.918	71.38
259.151	85.38
259.383	79.38
259.616	84.38
259.849	69.38
260.081	98.38
260.314	81.38
260.547	87.38
260.779	82.38
261.012	83.38
261.244	74.38
261.477	82.38
261.71	112.38
261.942	113.38
262.175	142.38
262.407	81.38
262.64	89.38
262.872	88.38
263.105	78.38
263.337	89.38
263.57	80.38
263.802	79.38
264.035	76.38
264.267	75.38
264.499	95.38
264.732	88.38
264.964	85.38
265.197	76.38
265.429	89.38
265.661	82.38
265.894	85.38
266.126	78.38
266.358	91.38
266.591	74.38
266.823	68.38
267.055	79.38
267.287	91.38
267.52	87.38
267.752	71.38
267.984	89.38
268.216	66.38
268.448	78.38
268.681	70.38
268.913	87.38
269.145	88.38
269.377	79.38
269.609	85.38
269.841	72.38
270.073	86.38
270.306	95.38
270.538	87.38
270.77	76.38
271.002	84.38
271.234	72.38
271.466	85.38
271.698	94.38
271.93	87.38
272.162	88.38
272.394	88.38
272.626	84.38
272.858	83.38
273.09	86.38
273.322	98.38
273.553	81.38
273.785	95.38
274.017	71.38
274.249	80.38
274.481	80.38
274.713	82.38
274.945	75.38
275.176	90.38
275.408	83.38
275.64	90.38
275.872	93.38
276.104	103.38
276.335	106.38
276.567	99.38
276.799	115.38
277.031	137.38
277.262	98.38
277.494	91.38
277.726	86.38
277.957	80.38
278.189	91.38
278.421	87.38
278.652	76.38
278.884	90.38
279.115	82.38
279.347	75.38
279.579	80.38
279.81	84.38
280.042	78.38
280.273	85.38
280.505	97.38
280.736	82.38
280.968	86.38
281.199	102.38
281.431	74.38
281.662	89.38
281.894	89.38
282.125	88.38
282.356	113.38
282.588	159.38
282.819	122.38
283.051	84.38
283.282	94.38
283.513	91.38
283.745	91.38
283.976	91.38
284.207	84.38
284.439	72.38
284.67	83.38
284.901	84.38
285.132	87.38
285.364	86.38
285.595	83.38
285.826	80.38
286.057	91.38
286.288	100.38
286.52	87.38
286.751	89.38
286.982	84.38
287.213	80.38
287.444	95.38
287.675	90.38
287.906	89.38
288.138	97.38
288.369	97.38
288.6	90.38
288.831	109.38
289.062	96.38
289.293	87.38
289.524	68.38
289.755	88.38
289.986	67.38
290.217	78.38
290.448	91.38
290.679	86.38
290.91	79.38
291.141	88.38
291.371	97.38
291.602	84.38
291.833	100.38
292.064	82.38
292.295	91.38
292.526	90.38
292.757	88.38
292.987	86.38
293.218	82.38
293.449	89.38
293.68	69.38
293.91	80.38
294.141	83.38
294.372	80.38
294.603	81.38
294.833	85.38
295.064	87.38
295.295	85.38
295.525	91.38
295.756	100.38
295.987	125.38
296.217	152.38
296.448	131.38
296.679	83.38
296.909	88.38
297.14	102.38
297.37	100.38
297.601	86.38
297.831	78.38
298.062	99.38
298.292	100.38
298.523	88.38
298.753	80.38
298.984	87.38
299.214	81.38
299.445	92.38
299.675	81.38
299.905	93.38
300.136	103.38
300.366	90.38
300.597	75.38
300.827	100.38
301.057	103.38
301.288	111.38
301.518	81.38
301.748	98.38
301.979	88.38
302.209	101.38
302.439	92.38
302.669	91.38
302.9	89.38
303.13	81.38
303.36	95.38
303.59	108.38
303.82	108.38
304.051	96.38
304.281	96.38
304.511	87.38
304.741	84.38
304.971	80.38
305.201	91.38
305.431	95.38
305.661	85.38
305.891	86.38
306.121	104.38
306.352	111.38
306.582	99.38
306.812	111.38
307.042	81.38
307.272	98.38
307.502	97.38
307.731	94.38
307.961	102.38
308.191	80.38
308.421	86.38
308.651	91.38
308.881	94.38
309.111	86.38
309.341	93.38
309.571	107.38
309.8	107.38
310.03	107.38
310.26	102.38
310.49	83.38
310.72	116.38
310.949	111.38
311.179	117.38
311.409	107.38
311.639	88.38
311.868	92.38
312.098	107.38
312.328	106.38
312.557	117.38
312.787	127.38
313.017	112.38
313.246	99.38
313.476	94.38
313.706	86.38
313.935	112.38
314.165	127.38
314.394	108.38
314.624	100.38
314.853	107.38
315.083	99.38
315.312	95.38
315.542	86.38
315.771	86.38
316.001	85.38
316.23	96.38
316.46	80.38
316.689	89.38
316.919	92.38
317.148	95.38
317.377	95.38
317.607	100.38
317.836	103.38
318.065	88.38
318.295	111.38
318.524	85.38
318.753	88.38
318.983	95.38
319.212	104.38
319.441	120.38
319.67	123.38
319.9	90.38
320.129	93.38
320.358	87.38
320.587	112.38
320.816	111.38
321.046	117.38
321.275	116.38
321.504	100.38
321.733	94.38
321.962	94.38
322.191	107.38
322.42	120.38
322.649	122.38
322.878	123.38
323.108	128.38
323.337	133.38
323.566	153.38
323.795	183.38
324.024	240.38
324.253	513.38
324.482	1138.38
324.71	2334.38
324.939	3184.38
325.168	1142.38
325.397	320.38
325.626	178.38
325.855	144.38
326.084	139.38
326.313	154.38
326.542	181.38
326.77	281.38
326.999	563.38
327.228	1206.38
327.457	2315.38
327.686	1800.38
327.914	483.38
328.143	236.38
328.372	204.38
328.6	170.38
328.829	130.38
329.058	157.38
329.287	182.38
329.515	137.38
329.744	110.38
329.972	119.38
330.201	156.38
330.43	188.38
330.658	179.38
330.887	217.38
331.115	179.38
331.344	123.38
331.572	109.38
331.801	111.38
332.03	133.38
332.258	83.38
332.486	99.38
332.715	94.38
332.943	86.38
333.172	115.38
333.4	103.38
333.629	110.38
333.857	116.38
334.085	118.38
334.314	134.38
334.542	164.38
334.771	172.38
334.999	134.38
335.227	102.38
335.455	106.38
335.684	107.38
335.912	96.38
336.14	91.38
336.369	88.38
336.597	108.38
336.825	100.38
337.053	90.38
337.281	84.38
337.51	82.38
337.738	103.38
337.966	84.38
338.194	105.38
338.422	124.38
338.65	100.38
338.878	87.38
339.106	86.38
339.334	83.38
339.562	90.38
339.79	85.38
340.018	87.38
340.246	95.38
340.474	109.38
340.702	99.38
340.93	96.38
341.158	93.38
341.386	100.38
341.614	99.38
341.842	107.38
342.07	94.38
342.298	101.38
342.526	98.38
342.754	96.38
342.981	86.38
343.209	83.38
343.437	86.38
343.665	95.38
343.893	96.38
344.12	94.38
344.348	106.38
344.576	102.38
344.804	89.38
345.031	107.38
345.259	116.38
345.487	102.38
345.714	104.38
345.942	98.38
346.17	98.38
346.397	80.38
346.625	99.38
346.853	99.38
347.08	94.38
347.308	108.38
347.535	99.38
347.763	107.38
347.99	100.38
348.218	101.38
348.445	110.38
348.673	116.38
348.9	103.38
349.128	101.38
349.355	89.38
349.583	90.38
349.81	114.38
350.037	96.38
350.265	97.38
350.492	85.38
350.72	107.38
350.947	115.38
351.174	122.38
351.402	131.38
351.629	97.38
351.856	109.38
352.083	117.38
352.311	120.38
352.538	138.38
352.765	124.38
352.992	122.38
353.22	99.38
353.447	107.38
353.674	96.38
353.901	91.38
354.128	81.38
354.355	85.38
354.583	89.38
354.81	112.38
355.037	88.38
355.264	99.38
355.491	105.38
355.718	84.38
355.945	91.38
356.172	96.38
356.399	98.38
356.626	102.38
356.853	92.38
357.08	94.38
357.307	96.38
357.534	87.38
357.761	90.38
357.988	103.38
358.215	98.38
358.441	101.38
358.668	78.38
358.895	79.38
359.122	97.38
359.349	88.38
359.576	101.38
359.802	104.38
360.029	150.38
360.256	143.38
360.483	116.38
360.709	93.38
360.936	97.38
361.163	114.38
361.39	100.38
361.616	101.38
361.843	99.38
362.07	109.38
362.296	119.38
362.523	88.38
362.749	96.38
362.976	100.38
363.203	94.38
363.429	74.38
363.656	100.38
363.882	95.38
364.109	94.38
364.335	92.38
364.562	89.38
364.788	104.38
365.015	96.38
365.241	101.38
365.468	113.38
365.694	113.38
365.92	112.38
366.147	100.38
366.373	103.38
366.599	107.38
366.826	87.38
367.052	84.38
367.278	107.38
367.505	109.38
367.731	92.38
367.957	101.38
368.184	96.38
368.41	102.38
368.636	112.38
368.862	131.38
369.089	132.38
369.315	105.38
369.541	106.38
369.767	109.38
369.993	110.38
370.219	100.38
370.445	88.38
370.672	87.38
370.898	90.38
371.124	78.38
371.35	86.38
371.576	79.38
371.802	73.38
372.028	84.38
372.254	91.38
372.48	73.38
372.706	86.38
372.932	82.38
373.158	82.38
373.384	87.38
373.61	101.38
373.835	109.38
374.061	87.38
374.287	80.38
374.513	96.38
374.739	91.38
374.965	70.38
375.191	80.38
375.416	91.38
375.642	94.38
375.868	100.38
376.094	82.38
376.319	85.38
376.545	99.38
376.771	97.38
376.997	81.38
377.222	85.38
377.448	111.38
377.674	79.38
377.899	81.38
378.125	94.38
378.35	94.38
378.576	83.38
378.802	97.38
379.027	95.38
379.253	72.38
379.478	96.38
379.704	96.38
379.929	95.38
380.155	101.38
380.38	106.38
380.606	94.38
380.831	95.38
381.057	98.38
381.282	72.38
381.507	107.38
381.733	84.38
381.958	93.38
382.184	100.38
382.409	108.38
382.634	105.38
382.86	106.38
383.085	103.38
383.31	84.38
383.535	93.38
383.761	89.38
383.986	94.38
384.211	79.38
384.436	84.38
384.662	88.38
384.887	99.38
385.112	97.38
385.337	84.38
385.562	100.38
385.787	99.38
386.013	98.38
386.238	113.38
386.463	105.38
386.688	114.38
386.913	101.38
387.138	96.38
387.363	96.38
387.588	97.38
387.813	102.38
388.038	105.38
388.263	100.38
388.488	91.38
388.713	93.38
388.938	96.38
389.163	96.38
389.387	94.38
389.612	109.38
389.837	91.38
390.062	103.38
390.287	94.38
390.512	100.38
390.736	81.38
390.961	91.38
391.186	96.38
391.411	95.38
391.636	81.38
391.86	89.38
392.085	88.38
392.31	76.38
392.534	87.38
392.759	90.38
392.984	93.38
393.208	94.38
393.433	110.38
393.658	96.38
393.882	76.38
394.107	78.38
394.331	82.38
394.556	90.38
394.78	87.38
395.005	79.38
395.229	86.38
395.454	94.38
395.678	88.38
395.903	88.38
396.127	86.38
396.352	88.38
396.576	84.38
396.801	86.38
397.025	93.38
397.249	84.38
397.474	95.38
397.698	86.38
397.922	99.38
398.147	95.38
398.371	93.38
398.595	93.38
398.82	91.38
399.044	73.38
399.268	75.38
399.492	91.38
399.717	106.38
399.941	89.38
400.165	99.38
400.389	97.38
400.613	95.38
400.837	74.38
401.062	86.38
401.286	82.38
401.51	96.38
401.734	86.38
401.958	102.38
402.182	150.38
402.406	179.38
402.63	160.38
402.854	107.38
403.078	99.38
403.302	88.38
403.526	101.38
403.75	87.38
403.974	88.38
404.198	92.38
404.422	85.38
404.645	98.38
404.869	104.38
405.093	102.38
405.317	110.38
405.541	108.38
405.765	98.38
405.988	135.38
406.212	199.38
406.436	317.38
406.66	200.38
406.883	123.38
407.107	94.38
407.331	112.38
407.555	115.38
407.778	127.38
408.002	98.38
408.226	89.38
408.449	88.38
408.673	81.38
408.896	103.38
409.12	101.38
409.344	90.38
409.567	93.38
409.791	100.38
410.014	86.38
410.238	92.38
410.461	72.38
410.685	91.38
410.908	98.38
411.132	112.38
411.355	105.38
411.578	83.38
411.802	90.38
412.025	90.38
412.249	94.38
412.472	91.38
412.695	108.38
412.919	89.38
413.142	92.38
413.365	69.38
413.589	90.38
413.812	88.38
414.035	91.38
414.258	80.38
414.482	88.38
414.705	83.38
414.928	89.38
415.151	83.38
415.374	97.38
415.597	94.38
415.821	98.38
416.044	85.38
416.267	98.38
416.49	89.38
416.713	96.38
416.936	75.38
417.159	89.38
417.382	78.38
417.605	87.38
417.828	93.38
418.051	84.38
418.274	72.38
418.497	78.38
418.72	86.38
418.943	90.38
419.166	90.38
419.389	94.38
419.611	100.38
419.834	85.38
420.057	80.38
420.28	102.38
420.503	94.38
420.726	92.38
420.948	84.38
421.171	91.38
421.394	85.38
421.617	82.38
421.839	89.38
422.062	93.38
422.285	96.38
422.507	94.38
422.73	125.38
422.953	107.38
423.175	88.38
423.398	91.38
423.621	92.38
423.843	86.38
424.066	80.38
424.288	95.38
424.511	82.38
424.733	112.38
424.956	131.38
425.178	118.38
425.401	114.38
425.623	112.38
425.846	93.38
426.068	99.38
426.291	96.38
426.513	89.38
426.735	98.38
426.958	102.38
427.18	108.38
427.402	190.38
427.625	253.38
427.847	180.38
428.069	134.38
428.292	90.38
428.514	79.38
428.736	88.38
428.958	87.38
429.181	85.38
429.403	93.38
429.625	99.38
429.847	116.38
430.069	127.38
430.292	108.38
430.514	78.38
430.736	82.38
430.958	98.38
431.18	86.38
431.402	81.38
431.624	73.38
431.846	91.38
432.068	80.38
432.29	82.38
432.512	87.38
432.734	70.38
432.956	82.38
433.178	94.38
433.4	94.38
433.622	104.38
433.844	90.38
434.066	99.38
434.287	88.38
434.509	90.38
434.731	78.38
434.953	97.38
435.175	103.38
435.397	88.38
435.618	83.38
435.84	125.38
436.062	153.38
436.284	147.38
436.505	107.38
436.727	111.38
436.949	79.38
437.17	82.38
437.392	92.38
437.614	99.38
437.835	118.38
438.057	160.38
438.278	139.38
438.5	133.38
438.721	151.38
438.943	120.38
439.165	87.38
439.386	92.38
439.608	96.38
439.829	123.38
440.05	162.38
440.272	201.38
440.493	116.38
440.715	90.38
440.936	81.38
441.158	92.38
441.379	110.38
441.6	94.38
441.822	101.38
442.043	111.38
442.264	130.38
442.486	119.38
442.707	99.38
442.928	128.38
443.149	168.38
443.371	184.38
443.592	131.38
443.813	142.38
444.034	128.38
444.255	87.38
444.476	86.38
444.698	84.38
444.919	94.38
445.14	132.38
445.361	144.38
445.582	128.38
445.803	212.38
446.024	200.38
446.245	177.38
446.466	131.38
446.687	99.38
446.908	96.38
447.129	81.38
447.35	107.38
447.571	88.38
447.792	108.38
448.013	101.38
448.234	104.38
448.455	94.38
448.675	145.38
448.896	166.38
449.117	108.38
449.338	131.38
449.559	148.38
449.779	160.38
450	92.38
450.221	78.38
450.442	89.38
450.662	84.38
450.883	113.38
451.104	129.38
451.324	111.38
451.545	80.38
451.766	87.38
451.986	81.38
452.207	85.38
452.428	94.38
452.648	115.38
452.869	134.38
453.089	125.38
453.31	149.38
453.53	98.38
453.751	102.38
453.971	105.38
454.192	126.38
454.412	98.38
454.633	88.38
454.853	98.38
455.073	90.38
455.294	86.38
455.514	121.38
455.734	113.38
455.955	89.38
456.175	90.38
456.395	76.38
456.616	98.38
456.836	83.38
457.056	82.38
457.276	85.38
457.497	91.38
457.717	91.38
457.937	93.38
458.157	90.38
458.377	92.38
458.598	125.38
458.818	210.38
459.038	234.38
459.258	161.38
459.478	100.38
459.698	95.38
459.918	84.38
460.138	85.38
460.358	94.38
460.578	89.38
460.798	94.38
461.018	91.38
461.238	82.38
461.458	84.38
461.678	81.38
461.898	100.38
462.118	98.38
462.338	84.38
462.558	81.38
462.777	87.38
462.997	88.38
463.217	82.38
463.437	90.38
463.657	83.38
463.876	92.38
464.096	86.38
464.316	97.38
464.536	93.38
464.755	109.38
464.975	119.38
465.195	232.38
465.414	246.38
465.634	102.38
465.854	85.38
466.073	82.38
466.293	94.38
466.512	81.38
466.732	80.38
466.951	82.38
467.171	99.38
467.391	104.38
467.61	120.38
467.829	108.38
468.049	107.38
468.268	111.38
468.488	101.38
468.707	82.38
468.927	80.38
469.146	80.38
469.365	81.38
469.585	105.38
469.804	98.38
470.023	98.38
470.243	94.38
470.462	105.38
470.681	121.38
470.901	96.38
471.12	75.38
471.339	90.38
471.558	86.38
471.777	85.38
471.997	111.38
472.216	124.38
472.435	184.38
472.654	96.38
472.873	92.38
473.092	94.38
473.311	83.38
473.53	86.38
473.749	83.38
473.968	100.38
474.187	144.38
474.406	111.38
474.625	84.38
474.844	91.38
475.063	89.38
475.282	85.38
475.501	81.38
475.72	91.38
475.939	93.38
476.158	100.38
476.377	89.38
476.596	87.38
476.814	106.38
477.033	97.38
477.252	90.38
477.471	89.38
477.69	86.38
477.908	87.38
478.127	88.38
478.346	90.38
478.564	96.38
478.783	106.38
479.002	99.38
479.22	105.38
479.439	106.38
479.658	122.38
479.876	112.38
480.095	96.38
480.313	90.38
480.532	94.38
480.751	106.38
480.969	128.38
481.188	265.38
481.406	170.38
481.624	107.38
481.843	78.38
482.061	91.38
482.28	89.38
482.498	94.38
482.717	98.38
482.935	94.38
483.153	82.38
483.372	88.38
483.59	97.38
483.808	96.38
484.027	89.38
484.245	97.38
484.463	87.38
484.681	89.38
484.9	71.38
485.118	77.38
485.336	102.38
485.554	95.38
485.772	104.38
485.99	91.38
486.209	108.38
486.427	107.38
486.645	108.38
486.863	116.38
487.081	105.38
487.299	98.38
487.517	99.38
487.735	89.38
487.953	89.38
488.171	92.38
488.389	104.38
488.607	101.38
488.825	97.38
489.043	88.38
489.261	93.38
489.479	78.38
489.696	84.38
489.914	86.38
490.132	98.38
490.35	98.38
490.568	89.38
490.786	81.38
491.003	78.38
491.221	75.38
491.439	90.38
491.657	91.38
491.874	96.38
492.092	89.38
492.31	86.38
492.527	94.38
492.745	82.38
492.963	97.38
493.18	76.38
493.398	90.38
493.615	86.38
493.833	83.38
494.05	94.38
494.268	100.38
494.485	94.38
494.703	70.38
494.92	87.38
495.138	87.38
495.355	86.38
495.573	83.38
495.79	96.38
496.008	75.38
496.225	86.38
496.442	99.38
496.66	75.38
496.877	64.38
497.094	85.38
497.312	91.38
497.529	91.38
497.746	82.38
497.963	98.38
498.181	90.38
498.398	99.38
498.615	102.38
498.832	106.38
499.049	80.38
499.267	95.38
499.484	86.38
499.701	78.38
499.918	82.38
500.135	85.38
500.352	90.38
500.569	98.38
500.786	79.38
501.003	80.38
501.22	83.38
501.437	92.38
501.654	92.38
501.871	115.38
502.088	103.38
502.305	100.38
502.522	79.38
502.739	71.38
502.956	87.38
503.172	91.38
503.389	90.38
503.606	123.38
503.823	104.38
504.04	101.38
504.256	83.38
504.473	87.38
504.69	101.38
504.907	89.38
505.123	81.38
505.34	74.38
505.557	96.38
505.773	91.38
505.99	86.38
506.207	83.38
506.423	75.38
506.64	83.38
506.856	86.38
507.073	80.38
507.289	94.38
507.506	88.38
507.722	126.38
507.939	123.38
508.155	87.38
508.372	76.38
508.588	90.38
508.805	104.38
509.021	99.38
509.238	94.38
509.454	105.38
509.67	116.38
509.887	118.38
510.103	144.38
510.319	243.38
510.536	863.38
510.752	3059.38
510.968	805.38
511.184	182.38
511.401	141.38
511.617	109.38
511.833	106.38
512.049	94.38
512.265	84.38
512.481	96.38
512.698	105.38
512.914	90.38
513.13	91.38
513.346	103.38
513.562	110.38
513.778	103.38
513.994	103.38
514.21	123.38
514.426	138.38
