Data from Circ_1981_H10_HRD10591_00073.txt Node
Date: Wed Jan 03 12:34:35 EST 2024
User: Yrep
Spectrometer: HR+D1059
Trigger mode: 1
Integration Time (sec): 1.000000E-1
Scans to average: 1
Electric dark correction enabled: true
Nonlinearity correction enabled: false
Boxcar width: 0
XAxis mode: Wavelengths
Number of Pixels in Spectrum: 2048
>>>>>Begin Spectral Data<<<<<
223.165	-14.38
223.4	-14.38
223.635	-14.38
223.869	-12.38
224.104	-26.38
224.338	-10.38
224.573	-5.38
224.808	-5.38
225.042	-16.38
225.277	-2.38
225.511	0.62
225.746	0.62
225.98	6.62
226.215	5.62
226.449	7.62
226.683	15.62
226.918	24.62
227.152	31.62
227.387	30.62
227.621	41.62
227.856	44.62
228.09	40.62
228.324	32.62
228.559	45.62
228.793	53.62
229.027	49.62
229.262	56.62
229.496	60.62
229.73	85.62
229.964	96.62
230.199	73.62
230.433	71.62
230.667	75.62
230.901	71.62
231.136	67.62
231.37	76.62
231.604	81.62
231.838	71.62
232.072	88.62
232.306	73.62
232.541	81.62
232.775	65.62
233.009	70.62
233.243	83.62
233.477	73.62
233.711	86.62
233.945	82.62
234.179	91.62
234.413	92.62
234.647	73.62
234.881	85.62
235.115	72.62
235.349	74.62
235.583	83.62
235.817	79.62
236.051	89.62
236.285	87.62
236.519	98.62
236.753	69.62
236.987	83.62
237.221	89.62
237.455	99.62
237.689	67.62
237.922	86.62
238.156	68.62
238.39	70.62
238.624	74.62
238.858	86.62
239.091	77.62
239.325	71.62
239.559	75.62
239.793	77.62
240.027	80.62
240.26	87.62
240.494	94.62
240.728	67.62
240.961	67.62
241.195	87.62
241.429	83.62
241.662	82.62
241.896	72.62
242.13	82.62
242.363	81.62
242.597	62.62
242.83	73.62
243.064	85.62
243.298	79.62
243.531	73.62
243.765	82.62
243.998	74.62
244.232	93.62
244.465	90.62
244.699	83.62
244.932	84.62
245.166	65.62
245.399	84.62
245.633	71.62
245.866	69.62
246.099	74.62
246.333	83.62
246.566	74.62
246.8	77.62
247.033	73.62
247.266	68.62
247.5	68.62
247.733	80.62
247.966	80.62
248.2	76.62
248.433	75.62
248.666	63.62
248.899	82.62
249.133	110.62
249.366	90.62
249.599	92.62
249.832	77.62
250.066	86.62
250.299	83.62
250.532	75.62
250.765	97.62
250.998	57.62
251.231	76.62
251.465	80.62
251.698	89.62
251.931	77.62
252.164	75.62
252.397	79.62
252.63	72.62
252.863	72.62
253.096	92.62
253.329	83.62
253.562	73.62
253.795	74.62
254.028	74.62
254.261	83.62
254.494	91.62
254.727	77.62
254.96	82.62
255.193	65.62
255.426	87.62
255.659	79.62
255.892	79.62
256.124	96.62
256.357	81.62
256.59	81.62
256.823	91.62
257.056	72.62
257.289	79.62
257.521	63.62
257.754	73.62
257.987	73.62
258.22	82.62
258.452	81.62
258.685	92.62
258.918	84.62
259.151	72.62
259.383	75.62
259.616	67.62
259.849	74.62
260.081	76.62
260.314	88.62
260.547	83.62
260.779	83.62
261.012	82.62
261.244	81.62
261.477	82.62
261.71	96.62
261.942	109.62
262.175	102.62
262.407	94.62
262.64	86.62
262.872	85.62
263.105	90.62
263.337	69.62
263.57	80.62
263.802	86.62
264.035	86.62
264.267	74.62
264.499	87.62
264.732	85.62
264.964	98.62
265.197	84.62
265.429	98.62
265.661	62.62
265.894	93.62
266.126	58.62
266.358	71.62
266.591	76.62
266.823	73.62
267.055	76.62
267.287	85.62
267.52	74.62
267.752	93.62
267.984	87.62
268.216	67.62
268.448	87.62
268.681	77.62
268.913	87.62
269.145	77.62
269.377	90.62
269.609	87.62
269.841	80.62
270.073	79.62
270.306	82.62
270.538	78.62
270.77	85.62
271.002	83.62
271.234	76.62
271.466	72.62
271.698	88.62
271.93	98.62
272.162	89.62
272.394	96.62
272.626	83.62
272.858	100.62
273.09	89.62
273.322	85.62
273.553	77.62
273.785	81.62
274.017	87.62
274.249	86.62
274.481	83.62
274.713	84.62
274.945	83.62
275.176	95.62
275.408	87.62
275.64	82.62
275.872	83.62
276.104	89.62
276.335	87.62
276.567	111.62
276.799	112.62
277.031	103.62
277.262	95.62
277.494	83.62
277.726	98.62
277.957	79.62
278.189	83.62
278.421	88.62
278.652	79.62
278.884	85.62
279.115	86.62
279.347	101.62
279.579	91.62
279.81	80.62
280.042	81.62
280.273	91.62
280.505	84.62
280.736	88.62
280.968	93.62
281.199	95.62
281.431	100.62
281.662	85.62
281.894	93.62
282.125	109.62
282.356	99.62
282.588	143.62
282.819	130.62
283.051	98.62
283.282	81.62
283.513	83.62
283.745	98.62
283.976	79.62
284.207	75.62
284.439	93.62
284.67	90.62
284.901	91.62
285.132	80.62
285.364	81.62
285.595	97.62
285.826	76.62
286.057	95.62
286.288	72.62
286.52	69.62
286.751	101.62
286.982	92.62
287.213	86.62
287.444	89.62
287.675	88.62
287.906	88.62
288.138	86.62
288.369	89.62
288.6	72.62
288.831	101.62
289.062	95.62
289.293	81.62
289.524	81.62
289.755	95.62
289.986	89.62
290.217	75.62
290.448	83.62
290.679	83.62
290.91	95.62
291.141	96.62
291.371	93.62
291.602	96.62
291.833	89.62
292.064	87.62
292.295	85.62
292.526	87.62
292.757	91.62
292.987	89.62
293.218	88.62
293.449	86.62
293.68	89.62
293.91	88.62
294.141	98.62
294.372	96.62
294.603	102.62
294.833	80.62
295.064	91.62
295.295	91.62
295.525	89.62
295.756	99.62
295.987	116.62
296.217	132.62
296.448	109.62
296.679	89.62
296.909	95.62
297.14	92.62
297.37	88.62
297.601	84.62
297.831	90.62
298.062	93.62
298.292	90.62
298.523	89.62
298.753	92.62
298.984	88.62
299.214	82.62
299.445	80.62
299.675	94.62
299.905	93.62
300.136	94.62
300.366	85.62
300.597	92.62
300.827	87.62
301.057	101.62
301.288	115.62
301.518	99.62
301.748	80.62
301.979	97.62
302.209	87.62
302.439	99.62
302.669	87.62
302.9	87.62
303.13	97.62
303.36	100.62
303.59	98.62
303.82	88.62
304.051	100.62
304.281	76.62
304.511	85.62
304.741	80.62
304.971	92.62
305.201	90.62
305.431	102.62
305.661	83.62
305.891	88.62
306.121	103.62
306.352	106.62
306.582	88.62
306.812	88.62
307.042	90.62
307.272	94.62
307.502	108.62
307.731	96.62
307.961	91.62
308.191	95.62
308.421	93.62
308.651	88.62
308.881	89.62
309.111	85.62
309.341	91.62
309.571	107.62
309.8	107.62
310.03	107.62
310.26	101.62
310.49	96.62
310.72	107.62
310.949	102.62
311.179	96.62
311.409	86.62
311.639	109.62
311.868	105.62
312.098	107.62
312.328	103.62
312.557	110.62
312.787	102.62
313.017	110.62
313.246	96.62
313.476	93.62
313.706	90.62
313.935	77.62
314.165	107.62
314.394	108.62
314.624	101.62
314.853	104.62
315.083	96.62
315.312	96.62
315.542	94.62
315.771	93.62
316.001	93.62
316.23	81.62
316.46	89.62
316.689	94.62
316.919	93.62
317.148	83.62
317.377	103.62
317.607	97.62
317.836	96.62
318.065	99.62
318.295	85.62
318.524	91.62
318.753	91.62
318.983	96.62
319.212	111.62
319.441	117.62
319.67	136.62
319.9	99.62
320.129	102.62
320.358	83.62
320.587	92.62
320.816	90.62
321.046	109.62
321.275	110.62
321.504	93.62
321.733	91.62
321.962	107.62
322.191	103.62
322.42	96.62
322.649	109.62
322.878	116.62
323.108	129.62
323.337	127.62
323.566	143.62
323.795	161.62
324.024	218.62
324.253	478.62
324.482	1027.62
324.71	2194.62
324.939	3029.62
325.168	1068.62
325.397	284.62
325.626	143.62
325.855	146.62
326.084	135.62
326.313	138.62
326.542	155.62
326.77	240.62
326.999	545.62
327.228	1177.62
327.457	2209.62
327.686	1784.62
327.914	437.62
328.143	223.62
328.372	182.62
328.6	147.62
328.829	129.62
329.058	155.62
329.287	136.62
329.515	125.62
329.744	112.62
329.972	108.62
330.201	114.62
330.43	147.62
330.658	131.62
330.887	159.62
331.115	153.62
331.344	98.62
331.572	105.62
331.801	116.62
332.03	106.62
332.258	93.62
332.486	76.62
332.715	83.62
332.943	81.62
333.172	101.62
333.4	105.62
333.629	111.62
333.857	117.62
334.085	110.62
334.314	123.62
334.542	132.62
334.771	141.62
334.999	112.62
335.227	116.62
335.455	90.62
335.684	101.62
335.912	107.62
336.14	99.62
336.369	93.62
336.597	113.62
336.825	104.62
337.053	83.62
337.281	87.62
337.51	92.62
337.738	104.62
337.966	95.62
338.194	106.62
338.422	102.62
338.65	96.62
338.878	93.62
339.106	77.62
339.334	92.62
339.562	97.62
339.79	82.62
340.018	87.62
340.246	90.62
340.474	90.62
340.702	94.62
340.93	91.62
341.158	91.62
341.386	95.62
341.614	120.62
341.842	106.62
342.07	87.62
342.298	73.62
342.526	85.62
342.754	92.62
342.981	82.62
343.209	74.62
343.437	100.62
343.665	88.62
343.893	92.62
344.12	98.62
344.348	89.62
344.576	96.62
344.804	83.62
345.031	101.62
345.259	104.62
345.487	109.62
345.714	96.62
345.942	92.62
346.17	90.62
346.397	100.62
346.625	109.62
346.853	97.62
347.08	98.62
347.308	75.62
347.535	96.62
347.763	109.62
347.99	101.62
348.218	103.62
348.445	109.62
348.673	99.62
348.9	95.62
349.128	86.62
349.355	95.62
349.583	92.62
349.81	98.62
350.037	84.62
350.265	103.62
350.492	93.62
350.72	99.62
350.947	89.62
351.174	98.62
351.402	119.62
351.629	95.62
351.856	107.62
352.083	105.62
352.311	101.62
352.538	115.62
352.765	93.62
352.992	109.62
353.22	104.62
353.447	100.62
353.674	107.62
353.901	104.62
354.128	73.62
354.355	79.62
354.583	93.62
354.81	109.62
355.037	98.62
355.264	102.62
355.491	87.62
355.718	98.62
355.945	87.62
356.172	97.62
356.399	99.62
356.626	91.62
356.853	76.62
357.08	91.62
357.307	91.62
357.534	99.62
357.761	98.62
357.988	92.62
358.215	110.62
358.441	79.62
358.668	86.62
358.895	87.62
359.122	94.62
359.349	88.62
359.576	92.62
359.802	100.62
360.029	134.62
360.256	127.62
360.483	106.62
360.709	102.62
360.936	104.62
361.163	105.62
361.39	94.62
361.616	99.62
361.843	93.62
362.07	91.62
362.296	99.62
362.523	91.62
362.749	87.62
362.976	97.62
363.203	85.62
363.429	99.62
363.656	88.62
363.882	104.62
364.109	93.62
364.335	92.62
364.562	91.62
364.788	91.62
365.015	92.62
365.241	104.62
365.468	101.62
365.694	105.62
365.92	108.62
366.147	95.62
366.373	83.62
366.599	91.62
366.826	89.62
367.052	97.62
367.278	85.62
367.505	89.62
367.731	81.62
367.957	102.62
368.184	106.62
368.41	108.62
368.636	116.62
368.862	136.62
369.089	100.62
369.315	95.62
369.541	84.62
369.767	96.62
369.993	100.62
370.219	75.62
370.445	86.62
370.672	96.62
370.898	105.62
371.124	91.62
371.35	85.62
371.576	81.62
371.802	99.62
372.028	95.62
372.254	98.62
372.48	77.62
372.706	93.62
372.932	75.62
373.158	95.62
373.384	100.62
373.61	96.62
373.835	87.62
374.061	82.62
374.287	91.62
374.513	99.62
374.739	95.62
374.965	85.62
375.191	80.62
375.416	85.62
375.642	95.62
375.868	91.62
376.094	98.62
376.319	86.62
376.545	96.62
376.771	91.62
376.997	98.62
377.222	83.62
377.448	87.62
377.674	84.62
377.899	81.62
378.125	68.62
378.35	90.62
378.576	92.62
378.802	66.62
379.027	82.62
379.253	82.62
379.478	99.62
379.704	90.62
379.929	99.62
380.155	88.62
380.38	81.62
380.606	84.62
380.831	93.62
381.057	101.62
381.282	99.62
381.507	80.62
381.733	99.62
381.958	92.62
382.184	108.62
382.409	104.62
382.634	101.62
382.86	82.62
383.085	91.62
383.31	91.62
383.535	92.62
383.761	93.62
383.986	105.62
384.211	83.62
384.436	86.62
384.662	85.62
384.887	95.62
385.112	89.62
385.337	94.62
385.562	96.62
385.787	97.62
386.013	99.62
386.238	99.62
386.463	109.62
386.688	93.62
386.913	91.62
387.138	102.62
387.363	109.62
387.588	114.62
387.813	101.62
388.038	107.62
388.263	99.62
388.488	96.62
388.713	79.62
388.938	85.62
389.163	100.62
389.387	94.62
389.612	93.62
389.837	87.62
390.062	91.62
390.287	90.62
390.512	91.62
390.736	91.62
390.961	97.62
391.186	95.62
391.411	81.62
391.636	84.62
391.86	87.62
392.085	87.62
392.31	88.62
392.534	88.62
392.759	83.62
392.984	103.62
393.208	98.62
393.433	100.62
393.658	80.62
393.882	80.62
394.107	89.62
394.331	94.62
394.556	79.62
394.78	93.62
395.005	86.62
395.229	85.62
395.454	98.62
395.678	84.62
395.903	105.62
396.127	102.62
396.352	90.62
396.576	78.62
396.801	96.62
397.025	101.62
397.249	85.62
397.474	85.62
397.698	80.62
397.922	83.62
398.147	81.62
398.371	90.62
398.595	73.62
398.82	76.62
399.044	88.62
399.268	66.62
399.492	89.62
399.717	95.62
399.941	95.62
400.165	101.62
400.389	97.62
400.613	82.62
400.837	91.62
401.062	71.62
401.286	96.62
401.51	88.62
401.734	88.62
401.958	101.62
402.182	107.62
402.406	151.62
402.63	110.62
402.854	100.62
403.078	91.62
403.302	84.62
403.526	89.62
403.75	98.62
403.974	85.62
404.198	86.62
404.422	91.62
404.645	80.62
404.869	96.62
405.093	106.62
405.317	109.62
405.541	107.62
405.765	96.62
405.988	115.62
406.212	163.62
406.436	219.62
406.66	163.62
406.883	108.62
407.107	94.62
407.331	91.62
407.555	107.62
407.778	104.62
408.002	97.62
408.226	96.62
408.449	92.62
408.673	88.62
408.896	91.62
409.12	111.62
409.344	100.62
409.567	93.62
409.791	104.62
410.014	93.62
410.238	99.62
410.461	101.62
410.685	71.62
410.908	92.62
411.132	104.62
411.355	102.62
411.578	90.62
411.802	102.62
412.025	103.62
412.249	92.62
412.472	89.62
412.695	102.62
412.919	84.62
413.142	76.62
413.365	85.62
413.589	83.62
413.812	81.62
414.035	107.62
414.258	88.62
414.482	92.62
414.705	90.62
414.928	83.62
415.151	82.62
415.374	88.62
415.597	92.62
415.821	83.62
416.044	101.62
416.267	97.62
416.49	84.62
416.713	87.62
416.936	108.62
417.159	92.62
417.382	102.62
417.605	75.62
417.828	89.62
418.051	87.62
418.274	81.62
418.497	89.62
418.72	83.62
418.943	87.62
419.166	92.62
419.389	91.62
419.611	82.62
419.834	77.62
420.057	89.62
420.28	90.62
420.503	89.62
420.726	96.62
420.948	83.62
421.171	111.62
421.394	102.62
421.617	90.62
421.839	85.62
422.062	89.62
422.285	92.62
422.507	103.62
422.73	127.62
422.953	100.62
423.175	88.62
423.398	101.62
423.621	78.62
423.843	85.62
424.066	89.62
424.288	95.62
424.511	94.62
424.733	106.62
424.956	116.62
425.178	114.62
425.401	109.62
425.623	101.62
425.846	86.62
426.068	105.62
426.291	88.62
426.513	83.62
426.735	89.62
426.958	82.62
427.18	118.62
427.402	178.62
427.625	198.62
427.847	148.62
428.069	116.62
428.292	93.62
428.514	97.62
428.736	83.62
428.958	83.62
429.181	83.62
429.403	90.62
429.625	84.62
429.847	85.62
430.069	103.62
430.292	103.62
430.514	103.62
430.736	90.62
430.958	77.62
431.18	98.62
431.402	90.62
431.624	80.62
431.846	73.62
432.068	85.62
432.29	86.62
432.512	83.62
432.734	87.62
432.956	83.62
433.178	109.62
433.4	107.62
433.622	83.62
433.844	94.62
434.066	87.62
434.287	100.62
434.509	91.62
434.731	98.62
434.953	92.62
435.175	100.62
435.397	85.62
435.618	103.62
435.84	119.62
436.062	149.62
436.284	133.62
436.505	118.62
436.727	111.62
436.949	92.62
437.17	79.62
437.392	88.62
437.614	88.62
437.835	104.62
438.057	135.62
438.278	131.62
438.5	126.62
438.721	155.62
438.943	119.62
439.165	97.62
439.386	95.62
439.608	100.62
439.829	101.62
440.05	140.62
440.272	184.62
440.493	111.62
440.715	107.62
440.936	85.62
441.158	96.62
441.379	93.62
441.6	71.62
441.822	105.62
442.043	108.62
442.264	122.62
442.486	100.62
442.707	105.62
442.928	126.62
443.149	145.62
443.371	149.62
443.592	134.62
443.813	147.62
444.034	128.62
444.255	94.62
444.476	96.62
444.698	84.62
444.919	86.62
445.14	144.62
445.361	135.62
445.582	126.62
445.803	191.62
446.024	167.62
446.245	179.62
446.466	133.62
446.687	93.62
446.908	90.62
447.129	90.62
447.35	88.62
447.571	74.62
447.792	94.62
448.013	98.62
448.234	96.62
448.455	100.62
448.675	135.62
448.896	151.62
449.117	111.62
449.338	113.62
449.559	171.62
449.779	175.62
450	94.62
450.221	103.62
450.442	93.62
450.662	98.62
450.883	97.62
451.104	124.62
451.324	109.62
451.545	85.62
451.766	79.62
451.986	82.62
452.207	75.62
452.428	98.62
452.648	102.62
452.869	111.62
453.089	115.62
453.31	120.62
453.53	82.62
453.751	98.62
453.971	103.62
454.192	128.62
454.412	100.62
454.633	90.62
454.853	96.62
455.073	96.62
455.294	97.62
455.514	123.62
455.734	92.62
455.955	86.62
456.175	85.62
456.395	75.62
456.616	79.62
456.836	81.62
457.056	76.62
457.276	85.62
457.497	106.62
457.717	87.62
457.937	87.62
458.157	93.62
458.377	89.62
458.598	100.62
458.818	169.62
459.038	180.62
459.258	138.62
459.478	108.62
459.698	76.62
459.918	111.62
460.138	83.62
460.358	87.62
460.578	93.62
460.798	97.62
461.018	81.62
461.238	81.62
461.458	88.62
461.678	87.62
461.898	91.62
462.118	91.62
462.338	85.62
462.558	80.62
462.777	85.62
462.997	86.62
463.217	82.62
463.437	88.62
463.657	95.62
463.876	95.62
464.096	94.62
464.316	82.62
464.536	89.62
464.755	94.62
464.975	106.62
465.195	181.62
465.414	174.62
465.634	95.62
465.854	84.62
466.073	83.62
466.293	87.62
466.512	92.62
466.732	95.62
466.951	94.62
467.171	93.62
467.391	98.62
467.61	99.62
467.829	87.62
468.049	87.62
468.268	101.62
468.488	89.62
468.707	80.62
468.927	90.62
469.146	83.62
469.365	87.62
469.585	95.62
469.804	96.62
470.023	111.62
470.243	98.62
470.462	91.62
470.681	131.62
470.901	106.62
471.12	88.62
471.339	94.62
471.558	98.62
471.777	93.62
471.997	88.62
472.216	104.62
472.435	156.62
472.654	104.62
472.873	89.62
473.092	73.62
473.311	81.62
473.53	86.62
473.749	93.62
473.968	99.62
474.187	128.62
474.406	112.62
474.625	126.62
474.844	88.62
475.063	93.62
475.282	93.62
475.501	92.62
475.72	94.62
475.939	82.62
476.158	86.62
476.377	99.62
476.596	79.62
476.814	96.62
477.033	97.62
477.252	84.62
477.471	90.62
477.69	91.62
477.908	89.62
478.127	92.62
478.346	90.62
478.564	99.62
478.783	88.62
479.002	89.62
479.22	84.62
479.439	92.62
479.658	114.62
479.876	91.62
480.095	89.62
480.313	99.62
480.532	86.62
480.751	86.62
480.969	107.62
481.188	208.62
481.406	169.62
481.624	90.62
481.843	79.62
482.061	76.62
482.28	87.62
482.498	77.62
482.717	86.62
482.935	79.62
483.153	73.62
483.372	86.62
483.59	97.62
483.808	84.62
484.027	92.62
484.245	83.62
484.463	92.62
484.681	83.62
484.9	99.62
485.118	90.62
485.336	80.62
485.554	89.62
485.772	112.62
485.99	88.62
486.209	103.62
486.427	92.62
486.645	103.62
486.863	113.62
487.081	102.62
487.299	102.62
487.517	105.62
487.735	94.62
487.953	92.62
488.171	98.62
488.389	81.62
488.607	106.62
488.825	91.62
489.043	96.62
489.261	101.62
489.479	96.62
489.696	87.62
489.914	98.62
490.132	87.62
490.35	83.62
490.568	97.62
490.786	97.62
491.003	99.62
491.221	107.62
491.439	96.62
491.657	96.62
491.874	90.62
492.092	91.62
492.31	89.62
492.527	90.62
492.745	97.62
492.963	86.62
493.18	98.62
493.398	89.62
493.615	104.62
493.833	88.62
494.05	86.62
494.268	76.62
494.485	91.62
494.703	73.62
494.92	87.62
495.138	93.62
495.355	95.62
495.573	88.62
495.79	86.62
496.008	85.62
496.225	76.62
496.442	92.62
496.66	114.62
496.877	90.62
497.094	108.62
497.312	97.62
497.529	99.62
497.746	93.62
497.963	92.62
498.181	92.62
498.398	89.62
498.615	103.62
498.832	106.62
499.049	88.62
499.267	89.62
499.484	69.62
499.701	87.62
499.918	89.62
500.135	84.62
500.352	92.62
500.569	76.62
500.786	93.62
501.003	91.62
501.22	85.62
501.437	86.62
501.654	95.62
501.871	115.62
502.088	79.62
502.305	98.62
502.522	89.62
502.739	85.62
502.956	111.62
503.172	93.62
503.389	88.62
503.606	109.62
503.823	91.62
504.04	85.62
504.256	102.62
504.473	83.62
504.69	87.62
504.907	91.62
505.123	99.62
505.34	88.62
505.557	89.62
505.773	89.62
505.99	84.62
506.207	77.62
506.423	87.62
506.64	95.62
506.856	80.62
507.073	89.62
507.289	80.62
507.506	109.62
507.722	124.62
507.939	111.62
508.155	78.62
508.372	89.62
508.588	91.62
508.805	105.62
509.021	94.62
509.238	105.62
509.454	97.62
509.67	100.62
509.887	91.62
510.103	123.62
510.319	200.62
510.536	683.62
510.752	2135.62
510.968	602.62
511.184	136.62
511.401	104.62
511.617	92.62
511.833	91.62
512.049	85.62
512.265	92.62
512.481	81.62
512.698	89.62
512.914	96.62
513.13	95.62
513.346	96.62
513.562	91.62
513.778	97.62
513.994	91.62
514.21	99.62
514.426	117.62
514.642	155.62
514.858	132.62
515.074	172.62
515.29	471.62
