Data from Circ_1981_H10_HRD10591_00014.txt Node
Date: Wed Jan 03 12:34:23 EST 2024
User: Yrep
Spectrometer: HR+D1059
Trigger mode: 1
Integration Time (sec): 1.000000E-1
Scans to average: 1
Electric dark correction enabled: true
Nonlinearity correction enabled: false
Boxcar width: 0
XAxis mode: Wavelengths
Number of Pixels in Spectrum: 2048
>>>>>Begin Spectral Data<<<<<
223.165	-5.94
223.4	-5.94
223.635	-5.94
223.869	-33.94
224.104	-21.94
224.338	-6.94
224.573	2.06
224.808	-2.94
225.042	-4.94
225.277	-10.94
225.511	7.06
225.746	10.06
225.98	1.06
226.215	4.06
226.449	4.06
226.683	22.06
226.918	12.06
227.152	25.06
227.387	32.06
227.621	31.06
227.856	47.06
228.09	62.06
228.324	55.06
228.559	63.06
228.793	50.06
229.027	62.06
229.262	58.06
229.496	71.06
229.73	70.06
229.964	73.06
230.199	73.06
230.433	92.06
230.667	68.06
230.901	72.06
231.136	69.06
231.37	63.06
231.604	78.06
231.838	78.06
232.072	78.06
232.306	90.06
232.541	83.06
232.775	78.06
233.009	86.06
233.243	82.06
233.477	69.06
233.711	82.06
233.945	78.06
234.179	74.06
234.413	78.06
234.647	69.06
234.881	78.06
235.115	72.06
235.349	87.06
235.583	84.06
235.817	76.06
236.051	74.06
236.285	76.06
236.519	89.06
236.753	72.06
236.987	82.06
237.221	74.06
237.455	70.06
237.689	75.06
237.922	72.06
238.156	72.06
238.39	68.06
238.624	70.06
238.858	66.06
239.091	76.06
239.325	87.06
239.559	83.06
239.793	94.06
240.027	86.06
240.26	72.06
240.494	80.06
240.728	66.06
240.961	84.06
241.195	83.06
241.429	70.06
241.662	71.06
241.896	65.06
242.13	71.06
242.363	78.06
242.597	64.06
242.83	75.06
243.064	91.06
243.298	74.06
243.531	72.06
243.765	79.06
243.998	73.06
244.232	78.06
244.465	91.06
244.699	92.06
244.932	92.06
245.166	84.06
245.399	83.06
245.633	67.06
245.866	66.06
246.099	74.06
246.333	77.06
246.566	82.06
246.8	64.06
247.033	86.06
247.266	78.06
247.5	66.06
247.733	62.06
247.966	86.06
248.2	70.06
248.433	83.06
248.666	84.06
248.899	94.06
249.133	74.06
249.366	98.06
249.599	86.06
249.832	84.06
250.066	74.06
250.299	80.06
250.532	73.06
250.765	81.06
250.998	69.06
251.231	71.06
251.465	84.06
251.698	75.06
251.931	82.06
252.164	76.06
252.397	82.06
252.63	82.06
252.863	72.06
253.096	75.06
253.329	77.06
253.562	86.06
253.795	82.06
254.028	73.06
254.261	66.06
254.494	86.06
254.727	84.06
254.96	92.06
255.193	76.06
255.426	74.06
255.659	74.06
255.892	88.06
256.124	78.06
256.357	84.06
256.59	73.06
256.823	71.06
257.056	73.06
257.289	95.06
257.521	66.06
257.754	84.06
257.987	87.06
258.22	72.06
258.452	79.06
258.685	82.06
258.918	96.06
259.151	73.06
259.383	95.06
259.616	74.06
259.849	82.06
260.081	75.06
260.314	84.06
260.547	71.06
260.779	82.06
261.012	82.06
261.244	93.06
261.477	78.06
261.71	87.06
261.942	112.06
262.175	115.06
262.407	103.06
262.64	86.06
262.872	75.06
263.105	94.06
263.337	83.06
263.57	94.06
263.802	68.06
264.035	69.06
264.267	66.06
264.499	79.06
264.732	90.06
264.964	90.06
265.197	88.06
265.429	79.06
265.661	82.06
265.894	75.06
266.126	78.06
266.358	84.06
266.591	74.06
266.823	82.06
267.055	78.06
267.287	91.06
267.52	78.06
267.752	89.06
267.984	79.06
268.216	80.06
268.448	90.06
268.681	74.06
268.913	75.06
269.145	74.06
269.377	81.06
269.609	78.06
269.841	75.06
270.073	78.06
270.306	82.06
270.538	78.06
270.77	85.06
271.002	83.06
271.234	82.06
271.466	82.06
271.698	74.06
271.93	72.06
272.162	68.06
272.394	83.06
272.626	88.06
272.858	90.06
273.09	84.06
273.322	74.06
273.553	91.06
273.785	82.06
274.017	82.06
274.249	89.06
274.481	72.06
274.713	68.06
274.945	74.06
275.176	75.06
275.408	81.06
275.64	66.06
275.872	95.06
276.104	87.06
276.335	65.06
276.567	96.06
276.799	115.06
277.031	111.06
277.262	97.06
277.494	83.06
277.726	85.06
277.957	96.06
278.189	83.06
278.421	84.06
278.652	94.06
278.884	87.06
279.115	78.06
279.347	78.06
279.579	80.06
279.81	84.06
280.042	89.06
280.273	83.06
280.505	100.06
280.736	84.06
280.968	86.06
281.199	74.06
281.431	86.06
281.662	80.06
281.894	89.06
282.125	85.06
282.356	102.06
282.588	136.06
282.819	119.06
283.051	77.06
283.282	90.06
283.513	71.06
283.745	74.06
283.976	78.06
284.207	86.06
284.439	90.06
284.67	83.06
284.901	80.06
285.132	85.06
285.364	81.06
285.595	78.06
285.826	92.06
286.057	88.06
286.288	90.06
286.52	92.06
286.751	90.06
286.982	78.06
287.213	95.06
287.444	84.06
287.675	86.06
287.906	86.06
288.138	90.06
288.369	87.06
288.6	92.06
288.831	91.06
289.062	91.06
289.293	88.06
289.524	82.06
289.755	75.06
289.986	98.06
290.217	85.06
290.448	80.06
290.679	78.06
290.91	83.06
291.141	103.06
291.371	78.06
291.602	104.06
291.833	75.06
292.064	90.06
292.295	106.06
292.526	92.06
292.757	82.06
292.987	103.06
293.218	86.06
293.449	85.06
293.68	77.06
293.91	97.06
294.141	83.06
294.372	85.06
294.603	73.06
294.833	76.06
295.064	86.06
295.295	108.06
295.525	91.06
295.756	90.06
295.987	104.06
296.217	147.06
296.448	129.06
296.679	84.06
296.909	84.06
297.14	91.06
297.37	67.06
297.601	88.06
297.831	99.06
298.062	81.06
298.292	96.06
298.523	90.06
298.753	74.06
298.984	81.06
299.214	84.06
299.445	92.06
299.675	97.06
299.905	103.06
300.136	87.06
300.366	79.06
300.597	95.06
300.827	105.06
301.057	106.06
301.288	101.06
301.518	97.06
301.748	99.06
301.979	98.06
302.209	100.06
302.439	92.06
302.669	98.06
302.9	92.06
303.13	83.06
303.36	87.06
303.59	103.06
303.82	95.06
304.051	96.06
304.281	95.06
304.511	97.06
304.741	88.06
304.971	84.06
305.201	95.06
305.431	91.06
305.661	91.06
305.891	83.06
306.121	104.06
306.352	102.06
306.582	115.06
306.812	76.06
307.042	86.06
307.272	96.06
307.502	99.06
307.731	87.06
307.961	95.06
308.191	87.06
308.421	87.06
308.651	82.06
308.881	84.06
309.111	74.06
309.341	84.06
309.571	90.06
309.8	97.06
310.03	92.06
310.26	96.06
310.49	96.06
310.72	86.06
310.949	103.06
311.179	104.06
311.409	86.06
311.639	103.06
311.868	92.06
312.098	90.06
312.328	108.06
312.557	107.06
312.787	104.06
313.017	103.06
313.246	91.06
313.476	95.06
313.706	87.06
313.935	93.06
314.165	91.06
314.394	104.06
314.624	94.06
314.853	97.06
315.083	103.06
315.312	91.06
315.542	88.06
315.771	86.06
316.001	84.06
316.23	81.06
316.46	92.06
316.689	100.06
316.919	86.06
317.148	100.06
317.377	97.06
317.607	86.06
317.836	96.06
318.065	96.06
318.295	95.06
318.524	80.06
318.753	88.06
318.983	99.06
319.212	101.06
319.441	112.06
319.67	101.06
319.9	107.06
320.129	85.06
320.358	93.06
320.587	92.06
320.816	97.06
321.046	89.06
321.275	90.06
321.504	85.06
321.733	93.06
321.962	89.06
322.191	104.06
322.42	101.06
322.649	91.06
322.878	114.06
323.108	120.06
323.337	121.06
323.566	144.06
323.795	166.06
324.024	213.06
324.253	446.06
324.482	948.06
324.71	2021.06
324.939	2730.06
325.168	948.06
325.397	295.06
325.626	160.06
325.855	150.06
326.084	134.06
326.313	138.06
326.542	152.06
326.77	246.06
326.999	494.06
327.228	1056.06
327.457	1979.06
327.686	1598.06
327.914	422.06
328.143	222.06
328.372	182.06
328.6	138.06
328.829	124.06
329.058	140.06
329.287	153.06
329.515	122.06
329.744	110.06
329.972	103.06
330.201	123.06
330.43	145.06
330.658	129.06
330.887	150.06
331.115	122.06
331.344	106.06
331.572	96.06
331.801	108.06
332.03	98.06
332.258	102.06
332.486	106.06
332.715	103.06
332.943	85.06
333.172	97.06
333.4	98.06
333.629	114.06
333.857	110.06
334.085	113.06
334.314	115.06
334.542	142.06
334.771	125.06
334.999	105.06
335.227	100.06
335.455	97.06
335.684	101.06
335.912	98.06
336.14	99.06
336.369	83.06
336.597	99.06
336.825	91.06
337.053	103.06
337.281	86.06
337.51	96.06
337.738	91.06
337.966	103.06
338.194	101.06
338.422	94.06
338.65	98.06
338.878	80.06
339.106	94.06
339.334	80.06
339.562	82.06
339.79	91.06
340.018	93.06
340.246	88.06
340.474	98.06
340.702	76.06
340.93	106.06
341.158	87.06
341.386	101.06
341.614	99.06
341.842	99.06
342.07	96.06
342.298	89.06
342.526	88.06
342.754	90.06
342.981	95.06
343.209	90.06
343.437	78.06
343.665	99.06
343.893	92.06
344.12	84.06
344.348	90.06
344.576	90.06
344.804	93.06
345.031	107.06
345.259	110.06
345.487	87.06
345.714	89.06
345.942	89.06
346.17	96.06
346.397	76.06
346.625	91.06
346.853	86.06
347.08	82.06
347.308	89.06
347.535	98.06
347.763	101.06
347.99	100.06
348.218	101.06
348.445	111.06
348.673	96.06
348.9	95.06
349.128	82.06
349.355	85.06
349.583	81.06
349.81	97.06
350.037	80.06
350.265	89.06
350.492	88.06
350.72	90.06
350.947	100.06
351.174	99.06
351.402	89.06
351.629	107.06
351.856	107.06
352.083	105.06
352.311	108.06
352.538	108.06
352.765	126.06
352.992	120.06
353.22	113.06
353.447	100.06
353.674	104.06
353.901	105.06
354.128	83.06
354.355	100.06
354.583	83.06
354.81	90.06
355.037	103.06
355.264	86.06
355.491	88.06
355.718	74.06
355.945	95.06
356.172	109.06
356.399	100.06
356.626	91.06
356.853	79.06
357.08	90.06
357.307	98.06
357.534	84.06
357.761	90.06
357.988	88.06
358.215	105.06
358.441	87.06
358.668	88.06
358.895	97.06
359.122	87.06
359.349	90.06
359.576	99.06
359.802	104.06
360.029	117.06
360.256	115.06
360.483	94.06
360.709	84.06
360.936	88.06
361.163	94.06
361.39	104.06
361.616	103.06
361.843	95.06
362.07	109.06
362.296	87.06
362.523	101.06
362.749	84.06
362.976	87.06
363.203	85.06
363.429	103.06
363.656	88.06
363.882	79.06
364.109	89.06
364.335	94.06
364.562	96.06
364.788	90.06
365.015	97.06
365.241	97.06
365.468	108.06
365.694	110.06
365.92	90.06
366.147	95.06
366.373	86.06
366.599	95.06
366.826	88.06
367.052	96.06
367.278	86.06
367.505	102.06
367.731	99.06
367.957	100.06
368.184	97.06
368.41	114.06
368.636	116.06
368.862	134.06
369.089	100.06
369.315	80.06
369.541	92.06
369.767	73.06
369.993	88.06
370.219	96.06
370.445	89.06
370.672	78.06
370.898	79.06
371.124	79.06
371.35	80.06
371.576	92.06
371.802	75.06
372.028	92.06
372.254	79.06
372.48	83.06
372.706	88.06
372.932	90.06
373.158	99.06
373.384	91.06
373.61	95.06
373.835	88.06
374.061	91.06
374.287	91.06
374.513	88.06
374.739	77.06
374.965	90.06
375.191	87.06
375.416	86.06
375.642	79.06
375.868	92.06
376.094	90.06
376.319	85.06
376.545	101.06
376.771	74.06
376.997	83.06
377.222	92.06
377.448	91.06
377.674	90.06
377.899	86.06
378.125	82.06
378.35	103.06
378.576	91.06
378.802	85.06
379.027	91.06
379.253	83.06
379.478	90.06
379.704	90.06
379.929	80.06
380.155	90.06
380.38	86.06
380.606	97.06
380.831	90.06
381.057	94.06
381.282	85.06
381.507	80.06
381.733	96.06
381.958	88.06
382.184	103.06
382.409	95.06
382.634	99.06
382.86	90.06
383.085	103.06
383.31	86.06
383.535	97.06
383.761	97.06
383.986	100.06
384.211	96.06
384.436	111.06
384.662	93.06
384.887	107.06
385.112	107.06
385.337	111.06
385.562	101.06
385.787	110.06
386.013	100.06
386.238	120.06
386.463	106.06
386.688	102.06
386.913	83.06
387.138	111.06
387.363	103.06
387.588	101.06
387.813	97.06
388.038	117.06
388.263	114.06
388.488	108.06
388.713	88.06
388.938	102.06
389.163	98.06
389.387	91.06
389.612	81.06
389.837	99.06
390.062	108.06
390.287	86.06
390.512	80.06
390.736	87.06
390.961	73.06
391.186	94.06
391.411	87.06
391.636	89.06
391.86	83.06
392.085	84.06
392.31	81.06
392.534	81.06
392.759	90.06
392.984	89.06
393.208	99.06
393.433	145.06
393.658	124.06
393.882	97.06
394.107	97.06
394.331	97.06
394.556	94.06
394.78	86.06
395.005	85.06
395.229	68.06
395.454	90.06
395.678	82.06
395.903	82.06
396.127	88.06
396.352	99.06
396.576	85.06
396.801	103.06
397.025	104.06
397.249	108.06
397.474	85.06
397.698	100.06
397.922	84.06
398.147	100.06
398.371	81.06
398.595	85.06
398.82	91.06
399.044	84.06
399.268	88.06
399.492	70.06
399.717	101.06
399.941	88.06
400.165	82.06
400.389	92.06
400.613	89.06
400.837	86.06
401.062	87.06
401.286	106.06
401.51	92.06
401.734	90.06
401.958	98.06
402.182	136.06
402.406	182.06
402.63	129.06
402.854	98.06
403.078	82.06
403.302	76.06
403.526	104.06
403.75	82.06
403.974	85.06
404.198	89.06
404.422	80.06
404.645	84.06
404.869	97.06
405.093	101.06
405.317	100.06
405.541	108.06
405.765	113.06
405.988	106.06
406.212	176.06
406.436	255.06
406.66	171.06
406.883	107.06
407.107	104.06
407.331	103.06
407.555	101.06
407.778	102.06
408.002	90.06
408.226	85.06
408.449	80.06
408.673	93.06
408.896	99.06
409.12	95.06
409.344	88.06
409.567	98.06
409.791	104.06
410.014	95.06
410.238	83.06
410.461	78.06
410.685	91.06
410.908	84.06
411.132	92.06
411.355	93.06
411.578	94.06
411.802	83.06
412.025	104.06
412.249	97.06
412.472	100.06
412.695	94.06
412.919	96.06
413.142	73.06
413.365	68.06
413.589	98.06
413.812	89.06
414.035	103.06
414.258	82.06
414.482	92.06
414.705	89.06
414.928	104.06
415.151	93.06
415.374	99.06
415.597	88.06
415.821	89.06
416.044	97.06
416.267	86.06
416.49	87.06
416.713	84.06
416.936	90.06
417.159	93.06
417.382	100.06
417.605	90.06
417.828	86.06
418.051	101.06
418.274	100.06
418.497	85.06
418.72	92.06
418.943	88.06
419.166	81.06
419.389	88.06
419.611	90.06
419.834	92.06
420.057	87.06
420.28	83.06
420.503	86.06
420.726	90.06
420.948	63.06
421.171	86.06
421.394	85.06
421.617	100.06
421.839	84.06
422.062	89.06
422.285	79.06
422.507	101.06
422.73	98.06
422.953	92.06
423.175	100.06
423.398	84.06
423.621	79.06
423.843	89.06
424.066	73.06
424.288	99.06
424.511	82.06
424.733	105.06
424.956	97.06
425.178	102.06
425.401	92.06
425.623	102.06
425.846	104.06
426.068	111.06
426.291	95.06
426.513	88.06
426.735	87.06
426.958	98.06
427.18	98.06
427.402	154.06
427.625	180.06
427.847	140.06
428.069	111.06
428.292	99.06
428.514	100.06
428.736	100.06
428.958	97.06
429.181	81.06
429.403	81.06
429.625	95.06
429.847	93.06
430.069	106.06
430.292	85.06
430.514	86.06
430.736	88.06
430.958	75.06
431.18	72.06
431.402	86.06
431.624	82.06
431.846	79.06
432.068	88.06
432.29	72.06
432.512	97.06
432.734	92.06
432.956	94.06
433.178	110.06
433.4	97.06
433.622	90.06
433.844	81.06
434.066	79.06
434.287	96.06
434.509	71.06
434.731	85.06
434.953	87.06
435.175	106.06
435.397	86.06
435.618	97.06
435.84	97.06
436.062	119.06
436.284	120.06
436.505	102.06
436.727	114.06
436.949	96.06
437.17	84.06
437.392	87.06
437.614	99.06
437.835	115.06
438.057	132.06
438.278	124.06
438.5	117.06
438.721	114.06
438.943	100.06
439.165	82.06
439.386	100.06
439.608	109.06
439.829	106.06
440.05	122.06
440.272	171.06
440.493	85.06
440.715	93.06
440.936	83.06
441.158	85.06
441.379	86.06
441.6	92.06
441.822	81.06
442.043	94.06
442.264	103.06
442.486	94.06
442.707	92.06
442.928	116.06
443.149	143.06
443.371	153.06
443.592	115.06
443.813	107.06
444.034	108.06
444.255	89.06
444.476	108.06
444.698	93.06
444.919	85.06
445.14	144.06
445.361	124.06
445.582	121.06
445.803	150.06
446.024	154.06
446.245	130.06
446.466	104.06
446.687	105.06
446.908	90.06
447.129	86.06
447.35	85.06
447.571	97.06
447.792	83.06
448.013	95.06
448.234	103.06
448.455	93.06
448.675	108.06
448.896	136.06
449.117	106.06
449.338	103.06
449.559	128.06
449.779	126.06
450	88.06
450.221	80.06
450.442	81.06
450.662	98.06
450.883	109.06
451.104	125.06
451.324	93.06
451.545	102.06
451.766	84.06
451.986	74.06
452.207	83.06
452.428	83.06
452.648	95.06
452.869	100.06
453.089	119.06
453.31	136.06
453.53	94.06
453.751	90.06
453.971	87.06
454.192	125.06
454.412	97.06
454.633	90.06
454.853	94.06
455.073	88.06
455.294	95.06
455.514	106.06
455.734	88.06
455.955	80.06
456.175	69.06
456.395	86.06
456.616	72.06
456.836	80.06
457.056	80.06
457.276	89.06
457.497	90.06
457.717	81.06
457.937	70.06
458.157	96.06
458.377	81.06
458.598	108.06
458.818	166.06
459.038	190.06
459.258	127.06
459.478	85.06
459.698	80.06
459.918	79.06
460.138	92.06
460.358	84.06
460.578	84.06
460.798	80.06
461.018	98.06
461.238	85.06
461.458	93.06
461.678	84.06
461.898	92.06
462.118	87.06
462.338	99.06
462.558	98.06
462.777	93.06
462.997	89.06
463.217	92.06
463.437	84.06
463.657	88.06
463.876	81.06
464.096	96.06
464.316	103.06
464.536	84.06
464.755	95.06
464.975	102.06
465.195	172.06
465.414	195.06
465.634	96.06
465.854	80.06
466.073	75.06
466.293	82.06
466.512	82.06
466.732	91.06
466.951	92.06
467.171	100.06
467.391	92.06
467.61	115.06
467.829	97.06
468.049	110.06
468.268	96.06
468.488	74.06
468.707	99.06
468.927	74.06
469.146	84.06
469.365	82.06
469.585	92.06
469.804	100.06
470.023	88.06
470.243	110.06
470.462	107.06
470.681	113.06
470.901	88.06
471.12	105.06
471.339	85.06
471.558	88.06
471.777	80.06
471.997	98.06
472.216	112.06
472.435	152.06
472.654	96.06
472.873	98.06
473.092	87.06
473.311	88.06
473.53	79.06
473.749	78.06
473.968	92.06
474.187	99.06
474.406	106.06
474.625	90.06
474.844	99.06
475.063	95.06
475.282	97.06
475.501	97.06
475.72	96.06
475.939	79.06
476.158	94.06
476.377	78.06
476.596	89.06
476.814	86.06
477.033	84.06
477.252	85.06
477.471	91.06
477.69	71.06
477.908	93.06
478.127	92.06
478.346	70.06
478.564	84.06
478.783	95.06
479.002	99.06
479.22	100.06
479.439	100.06
479.658	90.06
479.876	107.06
480.095	86.06
480.313	83.06
480.532	89.06
480.751	87.06
480.969	104.06
481.188	228.06
481.406	171.06
481.624	95.06
481.843	87.06
482.061	81.06
482.28	85.06
482.498	86.06
482.717	89.06
482.935	101.06
483.153	104.06
483.372	95.06
483.59	88.06
483.808	72.06
484.027	82.06
484.245	99.06
484.463	101.06
484.681	92.06
484.9	94.06
485.118	78.06
485.336	96.06
485.554	100.06
485.772	112.06
485.99	96.06
486.209	100.06
486.427	106.06
486.645	127.06
486.863	122.06
487.081	98.06
487.299	99.06
487.517	96.06
487.735	80.06
487.953	103.06
488.171	89.06
488.389	99.06
488.607	91.06
488.825	89.06
489.043	104.06
489.261	73.06
489.479	95.06
489.696	97.06
489.914	97.06
490.132	93.06
490.35	82.06
490.568	97.06
490.786	94.06
491.003	87.06
491.221	75.06
491.439	90.06
491.657	99.06
491.874	90.06
492.092	99.06
492.31	99.06
492.527	97.06
492.745	98.06
492.963	57.06
493.18	84.06
493.398	82.06
493.615	102.06
493.833	84.06
494.05	89.06
494.268	92.06
494.485	85.06
494.703	88.06
494.92	98.06
495.138	102.06
495.355	88.06
495.573	91.06
495.79	80.06
496.008	93.06
496.225	87.06
496.442	76.06
496.66	94.06
496.877	90.06
497.094	72.06
497.312	88.06
497.529	74.06
497.746	84.06
497.963	90.06
498.181	97.06
498.398	91.06
498.615	102.06
498.832	106.06
499.049	100.06
499.267	98.06
499.484	76.06
499.701	98.06
499.918	95.06
500.135	72.06
500.352	101.06
500.569	88.06
500.786	100.06
501.003	92.06
501.22	90.06
501.437	77.06
501.654	96.06
501.871	109.06
502.088	95.06
502.305	71.06
502.522	87.06
502.739	80.06
502.956	98.06
503.172	99.06
503.389	101.06
503.606	93.06
503.823	98.06
504.04	86.06
504.256	100.06
504.473	86.06
504.69	90.06
504.907	83.06
505.123	71.06
505.34	78.06
505.557	91.06
505.773	86.06
505.99	83.06
506.207	71.06
506.423	95.06
506.64	87.06
506.856	94.06
507.073	84.06
507.289	90.06
507.506	100.06
507.722	124.06
507.939	120.06
508.155	102.06
508.372	99.06
508.588	85.06
508.805	89.06
509.021	86.06
509.238	103.06
509.454	111.06
509.67	88.06
509.887	105.06
510.103	119.06
510.319	223.06
510.536	768.06
510.752	2466.06
510.968	666.06
511.184	158.06
511.401	116.06
511.617	112.06
511.833	102.06
512.049	78.06
512.265	91.06
512.481	98.06
512.698	73.06
512.914	102.06
513.13	86.06
513.346	84.06
513.562	95.06
513.778	95.06
513.994	91.06
514.21	107.06
514.426	131.06
514.642	140.06
514.858	138.06
515.074	186.06
515.29	555.06
515.506	1832.06
