Data from Circ_1981_H10_HRD10591_00098.txt Node
Date: Wed Jan 03 12:34:40 EST 2024
User: Yrep
Spectrometer: HR+D1059
Trigger mode: 1
Integration Time (sec): 1.000000E-1
Scans to average: 1
Electric dark correction enabled: true
Nonlinearity correction enabled: false
Boxcar width: 0
XAxis mode: Wavelengths
Number of Pixels in Spectrum: 2048
>>>>>Begin Spectral Data<<<<<
223.165	-16.19
223.4	-16.19
223.635	-16.19
223.869	-32.19
224.104	-8.19
224.338	-28.19
224.573	-39.19
224.808	-13.19
225.042	-8.19
225.277	-5.19
225.511	0.81
225.746	16.81
225.98	9.81
226.215	19.81
226.449	19.81
226.683	27.81
226.918	22.81
227.152	32.81
227.387	21.81
227.621	37.81
227.856	36.81
228.09	53.81
228.324	45.81
228.559	45.81
228.793	73.81
229.027	56.81
229.262	67.81
229.496	74.81
229.73	72.81
229.964	105.81
230.199	73.81
230.433	68.81
230.667	71.81
230.901	89.81
231.136	85.81
231.37	74.81
231.604	87.81
231.838	81.81
232.072	65.81
232.306	81.81
232.541	68.81
232.775	75.81
233.009	84.81
233.243	82.81
233.477	85.81
233.711	84.81
233.945	75.81
234.179	73.81
234.413	85.81
234.647	67.81
234.881	82.81
235.115	85.81
235.349	92.81
235.583	76.81
235.817	68.81
236.051	58.81
236.285	57.81
236.519	65.81
236.753	77.81
236.987	74.81
237.221	100.81
237.455	89.81
237.689	73.81
237.922	82.81
238.156	68.81
238.39	76.81
238.624	72.81
238.858	81.81
239.091	73.81
239.325	72.81
239.559	82.81
239.793	79.81
240.027	71.81
240.26	82.81
240.494	75.81
240.728	84.81
240.961	71.81
241.195	63.81
241.429	80.81
241.662	63.81
241.896	69.81
242.13	67.81
242.363	67.81
242.597	66.81
242.83	66.81
243.064	65.81
243.298	83.81
243.531	66.81
243.765	88.81
243.998	82.81
244.232	81.81
244.465	89.81
244.699	86.81
244.932	71.81
245.166	80.81
245.399	69.81
245.633	86.81
245.866	76.81
246.099	79.81
246.333	69.81
246.566	77.81
246.8	64.81
247.033	92.81
247.266	77.81
247.5	81.81
247.733	81.81
247.966	87.81
248.2	69.81
248.433	75.81
248.666	84.81
248.899	61.81
249.133	79.81
249.366	96.81
249.599	96.81
249.832	80.81
250.066	74.81
250.299	59.81
250.532	72.81
250.765	79.81
250.998	81.81
251.231	76.81
251.465	71.81
251.698	79.81
251.931	88.81
252.164	66.81
252.397	84.81
252.63	95.81
252.863	88.81
253.096	73.81
253.329	73.81
253.562	86.81
253.795	83.81
254.028	87.81
254.261	83.81
254.494	79.81
254.727	88.81
254.96	72.81
255.193	66.81
255.426	67.81
255.659	78.81
255.892	77.81
256.124	84.81
256.357	84.81
256.59	70.81
256.823	79.81
257.056	92.81
257.289	87.81
257.521	83.81
257.754	71.81
257.987	80.81
258.22	74.81
258.452	86.81
258.685	65.81
258.918	88.81
259.151	90.81
259.383	79.81
259.616	82.81
259.849	80.81
260.081	76.81
260.314	74.81
260.547	77.81
260.779	71.81
261.012	77.81
261.244	82.81
261.477	83.81
261.71	108.81
261.942	104.81
262.175	116.81
262.407	97.81
262.64	81.81
262.872	80.81
263.105	67.81
263.337	81.81
263.57	75.81
263.802	88.81
264.035	91.81
264.267	87.81
264.499	87.81
264.732	90.81
264.964	85.81
265.197	81.81
265.429	86.81
265.661	77.81
265.894	84.81
266.126	87.81
266.358	77.81
266.591	79.81
266.823	81.81
267.055	90.81
267.287	74.81
267.52	83.81
267.752	80.81
267.984	69.81
268.216	83.81
268.448	90.81
268.681	90.81
268.913	83.81
269.145	79.81
269.377	97.81
269.609	72.81
269.841	83.81
270.073	87.81
270.306	82.81
270.538	91.81
270.77	81.81
271.002	85.81
271.234	87.81
271.466	80.81
271.698	77.81
271.93	70.81
272.162	82.81
272.394	83.81
272.626	89.81
272.858	83.81
273.09	76.81
273.322	85.81
273.553	83.81
273.785	83.81
274.017	93.81
274.249	100.81
274.481	77.81
274.713	84.81
274.945	81.81
275.176	86.81
275.408	88.81
275.64	77.81
275.872	75.81
276.104	70.81
276.335	86.81
276.567	100.81
276.799	117.81
277.031	108.81
277.262	70.81
277.494	83.81
277.726	79.81
277.957	87.81
278.189	84.81
278.421	79.81
278.652	90.81
278.884	100.81
279.115	75.81
279.347	75.81
279.579	81.81
279.81	90.81
280.042	82.81
280.273	94.81
280.505	91.81
280.736	85.81
280.968	91.81
281.199	91.81
281.431	84.81
281.662	88.81
281.894	92.81
282.125	93.81
282.356	121.81
282.588	129.81
282.819	83.81
283.051	78.81
283.282	82.81
283.513	77.81
283.745	71.81
283.976	77.81
284.207	91.81
284.439	88.81
284.67	97.81
284.901	77.81
285.132	76.81
285.364	88.81
285.595	89.81
285.826	94.81
286.057	73.81
286.288	77.81
286.52	90.81
286.751	80.81
286.982	85.81
287.213	81.81
287.444	92.81
287.675	77.81
287.906	97.81
288.138	97.81
288.369	86.81
288.6	88.81
288.831	83.81
289.062	83.81
289.293	87.81
289.524	86.81
289.755	79.81
289.986	73.81
290.217	80.81
290.448	91.81
290.679	93.81
290.91	84.81
291.141	91.81
291.371	90.81
291.602	93.81
291.833	85.81
292.064	80.81
292.295	98.81
292.526	93.81
292.757	95.81
292.987	93.81
293.218	83.81
293.449	81.81
293.68	83.81
293.91	81.81
294.141	86.81
294.372	83.81
294.603	93.81
294.833	94.81
295.064	91.81
295.295	96.81
295.525	83.81
295.756	89.81
295.987	106.81
296.217	118.81
296.448	131.81
296.679	87.81
296.909	104.81
297.14	91.81
297.37	93.81
297.601	98.81
297.831	89.81
298.062	84.81
298.292	79.81
298.523	97.81
298.753	93.81
298.984	74.81
299.214	95.81
299.445	85.81
299.675	83.81
299.905	81.81
300.136	84.81
300.366	94.81
300.597	79.81
300.827	93.81
301.057	89.81
301.288	110.81
301.518	95.81
301.748	80.81
301.979	106.81
302.209	91.81
302.439	101.81
302.669	106.81
302.9	87.81
303.13	78.81
303.36	103.81
303.59	93.81
303.82	99.81
304.051	105.81
304.281	86.81
304.511	93.81
304.741	83.81
304.971	87.81
305.201	85.81
305.431	92.81
305.661	95.81
305.891	73.81
306.121	94.81
306.352	99.81
306.582	88.81
306.812	89.81
307.042	84.81
307.272	108.81
307.502	92.81
307.731	85.81
307.961	99.81
308.191	95.81
308.421	79.81
308.651	85.81
308.881	100.81
309.111	76.81
309.341	93.81
309.571	86.81
309.8	89.81
310.03	93.81
310.26	99.81
310.49	97.81
310.72	95.81
310.949	92.81
311.179	103.81
311.409	99.81
311.639	108.81
311.868	81.81
312.098	97.81
312.328	111.81
312.557	104.81
312.787	99.81
313.017	115.81
313.246	93.81
313.476	84.81
313.706	89.81
313.935	81.81
314.165	104.81
314.394	91.81
314.624	96.81
314.853	87.81
315.083	97.81
315.312	90.81
315.542	75.81
315.771	81.81
316.001	83.81
316.23	89.81
316.46	80.81
316.689	84.81
316.919	88.81
317.148	98.81
317.377	87.81
317.607	100.81
317.836	102.81
318.065	86.81
318.295	65.81
318.524	91.81
318.753	92.81
318.983	104.81
319.212	92.81
319.441	103.81
319.67	109.81
319.9	102.81
320.129	98.81
320.358	80.81
320.587	87.81
320.816	93.81
321.046	105.81
321.275	103.81
321.504	107.81
321.733	85.81
321.962	90.81
322.191	108.81
322.42	99.81
322.649	115.81
322.878	113.81
323.108	112.81
323.337	113.81
323.566	128.81
323.795	156.81
324.024	177.81
324.253	345.81
324.482	737.81
324.71	1475.81
324.939	1935.81
325.168	738.81
325.397	201.81
325.626	140.81
325.855	121.81
326.084	106.81
326.313	119.81
326.542	136.81
326.77	209.81
326.999	388.81
327.228	809.81
327.457	1425.81
327.686	1148.81
327.914	325.81
328.143	179.81
328.372	167.81
328.6	131.81
328.829	114.81
329.058	130.81
329.287	137.81
329.515	91.81
329.744	108.81
329.972	102.81
330.201	114.81
330.43	141.81
330.658	152.81
330.887	153.81
331.115	131.81
331.344	101.81
331.572	102.81
331.801	108.81
332.03	104.81
332.258	102.81
332.486	94.81
332.715	100.81
332.943	85.81
333.172	91.81
333.4	92.81
333.629	103.81
333.857	131.81
334.085	110.81
334.314	115.81
334.542	134.81
334.771	138.81
334.999	100.81
335.227	92.81
335.455	97.81
335.684	86.81
335.912	104.81
336.14	97.81
336.369	111.81
336.597	100.81
336.825	99.81
337.053	98.81
337.281	95.81
337.51	97.81
337.738	96.81
337.966	92.81
338.194	86.81
338.422	92.81
338.65	94.81
338.878	100.81
339.106	86.81
339.334	101.81
339.562	77.81
339.79	85.81
340.018	89.81
340.246	85.81
340.474	99.81
340.702	86.81
340.93	95.81
341.158	89.81
341.386	106.81
341.614	109.81
341.842	85.81
342.07	108.81
342.298	101.81
342.526	84.81
342.754	101.81
342.981	98.81
343.209	81.81
343.437	95.81
343.665	80.81
343.893	93.81
344.12	91.81
344.348	87.81
344.576	76.81
344.804	87.81
345.031	90.81
345.259	113.81
345.487	93.81
345.714	94.81
345.942	80.81
346.17	95.81
346.397	97.81
346.625	93.81
346.853	92.81
347.08	84.81
347.308	96.81
347.535	99.81
347.763	107.81
347.99	94.81
348.218	97.81
348.445	112.81
348.673	100.81
348.9	71.81
349.128	87.81
349.355	96.81
349.583	91.81
349.81	99.81
350.037	81.81
350.265	96.81
350.492	105.81
350.72	102.81
350.947	108.81
351.174	105.81
351.402	121.81
351.629	89.81
351.856	89.81
352.083	114.81
352.311	96.81
352.538	92.81
352.765	90.81
352.992	122.81
353.22	123.81
353.447	104.81
353.674	100.81
353.901	108.81
354.128	88.81
354.355	88.81
354.583	96.81
354.81	95.81
355.037	105.81
355.264	92.81
355.491	80.81
355.718	92.81
355.945	91.81
356.172	92.81
356.399	101.81
356.626	83.81
356.853	83.81
357.08	87.81
357.307	87.81
357.534	91.81
357.761	88.81
357.988	87.81
358.215	92.81
358.441	97.81
358.668	95.81
358.895	97.81
359.122	84.81
359.349	97.81
359.576	92.81
359.802	97.81
360.029	120.81
360.256	112.81
360.483	107.81
360.709	78.81
360.936	102.81
361.163	95.81
361.39	90.81
361.616	82.81
361.843	85.81
362.07	100.81
362.296	96.81
362.523	98.81
362.749	94.81
362.976	90.81
363.203	73.81
363.429	84.81
363.656	92.81
363.882	73.81
364.109	72.81
364.335	90.81
364.562	91.81
364.788	99.81
365.015	87.81
365.241	91.81
365.468	92.81
365.694	105.81
365.92	105.81
366.147	87.81
366.373	81.81
366.599	83.81
366.826	93.81
367.052	80.81
367.278	85.81
367.505	93.81
367.731	98.81
367.957	95.81
368.184	82.81
368.41	89.81
368.636	112.81
368.862	109.81
369.089	93.81
369.315	85.81
369.541	78.81
369.767	87.81
369.993	91.81
370.219	92.81
370.445	87.81
370.672	79.81
370.898	94.81
371.124	93.81
371.35	89.81
371.576	85.81
371.802	76.81
372.028	94.81
372.254	89.81
372.48	85.81
372.706	92.81
372.932	79.81
373.158	97.81
373.384	80.81
373.61	96.81
373.835	83.81
374.061	105.81
374.287	100.81
374.513	97.81
374.739	77.81
374.965	78.81
375.191	95.81
375.416	81.81
375.642	87.81
375.868	98.81
376.094	76.81
376.319	83.81
376.545	92.81
376.771	81.81
376.997	81.81
377.222	92.81
377.448	89.81
377.674	89.81
377.899	83.81
378.125	76.81
378.35	70.81
378.576	88.81
378.802	81.81
379.027	88.81
379.253	88.81
379.478	93.81
379.704	88.81
379.929	89.81
380.155	84.81
380.38	86.81
380.606	78.81
380.831	88.81
381.057	93.81
381.282	93.81
381.507	83.81
381.733	103.81
381.958	84.81
382.184	100.81
382.409	96.81
382.634	90.81
382.86	87.81
383.085	82.81
383.31	100.81
383.535	104.81
383.761	82.81
383.986	106.81
384.211	101.81
384.436	96.81
384.662	99.81
384.887	100.81
385.112	91.81
385.337	96.81
385.562	87.81
385.787	91.81
386.013	94.81
386.238	116.81
386.463	120.81
386.688	113.81
386.913	102.81
387.138	105.81
387.363	111.81
387.588	92.81
387.813	100.81
388.038	105.81
388.263	104.81
388.488	103.81
388.713	87.81
388.938	91.81
389.163	104.81
389.387	95.81
389.612	87.81
389.837	83.81
390.062	91.81
390.287	99.81
390.512	99.81
390.736	104.81
390.961	84.81
391.186	92.81
391.411	89.81
391.636	87.81
391.86	66.81
392.085	85.81
392.31	88.81
392.534	82.81
392.759	83.81
392.984	87.81
393.208	85.81
393.433	86.81
393.658	79.81
393.882	88.81
394.107	84.81
394.331	88.81
394.556	89.81
394.78	84.81
395.005	82.81
395.229	92.81
395.454	84.81
395.678	83.81
395.903	93.81
396.127	91.81
396.352	84.81
396.576	87.81
396.801	92.81
397.025	79.81
397.249	81.81
397.474	72.81
397.698	87.81
397.922	77.81
398.147	79.81
398.371	97.81
398.595	99.81
398.82	82.81
399.044	79.81
399.268	89.81
399.492	90.81
399.717	85.81
399.941	92.81
400.165	89.81
400.389	80.81
400.613	81.81
400.837	82.81
401.062	107.81
401.286	88.81
401.51	114.81
401.734	94.81
401.958	104.81
402.182	122.81
402.406	144.81
402.63	113.81
402.854	86.81
403.078	86.81
403.302	92.81
403.526	99.81
403.75	96.81
403.974	88.81
404.198	89.81
404.422	87.81
404.645	80.81
404.869	89.81
405.093	94.81
405.317	103.81
405.541	97.81
405.765	109.81
405.988	118.81
406.212	177.81
406.436	199.81
406.66	138.81
406.883	119.81
407.107	86.81
407.331	102.81
407.555	106.81
407.778	103.81
408.002	89.81
408.226	83.81
408.449	91.81
408.673	92.81
408.896	90.81
409.12	103.81
409.344	95.81
409.567	91.81
409.791	97.81
410.014	86.81
410.238	100.81
410.461	91.81
410.685	90.81
410.908	106.81
411.132	95.81
411.355	110.81
411.578	90.81
411.802	93.81
412.025	88.81
412.249	76.81
412.472	87.81
412.695	93.81
412.919	77.81
413.142	88.81
413.365	83.81
413.589	92.81
413.812	87.81
414.035	85.81
414.258	88.81
414.482	102.81
414.705	93.81
414.928	84.81
415.151	84.81
415.374	91.81
415.597	70.81
415.821	91.81
416.044	94.81
416.267	91.81
416.49	87.81
416.713	83.81
416.936	106.81
417.159	91.81
417.382	88.81
417.605	89.81
417.828	93.81
418.051	84.81
418.274	75.81
418.497	86.81
418.72	87.81
418.943	99.81
419.166	88.81
419.389	105.81
419.611	82.81
419.834	91.81
420.057	82.81
420.28	87.81
420.503	77.81
420.726	70.81
420.948	86.81
421.171	97.81
421.394	98.81
421.617	79.81
421.839	83.81
422.062	100.81
422.285	86.81
422.507	99.81
422.73	105.81
422.953	99.81
423.175	99.81
423.398	84.81
423.621	83.81
423.843	80.81
424.066	79.81
424.288	77.81
424.511	100.81
424.733	96.81
424.956	106.81
425.178	101.81
425.401	101.81
425.623	98.81
425.846	88.81
426.068	94.81
426.291	80.81
426.513	98.81
426.735	92.81
426.958	101.81
427.18	107.81
427.402	143.81
427.625	186.81
427.847	122.81
428.069	108.81
428.292	76.81
428.514	82.81
428.736	94.81
428.958	74.81
429.181	70.81
429.403	96.81
429.625	100.81
429.847	87.81
430.069	103.81
430.292	81.81
430.514	93.81
430.736	86.81
430.958	85.81
431.18	73.81
431.402	77.81
431.624	76.81
431.846	84.81
432.068	91.81
432.29	89.81
432.512	81.81
432.734	85.81
432.956	88.81
433.178	97.81
433.4	96.81
433.622	83.81
433.844	84.81
434.066	91.81
434.287	82.81
434.509	92.81
434.731	87.81
434.953	78.81
435.175	89.81
435.397	96.81
435.618	84.81
435.84	95.81
436.062	115.81
436.284	116.81
436.505	94.81
436.727	100.81
436.949	83.81
437.17	88.81
437.392	94.81
437.614	90.81
437.835	99.81
438.057	133.81
438.278	110.81
438.5	95.81
438.721	120.81
438.943	123.81
439.165	96.81
439.386	100.81
439.608	105.81
439.829	85.81
440.05	124.81
440.272	138.81
440.493	99.81
440.715	90.81
440.936	111.81
441.158	91.81
441.379	82.81
441.6	82.81
441.822	85.81
442.043	97.81
442.264	108.81
442.486	97.81
442.707	87.81
442.928	112.81
443.149	138.81
443.371	138.81
443.592	100.81
443.813	121.81
444.034	104.81
444.255	93.81
444.476	84.81
444.698	86.81
444.919	77.81
445.14	123.81
445.361	129.81
445.582	114.81
445.803	151.81
446.024	147.81
446.245	133.81
446.466	101.81
446.687	98.81
446.908	99.81
447.129	91.81
447.35	89.81
447.571	101.81
447.792	78.81
448.013	84.81
448.234	105.81
448.455	100.81
448.675	121.81
448.896	126.81
449.117	111.81
449.338	113.81
449.559	139.81
449.779	131.81
450	99.81
450.221	89.81
450.442	89.81
450.662	90.81
450.883	91.81
451.104	113.81
451.324	100.81
451.545	87.81
451.766	85.81
451.986	81.81
452.207	87.81
452.428	93.81
452.648	113.81
452.869	109.81
453.089	119.81
453.31	130.81
453.53	94.81
453.751	74.81
453.971	92.81
454.192	94.81
454.412	101.81
454.633	81.81
454.853	97.81
455.073	93.81
455.294	86.81
455.514	106.81
455.734	91.81
455.955	101.81
456.175	78.81
456.395	91.81
456.616	90.81
456.836	87.81
457.056	81.81
457.276	73.81
457.497	83.81
457.717	79.81
457.937	71.81
458.157	89.81
458.377	86.81
458.598	125.81
458.818	146.81
459.038	149.81
459.258	128.81
459.478	103.81
459.698	92.81
459.918	84.81
460.138	85.81
460.358	83.81
460.578	96.81
460.798	94.81
461.018	97.81
461.238	86.81
461.458	95.81
461.678	78.81
461.898	91.81
462.118	90.81
462.338	93.81
462.558	77.81
462.777	83.81
462.997	101.81
463.217	95.81
463.437	85.81
463.657	82.81
463.876	78.81
464.096	72.81
464.316	84.81
464.536	103.81
464.755	108.81
464.975	97.81
465.195	137.81
465.414	164.81
465.634	94.81
465.854	74.81
466.073	75.81
466.293	88.81
466.512	86.81
466.732	77.81
466.951	89.81
467.171	85.81
467.391	90.81
467.61	100.81
467.829	85.81
468.049	96.81
468.268	102.81
468.488	91.81
468.707	80.81
468.927	93.81
469.146	93.81
469.365	86.81
469.585	75.81
469.804	104.81
470.023	88.81
470.243	91.81
470.462	90.81
470.681	109.81
470.901	104.81
471.12	79.81
471.339	85.81
471.558	94.81
471.777	101.81
471.997	87.81
472.216	121.81
472.435	134.81
472.654	113.81
472.873	93.81
473.092	91.81
473.311	87.81
473.53	72.81
473.749	84.81
473.968	109.81
474.187	119.81
474.406	101.81
474.625	88.81
474.844	89.81
475.063	81.81
475.282	72.81
475.501	96.81
475.72	91.81
475.939	81.81
476.158	81.81
476.377	81.81
476.596	97.81
476.814	82.81
477.033	91.81
477.252	98.81
477.471	95.81
477.69	95.81
477.908	109.81
478.127	90.81
478.346	88.81
478.564	82.81
478.783	95.81
479.002	97.81
479.22	85.81
479.439	104.81
479.658	100.81
479.876	94.81
480.095	93.81
480.313	89.81
480.532	79.81
480.751	97.81
480.969	121.81
481.188	182.81
481.406	159.81
481.624	101.81
481.843	90.81
482.061	91.81
482.28	86.81
482.498	90.81
482.717	86.81
482.935	76.81
483.153	74.81
483.372	95.81
483.59	91.81
483.808	77.81
484.027	84.81
484.245	88.81
484.463	88.81
484.681	90.81
484.9	88.81
485.118	102.81
485.336	105.81
485.554	90.81
485.772	104.81
485.99	108.81
486.209	93.81
486.427	90.81
486.645	107.81
486.863	101.81
487.081	89.81
487.299	107.81
487.517	104.81
487.735	89.81
487.953	80.81
488.171	79.81
488.389	93.81
488.607	101.81
488.825	90.81
489.043	99.81
489.261	79.81
489.479	97.81
489.696	91.81
489.914	99.81
490.132	80.81
490.35	91.81
490.568	81.81
490.786	87.81
491.003	76.81
491.221	96.81
491.439	85.81
491.657	97.81
491.874	93.81
492.092	92.81
492.31	97.81
492.527	93.81
492.745	91.81
492.963	88.81
493.18	91.81
493.398	97.81
493.615	92.81
493.833	90.81
494.05	87.81
494.268	94.81
494.485	97.81
494.703	74.81
494.92	75.81
495.138	96.81
495.355	97.81
495.573	84.81
495.79	93.81
496.008	100.81
496.225	103.81
496.442	105.81
496.66	86.81
496.877	83.81
497.094	88.81
497.312	90.81
497.529	77.81
497.746	89.81
497.963	76.81
498.181	81.81
498.398	99.81
498.615	114.81
498.832	105.81
499.049	97.81
499.267	109.81
499.484	97.81
499.701	84.81
499.918	87.81
500.135	93.81
500.352	81.81
500.569	92.81
500.786	86.81
501.003	104.81
501.22	92.81
501.437	87.81
501.654	100.81
501.871	102.81
502.088	104.81
502.305	85.81
502.522	97.81
502.739	80.81
502.956	88.81
503.172	86.81
503.389	99.81
503.606	107.81
503.823	96.81
504.04	92.81
504.256	81.81
504.473	74.81
504.69	89.81
504.907	83.81
505.123	103.81
505.34	84.81
505.557	83.81
505.773	101.81
505.99	89.81
506.207	90.81
506.423	77.81
506.64	87.81
506.856	90.81
507.073	90.81
507.289	88.81
507.506	93.81
507.722	103.81
507.939	117.81
508.155	83.81
508.372	84.81
508.588	81.81
508.805	82.81
509.021	92.81
509.238	95.81
509.454	100.81
509.67	98.81
509.887	117.81
510.103	128.81
510.319	204.81
510.536	672.81
510.752	2151.81
510.968	587.81
511.184	139.81
511.401	93.81
511.617	98.81
511.833	87.81
512.049	81.81
512.265	82.81
512.481	95.81
512.698	92.81
512.914	86.81
513.13	97.81
513.346	88.81
513.562	80.81
513.778	94.81
513.994	93.81
514.21	93.81
514.426	126.81
514.642	142.81
514.858	128.81
515.074	152.81
515.29	433.81
515.506	1414.81
515.721	534.81
515.937	143.81
