Data from Circ_1981_H10_HRD10591_00015.txt Node
Date: Wed Jan 03 12:34:24 EST 2024
User: Yrep
Spectrometer: HR+D1059
Trigger mode: 1
Integration Time (sec): 1.000000E-1
Scans to average: 1
Electric dark correction enabled: true
Nonlinearity correction enabled: false
Boxcar width: 0
XAxis mode: Wavelengths
Number of Pixels in Spectrum: 2048
>>>>>Begin Spectral Data<<<<<
223.165	-13
223.4	-13
223.635	-13
223.869	-17
224.104	-20
224.338	-13
224.573	-3
224.808	-7
225.042	-16
225.277	-8
225.511	1
225.746	3
225.98	-14
226.215	7
226.449	15
226.683	23
226.918	34
227.152	28
227.387	41
227.621	38
227.856	41
228.09	56
228.324	41
228.559	54
228.793	51
229.027	60
229.262	62
229.496	79
229.73	75
229.964	79
230.199	64
230.433	69
230.667	78
230.901	84
231.136	72
231.37	63
231.604	72
231.838	60
232.072	75
232.306	80
232.541	79
232.775	53
233.009	93
233.243	72
233.477	72
233.711	70
233.945	70
234.179	68
234.413	77
234.647	82
234.881	77
235.115	85
235.349	82
235.583	69
235.817	62
236.051	71
236.285	75
236.519	71
236.753	79
236.987	87
237.221	95
237.455	84
237.689	79
237.922	77
238.156	80
238.39	67
238.624	65
238.858	75
239.091	79
239.325	72
239.559	65
239.793	53
240.027	89
240.26	70
240.494	67
240.728	86
240.961	73
241.195	70
241.429	63
241.662	62
241.896	64
242.13	77
242.363	70
242.597	63
242.83	79
243.064	74
243.298	69
243.531	77
243.765	79
243.998	66
244.232	67
244.465	81
244.699	74
244.932	85
245.166	79
245.399	57
245.633	71
245.866	79
246.099	79
246.333	74
246.566	75
246.8	78
247.033	66
247.266	73
247.5	89
247.733	77
247.966	76
248.2	83
248.433	75
248.666	73
248.899	80
249.133	77
249.366	91
249.599	88
249.832	82
250.066	73
250.299	79
250.532	72
250.765	89
250.998	81
251.231	83
251.465	89
251.698	73
251.931	78
252.164	97
252.397	94
252.63	58
252.863	72
253.096	59
253.329	80
253.562	83
253.795	88
254.028	79
254.261	87
254.494	62
254.727	64
254.96	95
255.193	75
255.426	74
255.659	87
255.892	82
256.124	85
256.357	69
256.59	87
256.823	75
257.056	74
257.289	82
257.521	76
257.754	78
257.987	81
258.22	84
258.452	80
258.685	77
258.918	90
259.151	86
259.383	85
259.616	91
259.849	77
260.081	65
260.314	86
260.547	81
260.779	92
261.012	93
261.244	79
261.477	90
261.71	94
261.942	110
262.175	123
262.407	77
262.64	70
262.872	72
263.105	80
263.337	95
263.57	74
263.802	69
264.035	95
264.267	72
264.499	81
264.732	80
264.964	71
265.197	72
265.429	70
265.661	86
265.894	77
266.126	78
266.358	75
266.591	72
266.823	72
267.055	81
267.287	86
267.52	84
267.752	92
267.984	80
268.216	93
268.448	74
268.681	81
268.913	85
269.145	93
269.377	77
269.609	83
269.841	83
270.073	77
270.306	69
270.538	82
270.77	86
271.002	75
271.234	83
271.466	90
271.698	71
271.93	88
272.162	85
272.394	86
272.626	81
272.858	99
273.09	91
273.322	87
273.553	82
273.785	87
274.017	94
274.249	102
274.481	95
274.713	85
274.945	74
275.176	81
275.408	73
275.64	88
275.872	81
276.104	94
276.335	82
276.567	87
276.799	106
277.031	116
277.262	96
277.494	91
277.726	85
277.957	86
278.189	85
278.421	85
278.652	82
278.884	89
279.115	79
279.347	88
279.579	73
279.81	86
280.042	88
280.273	95
280.505	93
280.736	78
280.968	91
281.199	82
281.431	82
281.662	95
281.894	93
282.125	103
282.356	127
282.588	149
282.819	107
283.051	84
283.282	81
283.513	74
283.745	91
283.976	86
284.207	79
284.439	91
284.67	73
284.901	73
285.132	83
285.364	87
285.595	82
285.826	90
286.057	87
286.288	88
286.52	79
286.751	90
286.982	81
287.213	94
287.444	86
287.675	92
287.906	102
288.138	107
288.369	78
288.6	89
288.831	86
289.062	87
289.293	89
289.524	73
289.755	74
289.986	90
290.217	85
290.448	90
290.679	77
290.91	77
291.141	77
291.371	103
291.602	81
291.833	81
292.064	80
292.295	84
292.526	91
292.757	93
292.987	89
293.218	75
293.449	77
293.68	79
293.91	78
294.141	90
294.372	65
294.603	83
294.833	86
295.064	87
295.295	96
295.525	95
295.756	106
295.987	126
296.217	137
296.448	137
296.679	98
296.909	88
297.14	90
297.37	75
297.601	92
297.831	83
298.062	89
298.292	98
298.523	94
298.753	94
298.984	85
299.214	98
299.445	103
299.675	89
299.905	95
300.136	93
300.366	77
300.597	84
300.827	89
301.057	100
301.288	108
301.518	89
301.748	91
301.979	102
302.209	82
302.439	97
302.669	88
302.9	83
303.13	89
303.36	91
303.59	99
303.82	94
304.051	93
304.281	82
304.511	89
304.741	84
304.971	79
305.201	87
305.431	92
305.661	71
305.891	87
306.121	80
306.352	105
306.582	102
306.812	105
307.042	77
307.272	87
307.502	95
307.731	81
307.961	81
308.191	88
308.421	100
308.651	72
308.881	81
309.111	106
309.341	96
309.571	93
309.8	97
310.03	94
310.26	86
310.49	97
310.72	93
310.949	106
311.179	105
311.409	98
311.639	96
311.868	93
312.098	84
312.328	97
312.557	111
312.787	113
313.017	111
313.246	104
313.476	81
313.706	94
313.935	103
314.165	96
314.394	110
314.624	104
314.853	90
315.083	100
315.312	89
315.542	77
315.771	80
316.001	85
316.23	74
316.46	87
316.689	93
316.919	79
317.148	102
317.377	103
317.607	101
317.836	95
318.065	98
318.295	99
318.524	105
318.753	94
318.983	106
319.212	102
319.441	106
319.67	105
319.9	95
320.129	90
320.358	97
320.587	98
320.816	106
321.046	103
321.275	84
321.504	85
321.733	92
321.962	90
322.191	85
322.42	113
322.649	107
322.878	127
323.108	116
323.337	142
323.566	132
323.795	165
324.024	209
324.253	422
324.482	924
324.71	1909
324.939	2621
325.168	922
325.397	266
325.626	160
325.855	142
326.084	131
326.313	134
326.542	161
326.77	239
326.999	470
327.228	1006
327.457	1871
327.686	1523
327.914	389
328.143	207
328.372	192
328.6	155
328.829	131
329.058	159
329.287	138
329.515	118
329.744	98
329.972	102
330.201	116
330.43	164
330.658	162
330.887	183
331.115	152
331.344	109
331.572	115
331.801	104
332.03	112
332.258	95
332.486	93
332.715	101
332.943	112
333.172	97
333.4	87
333.629	97
333.857	120
334.085	111
334.314	114
334.542	140
334.771	159
334.999	104
335.227	92
335.455	104
335.684	99
335.912	109
336.14	89
336.369	83
336.597	112
336.825	96
337.053	85
337.281	89
337.51	95
337.738	91
337.966	94
338.194	109
338.422	111
338.65	94
338.878	88
339.106	64
339.334	95
339.562	97
339.79	83
340.018	88
340.246	94
340.474	110
340.702	93
340.93	84
341.158	91
341.386	109
341.614	93
341.842	85
342.07	91
342.298	82
342.526	99
342.754	85
342.981	85
343.209	81
343.437	99
343.665	80
343.893	98
344.12	83
344.348	102
344.576	90
344.804	86
345.031	105
345.259	100
345.487	107
345.714	81
345.942	105
346.17	86
346.397	100
346.625	87
346.853	99
347.08	80
347.308	87
347.535	88
347.763	105
347.99	113
348.218	101
348.445	113
348.673	120
348.9	94
349.128	103
349.355	98
349.583	93
349.81	95
350.037	98
350.265	99
350.492	88
350.72	90
350.947	99
351.174	121
351.402	106
351.629	111
351.856	109
352.083	117
352.311	113
352.538	110
352.765	101
352.992	107
353.22	126
353.447	105
353.674	95
353.901	94
354.128	100
354.355	86
354.583	90
354.81	98
355.037	110
355.264	92
355.491	97
355.718	104
355.945	98
356.172	92
356.399	93
356.626	87
356.853	82
357.08	98
357.307	97
357.534	74
357.761	102
357.988	94
358.215	99
358.441	93
358.668	102
358.895	101
359.122	99
359.349	91
359.576	84
359.802	87
360.029	134
360.256	117
360.483	124
360.709	110
360.936	90
361.163	88
361.39	91
361.616	96
361.843	101
362.07	101
362.296	107
362.523	88
362.749	100
362.976	109
363.203	100
363.429	74
363.656	99
363.882	97
364.109	94
364.335	89
364.562	94
364.788	93
365.015	83
365.241	94
365.468	107
365.694	118
365.92	99
366.147	109
366.373	85
366.599	80
366.826	80
367.052	89
367.278	87
367.505	93
367.731	99
367.957	82
368.184	80
368.41	110
368.636	100
368.862	134
369.089	111
369.315	88
369.541	94
369.767	90
369.993	83
370.219	85
370.445	72
370.672	85
370.898	79
371.124	100
371.35	82
371.576	83
371.802	88
372.028	89
372.254	81
372.48	81
372.706	90
372.932	95
373.158	98
373.384	81
373.61	89
373.835	93
374.061	89
374.287	90
374.513	87
374.739	84
374.965	89
375.191	90
375.416	88
375.642	85
375.868	96
376.094	78
376.319	90
376.545	96
376.771	88
376.997	104
377.222	98
377.448	83
377.674	91
377.899	87
378.125	69
378.35	79
378.576	105
378.802	91
379.027	90
379.253	96
379.478	98
379.704	86
379.929	89
380.155	90
380.38	95
380.606	108
380.831	107
381.057	83
381.282	102
381.507	82
381.733	88
381.958	88
382.184	96
382.409	104
382.634	110
382.86	101
383.085	98
383.31	99
383.535	87
383.761	95
383.986	89
384.211	106
384.436	105
384.662	107
384.887	97
385.112	103
385.337	119
385.562	105
385.787	110
386.013	129
386.238	117
386.463	102
386.688	105
386.913	97
387.138	93
387.363	111
387.588	98
387.813	103
388.038	108
388.263	114
388.488	106
388.713	104
388.938	102
389.163	89
389.387	105
389.612	82
389.837	81
390.062	92
390.287	82
390.512	88
390.736	98
390.961	94
391.186	88
391.411	89
391.636	86
391.86	77
392.085	96
392.31	74
392.534	86
392.759	91
392.984	95
393.208	106
393.433	134
393.658	104
393.882	82
394.107	81
394.331	77
394.556	78
394.78	106
395.005	93
395.229	85
395.454	79
395.678	81
395.903	91
396.127	92
396.352	102
396.576	83
396.801	84
397.025	105
397.249	85
397.474	82
397.698	83
397.922	93
398.147	81
398.371	83
398.595	89
398.82	89
399.044	89
399.268	72
399.492	93
399.717	74
399.941	95
400.165	93
400.389	102
400.613	83
400.837	92
401.062	105
401.286	93
401.51	86
401.734	95
401.958	94
402.182	138
402.406	189
402.63	131
402.854	98
403.078	70
403.302	75
403.526	92
403.75	72
403.974	87
404.198	78
404.422	77
404.645	88
404.869	79
405.093	92
405.317	94
405.541	111
405.765	96
405.988	118
406.212	183
406.436	271
406.66	183
406.883	101
407.107	104
407.331	90
407.555	100
407.778	97
408.002	89
408.226	71
408.449	105
408.673	82
408.896	101
409.12	105
409.344	83
409.567	73
409.791	90
410.014	90
410.238	82
410.461	97
410.685	97
410.908	108
411.132	111
411.355	109
411.578	74
411.802	95
412.025	89
412.249	90
412.472	87
412.695	101
412.919	82
413.142	87
413.365	79
413.589	87
413.812	91
414.035	102
414.258	77
414.482	90
414.705	88
414.928	88
415.151	87
415.374	79
415.597	75
415.821	74
416.044	97
416.267	89
416.49	85
416.713	74
416.936	75
417.159	86
417.382	90
417.605	86
417.828	97
418.051	79
418.274	82
418.497	87
418.72	77
418.943	80
419.166	78
419.389	91
419.611	75
419.834	90
420.057	93
420.28	82
420.503	79
420.726	89
420.948	81
421.171	92
421.394	101
421.617	77
421.839	87
422.062	89
422.285	79
422.507	103
422.73	106
422.953	90
423.175	86
423.398	75
423.621	85
423.843	80
424.066	95
424.288	88
424.511	93
424.733	104
424.956	119
425.178	107
425.401	93
425.623	100
425.846	90
426.068	94
426.291	98
426.513	86
426.735	87
426.958	99
427.18	114
427.402	161
427.625	206
427.847	147
428.069	119
428.292	89
428.514	91
428.736	101
428.958	89
429.181	82
429.403	86
429.625	92
429.847	93
430.069	102
430.292	107
430.514	90
430.736	87
430.958	81
431.18	91
431.402	80
431.624	90
431.846	88
432.068	79
432.29	80
432.512	89
432.734	71
432.956	79
433.178	110
433.4	98
433.622	94
433.844	81
434.066	90
434.287	96
434.509	84
434.731	85
434.953	91
435.175	81
435.397	83
435.618	95
435.84	107
436.062	133
436.284	125
436.505	105
436.727	107
436.949	102
437.17	77
437.392	93
437.614	90
437.835	110
438.057	148
438.278	119
438.5	119
438.721	123
438.943	102
439.165	79
439.386	71
439.608	92
439.829	107
440.05	141
440.272	163
440.493	105
440.715	107
440.936	87
441.158	72
441.379	88
441.6	94
441.822	83
442.043	101
442.264	112
442.486	118
442.707	96
442.928	111
443.149	145
443.371	144
443.592	106
443.813	112
444.034	114
444.255	99
444.476	78
444.698	80
444.919	88
445.14	132
445.361	121
445.582	122
445.803	149
446.024	150
446.245	150
446.466	101
446.687	79
446.908	97
447.129	89
447.35	80
447.571	99
447.792	86
448.013	88
448.234	126
448.455	117
448.675	110
448.896	125
449.117	94
449.338	110
449.559	147
449.779	151
450	96
450.221	91
450.442	87
450.662	94
450.883	111
451.104	125
451.324	90
451.545	87
451.766	95
451.986	87
452.207	83
452.428	83
452.648	94
452.869	121
453.089	121
453.31	115
453.53	103
453.751	109
453.971	114
454.192	111
454.412	81
454.633	85
454.853	95
455.073	81
455.294	96
455.514	107
455.734	89
455.955	83
456.175	89
456.395	82
456.616	81
456.836	77
457.056	79
457.276	90
457.497	87
457.717	85
457.937	87
458.157	94
458.377	89
458.598	108
458.818	191
459.038	213
459.258	135
459.478	103
459.698	81
459.918	93
460.138	79
460.358	75
460.578	95
460.798	81
461.018	85
461.238	88
461.458	80
461.678	79
461.898	73
462.118	89
462.338	82
462.558	74
462.777	85
462.997	77
463.217	102
463.437	86
463.657	73
463.876	73
464.096	74
464.316	100
464.536	87
464.755	88
464.975	120
465.195	196
465.414	211
465.634	101
465.854	92
466.073	91
466.293	93
466.512	79
466.732	86
466.951	75
467.171	87
467.391	96
467.61	110
467.829	95
468.049	106
468.268	99
468.488	78
468.707	89
468.927	85
469.146	95
469.365	93
469.585	84
469.804	117
470.023	88
470.243	111
470.462	85
470.681	118
470.901	98
471.12	87
471.339	81
471.558	95
471.777	89
471.997	85
472.216	107
472.435	151
472.654	96
472.873	93
473.092	97
473.311	82
473.53	85
473.749	100
473.968	96
474.187	125
474.406	103
474.625	95
474.844	89
475.063	81
475.282	82
475.501	89
475.72	91
475.939	81
476.158	86
476.377	63
476.596	74
476.814	95
477.033	92
477.252	91
477.471	88
477.69	105
477.908	94
478.127	83
478.346	85
478.564	75
478.783	81
479.002	97
479.22	96
479.439	123
479.658	109
479.876	78
480.095	93
480.313	95
480.532	85
480.751	92
480.969	122
481.188	219
481.406	183
481.624	79
481.843	85
482.061	97
482.28	89
482.498	89
482.717	90
482.935	85
483.153	82
483.372	89
483.59	94
483.808	79
484.027	89
484.245	108
484.463	81
484.681	86
484.9	85
485.118	100
485.336	93
485.554	104
485.772	98
485.99	94
486.209	96
486.427	102
486.645	120
486.863	121
487.081	100
487.299	87
487.517	89
487.735	77
487.953	82
488.171	93
488.389	101
488.607	91
488.825	78
489.043	86
489.261	71
489.479	69
489.696	80
489.914	97
490.132	87
490.35	91
490.568	84
490.786	88
491.003	89
491.221	87
491.439	73
491.657	81
491.874	95
492.092	93
492.31	91
492.527	92
492.745	87
492.963	72
493.18	89
493.398	83
493.615	91
493.833	85
494.05	77
494.268	83
494.485	92
494.703	80
494.92	93
495.138	87
495.355	85
495.573	96
495.79	88
496.008	89
496.225	101
496.442	74
496.66	91
496.877	87
497.094	93
497.312	85
497.529	77
497.746	86
497.963	104
498.181	103
498.398	97
498.615	102
498.832	105
499.049	102
499.267	83
499.484	94
499.701	106
499.918	70
500.135	99
500.352	85
500.569	95
500.786	91
501.003	89
501.22	82
501.437	89
501.654	94
501.871	108
502.088	89
502.305	77
502.522	78
502.739	96
502.956	77
503.172	93
503.389	96
503.606	109
503.823	115
504.04	90
504.256	87
504.473	99
504.69	94
504.907	93
505.123	79
505.34	97
505.557	104
505.773	94
505.99	91
506.207	87
506.423	83
506.64	101
506.856	86
507.073	94
507.289	94
507.506	96
507.722	130
507.939	136
508.155	104
508.372	97
508.588	84
508.805	83
509.021	118
509.238	98
509.454	90
509.67	101
509.887	97
510.103	131
510.319	202
510.536	766
510.752	2614
510.968	711
511.184	158
511.401	121
511.617	82
511.833	87
512.049	88
512.265	90
512.481	87
512.698	88
512.914	96
513.13	86
513.346	88
513.562	97
513.778	94
513.994	103
514.21	105
514.426	141
514.642	174
514.858	137
515.074	181
515.29	533
515.506	1993
515.721	697
515.937	185
516.153	126
516.369	102
516.585	100
516.801	97
517.016	100
517.232	93
517.448	104
517.664	93
517.879	89
518.095	86
518.311	87
518.527	80
518.742	88
518.958	84
519.173	92
519.389	98
519.605	81
519.82	89
520.036	100
520.251	150
520.467	105
520.682	113
520.898	108
521.113	116
521.329	136
521.544	230
521.76	696
521.975	3305
522.19	1981
522.406	400
522.621	137
522.836	109
523.052	98
523.267	102
523.482	98
523.698	106
523.913	115
524.128	96
524.343	98
524.559	80
524.774	92
524.989	93
525.204	114
525.419	108
525.634	78
525.849	84
526.064	72
526.28	74
526.495	90
526.71	79
526.925	95
527.14	82
527.355	94
527.57	84
527.785	87
527.999	94
528.214	83
528.429	84
528.644	100
528.859	101
529.074	103
529.289	147
529.503	219
529.718	126
529.933	88
530.148	86
530.363	83
530.577	81
530.792	101
531.007	85
531.221	71
531.436	87
531.651	88
531.865	98
532.08	87
532.295	91
532.509	98
532.724	88
532.938	98
533.153	98
533.367	94
533.582	87
533.796	86
534.011	81
534.225	92
534.44	81
534.654	92
534.868	86
535.083	83
535.297	84
535.511	102
535.726	109
535.94	105
536.154	94
536.369	95
536.583	84
536.797	93
537.011	79
537.225	94
537.44	80
537.654	73
537.868	73
538.082	83
538.296	81
538.51	92
538.724	73
538.938	79
539.153	85
539.367	105
539.581	89
539.795	74
540.009	78
540.222	87
540.436	91
540.65	91
540.864	85
541.078	100
541.292	87
541.506	84
541.72	79
541.934	82
542.147	91
542.361	91
542.575	81
542.789	87
543.002	88
543.216	87
543.43	105
543.644	88
543.857	81
544.071	74
544.285	84
544.498	72
544.712	92
544.925	83
545.139	83
545.352	79
545.566	88
545.779	80
545.993	85
546.206	84
546.42	82
546.633	93
546.847	99
547.06	93
547.274	74
547.487	79
547.7	81
547.914	79
548.127	91
548.34	89
548.554	83
548.767	94
548.98	86
549.193	87
549.407	81
549.62	85
549.833	83
550.046	74
550.259	85
550.473	93
550.686	92
550.899	82
551.112	96
551.325	86
551.538	98
551.751	86
551.964	70
552.177	91
552.39	95
552.603	84
552.816	94
553.029	89
553.242	83
553.455	105
553.667	99
553.88	97
554.093	91
554.306	102
554.519	84
554.732	89
554.944	81
555.157	88
555.37	87
555.583	74
555.795	96
556.008	104
556.221	85
556.433	88
556.646	94
556.859	74
557.071	96
557.284	99
557.496	79
557.709	89
557.921	86
558.134	74
558.346	90
558.559	93
558.771	97
558.984	79
559.196	87
559.409	96
559.621	98
559.833	81
560.046	88
560.258	86
560.47	90
560.683	89
560.895	77
561.107	93
561.32	90
561.532	73
561.744	88
561.956	83
562.168	74
562.381	88
562.593	86
562.805	79
563.017	101
563.229	77
563.441	95
563.653	97
563.865	104
564.077	86
564.289	83
564.501	84
564.713	91
564.925	91
565.137	97
565.349	76
565.561	80
565.773	98
565.985	69
566.197	82
566.408	93
566.62	75
566.832	81
567.044	83
567.255	84
567.467	89
567.679	87
567.891	83
568.102	97
568.314	87
568.526	80
568.737	96
568.949	99
569.161	76
569.372	68
569.584	91
569.795	84
570.007	111
570.218	249
570.43	136
570.641	98
570.853	93
571.064	86
571.276	91
571.487	81
571.698	87
571.91	81
572.121	68
572.333	81
572.544	85
572.755	87
572.966	73
573.178	97
573.389	88
573.6	71
573.811	77
574.023	77
574.234	88
574.445	82
574.656	73
574.867	70
575.078	89
575.289	86
575.501	91
575.712	82
575.923	81
576.134	79
576.345	95
576.556	82
576.767	89
576.978	82
577.188	92
577.399	76
577.61	87
577.821	101
578.032	110
578.243	290
578.454	797
578.665	212
578.875	88
579.086	87
579.297	93
579.508	100
579.718	85
579.929	82
580.14	78
580.35	82
580.561	79
580.772	84
580.982	98
581.193	90
581.403	84
581.614	91
581.825	79
582.035	66
582.246	92
582.456	73
582.667	65
582.877	94
583.087	77
583.298	71
583.508	85
583.719	73
583.929	81
