Data from Circ_1981_H10_HRD10591_00100.txt Node
Date: Wed Jan 03 12:34:41 EST 2024
User: Yrep
Spectrometer: HR+D1059
Trigger mode: 1
Integration Time (sec): 1.000000E-1
Scans to average: 1
Electric dark correction enabled: true
Nonlinearity correction enabled: false
Boxcar width: 0
XAxis mode: Wavelengths
Number of Pixels in Spectrum: 2048
>>>>>Begin Spectral Data<<<<<
223.165	-14.44
223.4	-14.44
223.635	-14.44
223.869	-4.44
224.104	-7.44
224.338	-19.44
224.573	-19.44
224.808	-11.44
225.042	-10.44
225.277	-2.44
225.511	-9.44
225.746	26.56
225.98	23.56
226.215	2.56
226.449	9.56
226.683	0.56
226.918	8.56
227.152	27.56
227.387	19.56
227.621	33.56
227.856	40.56
228.09	53.56
228.324	51.56
228.559	39.56
228.793	52.56
229.027	70.56
229.262	64.56
229.496	92.56
229.73	97.56
229.964	90.56
230.199	70.56
230.433	77.56
230.667	81.56
230.901	73.56
231.136	90.56
231.37	76.56
231.604	90.56
231.838	80.56
232.072	89.56
232.306	92.56
232.541	71.56
232.775	83.56
233.009	88.56
233.243	92.56
233.477	76.56
233.711	74.56
233.945	77.56
234.179	87.56
234.413	83.56
234.647	74.56
234.881	78.56
235.115	86.56
235.349	77.56
235.583	84.56
235.817	81.56
236.051	87.56
236.285	75.56
236.519	91.56
236.753	85.56
236.987	94.56
237.221	107.56
237.455	102.56
237.689	90.56
237.922	83.56
238.156	67.56
238.39	65.56
238.624	80.56
238.858	90.56
239.091	78.56
239.325	77.56
239.559	78.56
239.793	77.56
240.027	79.56
240.26	79.56
240.494	79.56
240.728	87.56
240.961	66.56
241.195	72.56
241.429	70.56
241.662	82.56
241.896	92.56
242.13	91.56
242.363	83.56
242.597	83.56
242.83	68.56
243.064	89.56
243.298	78.56
243.531	60.56
243.765	74.56
243.998	71.56
244.232	76.56
244.465	85.56
244.699	86.56
244.932	67.56
245.166	76.56
245.399	69.56
245.633	72.56
245.866	76.56
246.099	82.56
246.333	83.56
246.566	74.56
246.8	87.56
247.033	86.56
247.266	78.56
247.5	102.56
247.733	72.56
247.966	85.56
248.2	87.56
248.433	86.56
248.666	97.56
248.899	83.56
249.133	105.56
249.366	86.56
249.599	97.56
249.832	90.56
250.066	63.56
250.299	84.56
250.532	79.56
250.765	93.56
250.998	74.56
251.231	85.56
251.465	82.56
251.698	93.56
251.931	85.56
252.164	87.56
252.397	76.56
252.63	94.56
252.863	82.56
253.096	87.56
253.329	72.56
253.562	77.56
253.795	71.56
254.028	99.56
254.261	81.56
254.494	75.56
254.727	86.56
254.96	87.56
255.193	69.56
255.426	77.56
255.659	69.56
255.892	81.56
256.124	83.56
256.357	89.56
256.59	77.56
256.823	93.56
257.056	70.56
257.289	83.56
257.521	85.56
257.754	89.56
257.987	85.56
258.22	87.56
258.452	74.56
258.685	87.56
258.918	97.56
259.151	66.56
259.383	85.56
259.616	82.56
259.849	79.56
260.081	89.56
260.314	94.56
260.547	83.56
260.779	101.56
261.012	91.56
261.244	100.56
261.477	96.56
261.71	111.56
261.942	127.56
262.175	134.56
262.407	94.56
262.64	81.56
262.872	89.56
263.105	74.56
263.337	101.56
263.57	85.56
263.802	84.56
264.035	90.56
264.267	75.56
264.499	77.56
264.732	78.56
264.964	109.56
265.197	79.56
265.429	74.56
265.661	93.56
265.894	82.56
266.126	82.56
266.358	92.56
266.591	84.56
266.823	87.56
267.055	78.56
267.287	95.56
267.52	87.56
267.752	92.56
267.984	77.56
268.216	85.56
268.448	88.56
268.681	76.56
268.913	88.56
269.145	97.56
269.377	91.56
269.609	69.56
269.841	80.56
270.073	85.56
270.306	88.56
270.538	86.56
270.77	87.56
271.002	82.56
271.234	77.56
271.466	87.56
271.698	91.56
271.93	89.56
272.162	96.56
272.394	101.56
272.626	92.56
272.858	97.56
273.09	92.56
273.322	78.56
273.553	67.56
273.785	71.56
274.017	83.56
274.249	79.56
274.481	81.56
274.713	92.56
274.945	88.56
275.176	94.56
275.408	95.56
275.64	81.56
275.872	84.56
276.104	93.56
276.335	106.56
276.567	84.56
276.799	123.56
277.031	123.56
277.262	99.56
277.494	87.56
277.726	99.56
277.957	78.56
278.189	82.56
278.421	77.56
278.652	91.56
278.884	88.56
279.115	93.56
279.347	94.56
279.579	88.56
279.81	103.56
280.042	84.56
280.273	97.56
280.505	95.56
280.736	91.56
280.968	72.56
281.199	78.56
281.431	87.56
281.662	85.56
281.894	91.56
282.125	97.56
282.356	136.56
282.588	154.56
282.819	125.56
283.051	87.56
283.282	97.56
283.513	110.56
283.745	99.56
283.976	79.56
284.207	81.56
284.439	74.56
284.67	84.56
284.901	83.56
285.132	85.56
285.364	92.56
285.595	71.56
285.826	81.56
286.057	92.56
286.288	85.56
286.52	94.56
286.751	86.56
286.982	93.56
287.213	89.56
287.444	83.56
287.675	95.56
287.906	103.56
288.138	76.56
288.369	98.56
288.6	90.56
288.831	74.56
289.062	102.56
289.293	93.56
289.524	93.56
289.755	97.56
289.986	101.56
290.217	88.56
290.448	76.56
290.679	99.56
290.91	91.56
291.141	87.56
291.371	87.56
291.602	87.56
291.833	91.56
292.064	79.56
292.295	96.56
292.526	90.56
292.757	82.56
292.987	86.56
293.218	102.56
293.449	87.56
293.68	91.56
293.91	92.56
294.141	94.56
294.372	85.56
294.603	87.56
294.833	91.56
295.064	83.56
295.295	79.56
295.525	95.56
295.756	97.56
295.987	129.56
296.217	153.56
296.448	144.56
296.679	99.56
296.909	88.56
297.14	103.56
297.37	93.56
297.601	110.56
297.831	85.56
298.062	101.56
298.292	102.56
298.523	102.56
298.753	93.56
298.984	96.56
299.214	101.56
299.445	99.56
299.675	95.56
299.905	102.56
300.136	96.56
300.366	91.56
300.597	88.56
300.827	87.56
301.057	93.56
301.288	119.56
301.518	115.56
301.748	86.56
301.979	105.56
302.209	108.56
302.439	111.56
302.669	91.56
302.9	86.56
303.13	87.56
303.36	91.56
303.59	117.56
303.82	117.56
304.051	84.56
304.281	98.56
304.511	92.56
304.741	86.56
304.971	86.56
305.201	99.56
305.431	105.56
305.661	90.56
305.891	100.56
306.121	89.56
306.352	119.56
306.582	104.56
306.812	93.56
307.042	107.56
307.272	86.56
307.502	101.56
307.731	98.56
307.961	91.56
308.191	92.56
308.421	81.56
308.651	101.56
308.881	89.56
309.111	95.56
309.341	111.56
309.571	93.56
309.8	101.56
310.03	120.56
310.26	105.56
310.49	102.56
310.72	111.56
310.949	125.56
311.179	117.56
311.409	91.56
311.639	95.56
311.868	100.56
312.098	122.56
312.328	105.56
312.557	109.56
312.787	124.56
313.017	115.56
313.246	103.56
313.476	88.56
313.706	81.56
313.935	105.56
314.165	113.56
314.394	118.56
314.624	93.56
314.853	108.56
315.083	92.56
315.312	89.56
315.542	108.56
315.771	97.56
316.001	86.56
316.23	83.56
316.46	87.56
316.689	93.56
316.919	100.56
317.148	105.56
317.377	97.56
317.607	104.56
317.836	105.56
318.065	103.56
318.295	99.56
318.524	97.56
318.753	95.56
318.983	101.56
319.212	106.56
319.441	123.56
319.67	110.56
319.9	97.56
320.129	97.56
320.358	93.56
320.587	110.56
320.816	95.56
321.046	109.56
321.275	107.56
321.504	92.56
321.733	105.56
321.962	111.56
322.191	95.56
322.42	118.56
322.649	123.56
322.878	128.56
323.108	127.56
323.337	138.56
323.566	152.56
323.795	186.56
324.024	278.56
324.253	499.56
324.482	1118.56
324.71	2382.56
324.939	3297.56
325.168	1123.56
325.397	298.56
325.626	167.56
325.855	145.56
326.084	142.56
326.313	138.56
326.542	196.56
326.77	270.56
326.999	554.56
327.228	1239.56
327.457	2385.56
327.686	1903.56
327.914	495.56
328.143	234.56
328.372	191.56
328.6	161.56
328.829	147.56
329.058	179.56
329.287	172.56
329.515	111.56
329.744	107.56
329.972	130.56
330.201	133.56
330.43	179.56
330.658	168.56
330.887	197.56
331.115	153.56
331.344	123.56
331.572	111.56
331.801	132.56
332.03	114.56
332.258	109.56
332.486	97.56
332.715	101.56
332.943	93.56
333.172	95.56
333.4	119.56
333.629	129.56
333.857	126.56
334.085	129.56
334.314	140.56
334.542	166.56
334.771	162.56
334.999	121.56
335.227	93.56
335.455	108.56
335.684	106.56
335.912	104.56
336.14	99.56
336.369	102.56
336.597	116.56
336.825	103.56
337.053	93.56
337.281	103.56
337.51	81.56
337.738	93.56
337.966	97.56
338.194	108.56
338.422	112.56
338.65	95.56
338.878	99.56
339.106	101.56
339.334	93.56
339.562	94.56
339.79	82.56
340.018	105.56
340.246	107.56
340.474	98.56
340.702	99.56
340.93	87.56
341.158	103.56
341.386	105.56
341.614	97.56
341.842	111.56
342.07	92.56
342.298	110.56
342.526	90.56
342.754	83.56
342.981	100.56
343.209	81.56
343.437	97.56
343.665	93.56
343.893	97.56
344.12	96.56
344.348	90.56
344.576	90.56
344.804	99.56
345.031	105.56
345.259	105.56
345.487	108.56
345.714	109.56
345.942	103.56
346.17	106.56
346.397	106.56
346.625	103.56
346.853	95.56
347.08	100.56
347.308	91.56
347.535	98.56
347.763	105.56
347.99	103.56
348.218	106.56
348.445	125.56
348.673	124.56
348.9	110.56
349.128	103.56
349.355	95.56
349.583	94.56
349.81	94.56
350.037	89.56
350.265	95.56
350.492	113.56
350.72	114.56
350.947	101.56
351.174	118.56
351.402	118.56
351.629	114.56
351.856	94.56
352.083	114.56
352.311	119.56
352.538	117.56
352.765	130.56
352.992	121.56
353.22	108.56
353.447	112.56
353.674	117.56
353.901	110.56
354.128	105.56
354.355	87.56
354.583	94.56
354.81	106.56
355.037	105.56
355.264	90.56
355.491	94.56
355.718	95.56
355.945	87.56
356.172	105.56
356.399	87.56
356.626	101.56
356.853	95.56
357.08	89.56
357.307	89.56
357.534	86.56
357.761	92.56
357.988	106.56
358.215	95.56
358.441	109.56
358.668	85.56
358.895	75.56
359.122	71.56
359.349	77.56
359.576	99.56
359.802	92.56
360.029	133.56
360.256	129.56
360.483	117.56
360.709	84.56
360.936	108.56
361.163	89.56
361.39	95.56
361.616	90.56
361.843	95.56
362.07	104.56
362.296	110.56
362.523	93.56
362.749	95.56
362.976	99.56
363.203	87.56
363.429	92.56
363.656	103.56
363.882	92.56
364.109	95.56
364.335	89.56
364.562	107.56
364.788	99.56
365.015	99.56
365.241	94.56
365.468	108.56
365.694	115.56
365.92	105.56
366.147	85.56
366.373	109.56
366.599	96.56
366.826	99.56
367.052	107.56
367.278	101.56
367.505	85.56
367.731	104.56
367.957	93.56
368.184	99.56
368.41	97.56
368.636	121.56
368.862	111.56
369.089	111.56
369.315	89.56
369.541	94.56
369.767	92.56
369.993	97.56
370.219	105.56
370.445	93.56
370.672	84.56
370.898	71.56
371.124	72.56
371.35	87.56
371.576	84.56
371.802	96.56
372.028	81.56
372.254	91.56
372.48	98.56
372.706	89.56
372.932	86.56
373.158	88.56
373.384	100.56
373.61	103.56
373.835	112.56
374.061	83.56
374.287	103.56
374.513	94.56
374.739	94.56
374.965	93.56
375.191	87.56
375.416	96.56
375.642	87.56
375.868	87.56
376.094	102.56
376.319	81.56
376.545	90.56
376.771	101.56
376.997	101.56
377.222	90.56
377.448	93.56
377.674	95.56
377.899	95.56
378.125	90.56
378.35	93.56
378.576	98.56
378.802	93.56
379.027	83.56
379.253	94.56
379.478	102.56
379.704	102.56
379.929	100.56
380.155	95.56
380.38	90.56
380.606	102.56
380.831	92.56
381.057	98.56
381.282	93.56
381.507	94.56
381.733	98.56
381.958	94.56
382.184	95.56
382.409	108.56
382.634	102.56
382.86	94.56
383.085	98.56
383.31	110.56
383.535	92.56
383.761	94.56
383.986	103.56
384.211	97.56
384.436	95.56
384.662	87.56
384.887	97.56
385.112	95.56
385.337	96.56
385.562	101.56
385.787	94.56
386.013	119.56
386.238	118.56
386.463	103.56
386.688	106.56
386.913	94.56
387.138	94.56
387.363	92.56
387.588	94.56
387.813	95.56
388.038	105.56
388.263	116.56
388.488	98.56
388.713	84.56
388.938	89.56
389.163	91.56
389.387	93.56
389.612	101.56
389.837	94.56
390.062	83.56
390.287	85.56
390.512	87.56
390.736	106.56
390.961	90.56
391.186	94.56
391.411	85.56
391.636	84.56
391.86	94.56
392.085	93.56
392.31	79.56
392.534	78.56
392.759	98.56
392.984	101.56
393.208	85.56
393.433	99.56
393.658	84.56
393.882	91.56
394.107	75.56
394.331	88.56
394.556	88.56
394.78	89.56
395.005	83.56
395.229	72.56
395.454	93.56
395.678	83.56
395.903	85.56
396.127	101.56
396.352	79.56
396.576	89.56
396.801	81.56
397.025	75.56
397.249	75.56
397.474	86.56
397.698	83.56
397.922	81.56
398.147	81.56
398.371	102.56
398.595	85.56
398.82	87.56
399.044	84.56
399.268	89.56
399.492	91.56
399.717	101.56
399.941	91.56
400.165	117.56
400.389	96.56
400.613	84.56
400.837	100.56
401.062	93.56
401.286	90.56
401.51	94.56
401.734	103.56
401.958	111.56
402.182	148.56
402.406	173.56
402.63	133.56
402.854	101.56
403.078	95.56
403.302	79.56
403.526	81.56
403.75	91.56
403.974	88.56
404.198	93.56
404.422	100.56
404.645	89.56
404.869	104.56
405.093	100.56
405.317	117.56
405.541	118.56
405.765	109.56
405.988	130.56
406.212	199.56
406.436	266.56
406.66	190.56
406.883	113.56
407.107	121.56
407.331	110.56
407.555	101.56
407.778	107.56
408.002	95.56
408.226	98.56
408.449	103.56
408.673	98.56
408.896	106.56
409.12	99.56
409.344	92.56
409.567	87.56
409.791	89.56
410.014	98.56
410.238	108.56
410.461	99.56
410.685	95.56
410.908	97.56
411.132	114.56
411.355	116.56
411.578	78.56
411.802	99.56
412.025	76.56
412.249	86.56
412.472	91.56
412.695	99.56
412.919	90.56
413.142	97.56
413.365	95.56
413.589	79.56
413.812	92.56
414.035	93.56
414.258	91.56
414.482	89.56
414.705	92.56
414.928	100.56
415.151	87.56
415.374	94.56
415.597	97.56
415.821	89.56
416.044	87.56
416.267	98.56
416.49	79.56
416.713	84.56
416.936	87.56
417.159	91.56
417.382	101.56
417.605	97.56
417.828	94.56
418.051	90.56
418.274	91.56
418.497	75.56
418.72	88.56
418.943	88.56
419.166	85.56
419.389	83.56
419.611	99.56
419.834	101.56
420.057	89.56
420.28	96.56
420.503	89.56
420.726	85.56
420.948	93.56
421.171	101.56
421.394	117.56
421.617	94.56
421.839	83.56
422.062	82.56
422.285	98.56
422.507	107.56
422.73	114.56
422.953	106.56
423.175	93.56
423.398	83.56
423.621	88.56
423.843	87.56
424.066	79.56
424.288	90.56
424.511	96.56
424.733	106.56
424.956	127.56
425.178	126.56
425.401	111.56
425.623	113.56
425.846	95.56
426.068	91.56
426.291	103.56
426.513	84.56
426.735	101.56
426.958	110.56
427.18	122.56
427.402	179.56
427.625	236.56
427.847	187.56
428.069	118.56
428.292	102.56
428.514	86.56
428.736	89.56
428.958	80.56
429.181	83.56
429.403	82.56
429.625	86.56
429.847	99.56
430.069	124.56
430.292	108.56
430.514	78.56
430.736	74.56
430.958	80.56
431.18	81.56
431.402	83.56
431.624	77.56
431.846	85.56
432.068	91.56
432.29	98.56
432.512	99.56
432.734	75.56
432.956	117.56
433.178	114.56
433.4	118.56
433.622	95.56
433.844	100.56
434.066	96.56
434.287	89.56
434.509	81.56
434.731	85.56
434.953	84.56
435.175	84.56
435.397	90.56
435.618	88.56
435.84	104.56
436.062	153.56
436.284	149.56
436.505	120.56
436.727	124.56
436.949	94.56
437.17	102.56
437.392	98.56
437.614	102.56
437.835	132.56
438.057	155.56
438.278	131.56
438.5	134.56
438.721	157.56
438.943	103.56
439.165	101.56
439.386	91.56
439.608	96.56
439.829	114.56
440.05	160.56
440.272	215.56
440.493	114.56
440.715	90.56
440.936	96.56
441.158	91.56
441.379	84.56
441.6	110.56
441.822	97.56
442.043	109.56
442.264	146.56
442.486	131.56
442.707	106.56
442.928	137.56
443.149	165.56
443.371	175.56
443.592	145.56
443.813	166.56
444.034	142.56
444.255	105.56
444.476	83.56
444.698	93.56
444.919	96.56
445.14	134.56
445.361	152.56
445.582	146.56
445.803	206.56
446.024	203.56
446.245	187.56
446.466	137.56
446.687	103.56
446.908	93.56
447.129	93.56
447.35	84.56
447.571	100.56
447.792	105.56
448.013	93.56
448.234	109.56
448.455	111.56
448.675	154.56
448.896	161.56
449.117	114.56
449.338	112.56
449.559	163.56
449.779	178.56
450	104.56
450.221	101.56
450.442	97.56
450.662	107.56
450.883	113.56
451.104	133.56
451.324	109.56
451.545	90.56
451.766	93.56
451.986	95.56
452.207	100.56
452.428	84.56
452.648	106.56
452.869	118.56
453.089	131.56
453.31	127.56
453.53	108.56
453.751	93.56
453.971	108.56
454.192	138.56
454.412	97.56
454.633	85.56
454.853	92.56
455.073	106.56
455.294	103.56
455.514	110.56
455.734	105.56
455.955	83.56
456.175	84.56
456.395	81.56
456.616	81.56
456.836	83.56
457.056	87.56
457.276	86.56
457.497	91.56
457.717	75.56
457.937	82.56
458.157	82.56
458.377	100.56
458.598	121.56
458.818	211.56
459.038	220.56
459.258	150.56
459.478	111.56
459.698	97.56
459.918	94.56
460.138	90.56
460.358	91.56
460.578	105.56
460.798	87.56
461.018	103.56
461.238	85.56
461.458	90.56
461.678	87.56
461.898	83.56
462.118	91.56
462.338	78.56
462.558	93.56
462.777	73.56
462.997	86.56
463.217	105.56
463.437	84.56
463.657	82.56
463.876	98.56
464.096	80.56
464.316	79.56
464.536	112.56
464.755	91.56
464.975	123.56
465.195	221.56
465.414	205.56
465.634	121.56
465.854	87.56
466.073	85.56
466.293	93.56
466.512	98.56
466.732	90.56
466.951	89.56
467.171	82.56
467.391	100.56
467.61	119.56
467.829	122.56
468.049	98.56
468.268	116.56
468.488	92.56
468.707	88.56
468.927	88.56
469.146	98.56
469.365	91.56
469.585	110.56
469.804	104.56
470.023	99.56
470.243	97.56
470.462	109.56
470.681	136.56
470.901	94.56
471.12	85.56
471.339	85.56
471.558	84.56
471.777	77.56
471.997	101.56
472.216	125.56
472.435	155.56
472.654	101.56
472.873	105.56
473.092	87.56
473.311	75.56
473.53	86.56
473.749	88.56
473.968	110.56
474.187	134.56
474.406	121.56
474.625	109.56
474.844	85.56
475.063	88.56
475.282	103.56
475.501	93.56
475.72	103.56
475.939	91.56
476.158	84.56
476.377	89.56
476.596	91.56
476.814	94.56
477.033	95.56
477.252	105.56
477.471	91.56
477.69	77.56
477.908	91.56
478.127	91.56
478.346	100.56
478.564	88.56
478.783	109.56
479.002	86.56
479.22	89.56
479.439	106.56
479.658	106.56
479.876	98.56
480.095	88.56
480.313	112.56
480.532	120.56
480.751	91.56
480.969	121.56
481.188	248.56
481.406	178.56
481.624	103.56
481.843	92.56
482.061	87.56
482.28	87.56
482.498	87.56
482.717	88.56
482.935	109.56
483.153	74.56
483.372	84.56
483.59	85.56
483.808	86.56
484.027	77.56
484.245	103.56
484.463	101.56
484.681	100.56
484.9	98.56
485.118	92.56
485.336	76.56
485.554	90.56
485.772	98.56
485.99	109.56
486.209	101.56
486.427	115.56
486.645	115.56
486.863	129.56
487.081	102.56
487.299	103.56
487.517	101.56
487.735	98.56
487.953	102.56
488.171	92.56
488.389	94.56
488.607	104.56
488.825	85.56
489.043	94.56
489.261	90.56
489.479	85.56
489.696	85.56
489.914	102.56
490.132	89.56
490.35	97.56
490.568	102.56
490.786	79.56
491.003	91.56
491.221	99.56
491.439	88.56
491.657	90.56
491.874	89.56
492.092	93.56
492.31	105.56
492.527	96.56
492.745	79.56
492.963	90.56
493.18	84.56
493.398	92.56
493.615	102.56
493.833	95.56
494.05	91.56
494.268	101.56
494.485	99.56
494.703	86.56
494.92	99.56
495.138	86.56
495.355	91.56
495.573	106.56
495.79	109.56
496.008	99.56
496.225	70.56
496.442	91.56
496.66	106.56
496.877	97.56
497.094	109.56
497.312	92.56
497.529	85.56
497.746	86.56
497.963	89.56
498.181	81.56
498.398	97.56
498.615	123.56
498.832	117.56
499.049	96.56
499.267	84.56
499.484	89.56
499.701	83.56
499.918	98.56
500.135	85.56
500.352	93.56
500.569	97.56
500.786	76.56
501.003	79.56
501.22	83.56
501.437	97.56
501.654	103.56
501.871	120.56
502.088	95.56
502.305	91.56
502.522	77.56
502.739	86.56
502.956	83.56
503.172	94.56
503.389	109.56
503.606	119.56
503.823	100.56
504.04	101.56
504.256	87.56
504.473	86.56
504.69	109.56
504.907	93.56
505.123	94.56
505.34	99.56
505.557	105.56
505.773	100.56
505.99	87.56
506.207	95.56
506.423	76.56
506.64	93.56
506.856	98.56
507.073	98.56
507.289	94.56
507.506	98.56
507.722	139.56
507.939	135.56
508.155	100.56
508.372	95.56
508.588	103.56
508.805	103.56
509.021	110.56
509.238	104.56
509.454	106.56
509.67	106.56
509.887	98.56
510.103	126.56
510.319	221.56
510.536	774.56
510.752	2658.56
510.968	725.56
511.184	155.56
511.401	123.56
511.617	118.56
511.833	93.56
512.049	100.56
512.265	94.56
512.481	101.56
512.698	85.56
512.914	96.56
513.13	94.56
513.346	111.56
513.562	106.56
