Data from Circ_1981_H10_HRD10591_00022.txt Node
Date: Wed Jan 03 12:34:25 EST 2024
User: Yrep
Spectrometer: HR+D1059
Trigger mode: 1
Integration Time (sec): 1.000000E-1
Scans to average: 1
Electric dark correction enabled: true
Nonlinearity correction enabled: false
Boxcar width: 0
XAxis mode: Wavelengths
Number of Pixels in Spectrum: 2048
>>>>>Begin Spectral Data<<<<<
223.165	-9.94
223.4	-9.94
223.635	-9.94
223.869	-16.94
224.104	-14.94
224.338	-23.94
224.573	-10.94
224.808	-20.94
225.042	-11.94
225.277	-5.94
225.511	5.06
225.746	-5.94
225.98	4.06
226.215	16.06
226.449	18.06
226.683	24.06
226.918	27.06
227.152	27.06
227.387	42.06
227.621	41.06
227.856	57.06
228.09	46.06
228.324	65.06
228.559	60.06
228.793	61.06
229.027	46.06
229.262	77.06
229.496	76.06
229.73	85.06
229.964	102.06
230.199	78.06
230.433	73.06
230.667	77.06
230.901	72.06
231.136	71.06
231.37	69.06
231.604	78.06
231.838	85.06
232.072	81.06
232.306	85.06
232.541	77.06
232.775	81.06
233.009	66.06
233.243	67.06
233.477	82.06
233.711	76.06
233.945	94.06
234.179	86.06
234.413	74.06
234.647	69.06
234.881	90.06
235.115	76.06
235.349	76.06
235.583	82.06
235.817	86.06
236.051	80.06
236.285	82.06
236.519	64.06
236.753	72.06
236.987	84.06
237.221	78.06
237.455	98.06
237.689	77.06
237.922	87.06
238.156	75.06
238.39	66.06
238.624	90.06
238.858	69.06
239.091	78.06
239.325	79.06
239.559	88.06
239.793	90.06
240.027	81.06
240.26	75.06
240.494	83.06
240.728	70.06
240.961	69.06
241.195	76.06
241.429	73.06
241.662	68.06
241.896	69.06
242.13	82.06
242.363	98.06
242.597	84.06
242.83	74.06
243.064	68.06
243.298	73.06
243.531	75.06
243.765	59.06
243.998	78.06
244.232	93.06
244.465	89.06
244.699	72.06
244.932	76.06
245.166	69.06
245.399	76.06
245.633	68.06
245.866	84.06
246.099	77.06
246.333	82.06
246.566	90.06
246.8	73.06
247.033	83.06
247.266	72.06
247.5	77.06
247.733	81.06
247.966	82.06
248.2	82.06
248.433	85.06
248.666	74.06
248.899	81.06
249.133	75.06
249.366	100.06
249.599	96.06
249.832	83.06
250.066	85.06
250.299	86.06
250.532	93.06
250.765	93.06
250.998	70.06
251.231	82.06
251.465	60.06
251.698	77.06
251.931	81.06
252.164	79.06
252.397	87.06
252.63	89.06
252.863	77.06
253.096	61.06
253.329	71.06
253.562	75.06
253.795	97.06
254.028	95.06
254.261	75.06
254.494	66.06
254.727	78.06
254.96	85.06
255.193	73.06
255.426	70.06
255.659	86.06
255.892	68.06
256.124	76.06
256.357	93.06
256.59	85.06
256.823	93.06
257.056	98.06
257.289	82.06
257.521	87.06
257.754	81.06
257.987	91.06
258.22	68.06
258.452	68.06
258.685	99.06
258.918	80.06
259.151	75.06
259.383	90.06
259.616	81.06
259.849	78.06
260.081	74.06
260.314	76.06
260.547	86.06
260.779	89.06
261.012	85.06
261.244	89.06
261.477	84.06
261.71	86.06
261.942	117.06
262.175	135.06
262.407	91.06
262.64	80.06
262.872	78.06
263.105	72.06
263.337	92.06
263.57	90.06
263.802	83.06
264.035	88.06
264.267	90.06
264.499	80.06
264.732	73.06
264.964	90.06
265.197	77.06
265.429	89.06
265.661	81.06
265.894	81.06
266.126	104.06
266.358	82.06
266.591	90.06
266.823	92.06
267.055	82.06
267.287	82.06
267.52	97.06
267.752	96.06
267.984	88.06
268.216	76.06
268.448	81.06
268.681	77.06
268.913	80.06
269.145	89.06
269.377	85.06
269.609	85.06
269.841	86.06
270.073	86.06
270.306	91.06
270.538	77.06
270.77	86.06
271.002	90.06
271.234	88.06
271.466	91.06
271.698	97.06
271.93	98.06
272.162	92.06
272.394	87.06
272.626	81.06
272.858	94.06
273.09	92.06
273.322	93.06
273.553	88.06
273.785	75.06
274.017	74.06
274.249	85.06
274.481	87.06
274.713	80.06
274.945	91.06
275.176	89.06
275.408	88.06
275.64	88.06
275.872	89.06
276.104	93.06
276.335	89.06
276.567	97.06
276.799	110.06
277.031	112.06
277.262	103.06
277.494	100.06
277.726	79.06
277.957	77.06
278.189	72.06
278.421	86.06
278.652	87.06
278.884	88.06
279.115	89.06
279.347	86.06
279.579	93.06
279.81	99.06
280.042	77.06
280.273	98.06
280.505	86.06
280.736	83.06
280.968	93.06
281.199	85.06
281.431	81.06
281.662	83.06
281.894	92.06
282.125	113.06
282.356	126.06
282.588	162.06
282.819	123.06
283.051	70.06
283.282	93.06
283.513	96.06
283.745	92.06
283.976	76.06
284.207	82.06
284.439	74.06
284.67	74.06
284.901	97.06
285.132	96.06
285.364	88.06
285.595	84.06
285.826	77.06
286.057	85.06
286.288	81.06
286.52	81.06
286.751	86.06
286.982	89.06
287.213	85.06
287.444	88.06
287.675	95.06
287.906	93.06
288.138	86.06
288.369	90.06
288.6	104.06
288.831	86.06
289.062	97.06
289.293	88.06
289.524	86.06
289.755	87.06
289.986	76.06
290.217	78.06
290.448	70.06
290.679	92.06
290.91	80.06
291.141	77.06
291.371	84.06
291.602	96.06
291.833	77.06
292.064	80.06
292.295	86.06
292.526	75.06
292.757	88.06
292.987	96.06
293.218	88.06
293.449	85.06
293.68	88.06
293.91	80.06
294.141	84.06
294.372	76.06
294.603	67.06
294.833	88.06
295.064	85.06
295.295	90.06
295.525	92.06
295.756	107.06
295.987	117.06
296.217	142.06
296.448	145.06
296.679	88.06
296.909	88.06
297.14	85.06
297.37	92.06
297.601	72.06
297.831	88.06
298.062	105.06
298.292	93.06
298.523	85.06
298.753	85.06
298.984	100.06
299.214	89.06
299.445	85.06
299.675	116.06
299.905	85.06
300.136	108.06
300.366	90.06
300.597	85.06
300.827	100.06
301.057	85.06
301.288	111.06
301.518	88.06
301.748	102.06
301.979	100.06
302.209	89.06
302.439	105.06
302.669	85.06
302.9	87.06
303.13	82.06
303.36	101.06
303.59	104.06
303.82	108.06
304.051	93.06
304.281	99.06
304.511	90.06
304.741	93.06
304.971	81.06
305.201	106.06
305.431	77.06
305.661	96.06
305.891	90.06
306.121	83.06
306.352	100.06
306.582	104.06
306.812	95.06
307.042	87.06
307.272	90.06
307.502	106.06
307.731	99.06
307.961	93.06
308.191	97.06
308.421	98.06
308.651	86.06
308.881	91.06
309.111	89.06
309.341	96.06
309.571	111.06
309.8	93.06
310.03	94.06
310.26	101.06
310.49	100.06
310.72	113.06
310.949	122.06
311.179	119.06
311.409	101.06
311.639	98.06
311.868	100.06
312.098	100.06
312.328	106.06
312.557	116.06
312.787	125.06
313.017	113.06
313.246	98.06
313.476	91.06
313.706	100.06
313.935	93.06
314.165	101.06
314.394	104.06
314.624	104.06
314.853	101.06
315.083	98.06
315.312	92.06
315.542	86.06
315.771	100.06
316.001	91.06
316.23	90.06
316.46	95.06
316.689	94.06
316.919	100.06
317.148	94.06
317.377	112.06
317.607	92.06
317.836	83.06
318.065	86.06
318.295	93.06
318.524	102.06
318.753	82.06
318.983	92.06
319.212	96.06
319.441	97.06
319.67	104.06
319.9	97.06
320.129	110.06
320.358	82.06
320.587	106.06
320.816	107.06
321.046	110.06
321.275	104.06
321.504	96.06
321.733	89.06
321.962	105.06
322.191	106.06
322.42	100.06
322.649	113.06
322.878	120.06
323.108	117.06
323.337	120.06
323.566	124.06
323.795	181.06
324.024	243.06
324.253	441.06
324.482	968.06
324.71	1993.06
324.939	2629.06
325.168	978.06
325.397	269.06
325.626	167.06
325.855	136.06
326.084	143.06
326.313	130.06
326.542	180.06
326.77	251.06
326.999	512.06
327.228	1035.06
327.457	1866.06
327.686	1552.06
327.914	422.06
328.143	233.06
328.372	182.06
328.6	146.06
328.829	114.06
329.058	144.06
329.287	138.06
329.515	123.06
329.744	111.06
329.972	117.06
330.201	130.06
330.43	166.06
330.658	169.06
330.887	200.06
331.115	151.06
331.344	91.06
331.572	97.06
331.801	109.06
332.03	108.06
332.258	109.06
332.486	91.06
332.715	105.06
332.943	109.06
333.172	104.06
333.4	103.06
333.629	110.06
333.857	123.06
334.085	118.06
334.314	121.06
334.542	138.06
334.771	164.06
334.999	109.06
335.227	100.06
335.455	89.06
335.684	96.06
335.912	105.06
336.14	108.06
336.369	94.06
336.597	108.06
336.825	99.06
337.053	99.06
337.281	91.06
337.51	97.06
337.738	74.06
337.966	106.06
338.194	100.06
338.422	101.06
338.65	96.06
338.878	94.06
339.106	88.06
339.334	98.06
339.562	104.06
339.79	91.06
340.018	84.06
340.246	109.06
340.474	107.06
340.702	116.06
340.93	96.06
341.158	106.06
341.386	86.06
341.614	106.06
341.842	92.06
342.07	81.06
342.298	98.06
342.526	110.06
342.754	77.06
342.981	86.06
343.209	88.06
343.437	104.06
343.665	99.06
343.893	94.06
344.12	82.06
344.348	97.06
344.576	75.06
344.804	85.06
345.031	98.06
345.259	97.06
345.487	94.06
345.714	96.06
345.942	85.06
346.17	101.06
346.397	93.06
346.625	92.06
346.853	95.06
347.08	96.06
347.308	100.06
347.535	102.06
347.763	96.06
347.99	99.06
348.218	106.06
348.445	111.06
348.673	122.06
348.9	106.06
349.128	107.06
349.355	81.06
349.583	105.06
349.81	89.06
350.037	90.06
350.265	108.06
350.492	96.06
350.72	102.06
350.947	97.06
351.174	110.06
351.402	124.06
351.629	109.06
351.856	94.06
352.083	107.06
352.311	127.06
352.538	111.06
352.765	114.06
352.992	117.06
353.22	102.06
353.447	92.06
353.674	107.06
353.901	98.06
354.128	93.06
354.355	101.06
354.583	90.06
354.81	102.06
355.037	102.06
355.264	101.06
355.491	88.06
355.718	87.06
355.945	105.06
356.172	96.06
356.399	86.06
356.626	90.06
356.853	96.06
357.08	98.06
357.307	81.06
357.534	92.06
357.761	84.06
357.988	100.06
358.215	87.06
358.441	84.06
358.668	86.06
358.895	87.06
359.122	84.06
359.349	96.06
359.576	95.06
359.802	105.06
360.029	127.06
360.256	134.06
360.483	107.06
360.709	96.06
360.936	96.06
361.163	88.06
361.39	94.06
361.616	94.06
361.843	87.06
362.07	101.06
362.296	96.06
362.523	102.06
362.749	91.06
362.976	88.06
363.203	99.06
363.429	85.06
363.656	86.06
363.882	96.06
364.109	94.06
364.335	96.06
364.562	86.06
364.788	101.06
365.015	108.06
365.241	90.06
365.468	96.06
365.694	111.06
365.92	101.06
366.147	91.06
366.373	103.06
366.599	87.06
366.826	83.06
367.052	97.06
367.278	92.06
367.505	80.06
367.731	104.06
367.957	88.06
368.184	100.06
368.41	108.06
368.636	124.06
368.862	119.06
369.089	123.06
369.315	99.06
369.541	83.06
369.767	88.06
369.993	99.06
370.219	100.06
370.445	111.06
370.672	97.06
370.898	79.06
371.124	81.06
371.35	94.06
371.576	97.06
371.802	96.06
372.028	100.06
372.254	86.06
372.48	82.06
372.706	87.06
372.932	88.06
373.158	91.06
373.384	89.06
373.61	93.06
373.835	94.06
374.061	82.06
374.287	101.06
374.513	99.06
374.739	96.06
374.965	106.06
375.191	76.06
375.416	78.06
375.642	84.06
375.868	79.06
376.094	106.06
376.319	88.06
376.545	97.06
376.771	92.06
376.997	91.06
377.222	94.06
377.448	85.06
377.674	94.06
377.899	85.06
378.125	84.06
378.35	98.06
378.576	92.06
378.802	82.06
379.027	76.06
379.253	78.06
379.478	69.06
379.704	84.06
379.929	85.06
380.155	98.06
380.38	104.06
380.606	100.06
380.831	93.06
381.057	107.06
381.282	94.06
381.507	83.06
381.733	96.06
381.958	104.06
382.184	102.06
382.409	97.06
382.634	93.06
382.86	106.06
383.085	98.06
383.31	93.06
383.535	95.06
383.761	84.06
383.986	100.06
384.211	104.06
384.436	113.06
384.662	99.06
384.887	101.06
385.112	97.06
385.337	91.06
385.562	92.06
385.787	125.06
386.013	113.06
386.238	101.06
386.463	100.06
386.688	120.06
386.913	102.06
387.138	110.06
387.363	114.06
387.588	104.06
387.813	91.06
388.038	88.06
388.263	106.06
388.488	97.06
388.713	99.06
388.938	94.06
389.163	90.06
389.387	104.06
389.612	93.06
389.837	96.06
390.062	97.06
390.287	89.06
390.512	79.06
390.736	100.06
390.961	89.06
391.186	82.06
391.411	100.06
391.636	86.06
391.86	90.06
392.085	85.06
392.31	89.06
392.534	75.06
392.759	93.06
392.984	80.06
393.208	96.06
393.433	99.06
393.658	110.06
393.882	88.06
394.107	67.06
394.331	84.06
394.556	82.06
394.78	88.06
395.005	104.06
395.229	76.06
395.454	95.06
395.678	70.06
395.903	92.06
396.127	112.06
396.352	86.06
396.576	86.06
396.801	108.06
397.025	90.06
397.249	93.06
397.474	92.06
397.698	90.06
397.922	75.06
398.147	98.06
398.371	91.06
398.595	84.06
398.82	82.06
399.044	84.06
399.268	90.06
399.492	82.06
399.717	91.06
399.941	80.06
400.165	84.06
400.389	89.06
400.613	102.06
400.837	89.06
401.062	86.06
401.286	77.06
401.51	91.06
401.734	89.06
401.958	96.06
402.182	145.06
402.406	182.06
402.63	134.06
402.854	90.06
403.078	101.06
403.302	81.06
403.526	81.06
403.75	92.06
403.974	90.06
404.198	84.06
404.422	98.06
404.645	101.06
404.869	81.06
405.093	98.06
405.317	104.06
405.541	105.06
405.765	90.06
405.988	125.06
406.212	212.06
406.436	293.06
406.66	180.06
406.883	108.06
407.107	97.06
407.331	88.06
407.555	102.06
407.778	102.06
408.002	99.06
408.226	83.06
408.449	95.06
408.673	89.06
408.896	91.06
409.12	99.06
409.344	98.06
409.567	97.06
409.791	95.06
410.014	91.06
410.238	91.06
410.461	95.06
410.685	95.06
410.908	88.06
411.132	85.06
411.355	106.06
411.578	92.06
411.802	84.06
412.025	80.06
412.249	92.06
412.472	91.06
412.695	91.06
412.919	107.06
413.142	98.06
413.365	82.06
413.589	92.06
413.812	84.06
414.035	98.06
414.258	99.06
414.482	89.06
414.705	91.06
414.928	84.06
415.151	91.06
415.374	105.06
415.597	93.06
415.821	91.06
416.044	82.06
416.267	94.06
416.49	81.06
416.713	78.06
416.936	87.06
417.159	102.06
417.382	79.06
417.605	86.06
417.828	92.06
418.051	92.06
418.274	89.06
418.497	91.06
418.72	88.06
418.943	86.06
419.166	78.06
419.389	80.06
419.611	106.06
419.834	90.06
420.057	96.06
420.28	75.06
420.503	96.06
420.726	88.06
420.948	81.06
421.171	107.06
421.394	93.06
421.617	93.06
421.839	91.06
422.062	88.06
422.285	99.06
422.507	113.06
422.73	112.06
422.953	100.06
423.175	89.06
423.398	78.06
423.621	91.06
423.843	85.06
424.066	95.06
424.288	86.06
424.511	96.06
424.733	95.06
424.956	114.06
425.178	117.06
425.401	105.06
425.623	106.06
425.846	89.06
426.068	107.06
426.291	83.06
426.513	84.06
426.735	95.06
426.958	91.06
427.18	108.06
427.402	141.06
427.625	210.06
427.847	160.06
428.069	136.06
428.292	108.06
428.514	98.06
428.736	88.06
428.958	90.06
429.181	89.06
429.403	85.06
429.625	82.06
429.847	96.06
430.069	122.06
430.292	110.06
430.514	81.06
430.736	97.06
430.958	93.06
431.18	94.06
431.402	87.06
431.624	99.06
431.846	90.06
432.068	104.06
432.29	102.06
432.512	94.06
432.734	83.06
432.956	91.06
433.178	83.06
433.4	95.06
433.622	100.06
433.844	83.06
434.066	89.06
434.287	82.06
434.509	94.06
434.731	86.06
434.953	91.06
435.175	97.06
435.397	88.06
435.618	108.06
435.84	114.06
436.062	142.06
436.284	133.06
436.505	94.06
436.727	99.06
436.949	88.06
437.17	88.06
437.392	86.06
437.614	104.06
437.835	116.06
438.057	140.06
438.278	115.06
438.5	113.06
438.721	151.06
438.943	122.06
439.165	68.06
439.386	73.06
439.608	100.06
439.829	108.06
440.05	143.06
440.272	174.06
440.493	106.06
440.715	91.06
440.936	77.06
441.158	90.06
441.379	90.06
441.6	87.06
441.822	104.06
442.043	98.06
442.264	105.06
442.486	107.06
442.707	97.06
442.928	124.06
443.149	166.06
443.371	156.06
443.592	130.06
443.813	130.06
444.034	113.06
444.255	81.06
444.476	83.06
444.698	81.06
444.919	103.06
445.14	139.06
445.361	127.06
445.582	133.06
445.803	157.06
446.024	153.06
446.245	150.06
446.466	129.06
446.687	94.06
446.908	80.06
447.129	93.06
447.35	100.06
447.571	89.06
447.792	99.06
448.013	94.06
448.234	114.06
448.455	97.06
448.675	122.06
448.896	124.06
449.117	108.06
449.338	97.06
449.559	150.06
449.779	137.06
450	85.06
450.221	89.06
450.442	92.06
450.662	96.06
450.883	105.06
451.104	130.06
451.324	109.06
451.545	83.06
451.766	79.06
451.986	72.06
452.207	80.06
452.428	86.06
452.648	106.06
452.869	136.06
453.089	105.06
453.31	131.06
453.53	111.06
453.751	91.06
453.971	114.06
454.192	122.06
454.412	88.06
454.633	98.06
454.853	105.06
455.073	101.06
455.294	101.06
455.514	101.06
455.734	105.06
455.955	70.06
456.175	81.06
456.395	77.06
456.616	82.06
456.836	81.06
457.056	95.06
457.276	105.06
457.497	92.06
457.717	86.06
457.937	84.06
458.157	100.06
458.377	98.06
458.598	104.06
458.818	204.06
459.038	182.06
459.258	135.06
459.478	104.06
459.698	82.06
459.918	90.06
460.138	75.06
460.358	98.06
460.578	87.06
460.798	92.06
461.018	92.06
461.238	77.06
461.458	94.06
461.678	91.06
461.898	75.06
462.118	81.06
462.338	99.06
462.558	85.06
462.777	77.06
462.997	97.06
463.217	82.06
463.437	90.06
463.657	96.06
463.876	75.06
464.096	104.06
464.316	97.06
464.536	98.06
464.755	99.06
464.975	117.06
465.195	215.06
465.414	212.06
465.634	97.06
465.854	87.06
466.073	89.06
466.293	88.06
466.512	96.06
466.732	80.06
466.951	81.06
467.171	82.06
467.391	92.06
467.61	117.06
467.829	109.06
468.049	113.06
468.268	105.06
468.488	73.06
468.707	100.06
468.927	84.06
469.146	97.06
469.365	85.06
469.585	91.06
469.804	94.06
470.023	110.06
470.243	105.06
470.462	110.06
470.681	125.06
470.901	104.06
471.12	85.06
471.339	74.06
471.558	90.06
471.777	89.06
471.997	98.06
472.216	120.06
472.435	182.06
472.654	113.06
472.873	97.06
473.092	98.06
473.311	78.06
473.53	94.06
473.749	59.06
473.968	93.06
474.187	106.06
474.406	105.06
474.625	91.06
474.844	85.06
475.063	86.06
475.282	89.06
475.501	90.06
475.72	71.06
475.939	87.06
476.158	88.06
476.377	94.06
476.596	93.06
476.814	101.06
477.033	101.06
477.252	88.06
477.471	111.06
477.69	100.06
477.908	95.06
478.127	100.06
478.346	100.06
478.564	90.06
478.783	99.06
479.002	100.06
479.22	100.06
479.439	121.06
479.658	120.06
479.876	101.06
480.095	90.06
480.313	89.06
480.532	91.06
480.751	95.06
480.969	129.06
481.188	229.06
481.406	194.06
481.624	107.06
481.843	109.06
482.061	86.06
482.28	93.06
482.498	95.06
482.717	86.06
482.935	97.06
483.153	88.06
483.372	109.06
483.59	91.06
483.808	89.06
484.027	103.06
484.245	87.06
484.463	92.06
484.681	88.06
484.9	95.06
485.118	93.06
485.336	96.06
485.554	91.06
485.772	97.06
485.99	103.06
486.209	119.06
486.427	88.06
486.645	120.06
486.863	104.06
487.081	92.06
487.299	109.06
487.517	93.06
487.735	90.06
487.953	94.06
488.171	92.06
488.389	104.06
488.607	97.06
488.825	92.06
489.043	80.06
489.261	77.06
489.479	96.06
489.696	96.06
489.914	101.06
490.132	93.06
490.35	97.06
490.568	80.06
490.786	86.06
491.003	84.06
491.221	109.06
491.439	88.06
491.657	84.06
491.874	97.06
492.092	91.06
492.31	92.06
492.527	80.06
492.745	94.06
492.963	87.06
493.18	89.06
493.398	85.06
493.615	99.06
493.833	103.06
494.05	92.06
494.268	78.06
494.485	76.06
494.703	74.06
494.92	82.06
495.138	80.06
495.355	102.06
495.573	83.06
495.79	84.06
496.008	100.06
496.225	101.06
496.442	95.06
496.66	89.06
496.877	94.06
497.094	98.06
497.312	85.06
497.529	96.06
497.746	105.06
497.963	90.06
498.181	97.06
498.398	97.06
498.615	106.06
498.832	109.06
499.049	88.06
499.267	93.06
499.484	92.06
499.701	94.06
499.918	80.06
500.135	95.06
500.352	93.06
500.569	99.06
500.786	92.06
501.003	93.06
501.22	93.06
501.437	86.06
501.654	106.06
501.871	120.06
502.088	104.06
502.305	76.06
502.522	88.06
502.739	77.06
502.956	94.06
503.172	96.06
503.389	94.06
503.606	124.06
503.823	104.06
504.04	87.06
504.256	83.06
504.473	95.06
504.69	86.06
504.907	96.06
505.123	96.06
505.34	95.06
505.557	90.06
505.773	87.06
505.99	85.06
506.207	84.06
506.423	90.06
506.64	79.06
506.856	97.06
507.073	93.06
507.289	89.06
507.506	107.06
507.722	135.06
507.939	126.06
508.155	106.06
508.372	88.06
508.588	92.06
508.805	108.06
509.021	101.06
509.238	106.06
509.454	98.06
509.67	109.06
509.887	123.06
510.103	130.06
510.319	227.06
510.536	810.06
510.752	2780.06
510.968	736.06
511.184	165.06
511.401	128.06
511.617	106.06
511.833	82.06
512.049	101.06
512.265	101.06
512.481	95.06
512.698	97.06
512.914	93.06
513.13	88.06
513.346	92.06
513.562	96.06
513.778	88.06
513.994	82.06
514.21	119.06
514.426	145.06
