Data from Circ_1981_H10_HRD10591_00070.txt Node
Date: Wed Jan 03 12:34:35 EST 2024
User: Yrep
Spectrometer: HR+D1059
Trigger mode: 1
Integration Time (sec): 1.000000E-1
Scans to average: 1
Electric dark correction enabled: true
Nonlinearity correction enabled: false
Boxcar width: 0
XAxis mode: Wavelengths
Number of Pixels in Spectrum: 2048
>>>>>Begin Spectral Data<<<<<
223.165	-27.44
223.4	-27.44
223.635	-27.44
223.869	-18.44
224.104	-18.44
224.338	-18.44
224.573	-34.44
224.808	-5.44
225.042	-15.44
225.277	-10.44
225.511	-1.44
225.746	-3.44
225.98	10.56
226.215	18.56
226.449	32.56
226.683	17.56
226.918	30.56
227.152	43.56
227.387	32.56
227.621	37.56
227.856	55.56
228.09	49.56
228.324	43.56
228.559	47.56
228.793	64.56
229.027	61.56
229.262	73.56
229.496	85.56
229.73	89.56
229.964	90.56
230.199	81.56
230.433	78.56
230.667	93.56
230.901	83.56
231.136	78.56
231.37	93.56
231.604	77.56
231.838	87.56
232.072	81.56
232.306	100.56
232.541	78.56
232.775	74.56
233.009	81.56
233.243	89.56
233.477	76.56
233.711	88.56
233.945	92.56
234.179	89.56
234.413	86.56
234.647	88.56
234.881	85.56
235.115	96.56
235.349	79.56
235.583	83.56
235.817	86.56
236.051	84.56
236.285	86.56
236.519	86.56
236.753	81.56
236.987	91.56
237.221	93.56
237.455	101.56
237.689	86.56
237.922	91.56
238.156	86.56
238.39	80.56
238.624	73.56
238.858	91.56
239.091	90.56
239.325	94.56
239.559	75.56
239.793	91.56
240.027	78.56
240.26	96.56
240.494	89.56
240.728	77.56
240.961	89.56
241.195	75.56
241.429	84.56
241.662	81.56
241.896	73.56
242.13	80.56
242.363	95.56
242.597	78.56
242.83	77.56
243.064	78.56
243.298	69.56
243.531	77.56
243.765	92.56
243.998	78.56
244.232	84.56
244.465	79.56
244.699	73.56
244.932	83.56
245.166	85.56
245.399	81.56
245.633	91.56
245.866	89.56
246.099	79.56
246.333	82.56
246.566	82.56
246.8	97.56
247.033	69.56
247.266	83.56
247.5	73.56
247.733	85.56
247.966	81.56
248.2	87.56
248.433	88.56
248.666	72.56
248.899	88.56
249.133	95.56
249.366	95.56
249.599	100.56
249.832	89.56
250.066	90.56
250.299	91.56
250.532	94.56
250.765	82.56
250.998	75.56
251.231	82.56
251.465	89.56
251.698	87.56
251.931	94.56
252.164	94.56
252.397	93.56
252.63	81.56
252.863	88.56
253.096	79.56
253.329	100.56
253.562	86.56
253.795	74.56
254.028	77.56
254.261	69.56
254.494	89.56
254.727	79.56
254.96	85.56
255.193	82.56
255.426	70.56
255.659	95.56
255.892	100.56
256.124	80.56
256.357	97.56
256.59	83.56
256.823	85.56
257.056	85.56
257.289	76.56
257.521	79.56
257.754	77.56
257.987	93.56
258.22	83.56
258.452	88.56
258.685	76.56
258.918	91.56
259.151	69.56
259.383	83.56
259.616	78.56
259.849	94.56
260.081	88.56
260.314	97.56
260.547	87.56
260.779	77.56
261.012	81.56
261.244	82.56
261.477	93.56
261.71	95.56
261.942	126.56
262.175	135.56
262.407	93.56
262.64	95.56
262.872	88.56
263.105	101.56
263.337	91.56
263.57	86.56
263.802	75.56
264.035	95.56
264.267	97.56
264.499	97.56
264.732	94.56
264.964	88.56
265.197	86.56
265.429	75.56
265.661	98.56
265.894	85.56
266.126	89.56
266.358	97.56
266.591	94.56
266.823	92.56
267.055	81.56
267.287	88.56
267.52	90.56
267.752	91.56
267.984	75.56
268.216	66.56
268.448	91.56
268.681	82.56
268.913	94.56
269.145	86.56
269.377	113.56
269.609	90.56
269.841	94.56
270.073	87.56
270.306	85.56
270.538	86.56
270.77	83.56
271.002	104.56
271.234	89.56
271.466	93.56
271.698	94.56
271.93	89.56
272.162	96.56
272.394	89.56
272.626	94.56
272.858	89.56
273.09	99.56
273.322	80.56
273.553	85.56
273.785	77.56
274.017	107.56
274.249	85.56
274.481	88.56
274.713	90.56
274.945	101.56
275.176	86.56
275.408	108.56
275.64	99.56
275.872	92.56
276.104	96.56
276.335	93.56
276.567	103.56
276.799	107.56
277.031	111.56
277.262	85.56
277.494	89.56
277.726	84.56
277.957	90.56
278.189	95.56
278.421	86.56
278.652	94.56
278.884	95.56
279.115	92.56
279.347	94.56
279.579	83.56
279.81	79.56
280.042	101.56
280.273	89.56
280.505	91.56
280.736	96.56
280.968	86.56
281.199	91.56
281.431	99.56
281.662	89.56
281.894	101.56
282.125	118.56
282.356	126.56
282.588	176.56
282.819	118.56
283.051	88.56
283.282	102.56
283.513	90.56
283.745	101.56
283.976	71.56
284.207	92.56
284.439	83.56
284.67	98.56
284.901	93.56
285.132	95.56
285.364	90.56
285.595	93.56
285.826	88.56
286.057	90.56
286.288	83.56
286.52	86.56
286.751	91.56
286.982	81.56
287.213	107.56
287.444	95.56
287.675	95.56
287.906	98.56
288.138	94.56
288.369	92.56
288.6	90.56
288.831	85.56
289.062	100.56
289.293	78.56
289.524	85.56
289.755	82.56
289.986	97.56
290.217	79.56
290.448	74.56
290.679	82.56
290.91	110.56
291.141	80.56
291.371	89.56
291.602	87.56
291.833	93.56
292.064	97.56
292.295	83.56
292.526	95.56
292.757	100.56
292.987	99.56
293.218	91.56
293.449	94.56
293.68	98.56
293.91	90.56
294.141	97.56
294.372	102.56
294.603	97.56
294.833	81.56
295.064	96.56
295.295	98.56
295.525	93.56
295.756	106.56
295.987	125.56
296.217	155.56
296.448	161.56
296.679	106.56
296.909	95.56
297.14	101.56
297.37	93.56
297.601	97.56
297.831	97.56
298.062	95.56
298.292	82.56
298.523	86.56
298.753	95.56
298.984	109.56
299.214	96.56
299.445	102.56
299.675	91.56
299.905	99.56
300.136	97.56
300.366	95.56
300.597	103.56
300.827	104.56
301.057	103.56
301.288	122.56
301.518	121.56
301.748	105.56
301.979	111.56
302.209	97.56
302.439	98.56
302.669	97.56
302.9	99.56
303.13	101.56
303.36	83.56
303.59	112.56
303.82	115.56
304.051	123.56
304.281	90.56
304.511	95.56
304.741	99.56
304.971	86.56
305.201	92.56
305.431	92.56
305.661	101.56
305.891	96.56
306.121	100.56
306.352	114.56
306.582	99.56
306.812	92.56
307.042	109.56
307.272	92.56
307.502	92.56
307.731	87.56
307.961	103.56
308.191	80.56
308.421	111.56
308.651	87.56
308.881	106.56
309.111	92.56
309.341	111.56
309.571	113.56
309.8	98.56
310.03	112.56
310.26	110.56
310.49	106.56
310.72	114.56
310.949	120.56
311.179	111.56
311.409	99.56
311.639	105.56
311.868	104.56
312.098	91.56
312.328	120.56
312.557	120.56
312.787	130.56
313.017	113.56
313.246	95.56
313.476	85.56
313.706	108.56
313.935	115.56
314.165	101.56
314.394	110.56
314.624	109.56
314.853	109.56
315.083	110.56
315.312	91.56
315.542	90.56
315.771	114.56
316.001	94.56
316.23	102.56
316.46	83.56
316.689	104.56
316.919	94.56
317.148	101.56
317.377	89.56
317.607	99.56
317.836	111.56
318.065	96.56
318.295	101.56
318.524	94.56
318.753	96.56
318.983	104.56
319.212	111.56
319.441	117.56
319.67	117.56
319.9	101.56
320.129	99.56
320.358	102.56
320.587	105.56
320.816	101.56
321.046	119.56
321.275	115.56
321.504	95.56
321.733	126.56
321.962	100.56
322.191	125.56
322.42	119.56
322.649	113.56
322.878	121.56
323.108	134.56
323.337	135.56
323.566	143.56
323.795	147.56
324.024	222.56
324.253	413.56
324.482	924.56
324.71	1877.56
324.939	2616.56
325.168	952.56
325.397	265.56
325.626	159.56
325.855	137.56
326.084	142.56
326.313	135.56
326.542	167.56
326.77	243.56
326.999	482.56
327.228	967.56
327.457	1836.56
327.686	1507.56
327.914	419.56
328.143	227.56
328.372	189.56
328.6	148.56
328.829	129.56
329.058	138.56
329.287	172.56
329.515	119.56
329.744	125.56
329.972	115.56
330.201	129.56
330.43	146.56
330.658	163.56
330.887	175.56
331.115	131.56
331.344	103.56
331.572	112.56
331.801	117.56
332.03	126.56
332.258	119.56
332.486	104.56
332.715	117.56
332.943	93.56
333.172	113.56
333.4	110.56
333.629	122.56
333.857	136.56
334.085	149.56
334.314	121.56
334.542	151.56
334.771	158.56
334.999	121.56
335.227	113.56
335.455	107.56
335.684	107.56
335.912	99.56
336.14	121.56
336.369	102.56
336.597	101.56
336.825	123.56
337.053	114.56
337.281	92.56
337.51	111.56
337.738	100.56
337.966	98.56
338.194	109.56
338.422	107.56
338.65	113.56
338.878	96.56
339.106	90.56
339.334	86.56
339.562	93.56
339.79	101.56
340.018	90.56
340.246	95.56
340.474	97.56
340.702	94.56
340.93	98.56
341.158	106.56
341.386	102.56
341.614	108.56
341.842	102.56
342.07	82.56
342.298	100.56
342.526	90.56
342.754	91.56
342.981	96.56
343.209	88.56
343.437	98.56
343.665	97.56
343.893	91.56
344.12	103.56
344.348	93.56
344.576	100.56
344.804	99.56
345.031	108.56
345.259	107.56
345.487	95.56
345.714	97.56
345.942	115.56
346.17	107.56
346.397	98.56
346.625	105.56
346.853	113.56
347.08	108.56
347.308	105.56
347.535	97.56
347.763	112.56
347.99	117.56
348.218	113.56
348.445	122.56
348.673	111.56
348.9	99.56
349.128	99.56
349.355	103.56
349.583	94.56
349.81	101.56
350.037	100.56
350.265	98.56
350.492	94.56
350.72	106.56
350.947	99.56
351.174	116.56
351.402	125.56
351.629	102.56
351.856	115.56
352.083	120.56
352.311	112.56
352.538	129.56
352.765	113.56
352.992	127.56
353.22	120.56
353.447	100.56
353.674	105.56
353.901	101.56
354.128	105.56
354.355	91.56
354.583	103.56
354.81	112.56
355.037	111.56
355.264	106.56
355.491	104.56
355.718	103.56
355.945	98.56
356.172	93.56
356.399	98.56
356.626	96.56
356.853	106.56
357.08	95.56
357.307	99.56
357.534	94.56
357.761	102.56
357.988	97.56
358.215	101.56
358.441	91.56
358.668	92.56
358.895	103.56
359.122	92.56
359.349	101.56
359.576	111.56
359.802	121.56
360.029	134.56
360.256	130.56
360.483	96.56
360.709	92.56
360.936	83.56
361.163	111.56
361.39	107.56
361.616	106.56
361.843	91.56
362.07	99.56
362.296	110.56
362.523	106.56
362.749	113.56
362.976	95.56
363.203	90.56
363.429	98.56
363.656	95.56
363.882	103.56
364.109	98.56
364.335	109.56
364.562	93.56
364.788	93.56
365.015	101.56
365.241	105.56
365.468	110.56
365.694	110.56
365.92	118.56
366.147	107.56
366.373	90.56
366.599	105.56
366.826	88.56
367.052	74.56
367.278	89.56
367.505	81.56
367.731	94.56
367.957	106.56
368.184	109.56
368.41	87.56
368.636	119.56
368.862	142.56
369.089	132.56
369.315	94.56
369.541	83.56
369.767	85.56
369.993	103.56
370.219	120.56
370.445	91.56
370.672	98.56
370.898	89.56
371.124	77.56
371.35	101.56
371.576	89.56
371.802	92.56
372.028	98.56
372.254	98.56
372.48	89.56
372.706	90.56
372.932	86.56
373.158	94.56
373.384	111.56
373.61	105.56
373.835	107.56
374.061	101.56
374.287	98.56
374.513	99.56
374.739	96.56
374.965	89.56
375.191	98.56
375.416	93.56
375.642	95.56
375.868	91.56
376.094	100.56
376.319	90.56
376.545	86.56
376.771	86.56
376.997	96.56
377.222	83.56
377.448	101.56
377.674	95.56
377.899	96.56
378.125	99.56
378.35	91.56
378.576	93.56
378.802	82.56
379.027	79.56
379.253	97.56
379.478	109.56
379.704	95.56
379.929	97.56
380.155	105.56
380.38	96.56
380.606	81.56
380.831	107.56
381.057	105.56
381.282	109.56
381.507	104.56
381.733	82.56
381.958	102.56
382.184	98.56
382.409	98.56
382.634	108.56
382.86	98.56
383.085	117.56
383.31	108.56
383.535	96.56
383.761	101.56
383.986	105.56
384.211	101.56
384.436	103.56
384.662	83.56
384.887	101.56
385.112	96.56
385.337	107.56
385.562	87.56
385.787	111.56
386.013	116.56
386.238	125.56
386.463	105.56
386.688	114.56
386.913	99.56
387.138	106.56
387.363	91.56
387.588	109.56
387.813	102.56
388.038	110.56
388.263	108.56
388.488	120.56
388.713	95.56
388.938	95.56
389.163	96.56
389.387	107.56
389.612	103.56
389.837	92.56
390.062	102.56
390.287	106.56
390.512	102.56
390.736	93.56
390.961	88.56
391.186	87.56
391.411	114.56
391.636	89.56
391.86	91.56
392.085	98.56
392.31	98.56
392.534	102.56
392.759	76.56
392.984	78.56
393.208	81.56
393.433	94.56
393.658	104.56
393.882	105.56
394.107	89.56
394.331	113.56
394.556	99.56
394.78	88.56
395.005	92.56
395.229	99.56
395.454	102.56
395.678	89.56
395.903	106.56
396.127	99.56
396.352	105.56
396.576	85.56
396.801	98.56
397.025	102.56
397.249	91.56
397.474	91.56
397.698	100.56
397.922	99.56
398.147	91.56
398.371	102.56
398.595	86.56
398.82	89.56
399.044	97.56
399.268	81.56
399.492	79.56
399.717	96.56
399.941	97.56
400.165	86.56
400.389	101.56
400.613	95.56
400.837	93.56
401.062	99.56
401.286	99.56
401.51	97.56
401.734	109.56
401.958	105.56
402.182	151.56
402.406	186.56
402.63	132.56
402.854	110.56
403.078	98.56
403.302	87.56
403.526	101.56
403.75	85.56
403.974	100.56
404.198	98.56
404.422	90.56
404.645	93.56
404.869	98.56
405.093	100.56
405.317	112.56
405.541	121.56
405.765	115.56
405.988	114.56
406.212	203.56
406.436	287.56
406.66	182.56
406.883	122.56
407.107	91.56
407.331	108.56
407.555	115.56
407.778	106.56
408.002	98.56
408.226	111.56
408.449	98.56
408.673	94.56
408.896	88.56
409.12	93.56
409.344	105.56
409.567	95.56
409.791	89.56
410.014	104.56
410.238	96.56
410.461	93.56
410.685	106.56
410.908	97.56
411.132	110.56
411.355	105.56
411.578	92.56
411.802	87.56
412.025	94.56
412.249	108.56
412.472	100.56
412.695	102.56
412.919	103.56
413.142	89.56
413.365	88.56
413.589	92.56
413.812	82.56
414.035	94.56
414.258	87.56
414.482	88.56
414.705	102.56
414.928	99.56
415.151	98.56
415.374	97.56
415.597	104.56
415.821	95.56
416.044	85.56
416.267	93.56
416.49	102.56
416.713	91.56
416.936	93.56
417.159	90.56
417.382	101.56
417.605	114.56
417.828	101.56
418.051	100.56
418.274	85.56
418.497	80.56
418.72	87.56
418.943	88.56
419.166	97.56
419.389	96.56
419.611	98.56
419.834	94.56
420.057	82.56
420.28	98.56
420.503	96.56
420.726	83.56
420.948	87.56
421.171	96.56
421.394	99.56
421.617	92.56
421.839	98.56
422.062	93.56
422.285	88.56
422.507	91.56
422.73	118.56
422.953	104.56
423.175	95.56
423.398	98.56
423.621	76.56
423.843	88.56
424.066	95.56
424.288	93.56
424.511	99.56
424.733	98.56
424.956	107.56
425.178	95.56
425.401	113.56
425.623	111.56
425.846	84.56
426.068	95.56
426.291	108.56
426.513	102.56
426.735	87.56
426.958	106.56
427.18	135.56
427.402	161.56
427.625	198.56
427.847	179.56
428.069	118.56
428.292	106.56
428.514	81.56
428.736	90.56
428.958	87.56
429.181	96.56
429.403	97.56
429.625	81.56
429.847	102.56
430.069	115.56
430.292	93.56
430.514	85.56
430.736	98.56
430.958	96.56
431.18	93.56
431.402	96.56
431.624	97.56
431.846	85.56
432.068	94.56
432.29	89.56
432.512	85.56
432.734	95.56
432.956	93.56
433.178	110.56
433.4	107.56
433.622	112.56
433.844	103.56
434.066	98.56
434.287	95.56
434.509	104.56
434.731	93.56
434.953	92.56
435.175	105.56
435.397	85.56
435.618	105.56
435.84	121.56
436.062	112.56
436.284	129.56
436.505	110.56
436.727	110.56
436.949	91.56
437.17	92.56
437.392	85.56
437.614	99.56
437.835	119.56
438.057	126.56
438.278	120.56
438.5	121.56
438.721	140.56
438.943	110.56
439.165	95.56
439.386	95.56
439.608	107.56
439.829	91.56
440.05	124.56
440.272	171.56
440.493	98.56
440.715	97.56
440.936	87.56
441.158	92.56
441.379	95.56
441.6	100.56
441.822	93.56
442.043	104.56
442.264	103.56
442.486	101.56
442.707	99.56
442.928	129.56
443.149	156.56
443.371	151.56
443.592	124.56
443.813	112.56
444.034	114.56
444.255	102.56
444.476	98.56
444.698	99.56
444.919	97.56
445.14	128.56
445.361	128.56
445.582	119.56
445.803	165.56
446.024	169.56
446.245	156.56
446.466	131.56
446.687	93.56
446.908	95.56
447.129	101.56
447.35	86.56
447.571	111.56
447.792	93.56
448.013	116.56
448.234	121.56
448.455	115.56
448.675	134.56
448.896	140.56
449.117	107.56
449.338	119.56
449.559	134.56
449.779	146.56
450	105.56
450.221	89.56
450.442	82.56
450.662	97.56
450.883	108.56
451.104	122.56
451.324	119.56
451.545	100.56
451.766	90.56
451.986	116.56
452.207	95.56
452.428	99.56
452.648	114.56
452.869	120.56
453.089	124.56
453.31	132.56
453.53	94.56
453.751	86.56
453.971	112.56
454.192	122.56
454.412	98.56
454.633	90.56
454.853	87.56
455.073	94.56
455.294	101.56
455.514	102.56
455.734	87.56
455.955	91.56
456.175	95.56
456.395	103.56
456.616	89.56
456.836	105.56
457.056	89.56
457.276	86.56
457.497	93.56
457.717	102.56
457.937	82.56
458.157	97.56
458.377	91.56
458.598	129.56
458.818	185.56
459.038	203.56
459.258	138.56
459.478	105.56
459.698	105.56
459.918	84.56
460.138	74.56
460.358	96.56
460.578	105.56
460.798	91.56
461.018	86.56
461.238	90.56
461.458	102.56
461.678	93.56
461.898	87.56
462.118	86.56
462.338	101.56
462.558	94.56
462.777	82.56
462.997	89.56
463.217	95.56
463.437	90.56
463.657	91.56
463.876	88.56
464.096	101.56
464.316	98.56
464.536	106.56
464.755	108.56
464.975	112.56
465.195	220.56
465.414	203.56
465.634	107.56
465.854	97.56
466.073	78.56
466.293	83.56
466.512	102.56
466.732	96.56
466.951	101.56
467.171	90.56
467.391	96.56
467.61	120.56
467.829	104.56
468.049	118.56
468.268	108.56
468.488	104.56
468.707	102.56
468.927	95.56
469.146	95.56
469.365	81.56
469.585	91.56
469.804	104.56
470.023	111.56
470.243	99.56
470.462	114.56
470.681	127.56
470.901	107.56
471.12	90.56
471.339	81.56
471.558	95.56
471.777	95.56
471.997	100.56
472.216	124.56
472.435	172.56
472.654	104.56
472.873	82.56
473.092	91.56
473.311	91.56
473.53	79.56
473.749	84.56
473.968	107.56
474.187	115.56
474.406	109.56
474.625	99.56
474.844	82.56
475.063	96.56
475.282	95.56
475.501	85.56
475.72	93.56
475.939	69.56
476.158	85.56
476.377	93.56
476.596	93.56
476.814	115.56
477.033	101.56
477.252	101.56
477.471	93.56
477.69	102.56
477.908	105.56
478.127	102.56
478.346	103.56
478.564	109.56
478.783	104.56
479.002	98.56
479.22	106.56
479.439	103.56
479.658	123.56
479.876	105.56
480.095	113.56
480.313	112.56
480.532	94.56
480.751	95.56
480.969	126.56
481.188	226.56
481.406	167.56
481.624	113.56
481.843	95.56
482.061	101.56
482.28	82.56
482.498	73.56
482.717	88.56
482.935	106.56
483.153	89.56
483.372	92.56
483.59	92.56
483.808	89.56
484.027	98.56
484.245	91.56
484.463	97.56
484.681	106.56
484.9	91.56
485.118	88.56
485.336	101.56
485.554	92.56
485.772	101.56
485.99	107.56
486.209	115.56
486.427	103.56
486.645	109.56
486.863	125.56
487.081	118.56
487.299	95.56
487.517	114.56
487.735	107.56
487.953	97.56
488.171	104.56
488.389	107.56
488.607	90.56
488.825	105.56
489.043	101.56
489.261	103.56
489.479	97.56
489.696	107.56
489.914	111.56
490.132	74.56
490.35	99.56
490.568	78.56
490.786	94.56
491.003	94.56
491.221	90.56
491.439	92.56
491.657	103.56
491.874	94.56
492.092	87.56
492.31	91.56
492.527	103.56
492.745	104.56
492.963	97.56
493.18	89.56
493.398	93.56
493.615	90.56
493.833	95.56
494.05	98.56
494.268	97.56
494.485	101.56
494.703	84.56
494.92	90.56
495.138	111.56
495.355	85.56
495.573	93.56
495.79	70.56
496.008	101.56
496.225	107.56
496.442	86.56
496.66	100.56
496.877	80.56
497.094	93.56
497.312	86.56
497.529	89.56
497.746	100.56
497.963	101.56
498.181	114.56
498.398	109.56
498.615	131.56
498.832	112.56
499.049	108.56
499.267	102.56
499.484	105.56
499.701	102.56
499.918	104.56
500.135	95.56
500.352	87.56
500.569	81.56
500.786	89.56
501.003	95.56
501.22	99.56
501.437	103.56
501.654	101.56
501.871	116.56
502.088	109.56
502.305	89.56
502.522	94.56
502.739	95.56
502.956	88.56
503.172	98.56
503.389	103.56
503.606	113.56
503.823	114.56
504.04	101.56
504.256	107.56
504.473	109.56
504.69	106.56
504.907	93.56
505.123	89.56
505.34	88.56
505.557	86.56
505.773	97.56
505.99	101.56
506.207	101.56
506.423	89.56
506.64	86.56
506.856	103.56
507.073	88.56
507.289	106.56
507.506	118.56
507.722	120.56
507.939	121.56
508.155	99.56
508.372	99.56
508.588	113.56
508.805	111.56
509.021	105.56
509.238	112.56
509.454	104.56
509.67	119.56
509.887	117.56
510.103	141.56
510.319	250.56
510.536	881.56
510.752	2947.56
510.968	779.56
511.184	177.56
511.401	133.56
511.617	89.56
511.833	99.56
512.049	104.56
512.265	108.56
