Data from Circ_1981_H10_HRD10591_00053.txt Node
Date: Wed Jan 03 12:34:31 EST 2024
User: Yrep
Spectrometer: HR+D1059
Trigger mode: 1
Integration Time (sec): 1.000000E-1
Scans to average: 1
Electric dark correction enabled: true
Nonlinearity correction enabled: false
Boxcar width: 0
XAxis mode: Wavelengths
Number of Pixels in Spectrum: 2048
>>>>>Begin Spectral Data<<<<<
223.165	-18.62
223.4	-18.62
223.635	-18.62
223.869	-20.62
224.104	-30.62
224.338	-23.62
224.573	-13.62
224.808	-14.62
225.042	-1.62
225.277	-5.62
225.511	-3.62
225.746	6.38
225.98	10.38
226.215	17.38
226.449	8.38
226.683	28.38
226.918	32.38
227.152	29.38
227.387	42.38
227.621	48.38
227.856	34.38
228.09	46.38
228.324	45.38
228.559	57.38
228.793	59.38
229.027	77.38
229.262	69.38
229.496	82.38
229.73	96.38
229.964	93.38
230.199	84.38
230.433	75.38
230.667	78.38
230.901	88.38
231.136	95.38
231.37	93.38
231.604	73.38
231.838	90.38
232.072	72.38
232.306	90.38
232.541	92.38
232.775	101.38
233.009	92.38
233.243	70.38
233.477	62.38
233.711	98.38
233.945	88.38
234.179	86.38
234.413	81.38
234.647	82.38
234.881	78.38
235.115	83.38
235.349	92.38
235.583	74.38
235.817	76.38
236.051	72.38
236.285	87.38
236.519	60.38
236.753	75.38
236.987	90.38
237.221	96.38
237.455	101.38
237.689	68.38
237.922	92.38
238.156	74.38
238.39	72.38
238.624	79.38
238.858	85.38
239.091	72.38
239.325	80.38
239.559	93.38
239.793	80.38
240.027	83.38
240.26	81.38
240.494	87.38
240.728	81.38
240.961	82.38
241.195	88.38
241.429	80.38
241.662	75.38
241.896	94.38
242.13	67.38
242.363	77.38
242.597	93.38
242.83	61.38
243.064	80.38
243.298	86.38
243.531	76.38
243.765	77.38
243.998	84.38
244.232	84.38
244.465	91.38
244.699	79.38
244.932	77.38
245.166	73.38
245.399	74.38
245.633	88.38
245.866	87.38
246.099	62.38
246.333	78.38
246.566	81.38
246.8	86.38
247.033	87.38
247.266	82.38
247.5	72.38
247.733	86.38
247.966	94.38
248.2	84.38
248.433	89.38
248.666	96.38
248.899	88.38
249.133	91.38
249.366	110.38
249.599	105.38
249.832	88.38
250.066	98.38
250.299	78.38
250.532	85.38
250.765	86.38
250.998	81.38
251.231	83.38
251.465	91.38
251.698	82.38
251.931	81.38
252.164	90.38
252.397	92.38
252.63	79.38
252.863	73.38
253.096	85.38
253.329	82.38
253.562	97.38
253.795	80.38
254.028	96.38
254.261	76.38
254.494	81.38
254.727	93.38
254.96	101.38
255.193	93.38
255.426	77.38
255.659	91.38
255.892	78.38
256.124	79.38
256.357	77.38
256.59	83.38
256.823	85.38
257.056	85.38
257.289	78.38
257.521	79.38
257.754	93.38
257.987	87.38
258.22	78.38
258.452	92.38
258.685	76.38
258.918	82.38
259.151	73.38
259.383	79.38
259.616	77.38
259.849	74.38
260.081	99.38
260.314	73.38
260.547	87.38
260.779	100.38
261.012	96.38
261.244	86.38
261.477	89.38
261.71	100.38
261.942	122.38
262.175	154.38
262.407	102.38
262.64	83.38
262.872	77.38
263.105	76.38
263.337	88.38
263.57	88.38
263.802	80.38
264.035	91.38
264.267	85.38
264.499	90.38
264.732	93.38
264.964	100.38
265.197	86.38
265.429	90.38
265.661	103.38
265.894	77.38
266.126	81.38
266.358	91.38
266.591	87.38
266.823	92.38
267.055	104.38
267.287	97.38
267.52	77.38
267.752	96.38
267.984	97.38
268.216	93.38
268.448	81.38
268.681	99.38
268.913	86.38
269.145	90.38
269.377	85.38
269.609	81.38
269.841	92.38
270.073	84.38
270.306	82.38
270.538	93.38
270.77	88.38
271.002	91.38
271.234	97.38
271.466	93.38
271.698	98.38
271.93	82.38
272.162	92.38
272.394	88.38
272.626	90.38
272.858	87.38
273.09	92.38
273.322	88.38
273.553	99.38
273.785	84.38
274.017	102.38
274.249	86.38
274.481	67.38
274.713	88.38
274.945	100.38
275.176	93.38
275.408	96.38
275.64	96.38
275.872	98.38
276.104	102.38
276.335	94.38
276.567	119.38
276.799	141.38
277.031	114.38
277.262	108.38
277.494	101.38
277.726	93.38
277.957	77.38
278.189	91.38
278.421	95.38
278.652	93.38
278.884	93.38
279.115	68.38
279.347	86.38
279.579	94.38
279.81	84.38
280.042	102.38
280.273	100.38
280.505	93.38
280.736	87.38
280.968	95.38
281.199	91.38
281.431	79.38
281.662	105.38
281.894	106.38
282.125	104.38
282.356	145.38
282.588	177.38
282.819	119.38
283.051	103.38
283.282	94.38
283.513	102.38
283.745	87.38
283.976	81.38
284.207	96.38
284.439	92.38
284.67	88.38
284.901	104.38
285.132	86.38
285.364	90.38
285.595	92.38
285.826	89.38
286.057	90.38
286.288	89.38
286.52	92.38
286.751	92.38
286.982	89.38
287.213	95.38
287.444	84.38
287.675	105.38
287.906	90.38
288.138	96.38
288.369	100.38
288.6	93.38
288.831	105.38
289.062	90.38
289.293	92.38
289.524	98.38
289.755	90.38
289.986	97.38
290.217	88.38
290.448	98.38
290.679	90.38
290.91	86.38
291.141	91.38
291.371	87.38
291.602	90.38
291.833	93.38
292.064	96.38
292.295	105.38
292.526	93.38
292.757	97.38
292.987	99.38
293.218	87.38
293.449	87.38
293.68	95.38
293.91	92.38
294.141	94.38
294.372	87.38
294.603	105.38
294.833	109.38
295.064	97.38
295.295	98.38
295.525	97.38
295.756	110.38
295.987	137.38
296.217	157.38
296.448	135.38
296.679	81.38
296.909	90.38
297.14	96.38
297.37	93.38
297.601	102.38
297.831	88.38
298.062	99.38
298.292	103.38
298.523	92.38
298.753	94.38
298.984	78.38
299.214	98.38
299.445	108.38
299.675	96.38
299.905	109.38
300.136	94.38
300.366	94.38
300.597	112.38
300.827	88.38
301.057	111.38
301.288	122.38
301.518	94.38
301.748	93.38
301.979	96.38
302.209	104.38
302.439	108.38
302.669	102.38
302.9	89.38
303.13	84.38
303.36	96.38
303.59	112.38
303.82	133.38
304.051	109.38
304.281	95.38
304.511	90.38
304.741	93.38
304.971	88.38
305.201	90.38
305.431	92.38
305.661	92.38
305.891	104.38
306.121	95.38
306.352	111.38
306.582	100.38
306.812	98.38
307.042	102.38
307.272	88.38
307.502	92.38
307.731	113.38
307.961	88.38
308.191	90.38
308.421	90.38
308.651	105.38
308.881	117.38
309.111	94.38
309.341	97.38
309.571	96.38
309.8	105.38
310.03	127.38
310.26	122.38
310.49	123.38
310.72	109.38
310.949	135.38
311.179	110.38
311.409	99.38
311.639	100.38
311.868	104.38
312.098	105.38
312.328	111.38
312.557	110.38
312.787	130.38
313.017	118.38
313.246	97.38
313.476	88.38
313.706	106.38
313.935	102.38
314.165	114.38
314.394	112.38
314.624	114.38
314.853	102.38
315.083	96.38
315.312	104.38
315.542	106.38
315.771	103.38
316.001	98.38
316.23	99.38
316.46	91.38
316.689	96.38
316.919	114.38
317.148	105.38
317.377	90.38
317.607	94.38
317.836	88.38
318.065	103.38
318.295	105.38
318.524	90.38
318.753	109.38
318.983	86.38
319.212	98.38
319.441	115.38
319.67	118.38
319.9	96.38
320.129	96.38
320.358	100.38
320.587	106.38
320.816	116.38
321.046	112.38
321.275	108.38
321.504	103.38
321.733	95.38
321.962	111.38
322.191	129.38
322.42	128.38
322.649	135.38
322.878	128.38
323.108	123.38
323.337	144.38
323.566	165.38
323.795	191.38
324.024	256.38
324.253	484.38
324.482	1114.38
324.71	2333.38
324.939	3220.38
325.168	1158.38
325.397	318.38
325.626	185.38
325.855	166.38
326.084	131.38
326.313	142.38
326.542	184.38
326.77	274.38
326.999	563.38
327.228	1209.38
327.457	2312.38
327.686	1863.38
327.914	496.38
328.143	260.38
328.372	203.38
328.6	177.38
328.829	166.38
329.058	164.38
329.287	189.38
329.515	136.38
329.744	116.38
329.972	108.38
330.201	135.38
330.43	182.38
330.658	168.38
330.887	213.38
331.115	186.38
331.344	118.38
331.572	113.38
331.801	114.38
332.03	125.38
332.258	133.38
332.486	113.38
332.715	100.38
332.943	103.38
333.172	93.38
333.4	112.38
333.629	130.38
333.857	134.38
334.085	132.38
334.314	131.38
334.542	176.38
334.771	173.38
334.999	115.38
335.227	95.38
335.455	97.38
335.684	88.38
335.912	106.38
336.14	102.38
336.369	103.38
336.597	110.38
336.825	113.38
337.053	102.38
337.281	93.38
337.51	106.38
337.738	102.38
337.966	109.38
338.194	104.38
338.422	118.38
338.65	100.38
338.878	109.38
339.106	96.38
339.334	105.38
339.562	105.38
339.79	94.38
340.018	94.38
340.246	86.38
340.474	95.38
340.702	101.38
340.93	101.38
341.158	99.38
341.386	114.38
341.614	111.38
341.842	106.38
342.07	104.38
342.298	99.38
342.526	109.38
342.754	106.38
342.981	100.38
343.209	103.38
343.437	102.38
343.665	93.38
343.893	106.38
344.12	99.38
344.348	91.38
344.576	96.38
344.804	98.38
345.031	109.38
345.259	121.38
345.487	106.38
345.714	120.38
345.942	94.38
346.17	97.38
346.397	93.38
346.625	97.38
346.853	105.38
347.08	109.38
347.308	111.38
347.535	118.38
347.763	104.38
347.99	101.38
348.218	115.38
348.445	119.38
348.673	112.38
348.9	101.38
349.128	108.38
349.355	95.38
349.583	101.38
349.81	91.38
350.037	93.38
350.265	109.38
350.492	93.38
350.72	90.38
350.947	96.38
351.174	123.38
351.402	106.38
351.629	98.38
351.856	92.38
352.083	113.38
352.311	120.38
352.538	127.38
352.765	124.38
352.992	146.38
353.22	119.38
353.447	114.38
353.674	113.38
353.901	111.38
354.128	104.38
354.355	89.38
354.583	94.38
354.81	99.38
355.037	117.38
355.264	105.38
355.491	95.38
355.718	96.38
355.945	102.38
356.172	98.38
356.399	102.38
356.626	122.38
356.853	96.38
357.08	110.38
357.307	100.38
357.534	95.38
357.761	80.38
357.988	86.38
358.215	104.38
358.441	110.38
358.668	101.38
358.895	102.38
359.122	92.38
359.349	92.38
359.576	104.38
359.802	130.38
360.029	149.38
360.256	145.38
360.483	138.38
360.709	96.38
360.936	120.38
361.163	98.38
361.39	106.38
361.616	119.38
361.843	88.38
362.07	126.38
362.296	122.38
362.523	96.38
362.749	100.38
362.976	117.38
363.203	107.38
363.429	110.38
363.656	96.38
363.882	97.38
364.109	100.38
364.335	103.38
364.562	92.38
364.788	90.38
365.015	109.38
365.241	104.38
365.468	123.38
365.694	109.38
365.92	108.38
366.147	119.38
366.373	84.38
366.599	89.38
366.826	100.38
367.052	108.38
367.278	89.38
367.505	82.38
367.731	103.38
367.957	100.38
368.184	96.38
368.41	109.38
368.636	134.38
368.862	133.38
369.089	126.38
369.315	116.38
369.541	118.38
369.767	102.38
369.993	105.38
370.219	101.38
370.445	106.38
370.672	111.38
370.898	100.38
371.124	102.38
371.35	96.38
371.576	95.38
371.802	93.38
372.028	91.38
372.254	92.38
372.48	91.38
372.706	93.38
372.932	88.38
373.158	95.38
373.384	115.38
373.61	105.38
373.835	90.38
374.061	88.38
374.287	93.38
374.513	88.38
374.739	108.38
374.965	96.38
375.191	81.38
375.416	109.38
375.642	89.38
375.868	105.38
376.094	92.38
376.319	85.38
376.545	107.38
376.771	93.38
376.997	93.38
377.222	100.38
377.448	99.38
377.674	99.38
377.899	99.38
378.125	90.38
378.35	93.38
378.576	107.38
378.802	104.38
379.027	88.38
379.253	98.38
379.478	98.38
379.704	106.38
379.929	93.38
380.155	104.38
380.38	98.38
380.606	110.38
380.831	93.38
381.057	98.38
381.282	105.38
381.507	99.38
381.733	98.38
381.958	103.38
382.184	100.38
382.409	105.38
382.634	111.38
382.86	106.38
383.085	111.38
383.31	102.38
383.535	110.38
383.761	112.38
383.986	89.38
384.211	78.38
384.436	96.38
384.662	107.38
384.887	92.38
385.112	104.38
385.337	93.38
385.562	100.38
385.787	101.38
386.013	120.38
386.238	125.38
386.463	105.38
386.688	105.38
386.913	117.38
387.138	113.38
387.363	106.38
387.588	94.38
387.813	88.38
388.038	93.38
388.263	118.38
388.488	115.38
388.713	112.38
388.938	103.38
389.163	88.38
389.387	99.38
389.612	94.38
389.837	93.38
390.062	88.38
390.287	86.38
390.512	91.38
390.736	85.38
390.961	98.38
391.186	109.38
391.411	94.38
391.636	101.38
391.86	87.38
392.085	91.38
392.31	92.38
392.534	103.38
392.759	91.38
392.984	102.38
393.208	92.38
393.433	100.38
393.658	98.38
393.882	108.38
394.107	84.38
394.331	82.38
394.556	84.38
394.78	88.38
395.005	96.38
395.229	88.38
395.454	99.38
395.678	91.38
395.903	91.38
396.127	97.38
396.352	95.38
396.576	79.38
396.801	101.38
397.025	104.38
397.249	94.38
397.474	89.38
397.698	92.38
397.922	94.38
398.147	92.38
398.371	86.38
398.595	87.38
398.82	92.38
399.044	76.38
399.268	86.38
399.492	94.38
399.717	93.38
399.941	99.38
400.165	106.38
400.389	97.38
400.613	94.38
400.837	87.38
401.062	88.38
401.286	102.38
401.51	89.38
401.734	107.38
401.958	121.38
402.182	145.38
402.406	194.38
402.63	159.38
402.854	109.38
403.078	102.38
403.302	101.38
403.526	103.38
403.75	88.38
403.974	107.38
404.198	77.38
404.422	98.38
404.645	100.38
404.869	111.38
405.093	112.38
405.317	117.38
405.541	120.38
405.765	110.38
405.988	134.38
406.212	212.38
406.436	340.38
406.66	215.38
406.883	121.38
407.107	108.38
407.331	124.38
407.555	114.38
407.778	114.38
408.002	95.38
408.226	87.38
408.449	80.38
408.673	102.38
408.896	105.38
409.12	110.38
409.344	91.38
409.567	72.38
409.791	101.38
410.014	80.38
410.238	104.38
410.461	99.38
410.685	98.38
410.908	96.38
411.132	111.38
411.355	104.38
411.578	94.38
411.802	102.38
412.025	102.38
412.249	90.38
412.472	104.38
412.695	110.38
412.919	94.38
413.142	90.38
413.365	96.38
413.589	79.38
413.812	102.38
414.035	77.38
414.258	92.38
414.482	97.38
414.705	106.38
414.928	85.38
415.151	94.38
415.374	109.38
415.597	98.38
415.821	92.38
416.044	88.38
416.267	99.38
416.49	103.38
416.713	90.38
416.936	86.38
417.159	92.38
417.382	96.38
417.605	73.38
417.828	111.38
418.051	117.38
418.274	91.38
418.497	94.38
418.72	82.38
418.943	86.38
419.166	88.38
419.389	85.38
419.611	90.38
419.834	88.38
420.057	89.38
420.28	90.38
420.503	87.38
420.726	95.38
420.948	97.38
421.171	116.38
421.394	109.38
421.617	93.38
421.839	101.38
422.062	96.38
422.285	98.38
422.507	120.38
422.73	121.38
422.953	97.38
423.175	95.38
423.398	89.38
423.621	92.38
423.843	88.38
424.066	91.38
424.288	81.38
424.511	93.38
424.733	119.38
424.956	121.38
425.178	121.38
425.401	128.38
425.623	117.38
425.846	106.38
426.068	114.38
426.291	111.38
426.513	105.38
426.735	104.38
426.958	126.38
427.18	116.38
427.402	169.38
427.625	241.38
427.847	191.38
428.069	144.38
428.292	102.38
428.514	93.38
428.736	91.38
428.958	92.38
429.181	88.38
429.403	81.38
429.625	76.38
429.847	102.38
430.069	120.38
430.292	100.38
430.514	114.38
430.736	105.38
430.958	86.38
431.18	84.38
431.402	88.38
431.624	83.38
431.846	91.38
432.068	90.38
432.29	88.38
432.512	100.38
432.734	90.38
432.956	95.38
433.178	105.38
433.4	121.38
433.622	98.38
433.844	84.38
434.066	103.38
434.287	100.38
434.509	105.38
434.731	90.38
434.953	93.38
435.175	89.38
435.397	101.38
435.618	105.38
435.84	117.38
436.062	137.38
436.284	132.38
436.505	119.38
436.727	120.38
436.949	98.38
437.17	95.38
437.392	77.38
437.614	112.38
437.835	129.38
438.057	151.38
438.278	142.38
438.5	131.38
438.721	151.38
438.943	119.38
439.165	82.38
439.386	90.38
439.608	97.38
439.829	115.38
440.05	151.38
440.272	212.38
440.493	117.38
440.715	105.38
440.936	93.38
441.158	91.38
441.379	104.38
441.6	105.38
441.822	105.38
442.043	102.38
442.264	128.38
442.486	117.38
442.707	106.38
442.928	136.38
443.149	184.38
443.371	178.38
443.592	126.38
443.813	149.38
444.034	135.38
444.255	102.38
444.476	86.38
444.698	84.38
444.919	92.38
445.14	130.38
445.361	131.38
445.582	136.38
445.803	212.38
446.024	195.38
446.245	189.38
446.466	137.38
446.687	103.38
446.908	98.38
447.129	97.38
447.35	94.38
447.571	93.38
447.792	99.38
448.013	120.38
448.234	130.38
448.455	115.38
448.675	134.38
448.896	149.38
449.117	116.38
449.338	123.38
449.559	153.38
449.779	176.38
450	105.38
450.221	99.38
450.442	90.38
450.662	98.38
450.883	126.38
451.104	151.38
451.324	120.38
451.545	108.38
451.766	97.38
451.986	90.38
452.207	80.38
452.428	106.38
452.648	112.38
452.869	129.38
453.089	138.38
453.31	137.38
453.53	102.38
453.751	106.38
453.971	133.38
454.192	156.38
454.412	122.38
454.633	94.38
454.853	104.38
455.073	85.38
455.294	95.38
455.514	111.38
455.734	91.38
455.955	90.38
456.175	97.38
456.395	76.38
456.616	67.38
456.836	109.38
457.056	106.38
457.276	91.38
457.497	86.38
457.717	84.38
457.937	85.38
458.157	92.38
458.377	96.38
458.598	134.38
458.818	209.38
459.038	241.38
459.258	141.38
459.478	113.38
459.698	92.38
459.918	97.38
460.138	97.38
460.358	96.38
460.578	78.38
460.798	96.38
461.018	88.38
461.238	102.38
461.458	91.38
461.678	98.38
461.898	85.38
462.118	87.38
462.338	89.38
462.558	88.38
462.777	90.38
462.997	77.38
463.217	92.38
463.437	90.38
463.657	89.38
463.876	91.38
464.096	90.38
464.316	101.38
464.536	103.38
464.755	91.38
464.975	121.38
465.195	245.38
465.414	252.38
465.634	117.38
465.854	85.38
466.073	96.38
466.293	92.38
466.512	77.38
466.732	85.38
466.951	79.38
467.171	92.38
467.391	103.38
467.61	127.38
467.829	120.38
468.049	108.38
468.268	111.38
468.488	88.38
468.707	97.38
468.927	102.38
469.146	93.38
469.365	96.38
469.585	104.38
469.804	113.38
470.023	109.38
470.243	89.38
470.462	109.38
470.681	135.38
470.901	102.38
471.12	89.38
471.339	90.38
471.558	103.38
471.777	99.38
471.997	106.38
472.216	111.38
472.435	193.38
472.654	115.38
472.873	105.38
473.092	96.38
473.311	94.38
473.53	98.38
473.749	98.38
473.968	106.38
474.187	138.38
474.406	121.38
474.625	94.38
474.844	87.38
475.063	92.38
475.282	86.38
475.501	88.38
475.72	96.38
475.939	90.38
476.158	97.38
476.377	106.38
476.596	94.38
476.814	104.38
477.033	103.38
477.252	100.38
477.471	103.38
477.69	75.38
477.908	80.38
478.127	79.38
478.346	90.38
478.564	96.38
478.783	111.38
479.002	101.38
479.22	103.38
479.439	120.38
479.658	128.38
479.876	104.38
480.095	88.38
480.313	105.38
480.532	100.38
480.751	103.38
480.969	125.38
481.188	268.38
481.406	183.38
481.624	105.38
481.843	85.38
482.061	92.38
482.28	101.38
482.498	87.38
482.717	86.38
482.935	81.38
483.153	94.38
483.372	94.38
483.59	101.38
483.808	90.38
484.027	100.38
484.245	97.38
484.463	78.38
484.681	88.38
484.9	97.38
485.118	90.38
485.336	98.38
485.554	105.38
485.772	113.38
485.99	114.38
486.209	89.38
486.427	102.38
486.645	120.38
486.863	136.38
487.081	101.38
487.299	100.38
487.517	92.38
487.735	96.38
487.953	96.38
488.171	91.38
488.389	96.38
488.607	108.38
488.825	93.38
489.043	102.38
489.261	108.38
489.479	81.38
489.696	84.38
489.914	99.38
490.132	97.38
490.35	87.38
490.568	112.38
490.786	105.38
491.003	91.38
491.221	106.38
491.439	98.38
491.657	100.38
491.874	98.38
492.092	82.38
492.31	96.38
492.527	82.38
492.745	88.38
492.963	96.38
493.18	93.38
493.398	96.38
493.615	76.38
493.833	88.38
494.05	100.38
494.268	94.38
494.485	100.38
494.703	104.38
494.92	101.38
495.138	100.38
495.355	93.38
495.573	103.38
495.79	78.38
496.008	91.38
496.225	88.38
496.442	82.38
496.66	102.38
496.877	104.38
497.094	94.38
497.312	107.38
497.529	90.38
497.746	121.38
497.963	97.38
498.181	113.38
498.398	106.38
498.615	111.38
498.832	108.38
499.049	94.38
499.267	91.38
499.484	99.38
499.701	89.38
499.918	99.38
500.135	104.38
500.352	99.38
500.569	83.38
500.786	84.38
501.003	95.38
501.22	88.38
501.437	111.38
501.654	87.38
501.871	134.38
502.088	102.38
502.305	97.38
502.522	96.38
502.739	93.38
502.956	93.38
503.172	98.38
503.389	111.38
503.606	128.38
503.823	94.38
504.04	98.38
504.256	88.38
504.473	99.38
504.69	101.38
504.907	100.38
505.123	99.38
505.34	96.38
505.557	84.38
505.773	98.38
505.99	96.38
506.207	89.38
506.423	106.38
506.64	108.38
506.856	100.38
507.073	100.38
507.289	98.38
507.506	120.38
507.722	140.38
507.939	137.38
508.155	115.38
508.372	105.38
508.588	95.38
508.805	96.38
509.021	100.38
509.238	106.38
509.454	124.38
509.67	98.38
509.887	121.38
510.103	129.38
510.319	233.38
510.536	887.38
510.752	3034.38
510.968	802.38
511.184	188.38
511.401	121.38
511.617	117.38
511.833	109.38
