Data from Circ_1981_H10_HRD10591_00057.txt Node
Date: Wed Jan 03 12:34:32 EST 2024
User: Yrep
Spectrometer: HR+D1059
Trigger mode: 1
Integration Time (sec): 1.000000E-1
Scans to average: 1
Electric dark correction enabled: true
Nonlinearity correction enabled: false
Boxcar width: 0
XAxis mode: Wavelengths
Number of Pixels in Spectrum: 2048
>>>>>Begin Spectral Data<<<<<
223.165	-12.94
223.4	-12.94
223.635	-12.94
223.869	-19.94
224.104	-25.94
224.338	-7.94
224.573	-21.94
224.808	-25.94
225.042	-12.94
225.277	-20.94
225.511	-2.94
225.746	12.06
225.98	9.06
226.215	16.06
226.449	24.06
226.683	12.06
226.918	35.06
227.152	43.06
227.387	32.06
227.621	42.06
227.856	44.06
228.09	49.06
228.324	52.06
228.559	60.06
228.793	48.06
229.027	57.06
229.262	72.06
229.496	69.06
229.73	91.06
229.964	73.06
230.199	70.06
230.433	79.06
230.667	91.06
230.901	61.06
231.136	83.06
231.37	92.06
231.604	75.06
231.838	76.06
232.072	81.06
232.306	79.06
232.541	82.06
232.775	76.06
233.009	72.06
233.243	78.06
233.477	80.06
233.711	79.06
233.945	85.06
234.179	82.06
234.413	74.06
234.647	73.06
234.881	82.06
235.115	83.06
235.349	75.06
235.583	89.06
235.817	88.06
236.051	89.06
236.285	76.06
236.519	75.06
236.753	77.06
236.987	89.06
237.221	81.06
237.455	84.06
237.689	72.06
237.922	83.06
238.156	63.06
238.39	89.06
238.624	80.06
238.858	62.06
239.091	71.06
239.325	89.06
239.559	79.06
239.793	89.06
240.027	85.06
240.26	89.06
240.494	79.06
240.728	76.06
240.961	85.06
241.195	76.06
241.429	72.06
241.662	60.06
241.896	84.06
242.13	74.06
242.363	73.06
242.597	82.06
242.83	74.06
243.064	60.06
243.298	70.06
243.531	87.06
243.765	67.06
243.998	94.06
244.232	86.06
244.465	79.06
244.699	91.06
244.932	87.06
245.166	86.06
245.399	77.06
245.633	67.06
245.866	88.06
246.099	58.06
246.333	75.06
246.566	75.06
246.8	76.06
247.033	89.06
247.266	87.06
247.5	91.06
247.733	70.06
247.966	83.06
248.2	84.06
248.433	74.06
248.666	83.06
248.899	93.06
249.133	85.06
249.366	96.06
249.599	101.06
249.832	81.06
250.066	74.06
250.299	77.06
250.532	77.06
250.765	87.06
250.998	85.06
251.231	81.06
251.465	72.06
251.698	74.06
251.931	81.06
252.164	83.06
252.397	84.06
252.63	76.06
252.863	87.06
253.096	76.06
253.329	76.06
253.562	99.06
253.795	91.06
254.028	77.06
254.261	58.06
254.494	83.06
254.727	91.06
254.96	88.06
255.193	85.06
255.426	80.06
255.659	84.06
255.892	74.06
256.124	73.06
256.357	70.06
256.59	80.06
256.823	81.06
257.056	75.06
257.289	69.06
257.521	86.06
257.754	81.06
257.987	81.06
258.22	89.06
258.452	83.06
258.685	84.06
258.918	76.06
259.151	91.06
259.383	97.06
259.616	99.06
259.849	76.06
260.081	92.06
260.314	92.06
260.547	79.06
260.779	81.06
261.012	83.06
261.244	93.06
261.477	89.06
261.71	100.06
261.942	124.06
262.175	127.06
262.407	83.06
262.64	88.06
262.872	84.06
263.105	93.06
263.337	85.06
263.57	96.06
263.802	87.06
264.035	81.06
264.267	94.06
264.499	71.06
264.732	96.06
264.964	81.06
265.197	89.06
265.429	71.06
265.661	80.06
265.894	86.06
266.126	89.06
266.358	73.06
266.591	82.06
266.823	74.06
267.055	71.06
267.287	74.06
267.52	100.06
267.752	99.06
267.984	83.06
268.216	71.06
268.448	92.06
268.681	75.06
268.913	79.06
269.145	93.06
269.377	90.06
269.609	64.06
269.841	76.06
270.073	87.06
270.306	76.06
270.538	72.06
270.77	77.06
271.002	80.06
271.234	85.06
271.466	79.06
271.698	96.06
271.93	92.06
272.162	97.06
272.394	95.06
272.626	76.06
272.858	90.06
273.09	88.06
273.322	79.06
273.553	81.06
273.785	88.06
274.017	89.06
274.249	83.06
274.481	90.06
274.713	94.06
274.945	94.06
275.176	85.06
275.408	79.06
275.64	96.06
275.872	76.06
276.104	91.06
276.335	96.06
276.567	97.06
276.799	111.06
277.031	111.06
277.262	108.06
277.494	97.06
277.726	84.06
277.957	87.06
278.189	93.06
278.421	79.06
278.652	80.06
278.884	77.06
279.115	77.06
279.347	89.06
279.579	72.06
279.81	81.06
280.042	85.06
280.273	96.06
280.505	84.06
280.736	76.06
280.968	87.06
281.199	92.06
281.431	90.06
281.662	83.06
281.894	89.06
282.125	101.06
282.356	125.06
282.588	164.06
282.819	129.06
283.051	98.06
283.282	95.06
283.513	108.06
283.745	79.06
283.976	81.06
284.207	105.06
284.439	91.06
284.67	88.06
284.901	84.06
285.132	80.06
285.364	82.06
285.595	82.06
285.826	85.06
286.057	95.06
286.288	89.06
286.52	85.06
286.751	94.06
286.982	99.06
287.213	99.06
287.444	89.06
287.675	91.06
287.906	89.06
288.138	100.06
288.369	97.06
288.6	86.06
288.831	81.06
289.062	99.06
289.293	70.06
289.524	95.06
289.755	86.06
289.986	82.06
290.217	81.06
290.448	89.06
290.679	81.06
290.91	98.06
291.141	79.06
291.371	90.06
291.602	72.06
291.833	87.06
292.064	84.06
292.295	76.06
292.526	89.06
292.757	88.06
292.987	81.06
293.218	87.06
293.449	87.06
293.68	88.06
293.91	84.06
294.141	85.06
294.372	91.06
294.603	100.06
294.833	88.06
295.064	87.06
295.295	107.06
295.525	93.06
295.756	103.06
295.987	138.06
296.217	163.06
296.448	124.06
296.679	89.06
296.909	83.06
297.14	88.06
297.37	95.06
297.601	94.06
297.831	80.06
298.062	93.06
298.292	84.06
298.523	82.06
298.753	81.06
298.984	89.06
299.214	85.06
299.445	95.06
299.675	79.06
299.905	92.06
300.136	100.06
300.366	93.06
300.597	92.06
300.827	87.06
301.057	106.06
301.288	109.06
301.518	109.06
301.748	89.06
301.979	88.06
302.209	88.06
302.439	100.06
302.669	88.06
302.9	77.06
303.13	97.06
303.36	93.06
303.59	108.06
303.82	110.06
304.051	102.06
304.281	103.06
304.511	96.06
304.741	94.06
304.971	89.06
305.201	86.06
305.431	82.06
305.661	100.06
305.891	95.06
306.121	101.06
306.352	102.06
306.582	123.06
306.812	95.06
307.042	90.06
307.272	105.06
307.502	69.06
307.731	106.06
307.961	87.06
308.191	109.06
308.421	104.06
308.651	82.06
308.881	95.06
309.111	98.06
309.341	86.06
309.571	97.06
309.8	96.06
310.03	105.06
310.26	111.06
310.49	105.06
310.72	103.06
310.949	109.06
311.179	107.06
311.409	92.06
311.639	107.06
311.868	100.06
312.098	96.06
312.328	100.06
312.557	110.06
312.787	106.06
313.017	106.06
313.246	89.06
313.476	97.06
313.706	88.06
313.935	112.06
314.165	111.06
314.394	115.06
314.624	114.06
314.853	101.06
315.083	97.06
315.312	88.06
315.542	93.06
315.771	89.06
316.001	95.06
316.23	87.06
316.46	83.06
316.689	96.06
316.919	98.06
317.148	85.06
317.377	108.06
317.607	106.06
317.836	108.06
318.065	92.06
318.295	98.06
318.524	95.06
318.753	98.06
318.983	99.06
319.212	106.06
319.441	111.06
319.67	104.06
319.9	101.06
320.129	106.06
320.358	92.06
320.587	92.06
320.816	98.06
321.046	107.06
321.275	87.06
321.504	83.06
321.733	101.06
321.962	106.06
322.191	111.06
322.42	97.06
322.649	122.06
322.878	119.06
323.108	112.06
323.337	140.06
323.566	143.06
323.795	161.06
324.024	227.06
324.253	426.06
324.482	891.06
324.71	1804.06
324.939	2364.06
325.168	869.06
325.397	252.06
325.626	163.06
325.855	131.06
326.084	127.06
326.313	129.06
326.542	158.06
326.77	226.06
326.999	452.06
327.228	888.06
327.457	1633.06
327.686	1317.06
327.914	384.06
328.143	222.06
328.372	173.06
328.6	148.06
328.829	144.06
329.058	155.06
329.287	179.06
329.515	129.06
329.744	124.06
329.972	115.06
330.201	117.06
330.43	159.06
330.658	160.06
330.887	200.06
331.115	155.06
331.344	99.06
331.572	121.06
331.801	119.06
332.03	120.06
332.258	86.06
332.486	92.06
332.715	97.06
332.943	88.06
333.172	89.06
333.4	106.06
333.629	104.06
333.857	115.06
334.085	117.06
334.314	129.06
334.542	147.06
334.771	172.06
334.999	119.06
335.227	104.06
335.455	87.06
335.684	93.06
335.912	112.06
336.14	106.06
336.369	114.06
336.597	99.06
336.825	120.06
337.053	93.06
337.281	92.06
337.51	103.06
337.738	95.06
337.966	96.06
338.194	113.06
338.422	92.06
338.65	105.06
338.878	99.06
339.106	97.06
339.334	103.06
339.562	86.06
339.79	110.06
340.018	101.06
340.246	83.06
340.474	98.06
340.702	107.06
340.93	92.06
341.158	92.06
341.386	109.06
341.614	91.06
341.842	107.06
342.07	94.06
342.298	101.06
342.526	76.06
342.754	82.06
342.981	84.06
343.209	115.06
343.437	99.06
343.665	89.06
343.893	92.06
344.12	98.06
344.348	100.06
344.576	95.06
344.804	95.06
345.031	90.06
345.259	108.06
345.487	103.06
345.714	95.06
345.942	79.06
346.17	96.06
346.397	102.06
346.625	109.06
346.853	99.06
347.08	97.06
347.308	99.06
347.535	96.06
347.763	107.06
347.99	100.06
348.218	97.06
348.445	107.06
348.673	117.06
348.9	92.06
349.128	93.06
349.355	87.06
349.583	89.06
349.81	106.06
350.037	101.06
350.265	102.06
350.492	90.06
350.72	104.06
350.947	118.06
351.174	128.06
351.402	125.06
351.629	102.06
351.856	104.06
352.083	108.06
352.311	105.06
352.538	117.06
352.765	93.06
352.992	126.06
353.22	110.06
353.447	115.06
353.674	108.06
353.901	96.06
354.128	96.06
354.355	87.06
354.583	115.06
354.81	89.06
355.037	75.06
355.264	96.06
355.491	88.06
355.718	89.06
355.945	102.06
356.172	97.06
356.399	99.06
356.626	95.06
356.853	116.06
357.08	87.06
357.307	88.06
357.534	93.06
357.761	95.06
357.988	87.06
358.215	91.06
358.441	95.06
358.668	84.06
358.895	96.06
359.122	90.06
359.349	99.06
359.576	103.06
359.802	99.06
360.029	130.06
360.256	131.06
360.483	121.06
360.709	86.06
360.936	84.06
361.163	106.06
361.39	97.06
361.616	106.06
361.843	90.06
362.07	92.06
362.296	97.06
362.523	104.06
362.749	96.06
362.976	89.06
363.203	103.06
363.429	84.06
363.656	94.06
363.882	101.06
364.109	93.06
364.335	98.06
364.562	91.06
364.788	91.06
365.015	110.06
365.241	95.06
365.468	104.06
365.694	113.06
365.92	105.06
366.147	94.06
366.373	91.06
366.599	89.06
366.826	106.06
367.052	87.06
367.278	98.06
367.505	100.06
367.731	112.06
367.957	108.06
368.184	96.06
368.41	102.06
368.636	120.06
368.862	128.06
369.089	132.06
369.315	107.06
369.541	88.06
369.767	106.06
369.993	79.06
370.219	78.06
370.445	92.06
370.672	97.06
370.898	87.06
371.124	87.06
371.35	86.06
371.576	110.06
371.802	95.06
372.028	76.06
372.254	95.06
372.48	71.06
372.706	89.06
372.932	99.06
373.158	81.06
373.384	96.06
373.61	96.06
373.835	104.06
374.061	95.06
374.287	95.06
374.513	81.06
374.739	82.06
374.965	97.06
375.191	82.06
375.416	83.06
375.642	106.06
375.868	93.06
376.094	81.06
376.319	79.06
376.545	91.06
376.771	97.06
376.997	98.06
377.222	99.06
377.448	97.06
377.674	90.06
377.899	85.06
378.125	83.06
378.35	81.06
378.576	88.06
378.802	88.06
379.027	89.06
379.253	98.06
379.478	87.06
379.704	91.06
379.929	94.06
380.155	108.06
380.38	92.06
380.606	93.06
380.831	103.06
381.057	99.06
381.282	92.06
381.507	99.06
381.733	91.06
381.958	105.06
382.184	94.06
382.409	104.06
382.634	100.06
382.86	91.06
383.085	99.06
383.31	87.06
383.535	84.06
383.761	93.06
383.986	97.06
384.211	77.06
384.436	96.06
384.662	87.06
384.887	85.06
385.112	98.06
385.337	92.06
385.562	89.06
385.787	92.06
386.013	102.06
386.238	104.06
386.463	106.06
386.688	108.06
386.913	100.06
387.138	97.06
387.363	104.06
387.588	100.06
387.813	98.06
388.038	101.06
388.263	99.06
388.488	103.06
388.713	99.06
388.938	98.06
389.163	95.06
389.387	98.06
389.612	109.06
389.837	104.06
390.062	88.06
390.287	90.06
390.512	74.06
390.736	87.06
390.961	82.06
391.186	87.06
391.411	109.06
391.636	91.06
391.86	105.06
392.085	91.06
392.31	74.06
392.534	80.06
392.759	97.06
392.984	87.06
393.208	87.06
393.433	87.06
393.658	80.06
393.882	90.06
394.107	82.06
394.331	85.06
394.556	71.06
394.78	77.06
395.005	91.06
395.229	89.06
395.454	92.06
395.678	84.06
395.903	92.06
396.127	92.06
396.352	87.06
396.576	90.06
396.801	91.06
397.025	89.06
397.249	88.06
397.474	100.06
397.698	79.06
397.922	95.06
398.147	77.06
398.371	82.06
398.595	79.06
398.82	96.06
399.044	82.06
399.268	99.06
399.492	78.06
399.717	88.06
399.941	101.06
400.165	91.06
400.389	86.06
400.613	82.06
400.837	88.06
401.062	79.06
401.286	93.06
401.51	83.06
401.734	101.06
401.958	119.06
402.182	132.06
402.406	191.06
402.63	165.06
402.854	113.06
403.078	90.06
403.302	81.06
403.526	98.06
403.75	99.06
403.974	84.06
404.198	80.06
404.422	93.06
404.645	86.06
404.869	86.06
405.093	101.06
405.317	105.06
405.541	100.06
405.765	98.06
405.988	147.06
406.212	225.06
406.436	281.06
406.66	200.06
406.883	109.06
407.107	107.06
407.331	97.06
407.555	119.06
407.778	95.06
408.002	93.06
408.226	93.06
408.449	94.06
408.673	89.06
408.896	84.06
409.12	99.06
409.344	80.06
409.567	94.06
409.791	102.06
410.014	83.06
410.238	96.06
410.461	76.06
410.685	96.06
410.908	95.06
411.132	104.06
411.355	94.06
411.578	84.06
411.802	84.06
412.025	88.06
412.249	82.06
412.472	103.06
412.695	106.06
412.919	89.06
413.142	79.06
413.365	77.06
413.589	81.06
413.812	90.06
414.035	94.06
414.258	88.06
414.482	93.06
414.705	88.06
414.928	94.06
415.151	95.06
415.374	90.06
415.597	90.06
415.821	83.06
416.044	76.06
416.267	101.06
416.49	82.06
416.713	91.06
416.936	85.06
417.159	84.06
417.382	93.06
417.605	86.06
417.828	88.06
418.051	88.06
418.274	85.06
418.497	87.06
418.72	69.06
418.943	76.06
419.166	81.06
419.389	79.06
419.611	73.06
419.834	97.06
420.057	102.06
420.28	95.06
420.503	84.06
420.726	81.06
420.948	98.06
421.171	97.06
421.394	95.06
421.617	85.06
421.839	84.06
422.062	92.06
422.285	92.06
422.507	93.06
422.73	115.06
422.953	98.06
423.175	100.06
423.398	92.06
423.621	95.06
423.843	81.06
424.066	81.06
424.288	95.06
424.511	89.06
424.733	104.06
424.956	119.06
425.178	98.06
425.401	94.06
425.623	103.06
425.846	97.06
426.068	102.06
426.291	97.06
426.513	97.06
426.735	90.06
426.958	97.06
427.18	121.06
427.402	171.06
427.625	221.06
427.847	163.06
428.069	112.06
428.292	91.06
428.514	73.06
428.736	93.06
428.958	76.06
429.181	90.06
429.403	101.06
429.625	87.06
429.847	94.06
430.069	104.06
430.292	107.06
430.514	81.06
430.736	85.06
430.958	80.06
431.18	87.06
431.402	83.06
431.624	97.06
431.846	98.06
432.068	84.06
432.29	81.06
432.512	93.06
432.734	84.06
432.956	106.06
433.178	106.06
433.4	93.06
433.622	88.06
433.844	85.06
434.066	94.06
434.287	105.06
434.509	83.06
434.731	82.06
434.953	83.06
435.175	96.06
435.397	92.06
435.618	88.06
435.84	109.06
436.062	136.06
436.284	128.06
436.505	83.06
436.727	103.06
436.949	96.06
437.17	85.06
437.392	92.06
437.614	87.06
437.835	126.06
438.057	141.06
438.278	141.06
438.5	109.06
438.721	140.06
438.943	104.06
439.165	75.06
439.386	83.06
439.608	93.06
439.829	109.06
440.05	126.06
440.272	163.06
440.493	98.06
440.715	87.06
440.936	75.06
441.158	91.06
441.379	97.06
441.6	92.06
441.822	89.06
442.043	103.06
442.264	129.06
442.486	112.06
442.707	88.06
442.928	101.06
443.149	148.06
443.371	161.06
443.592	117.06
443.813	125.06
444.034	108.06
444.255	92.06
444.476	90.06
444.698	80.06
444.919	90.06
445.14	137.06
445.361	122.06
445.582	122.06
445.803	182.06
446.024	163.06
446.245	157.06
446.466	114.06
446.687	91.06
446.908	108.06
447.129	108.06
447.35	93.06
447.571	91.06
447.792	97.06
448.013	112.06
448.234	124.06
448.455	114.06
448.675	112.06
448.896	115.06
449.117	99.06
449.338	112.06
449.559	134.06
449.779	155.06
450	95.06
450.221	90.06
450.442	88.06
450.662	87.06
450.883	109.06
451.104	132.06
451.324	104.06
451.545	99.06
451.766	84.06
451.986	96.06
452.207	92.06
452.428	97.06
452.648	106.06
452.869	120.06
453.089	123.06
453.31	131.06
453.53	97.06
453.751	99.06
453.971	110.06
454.192	143.06
454.412	104.06
454.633	94.06
454.853	80.06
455.073	82.06
455.294	91.06
455.514	106.06
455.734	89.06
455.955	102.06
456.175	73.06
456.395	101.06
456.616	87.06
456.836	78.06
457.056	84.06
457.276	72.06
457.497	95.06
457.717	92.06
457.937	85.06
458.157	95.06
458.377	85.06
458.598	122.06
458.818	188.06
459.038	223.06
459.258	139.06
459.478	95.06
459.698	97.06
459.918	96.06
460.138	81.06
460.358	80.06
460.578	88.06
460.798	85.06
461.018	82.06
461.238	101.06
461.458	79.06
461.678	69.06
461.898	74.06
462.118	91.06
462.338	90.06
462.558	87.06
462.777	86.06
462.997	81.06
463.217	81.06
463.437	72.06
463.657	81.06
463.876	80.06
464.096	88.06
464.316	89.06
464.536	76.06
464.755	91.06
464.975	115.06
465.195	227.06
465.414	232.06
465.634	118.06
465.854	93.06
466.073	89.06
466.293	84.06
466.512	83.06
466.732	100.06
466.951	94.06
467.171	87.06
467.391	87.06
467.61	120.06
467.829	108.06
468.049	120.06
468.268	97.06
468.488	80.06
468.707	81.06
468.927	75.06
469.146	106.06
469.365	89.06
469.585	79.06
469.804	95.06
470.023	107.06
470.243	94.06
470.462	95.06
470.681	125.06
470.901	91.06
471.12	82.06
471.339	89.06
471.558	97.06
471.777	104.06
471.997	84.06
472.216	124.06
472.435	166.06
472.654	89.06
472.873	84.06
473.092	81.06
473.311	76.06
473.53	85.06
473.749	83.06
473.968	90.06
474.187	116.06
474.406	103.06
474.625	79.06
474.844	83.06
475.063	88.06
475.282	97.06
475.501	104.06
475.72	90.06
475.939	83.06
476.158	87.06
476.377	88.06
476.596	99.06
476.814	90.06
477.033	98.06
477.252	89.06
477.471	92.06
477.69	90.06
477.908	104.06
478.127	77.06
478.346	98.06
478.564	91.06
478.783	87.06
479.002	86.06
479.22	88.06
479.439	119.06
479.658	113.06
479.876	110.06
480.095	74.06
480.313	97.06
480.532	95.06
480.751	99.06
480.969	141.06
481.188	243.06
481.406	185.06
481.624	101.06
481.843	91.06
482.061	89.06
482.28	90.06
482.498	84.06
482.717	92.06
482.935	77.06
483.153	84.06
483.372	89.06
483.59	83.06
483.808	89.06
484.027	86.06
484.245	92.06
484.463	103.06
484.681	95.06
484.9	84.06
485.118	98.06
485.336	91.06
485.554	97.06
485.772	91.06
485.99	98.06
486.209	107.06
486.427	108.06
486.645	109.06
486.863	114.06
487.081	104.06
487.299	89.06
487.517	93.06
487.735	85.06
487.953	90.06
488.171	97.06
488.389	104.06
488.607	109.06
488.825	92.06
489.043	84.06
489.261	97.06
489.479	87.06
489.696	89.06
489.914	84.06
490.132	95.06
490.35	74.06
490.568	85.06
490.786	91.06
491.003	89.06
491.221	85.06
491.439	102.06
491.657	109.06
491.874	100.06
492.092	104.06
492.31	102.06
492.527	96.06
492.745	92.06
492.963	85.06
493.18	83.06
493.398	100.06
493.615	106.06
493.833	98.06
494.05	75.06
494.268	85.06
494.485	85.06
494.703	83.06
494.92	92.06
495.138	77.06
495.355	90.06
495.573	92.06
495.79	84.06
496.008	76.06
496.225	83.06
496.442	87.06
496.66	100.06
496.877	93.06
497.094	91.06
497.312	94.06
497.529	86.06
497.746	77.06
497.963	98.06
498.181	98.06
498.398	94.06
498.615	91.06
498.832	109.06
499.049	99.06
499.267	98.06
499.484	93.06
499.701	89.06
499.918	86.06
500.135	100.06
500.352	81.06
500.569	99.06
500.786	86.06
501.003	93.06
501.22	91.06
501.437	87.06
501.654	100.06
501.871	127.06
502.088	95.06
502.305	95.06
502.522	77.06
502.739	92.06
502.956	81.06
503.172	99.06
503.389	98.06
503.606	122.06
503.823	105.06
504.04	97.06
504.256	85.06
504.473	97.06
504.69	71.06
504.907	95.06
505.123	80.06
505.34	101.06
505.557	92.06
505.773	83.06
505.99	84.06
506.207	75.06
506.423	77.06
506.64	90.06
506.856	92.06
507.073	92.06
507.289	93.06
507.506	89.06
507.722	116.06
507.939	130.06
508.155	106.06
508.372	95.06
508.588	91.06
508.805	102.06
509.021	95.06
509.238	105.06
509.454	103.06
509.67	108.06
509.887	125.06
510.103	129.06
510.319	232.06
510.536	939.06
510.752	3151.06
510.968	820.06
511.184	179.06
511.401	128.06
511.617	110.06
511.833	106.06
512.049	103.06
512.265	93.06
512.481	98.06
512.698	111.06
512.914	94.06
513.13	89.06
513.346	101.06
513.562	96.06
513.778	92.06
513.994	108.06
514.21	123.06
514.426	138.06
514.642	173.06
