Data from Circ_1981_H10_HRD10591_00011.txt Node
Date: Wed Jan 03 12:34:23 EST 2024
User: Yrep
Spectrometer: HR+D1059
Trigger mode: 1
Integration Time (sec): 1.000000E-1
Scans to average: 1
Electric dark correction enabled: true
Nonlinearity correction enabled: false
Boxcar width: 0
XAxis mode: Wavelengths
Number of Pixels in Spectrum: 2048
>>>>>Begin Spectral Data<<<<<
223.165	-26.75
223.4	-26.75
223.635	-26.75
223.869	-18.75
224.104	-20.75
224.338	-9.75
224.573	-13.75
224.808	-9.75
225.042	1.25
225.277	-9.75
225.511	-0.75
225.746	2.25
225.98	13.25
226.215	24.25
226.449	10.25
226.683	20.25
226.918	17.25
227.152	21.25
227.387	42.25
227.621	41.25
227.856	46.25
228.09	54.25
228.324	65.25
228.559	51.25
228.793	63.25
229.027	64.25
229.262	58.25
229.496	80.25
229.73	83.25
229.964	93.25
230.199	67.25
230.433	71.25
230.667	88.25
230.901	98.25
231.136	82.25
231.37	70.25
231.604	77.25
231.838	96.25
232.072	76.25
232.306	90.25
232.541	85.25
232.775	76.25
233.009	73.25
233.243	79.25
233.477	79.25
233.711	88.25
233.945	90.25
234.179	83.25
234.413	102.25
234.647	74.25
234.881	72.25
235.115	81.25
235.349	79.25
235.583	89.25
235.817	98.25
236.051	74.25
236.285	89.25
236.519	82.25
236.753	76.25
236.987	81.25
237.221	94.25
237.455	89.25
237.689	84.25
237.922	90.25
238.156	79.25
238.39	67.25
238.624	68.25
238.858	78.25
239.091	77.25
239.325	89.25
239.559	86.25
239.793	76.25
240.027	84.25
240.26	100.25
240.494	95.25
240.728	80.25
240.961	71.25
241.195	74.25
241.429	89.25
241.662	93.25
241.896	93.25
242.13	80.25
242.363	76.25
242.597	80.25
242.83	78.25
243.064	87.25
243.298	64.25
243.531	80.25
243.765	91.25
243.998	76.25
244.232	68.25
244.465	91.25
244.699	92.25
244.932	71.25
245.166	72.25
245.399	74.25
245.633	82.25
245.866	80.25
246.099	82.25
246.333	88.25
246.566	88.25
246.8	78.25
247.033	60.25
247.266	88.25
247.5	74.25
247.733	87.25
247.966	66.25
248.2	65.25
248.433	70.25
248.666	85.25
248.899	91.25
249.133	82.25
249.366	99.25
249.599	109.25
249.832	90.25
250.066	90.25
250.299	75.25
250.532	79.25
250.765	92.25
250.998	79.25
251.231	83.25
251.465	69.25
251.698	74.25
251.931	95.25
252.164	92.25
252.397	90.25
252.63	75.25
252.863	86.25
253.096	82.25
253.329	89.25
253.562	102.25
253.795	91.25
254.028	92.25
254.261	86.25
254.494	93.25
254.727	85.25
254.96	87.25
255.193	82.25
255.426	77.25
255.659	75.25
255.892	90.25
256.124	76.25
256.357	80.25
256.59	90.25
256.823	84.25
257.056	77.25
257.289	98.25
257.521	90.25
257.754	93.25
257.987	66.25
258.22	68.25
258.452	84.25
258.685	77.25
258.918	95.25
259.151	88.25
259.383	77.25
259.616	84.25
259.849	88.25
260.081	87.25
260.314	67.25
260.547	78.25
260.779	82.25
261.012	92.25
261.244	86.25
261.477	94.25
261.71	108.25
261.942	112.25
262.175	130.25
262.407	100.25
262.64	84.25
262.872	89.25
263.105	93.25
263.337	89.25
263.57	97.25
263.802	85.25
264.035	99.25
264.267	99.25
264.499	78.25
264.732	75.25
264.964	83.25
265.197	90.25
265.429	93.25
265.661	77.25
265.894	86.25
266.126	87.25
266.358	88.25
266.591	74.25
266.823	91.25
267.055	84.25
267.287	99.25
267.52	90.25
267.752	84.25
267.984	89.25
268.216	74.25
268.448	86.25
268.681	86.25
268.913	86.25
269.145	84.25
269.377	82.25
269.609	85.25
269.841	87.25
270.073	90.25
270.306	86.25
270.538	74.25
270.77	91.25
271.002	86.25
271.234	96.25
271.466	79.25
271.698	95.25
271.93	82.25
272.162	83.25
272.394	94.25
272.626	95.25
272.858	84.25
273.09	83.25
273.322	82.25
273.553	71.25
273.785	99.25
274.017	90.25
274.249	92.25
274.481	97.25
274.713	104.25
274.945	94.25
275.176	84.25
275.408	89.25
275.64	83.25
275.872	103.25
276.104	86.25
276.335	88.25
276.567	111.25
276.799	124.25
277.031	112.25
277.262	88.25
277.494	77.25
277.726	83.25
277.957	96.25
278.189	91.25
278.421	106.25
278.652	85.25
278.884	98.25
279.115	88.25
279.347	78.25
279.579	94.25
279.81	78.25
280.042	91.25
280.273	87.25
280.505	90.25
280.736	105.25
280.968	93.25
281.199	76.25
281.431	93.25
281.662	81.25
281.894	95.25
282.125	96.25
282.356	118.25
282.588	149.25
282.819	111.25
283.051	106.25
283.282	95.25
283.513	102.25
283.745	102.25
283.976	74.25
284.207	89.25
284.439	86.25
284.67	93.25
284.901	98.25
285.132	93.25
285.364	90.25
285.595	86.25
285.826	89.25
286.057	83.25
286.288	79.25
286.52	87.25
286.751	86.25
286.982	82.25
287.213	92.25
287.444	91.25
287.675	83.25
287.906	98.25
288.138	96.25
288.369	99.25
288.6	99.25
288.831	93.25
289.062	75.25
289.293	90.25
289.524	78.25
289.755	75.25
289.986	82.25
290.217	85.25
290.448	88.25
290.679	94.25
290.91	96.25
291.141	95.25
291.371	88.25
291.602	89.25
291.833	94.25
292.064	74.25
292.295	82.25
292.526	86.25
292.757	99.25
292.987	97.25
293.218	84.25
293.449	98.25
293.68	72.25
293.91	87.25
294.141	89.25
294.372	101.25
294.603	102.25
294.833	76.25
295.064	96.25
295.295	91.25
295.525	88.25
295.756	112.25
295.987	104.25
296.217	139.25
296.448	137.25
296.679	109.25
296.909	95.25
297.14	102.25
297.37	83.25
297.601	79.25
297.831	88.25
298.062	83.25
298.292	94.25
298.523	92.25
298.753	88.25
298.984	88.25
299.214	90.25
299.445	108.25
299.675	84.25
299.905	100.25
300.136	82.25
300.366	83.25
300.597	90.25
300.827	106.25
301.057	104.25
301.288	114.25
301.518	110.25
301.748	94.25
301.979	110.25
302.209	92.25
302.439	75.25
302.669	90.25
302.9	87.25
303.13	100.25
303.36	83.25
303.59	104.25
303.82	112.25
304.051	89.25
304.281	90.25
304.511	93.25
304.741	92.25
304.971	88.25
305.201	96.25
305.431	99.25
305.661	101.25
305.891	92.25
306.121	105.25
306.352	106.25
306.582	113.25
306.812	100.25
307.042	90.25
307.272	94.25
307.502	104.25
307.731	97.25
307.961	100.25
308.191	96.25
308.421	77.25
308.651	88.25
308.881	87.25
309.111	108.25
309.341	109.25
309.571	107.25
309.8	107.25
310.03	83.25
310.26	111.25
310.49	103.25
310.72	92.25
310.949	101.25
311.179	104.25
311.409	98.25
311.639	91.25
311.868	104.25
312.098	94.25
312.328	98.25
312.557	93.25
312.787	124.25
313.017	102.25
313.246	91.25
313.476	102.25
313.706	93.25
313.935	93.25
314.165	94.25
314.394	107.25
314.624	114.25
314.853	102.25
315.083	103.25
315.312	104.25
315.542	92.25
315.771	89.25
316.001	95.25
316.23	98.25
316.46	97.25
316.689	103.25
316.919	88.25
317.148	91.25
317.377	102.25
317.607	98.25
317.836	93.25
318.065	98.25
318.295	84.25
318.524	102.25
318.753	90.25
318.983	87.25
319.212	102.25
319.441	115.25
319.67	109.25
319.9	104.25
320.129	90.25
320.358	89.25
320.587	99.25
320.816	112.25
321.046	94.25
321.275	103.25
321.504	93.25
321.733	99.25
321.962	100.25
322.191	113.25
322.42	95.25
322.649	112.25
322.878	111.25
323.108	123.25
323.337	123.25
323.566	136.25
323.795	142.25
324.024	200.25
324.253	367.25
324.482	794.25
324.71	1628.25
324.939	2090.25
325.168	834.25
325.397	232.25
325.626	150.25
325.855	109.25
326.084	126.25
326.313	142.25
326.542	148.25
326.77	216.25
326.999	378.25
327.228	846.25
327.457	1528.25
327.686	1251.25
327.914	378.25
328.143	206.25
328.372	175.25
328.6	135.25
328.829	119.25
329.058	142.25
329.287	136.25
329.515	117.25
329.744	122.25
329.972	112.25
330.201	137.25
330.43	154.25
330.658	150.25
330.887	174.25
331.115	160.25
331.344	105.25
331.572	112.25
331.801	125.25
332.03	117.25
332.258	101.25
332.486	101.25
332.715	90.25
332.943	94.25
333.172	119.25
333.4	106.25
333.629	103.25
333.857	118.25
334.085	116.25
334.314	125.25
334.542	150.25
334.771	150.25
334.999	101.25
335.227	107.25
335.455	89.25
335.684	112.25
335.912	100.25
336.14	94.25
336.369	91.25
336.597	108.25
336.825	104.25
337.053	116.25
337.281	102.25
337.51	108.25
337.738	97.25
337.966	75.25
338.194	101.25
338.422	105.25
338.65	105.25
338.878	101.25
339.106	87.25
339.334	95.25
339.562	95.25
339.79	88.25
340.018	90.25
340.246	90.25
340.474	104.25
340.702	102.25
340.93	91.25
341.158	90.25
341.386	104.25
341.614	100.25
341.842	96.25
342.07	108.25
342.298	100.25
342.526	90.25
342.754	86.25
342.981	94.25
343.209	79.25
343.437	96.25
343.665	100.25
343.893	95.25
344.12	102.25
344.348	93.25
344.576	98.25
344.804	90.25
345.031	90.25
345.259	95.25
345.487	101.25
345.714	106.25
345.942	92.25
346.17	103.25
346.397	80.25
346.625	79.25
346.853	90.25
347.08	77.25
347.308	93.25
347.535	102.25
347.763	93.25
347.99	98.25
348.218	92.25
348.445	111.25
348.673	95.25
348.9	101.25
349.128	106.25
349.355	102.25
349.583	105.25
349.81	95.25
350.037	89.25
350.265	88.25
350.492	94.25
350.72	90.25
350.947	112.25
351.174	118.25
351.402	128.25
351.629	112.25
351.856	126.25
352.083	103.25
352.311	125.25
352.538	110.25
352.765	114.25
352.992	119.25
353.22	116.25
353.447	107.25
353.674	94.25
353.901	106.25
354.128	105.25
354.355	93.25
354.583	91.25
354.81	92.25
355.037	87.25
355.264	92.25
355.491	80.25
355.718	82.25
355.945	110.25
356.172	100.25
356.399	88.25
356.626	90.25
356.853	81.25
357.08	111.25
357.307	94.25
357.534	99.25
357.761	87.25
357.988	101.25
358.215	105.25
358.441	100.25
358.668	94.25
358.895	82.25
359.122	94.25
359.349	94.25
359.576	100.25
359.802	113.25
360.029	127.25
360.256	127.25
360.483	104.25
360.709	92.25
360.936	78.25
361.163	92.25
361.39	115.25
361.616	103.25
361.843	97.25
362.07	90.25
362.296	97.25
362.523	94.25
362.749	109.25
362.976	98.25
363.203	96.25
363.429	90.25
363.656	104.25
363.882	102.25
364.109	101.25
364.335	97.25
364.562	96.25
364.788	94.25
365.015	99.25
365.241	92.25
365.468	110.25
365.694	113.25
365.92	117.25
366.147	113.25
366.373	79.25
366.599	87.25
366.826	85.25
367.052	82.25
367.278	87.25
367.505	92.25
367.731	100.25
367.957	88.25
368.184	94.25
368.41	107.25
368.636	117.25
368.862	119.25
369.089	120.25
369.315	94.25
369.541	108.25
369.767	108.25
369.993	98.25
370.219	90.25
370.445	83.25
370.672	67.25
370.898	76.25
371.124	92.25
371.35	92.25
371.576	82.25
371.802	90.25
372.028	105.25
372.254	93.25
372.48	85.25
372.706	98.25
372.932	92.25
373.158	90.25
373.384	94.25
373.61	93.25
373.835	85.25
374.061	107.25
374.287	95.25
374.513	103.25
374.739	87.25
374.965	86.25
375.191	92.25
375.416	100.25
375.642	83.25
375.868	79.25
376.094	93.25
376.319	82.25
376.545	95.25
376.771	94.25
376.997	108.25
377.222	101.25
377.448	98.25
377.674	87.25
377.899	88.25
378.125	96.25
378.35	95.25
378.576	84.25
378.802	93.25
379.027	96.25
379.253	92.25
379.478	84.25
379.704	98.25
379.929	103.25
380.155	109.25
380.38	102.25
380.606	98.25
380.831	94.25
381.057	100.25
381.282	103.25
381.507	106.25
381.733	92.25
381.958	100.25
382.184	103.25
382.409	90.25
382.634	114.25
382.86	112.25
383.085	113.25
383.31	108.25
383.535	114.25
383.761	109.25
383.986	104.25
384.211	102.25
384.436	100.25
384.662	94.25
384.887	121.25
385.112	96.25
385.337	113.25
385.562	105.25
385.787	105.25
386.013	117.25
386.238	119.25
386.463	114.25
386.688	112.25
386.913	103.25
387.138	111.25
387.363	120.25
387.588	94.25
387.813	120.25
388.038	114.25
388.263	112.25
388.488	108.25
388.713	98.25
388.938	86.25
389.163	96.25
389.387	104.25
389.612	92.25
389.837	90.25
390.062	100.25
390.287	93.25
390.512	82.25
390.736	94.25
390.961	94.25
391.186	91.25
391.411	95.25
391.636	104.25
391.86	89.25
392.085	97.25
392.31	87.25
392.534	76.25
392.759	89.25
392.984	94.25
393.208	96.25
393.433	114.25
393.658	114.25
393.882	79.25
394.107	82.25
394.331	92.25
394.556	93.25
394.78	97.25
395.005	88.25
395.229	86.25
395.454	84.25
395.678	79.25
395.903	84.25
396.127	90.25
396.352	89.25
396.576	70.25
396.801	102.25
397.025	114.25
397.249	93.25
397.474	88.25
397.698	95.25
397.922	95.25
398.147	96.25
398.371	91.25
398.595	95.25
398.82	91.25
399.044	92.25
399.268	89.25
399.492	97.25
399.717	96.25
399.941	102.25
400.165	95.25
400.389	88.25
400.613	89.25
400.837	88.25
401.062	78.25
401.286	91.25
401.51	86.25
401.734	84.25
401.958	110.25
402.182	141.25
402.406	177.25
402.63	131.25
402.854	87.25
403.078	106.25
403.302	97.25
403.526	97.25
403.75	95.25
403.974	88.25
404.198	101.25
404.422	94.25
404.645	84.25
404.869	100.25
405.093	99.25
405.317	111.25
405.541	105.25
405.765	98.25
405.988	124.25
406.212	202.25
406.436	283.25
406.66	162.25
406.883	105.25
407.107	88.25
407.331	94.25
407.555	104.25
407.778	104.25
408.002	96.25
408.226	86.25
408.449	95.25
408.673	87.25
408.896	99.25
409.12	100.25
409.344	79.25
409.567	93.25
409.791	93.25
410.014	95.25
410.238	78.25
410.461	91.25
410.685	90.25
410.908	113.25
411.132	117.25
411.355	104.25
411.578	118.25
411.802	107.25
412.025	84.25
412.249	95.25
412.472	108.25
412.695	101.25
412.919	99.25
413.142	107.25
413.365	91.25
413.589	93.25
413.812	75.25
414.035	86.25
414.258	86.25
414.482	90.25
414.705	86.25
414.928	108.25
415.151	91.25
415.374	94.25
415.597	82.25
415.821	87.25
416.044	84.25
416.267	95.25
416.49	80.25
416.713	85.25
416.936	90.25
417.159	95.25
417.382	88.25
417.605	84.25
417.828	106.25
418.051	104.25
418.274	76.25
418.497	88.25
418.72	78.25
418.943	86.25
419.166	85.25
419.389	87.25
419.611	96.25
419.834	95.25
420.057	97.25
420.28	96.25
420.503	106.25
420.726	96.25
420.948	93.25
421.171	95.25
421.394	83.25
421.617	90.25
421.839	94.25
422.062	91.25
422.285	92.25
422.507	99.25
422.73	123.25
422.953	103.25
423.175	93.25
423.398	88.25
423.621	94.25
423.843	88.25
424.066	94.25
424.288	87.25
424.511	90.25
424.733	119.25
424.956	109.25
425.178	98.25
425.401	104.25
425.623	103.25
425.846	95.25
426.068	100.25
426.291	94.25
426.513	95.25
426.735	97.25
426.958	91.25
427.18	120.25
427.402	167.25
427.625	215.25
427.847	138.25
428.069	116.25
428.292	90.25
428.514	89.25
428.736	85.25
428.958	87.25
429.181	87.25
429.403	91.25
429.625	86.25
429.847	101.25
430.069	108.25
430.292	87.25
430.514	87.25
430.736	102.25
430.958	100.25
431.18	92.25
431.402	83.25
431.624	93.25
431.846	91.25
432.068	91.25
432.29	84.25
432.512	98.25
432.734	95.25
432.956	95.25
433.178	106.25
433.4	92.25
433.622	101.25
433.844	97.25
434.066	99.25
434.287	93.25
434.509	112.25
434.731	94.25
434.953	94.25
435.175	90.25
435.397	95.25
435.618	96.25
435.84	112.25
436.062	134.25
436.284	126.25
436.505	103.25
436.727	104.25
436.949	100.25
437.17	101.25
437.392	97.25
437.614	110.25
437.835	124.25
438.057	143.25
438.278	120.25
438.5	115.25
438.721	125.25
438.943	91.25
439.165	88.25
439.386	95.25
439.608	98.25
439.829	109.25
440.05	132.25
440.272	162.25
440.493	111.25
440.715	88.25
440.936	86.25
441.158	90.25
441.379	89.25
441.6	98.25
441.822	100.25
442.043	80.25
442.264	118.25
442.486	120.25
442.707	96.25
442.928	128.25
443.149	142.25
443.371	160.25
443.592	113.25
443.813	117.25
444.034	115.25
444.255	97.25
444.476	75.25
444.698	76.25
444.919	89.25
445.14	122.25
445.361	128.25
445.582	111.25
445.803	140.25
446.024	147.25
446.245	141.25
446.466	114.25
446.687	96.25
446.908	95.25
447.129	102.25
447.35	99.25
447.571	89.25
447.792	90.25
448.013	105.25
448.234	125.25
448.455	111.25
448.675	130.25
448.896	112.25
449.117	93.25
449.338	103.25
449.559	119.25
449.779	138.25
450	101.25
450.221	94.25
450.442	83.25
450.662	87.25
450.883	103.25
451.104	124.25
451.324	98.25
451.545	69.25
451.766	75.25
451.986	92.25
452.207	102.25
452.428	98.25
452.648	110.25
452.869	120.25
453.089	140.25
453.31	120.25
453.53	89.25
453.751	99.25
453.971	110.25
454.192	127.25
454.412	86.25
454.633	98.25
454.853	90.25
455.073	102.25
455.294	87.25
455.514	118.25
455.734	94.25
455.955	85.25
456.175	96.25
456.395	101.25
456.616	95.25
456.836	90.25
457.056	84.25
457.276	88.25
457.497	91.25
457.717	89.25
457.937	95.25
458.157	99.25
458.377	102.25
458.598	106.25
458.818	182.25
459.038	193.25
459.258	122.25
459.478	107.25
459.698	93.25
459.918	87.25
460.138	82.25
460.358	91.25
460.578	82.25
460.798	95.25
461.018	75.25
461.238	91.25
461.458	100.25
461.678	82.25
461.898	82.25
462.118	94.25
462.338	83.25
462.558	77.25
462.777	77.25
462.997	89.25
463.217	84.25
463.437	89.25
463.657	92.25
463.876	93.25
464.096	90.25
464.316	94.25
464.536	94.25
464.755	91.25
464.975	118.25
465.195	188.25
465.414	198.25
465.634	109.25
465.854	96.25
466.073	98.25
466.293	99.25
466.512	105.25
466.732	88.25
466.951	92.25
467.171	110.25
467.391	93.25
467.61	121.25
467.829	103.25
468.049	104.25
468.268	102.25
468.488	91.25
468.707	76.25
468.927	72.25
469.146	78.25
469.365	79.25
469.585	104.25
469.804	101.25
470.023	96.25
470.243	95.25
470.462	100.25
470.681	130.25
470.901	108.25
471.12	81.25
471.339	84.25
471.558	86.25
471.777	90.25
471.997	92.25
472.216	142.25
472.435	162.25
472.654	105.25
472.873	102.25
473.092	78.25
473.311	85.25
473.53	88.25
473.749	92.25
473.968	88.25
474.187	111.25
474.406	110.25
474.625	98.25
474.844	93.25
475.063	107.25
475.282	94.25
475.501	91.25
475.72	95.25
475.939	84.25
476.158	94.25
476.377	97.25
476.596	110.25
476.814	95.25
477.033	107.25
477.252	96.25
477.471	85.25
477.69	98.25
477.908	102.25
478.127	103.25
478.346	93.25
478.564	82.25
478.783	93.25
479.002	86.25
479.22	93.25
479.439	100.25
479.658	121.25
479.876	100.25
480.095	100.25
480.313	96.25
480.532	104.25
480.751	102.25
480.969	113.25
481.188	223.25
481.406	178.25
481.624	92.25
481.843	104.25
482.061	96.25
482.28	96.25
482.498	95.25
482.717	99.25
482.935	91.25
483.153	86.25
483.372	109.25
483.59	96.25
483.808	93.25
484.027	94.25
484.245	95.25
484.463	100.25
484.681	102.25
484.9	105.25
485.118	89.25
485.336	107.25
485.554	110.25
485.772	116.25
485.99	109.25
486.209	102.25
486.427	107.25
486.645	99.25
486.863	126.25
487.081	99.25
487.299	96.25
487.517	93.25
487.735	102.25
487.953	108.25
488.171	95.25
488.389	95.25
488.607	103.25
488.825	100.25
489.043	92.25
489.261	112.25
489.479	99.25
489.696	92.25
489.914	95.25
490.132	87.25
490.35	79.25
490.568	94.25
490.786	89.25
491.003	91.25
491.221	99.25
491.439	92.25
491.657	96.25
491.874	91.25
492.092	87.25
492.31	91.25
492.527	92.25
492.745	85.25
492.963	88.25
493.18	99.25
493.398	100.25
493.615	101.25
493.833	99.25
494.05	89.25
494.268	74.25
494.485	82.25
494.703	82.25
494.92	79.25
495.138	98.25
495.355	96.25
495.573	98.25
495.79	90.25
496.008	106.25
496.225	84.25
496.442	97.25
496.66	80.25
496.877	88.25
497.094	80.25
497.312	104.25
497.529	97.25
497.746	94.25
497.963	106.25
498.181	79.25
498.398	94.25
498.615	118.25
498.832	106.25
499.049	90.25
499.267	82.25
499.484	95.25
499.701	113.25
499.918	96.25
500.135	90.25
500.352	98.25
500.569	94.25
500.786	95.25
501.003	95.25
501.22	88.25
501.437	91.25
501.654	98.25
501.871	123.25
502.088	84.25
502.305	98.25
502.522	72.25
502.739	108.25
502.956	94.25
503.172	99.25
503.389	88.25
503.606	108.25
503.823	105.25
504.04	93.25
504.256	105.25
504.473	84.25
504.69	94.25
504.907	104.25
505.123	89.25
505.34	85.25
505.557	98.25
505.773	88.25
505.99	82.25
506.207	90.25
506.423	103.25
506.64	87.25
506.856	91.25
507.073	98.25
507.289	102.25
507.506	97.25
507.722	122.25
507.939	118.25
508.155	111.25
508.372	103.25
508.588	103.25
508.805	86.25
509.021	104.25
509.238	99.25
509.454	104.25
509.67	106.25
509.887	120.25
510.103	135.25
510.319	217.25
510.536	831.25
510.752	2849.25
510.968	750.25
511.184	161.25
511.401	122.25
511.617	93.25
511.833	104.25
512.049	95.25
512.265	109.25
512.481	98.25
512.698	100.25
512.914	95.25
513.13	86.25
513.346	85.25
513.562	94.25
513.778	111.25
