Data from Circ_1981_H10_HRD10591_00085.txt Node
Date: Wed Jan 03 12:34:38 EST 2024
User: Yrep
Spectrometer: HR+D1059
Trigger mode: 1
Integration Time (sec): 1.000000E-1
Scans to average: 1
Electric dark correction enabled: true
Nonlinearity correction enabled: false
Boxcar width: 0
XAxis mode: Wavelengths
Number of Pixels in Spectrum: 2048
>>>>>Begin Spectral Data<<<<<
223.165	-16.38
223.4	-16.38
223.635	-16.38
223.869	-13.38
224.104	-24.38
224.338	-22.38
224.573	-11.38
224.808	-14.38
225.042	-2.38
225.277	-3.38
225.511	-1.38
225.746	-4.38
225.98	9.62
226.215	1.62
226.449	12.62
226.683	20.62
226.918	34.62
227.152	34.62
227.387	37.62
227.621	43.62
227.856	31.62
228.09	40.62
228.324	53.62
228.559	40.62
228.793	67.62
229.027	56.62
229.262	60.62
229.496	69.62
229.73	73.62
229.964	89.62
230.199	66.62
230.433	72.62
230.667	79.62
230.901	75.62
231.136	79.62
231.37	79.62
231.604	76.62
231.838	78.62
232.072	76.62
232.306	83.62
232.541	77.62
232.775	84.62
233.009	75.62
233.243	76.62
233.477	76.62
233.711	82.62
233.945	73.62
234.179	81.62
234.413	80.62
234.647	81.62
234.881	74.62
235.115	83.62
235.349	65.62
235.583	75.62
235.817	70.62
236.051	80.62
236.285	70.62
236.519	91.62
236.753	79.62
236.987	84.62
237.221	79.62
237.455	90.62
237.689	76.62
237.922	65.62
238.156	78.62
238.39	87.62
238.624	87.62
238.858	83.62
239.091	72.62
239.325	84.62
239.559	84.62
239.793	71.62
240.027	95.62
240.26	96.62
240.494	77.62
240.728	79.62
240.961	81.62
241.195	76.62
241.429	74.62
241.662	72.62
241.896	73.62
242.13	81.62
242.363	70.62
242.597	86.62
242.83	63.62
243.064	73.62
243.298	79.62
243.531	77.62
243.765	71.62
243.998	83.62
244.232	77.62
244.465	82.62
244.699	84.62
244.932	84.62
245.166	81.62
245.399	88.62
245.633	56.62
245.866	84.62
246.099	70.62
246.333	63.62
246.566	70.62
246.8	61.62
247.033	77.62
247.266	81.62
247.5	89.62
247.733	74.62
247.966	83.62
248.2	76.62
248.433	87.62
248.666	85.62
248.899	88.62
249.133	81.62
249.366	103.62
249.599	100.62
249.832	82.62
250.066	85.62
250.299	81.62
250.532	75.62
250.765	76.62
250.998	83.62
251.231	81.62
251.465	81.62
251.698	72.62
251.931	61.62
252.164	73.62
252.397	84.62
252.63	74.62
252.863	87.62
253.096	76.62
253.329	70.62
253.562	86.62
253.795	75.62
254.028	82.62
254.261	74.62
254.494	75.62
254.727	78.62
254.96	76.62
255.193	79.62
255.426	97.62
255.659	80.62
255.892	79.62
256.124	79.62
256.357	65.62
256.59	84.62
256.823	84.62
257.056	89.62
257.289	75.62
257.521	72.62
257.754	76.62
257.987	88.62
258.22	92.62
258.452	64.62
258.685	69.62
258.918	87.62
259.151	81.62
259.383	77.62
259.616	95.62
259.849	75.62
260.081	78.62
260.314	87.62
260.547	85.62
260.779	77.62
261.012	89.62
261.244	82.62
261.477	92.62
261.71	95.62
261.942	118.62
262.175	135.62
262.407	93.62
262.64	82.62
262.872	67.62
263.105	87.62
263.337	79.62
263.57	74.62
263.802	75.62
264.035	89.62
264.267	94.62
264.499	89.62
264.732	88.62
264.964	92.62
265.197	84.62
265.429	75.62
265.661	81.62
265.894	67.62
266.126	75.62
266.358	85.62
266.591	99.62
266.823	93.62
267.055	89.62
267.287	92.62
267.52	84.62
267.752	94.62
267.984	75.62
268.216	77.62
268.448	76.62
268.681	84.62
268.913	73.62
269.145	92.62
269.377	93.62
269.609	73.62
269.841	91.62
270.073	79.62
270.306	88.62
270.538	86.62
270.77	90.62
271.002	88.62
271.234	85.62
271.466	83.62
271.698	91.62
271.93	97.62
272.162	74.62
272.394	89.62
272.626	86.62
272.858	99.62
273.09	87.62
273.322	72.62
273.553	79.62
273.785	79.62
274.017	75.62
274.249	79.62
274.481	93.62
274.713	73.62
274.945	87.62
275.176	101.62
275.408	94.62
275.64	80.62
275.872	85.62
276.104	94.62
276.335	80.62
276.567	116.62
276.799	113.62
277.031	104.62
277.262	106.62
277.494	84.62
277.726	79.62
277.957	76.62
278.189	95.62
278.421	67.62
278.652	86.62
278.884	82.62
279.115	88.62
279.347	89.62
279.579	85.62
279.81	80.62
280.042	95.62
280.273	90.62
280.505	86.62
280.736	80.62
280.968	83.62
281.199	101.62
281.431	100.62
281.662	85.62
281.894	92.62
282.125	88.62
282.356	128.62
282.588	159.62
282.819	139.62
283.051	101.62
283.282	88.62
283.513	83.62
283.745	82.62
283.976	85.62
284.207	85.62
284.439	81.62
284.67	84.62
284.901	94.62
285.132	98.62
285.364	86.62
285.595	81.62
285.826	76.62
286.057	68.62
286.288	83.62
286.52	80.62
286.751	82.62
286.982	92.62
287.213	90.62
287.444	97.62
287.675	95.62
287.906	97.62
288.138	109.62
288.369	92.62
288.6	92.62
288.831	88.62
289.062	95.62
289.293	89.62
289.524	93.62
289.755	81.62
289.986	101.62
290.217	99.62
290.448	90.62
290.679	79.62
290.91	75.62
291.141	86.62
291.371	89.62
291.602	80.62
291.833	67.62
292.064	99.62
292.295	91.62
292.526	86.62
292.757	92.62
292.987	87.62
293.218	85.62
293.449	87.62
293.68	84.62
293.91	80.62
294.141	82.62
294.372	90.62
294.603	79.62
294.833	79.62
295.064	94.62
295.295	82.62
295.525	89.62
295.756	97.62
295.987	134.62
296.217	152.62
296.448	147.62
296.679	91.62
296.909	98.62
297.14	95.62
297.37	89.62
297.601	89.62
297.831	83.62
298.062	99.62
298.292	88.62
298.523	87.62
298.753	91.62
298.984	86.62
299.214	84.62
299.445	100.62
299.675	93.62
299.905	107.62
300.136	103.62
300.366	81.62
300.597	89.62
300.827	97.62
301.057	108.62
301.288	104.62
301.518	87.62
301.748	100.62
301.979	103.62
302.209	100.62
302.439	99.62
302.669	85.62
302.9	103.62
303.13	101.62
303.36	94.62
303.59	106.62
303.82	118.62
304.051	99.62
304.281	92.62
304.511	83.62
304.741	92.62
304.971	81.62
305.201	91.62
305.431	90.62
305.661	99.62
305.891	93.62
306.121	105.62
306.352	100.62
306.582	108.62
306.812	104.62
307.042	107.62
307.272	95.62
307.502	94.62
307.731	108.62
307.961	88.62
308.191	85.62
308.421	96.62
308.651	84.62
308.881	85.62
309.111	83.62
309.341	100.62
309.571	96.62
309.8	87.62
310.03	89.62
310.26	98.62
310.49	103.62
310.72	104.62
310.949	116.62
311.179	98.62
311.409	95.62
311.639	103.62
311.868	95.62
312.098	82.62
312.328	90.62
312.557	119.62
312.787	109.62
313.017	108.62
313.246	97.62
313.476	108.62
313.706	113.62
313.935	93.62
314.165	117.62
314.394	106.62
314.624	103.62
314.853	112.62
315.083	94.62
315.312	98.62
315.542	96.62
315.771	100.62
316.001	88.62
316.23	75.62
316.46	102.62
316.689	93.62
316.919	104.62
317.148	94.62
317.377	97.62
317.607	95.62
317.836	94.62
318.065	91.62
318.295	97.62
318.524	90.62
318.753	93.62
318.983	89.62
319.212	86.62
319.441	122.62
319.67	123.62
319.9	98.62
320.129	89.62
320.358	80.62
320.587	94.62
320.816	113.62
321.046	117.62
321.275	95.62
321.504	87.62
321.733	91.62
321.962	108.62
322.191	112.62
322.42	105.62
322.649	100.62
322.878	125.62
323.108	110.62
323.337	131.62
323.566	149.62
323.795	175.62
324.024	223.62
324.253	438.62
324.482	914.62
324.71	1823.62
324.939	2379.62
325.168	876.62
325.397	267.62
325.626	169.62
325.855	144.62
326.084	144.62
326.313	145.62
326.542	163.62
326.77	255.62
326.999	438.62
327.228	903.62
327.457	1719.62
327.686	1373.62
327.914	389.62
328.143	241.62
328.372	202.62
328.6	159.62
328.829	141.62
329.058	152.62
329.287	165.62
329.515	132.62
329.744	109.62
329.972	116.62
330.201	133.62
330.43	146.62
330.658	161.62
330.887	205.62
331.115	170.62
331.344	106.62
331.572	116.62
331.801	106.62
332.03	112.62
332.258	96.62
332.486	99.62
332.715	93.62
332.943	98.62
333.172	108.62
333.4	90.62
333.629	111.62
333.857	131.62
334.085	127.62
334.314	118.62
334.542	159.62
334.771	140.62
334.999	103.62
335.227	96.62
335.455	99.62
335.684	104.62
335.912	103.62
336.14	97.62
336.369	102.62
336.597	114.62
336.825	101.62
337.053	93.62
337.281	93.62
337.51	88.62
337.738	92.62
337.966	93.62
338.194	115.62
338.422	114.62
338.65	82.62
338.878	97.62
339.106	93.62
339.334	100.62
339.562	85.62
339.79	102.62
340.018	91.62
340.246	95.62
340.474	97.62
340.702	107.62
340.93	102.62
341.158	98.62
341.386	104.62
341.614	97.62
341.842	92.62
342.07	93.62
342.298	104.62
342.526	85.62
342.754	84.62
342.981	85.62
343.209	77.62
343.437	105.62
343.665	88.62
343.893	84.62
344.12	90.62
344.348	100.62
344.576	101.62
344.804	98.62
345.031	102.62
345.259	89.62
345.487	108.62
345.714	93.62
345.942	99.62
346.17	94.62
346.397	76.62
346.625	95.62
346.853	99.62
347.08	75.62
347.308	103.62
347.535	110.62
347.763	99.62
347.99	96.62
348.218	115.62
348.445	116.62
348.673	105.62
348.9	107.62
349.128	96.62
349.355	95.62
349.583	81.62
349.81	91.62
350.037	99.62
350.265	82.62
350.492	94.62
350.72	98.62
350.947	94.62
351.174	116.62
351.402	122.62
351.629	108.62
351.856	115.62
352.083	105.62
352.311	111.62
352.538	125.62
352.765	95.62
352.992	112.62
353.22	113.62
353.447	122.62
353.674	122.62
353.901	97.62
354.128	103.62
354.355	94.62
354.583	115.62
354.81	95.62
355.037	82.62
355.264	87.62
355.491	96.62
355.718	83.62
355.945	88.62
356.172	91.62
356.399	88.62
356.626	97.62
356.853	88.62
357.08	92.62
357.307	93.62
357.534	84.62
357.761	103.62
357.988	103.62
358.215	103.62
358.441	93.62
358.668	97.62
358.895	68.62
359.122	75.62
359.349	100.62
359.576	103.62
359.802	116.62
360.029	144.62
360.256	131.62
360.483	119.62
360.709	109.62
360.936	98.62
361.163	99.62
361.39	89.62
361.616	111.62
361.843	96.62
362.07	96.62
362.296	105.62
362.523	97.62
362.749	112.62
362.976	92.62
363.203	83.62
363.429	99.62
363.656	80.62
363.882	83.62
364.109	92.62
364.335	84.62
364.562	95.62
364.788	87.62
365.015	92.62
365.241	96.62
365.468	124.62
365.694	113.62
365.92	100.62
366.147	91.62
366.373	93.62
366.599	89.62
366.826	92.62
367.052	97.62
367.278	96.62
367.505	105.62
367.731	105.62
367.957	99.62
368.184	108.62
368.41	104.62
368.636	117.62
368.862	138.62
369.089	116.62
369.315	98.62
369.541	90.62
369.767	91.62
369.993	96.62
370.219	95.62
370.445	96.62
370.672	90.62
370.898	100.62
371.124	82.62
371.35	90.62
371.576	72.62
371.802	87.62
372.028	86.62
372.254	81.62
372.48	91.62
372.706	82.62
372.932	79.62
373.158	88.62
373.384	81.62
373.61	95.62
373.835	102.62
374.061	91.62
374.287	105.62
374.513	85.62
374.739	99.62
374.965	90.62
375.191	88.62
375.416	86.62
375.642	90.62
375.868	85.62
376.094	95.62
376.319	87.62
376.545	89.62
376.771	100.62
376.997	96.62
377.222	83.62
377.448	81.62
377.674	98.62
377.899	88.62
378.125	79.62
378.35	111.62
378.576	91.62
378.802	83.62
379.027	95.62
379.253	85.62
379.478	85.62
379.704	80.62
379.929	86.62
380.155	93.62
380.38	74.62
380.606	90.62
380.831	93.62
381.057	90.62
381.282	88.62
381.507	99.62
381.733	97.62
381.958	88.62
382.184	101.62
382.409	96.62
382.634	107.62
382.86	97.62
383.085	94.62
383.31	104.62
383.535	90.62
383.761	93.62
383.986	96.62
384.211	86.62
384.436	100.62
384.662	95.62
384.887	97.62
385.112	86.62
385.337	93.62
385.562	95.62
385.787	95.62
386.013	110.62
386.238	132.62
386.463	106.62
386.688	104.62
386.913	99.62
387.138	91.62
387.363	95.62
387.588	109.62
387.813	96.62
388.038	105.62
388.263	115.62
388.488	114.62
388.713	100.62
388.938	105.62
389.163	90.62
389.387	88.62
389.612	93.62
389.837	75.62
390.062	88.62
390.287	93.62
390.512	99.62
390.736	83.62
390.961	91.62
391.186	80.62
391.411	88.62
391.636	81.62
391.86	94.62
392.085	77.62
392.31	78.62
392.534	89.62
392.759	89.62
392.984	74.62
393.208	85.62
393.433	98.62
393.658	101.62
393.882	77.62
394.107	91.62
394.331	81.62
394.556	99.62
394.78	86.62
395.005	83.62
395.229	81.62
395.454	88.62
395.678	92.62
395.903	88.62
396.127	90.62
396.352	104.62
396.576	74.62
396.801	85.62
397.025	93.62
397.249	71.62
397.474	93.62
397.698	87.62
397.922	81.62
398.147	82.62
398.371	98.62
398.595	82.62
398.82	89.62
399.044	93.62
399.268	95.62
399.492	96.62
399.717	89.62
399.941	93.62
400.165	85.62
400.389	94.62
400.613	93.62
400.837	81.62
401.062	74.62
401.286	88.62
401.51	99.62
401.734	93.62
401.958	103.62
402.182	152.62
402.406	192.62
402.63	130.62
402.854	100.62
403.078	80.62
403.302	98.62
403.526	110.62
403.75	93.62
403.974	89.62
404.198	96.62
404.422	91.62
404.645	86.62
404.869	100.62
405.093	108.62
405.317	100.62
405.541	116.62
405.765	120.62
405.988	138.62
406.212	204.62
406.436	323.62
406.66	184.62
406.883	107.62
407.107	104.62
407.331	87.62
407.555	104.62
407.778	105.62
408.002	94.62
408.226	104.62
408.449	90.62
408.673	97.62
408.896	111.62
409.12	114.62
409.344	91.62
409.567	87.62
409.791	83.62
410.014	99.62
410.238	86.62
410.461	101.62
410.685	85.62
410.908	90.62
411.132	104.62
411.355	91.62
411.578	92.62
411.802	95.62
412.025	99.62
412.249	91.62
412.472	82.62
412.695	103.62
412.919	95.62
413.142	99.62
413.365	88.62
413.589	92.62
413.812	74.62
414.035	88.62
414.258	76.62
414.482	80.62
414.705	86.62
414.928	82.62
415.151	90.62
415.374	84.62
415.597	85.62
415.821	88.62
416.044	82.62
416.267	92.62
416.49	83.62
416.713	90.62
416.936	87.62
417.159	91.62
417.382	79.62
417.605	97.62
417.828	94.62
418.051	106.62
418.274	92.62
418.497	78.62
418.72	79.62
418.943	79.62
419.166	90.62
419.389	92.62
419.611	92.62
419.834	80.62
420.057	82.62
420.28	85.62
420.503	91.62
420.726	82.62
420.948	97.62
421.171	88.62
421.394	84.62
421.617	81.62
421.839	91.62
422.062	94.62
422.285	84.62
422.507	88.62
422.73	115.62
422.953	98.62
423.175	92.62
423.398	80.62
423.621	87.62
423.843	92.62
424.066	90.62
424.288	80.62
424.511	99.62
424.733	103.62
424.956	118.62
425.178	116.62
425.401	100.62
425.623	101.62
425.846	85.62
426.068	88.62
426.291	115.62
426.513	90.62
426.735	92.62
426.958	96.62
427.18	112.62
427.402	159.62
427.625	232.62
427.847	179.62
428.069	122.62
428.292	101.62
428.514	73.62
428.736	96.62
428.958	88.62
429.181	88.62
429.403	85.62
429.625	84.62
429.847	73.62
430.069	101.62
430.292	114.62
430.514	87.62
430.736	81.62
430.958	90.62
431.18	83.62
431.402	90.62
431.624	83.62
431.846	92.62
432.068	84.62
432.29	81.62
432.512	69.62
432.734	89.62
432.956	108.62
433.178	104.62
433.4	103.62
433.622	88.62
433.844	90.62
434.066	91.62
434.287	99.62
434.509	92.62
434.731	91.62
434.953	85.62
435.175	85.62
435.397	94.62
435.618	87.62
435.84	120.62
436.062	130.62
436.284	108.62
436.505	111.62
436.727	95.62
436.949	93.62
437.17	85.62
437.392	81.62
437.614	96.62
437.835	115.62
438.057	159.62
438.278	121.62
438.5	106.62
438.721	134.62
438.943	114.62
439.165	74.62
439.386	89.62
439.608	98.62
439.829	98.62
440.05	129.62
440.272	148.62
440.493	96.62
440.715	96.62
440.936	91.62
441.158	79.62
441.379	81.62
441.6	108.62
441.822	100.62
442.043	83.62
442.264	107.62
442.486	102.62
442.707	85.62
442.928	113.62
443.149	151.62
443.371	157.62
443.592	147.62
443.813	126.62
444.034	109.62
444.255	89.62
444.476	89.62
444.698	93.62
444.919	93.62
445.14	115.62
445.361	125.62
445.582	120.62
445.803	162.62
446.024	159.62
446.245	158.62
446.466	96.62
446.687	86.62
446.908	97.62
447.129	72.62
447.35	95.62
447.571	102.62
447.792	96.62
448.013	104.62
448.234	112.62
448.455	113.62
448.675	105.62
448.896	128.62
449.117	96.62
449.338	90.62
449.559	133.62
449.779	143.62
450	103.62
450.221	91.62
450.442	86.62
450.662	90.62
450.883	124.62
451.104	133.62
451.324	102.62
451.545	93.62
451.766	94.62
451.986	88.62
452.207	97.62
452.428	96.62
452.648	113.62
452.869	122.62
453.089	127.62
453.31	148.62
453.53	98.62
453.751	101.62
453.971	118.62
454.192	126.62
454.412	100.62
454.633	90.62
454.853	91.62
455.073	82.62
455.294	90.62
455.514	104.62
455.734	100.62
455.955	89.62
456.175	85.62
456.395	92.62
456.616	90.62
456.836	86.62
457.056	80.62
457.276	82.62
457.497	73.62
457.717	89.62
457.937	79.62
458.157	93.62
458.377	101.62
458.598	120.62
458.818	201.62
459.038	223.62
459.258	134.62
459.478	118.62
459.698	92.62
459.918	90.62
460.138	95.62
460.358	81.62
460.578	76.62
460.798	92.62
461.018	105.62
461.238	93.62
461.458	95.62
461.678	86.62
461.898	81.62
462.118	84.62
462.338	88.62
462.558	88.62
462.777	91.62
462.997	89.62
463.217	74.62
463.437	98.62
463.657	75.62
463.876	93.62
464.096	83.62
464.316	90.62
464.536	96.62
464.755	82.62
464.975	127.62
465.195	231.62
465.414	228.62
465.634	108.62
465.854	84.62
466.073	90.62
466.293	96.62
466.512	87.62
466.732	82.62
466.951	89.62
467.171	80.62
467.391	99.62
467.61	109.62
467.829	99.62
468.049	94.62
468.268	118.62
468.488	90.62
468.707	82.62
468.927	86.62
469.146	88.62
469.365	87.62
469.585	97.62
469.804	108.62
470.023	101.62
470.243	79.62
470.462	105.62
470.681	129.62
470.901	96.62
471.12	90.62
471.339	69.62
471.558	87.62
471.777	95.62
471.997	84.62
472.216	132.62
472.435	189.62
472.654	96.62
472.873	82.62
473.092	92.62
473.311	81.62
473.53	76.62
473.749	85.62
473.968	102.62
474.187	113.62
474.406	92.62
474.625	96.62
474.844	99.62
475.063	79.62
475.282	95.62
475.501	86.62
475.72	83.62
475.939	84.62
476.158	85.62
476.377	74.62
476.596	79.62
476.814	88.62
477.033	90.62
477.252	101.62
477.471	77.62
477.69	94.62
477.908	98.62
478.127	99.62
478.346	82.62
478.564	82.62
478.783	108.62
479.002	99.62
479.22	76.62
479.439	110.62
479.658	137.62
479.876	88.62
480.095	84.62
480.313	105.62
480.532	85.62
480.751	97.62
480.969	124.62
481.188	239.62
481.406	182.62
481.624	92.62
481.843	79.62
482.061	93.62
482.28	92.62
482.498	93.62
482.717	88.62
482.935	82.62
483.153	89.62
483.372	77.62
483.59	89.62
483.808	81.62
484.027	83.62
484.245	76.62
484.463	84.62
484.681	106.62
484.9	79.62
485.118	83.62
485.336	95.62
485.554	94.62
485.772	103.62
485.99	109.62
486.209	92.62
486.427	114.62
486.645	111.62
486.863	127.62
487.081	94.62
487.299	91.62
487.517	95.62
487.735	101.62
487.953	102.62
488.171	97.62
488.389	93.62
488.607	92.62
488.825	90.62
489.043	83.62
489.261	93.62
489.479	95.62
489.696	95.62
489.914	88.62
490.132	100.62
490.35	89.62
490.568	87.62
490.786	103.62
491.003	82.62
491.221	103.62
491.439	82.62
491.657	108.62
491.874	90.62
492.092	92.62
492.31	92.62
492.527	83.62
492.745	85.62
492.963	80.62
493.18	90.62
493.398	82.62
493.615	94.62
493.833	92.62
494.05	97.62
494.268	97.62
494.485	95.62
494.703	90.62
494.92	89.62
495.138	103.62
495.355	88.62
495.573	80.62
495.79	83.62
496.008	86.62
496.225	91.62
496.442	92.62
496.66	91.62
496.877	96.62
497.094	95.62
497.312	92.62
497.529	97.62
497.746	94.62
497.963	96.62
498.181	95.62
498.398	111.62
498.615	111.62
498.832	90.62
499.049	98.62
499.267	88.62
499.484	85.62
499.701	89.62
499.918	97.62
500.135	80.62
500.352	105.62
500.569	83.62
500.786	97.62
501.003	89.62
501.22	96.62
501.437	89.62
501.654	106.62
501.871	114.62
502.088	91.62
502.305	98.62
502.522	77.62
502.739	69.62
502.956	82.62
503.172	87.62
503.389	100.62
503.606	103.62
503.823	104.62
504.04	105.62
504.256	90.62
504.473	84.62
504.69	100.62
504.907	84.62
505.123	89.62
505.34	80.62
505.557	102.62
505.773	94.62
505.99	100.62
506.207	92.62
506.423	99.62
506.64	93.62
506.856	86.62
507.073	86.62
507.289	95.62
507.506	109.62
507.722	135.62
507.939	127.62
508.155	91.62
508.372	97.62
508.588	84.62
508.805	96.62
509.021	89.62
509.238	86.62
509.454	102.62
509.67	117.62
509.887	106.62
510.103	133.62
510.319	244.62
510.536	924.62
510.752	3245.62
510.968	865.62
511.184	167.62
511.401	121.62
511.617	105.62
511.833	103.62
512.049	73.62
512.265	88.62
512.481	87.62
512.698	88.62
512.914	106.62
513.13	106.62
513.346	98.62
513.562	116.62
513.778	86.62
513.994	100.62
514.21	97.62
514.426	134.62
514.642	168.62
514.858	138.62
