Data from Circ_1981_H10_HRD10591_00084.txt Node
Date: Wed Jan 03 12:34:37 EST 2024
User: Yrep
Spectrometer: HR+D1059
Trigger mode: 1
Integration Time (sec): 1.000000E-1
Scans to average: 1
Electric dark correction enabled: true
Nonlinearity correction enabled: false
Boxcar width: 0
XAxis mode: Wavelengths
Number of Pixels in Spectrum: 2048
>>>>>Begin Spectral Data<<<<<
223.165	-21.44
223.4	-21.44
223.635	-21.44
223.869	-30.44
224.104	-12.44
224.338	-23.44
224.573	-11.44
224.808	-11.44
225.042	0.56
225.277	-7.44
225.511	-9.44
225.746	7.56
225.98	3.56
226.215	19.56
226.449	10.56
226.683	34.56
226.918	18.56
227.152	32.56
227.387	29.56
227.621	36.56
227.856	42.56
228.09	40.56
228.324	54.56
228.559	75.56
228.793	166.56
229.027	470.56
229.262	548.56
229.496	651.56
229.73	854.56
229.964	873.56
230.199	584.56
230.433	502.56
230.667	495.56
230.901	468.56
231.136	453.56
231.37	447.56
231.604	480.56
231.838	476.56
232.072	479.56
232.306	505.56
232.541	498.56
232.775	489.56
233.009	485.56
233.243	463.56
233.477	505.56
233.711	499.56
233.945	536.56
234.179	523.56
234.413	508.56
234.647	532.56
234.881	526.56
235.115	562.56
235.349	584.56
235.583	595.56
235.817	599.56
236.051	668.56
236.285	646.56
236.519	653.56
236.753	730.56
236.987	916.56
237.221	1416.56
237.455	1575.56
237.689	902.56
237.922	766.56
238.156	774.56
238.39	706.56
238.624	693.56
238.858	693.56
239.091	686.56
239.325	687.56
239.559	707.56
239.793	751.56
240.027	800.56
240.26	936.56
240.494	1035.56
240.728	1034.56
240.961	977.56
241.195	870.56
241.429	826.56
241.662	809.56
241.896	800.56
242.13	802.56
242.363	808.56
242.597	820.56
242.83	879.56
243.064	861.56
243.298	888.56
243.531	844.56
243.765	876.56
243.998	862.56
244.232	884.56
244.465	936.56
244.699	978.56
244.932	946.56
245.166	936.56
245.399	951.56
245.633	961.56
245.866	933.56
246.099	953.56
246.333	1011.56
246.566	990.56
246.8	1030.56
247.033	1027.56
247.266	1116.56
247.5	1149.56
247.733	1237.56
247.966	1236.56
248.2	1210.56
248.433	1202.56
248.666	1266.56
248.899	1427.56
249.133	1554.56
249.366	1549.56
249.599	1389.56
249.832	1276.56
250.066	1280.56
250.299	1353.56
250.532	1507.56
250.765	1713.56
250.998	1905.56
251.231	1771.56
251.465	1576.56
251.698	1519.56
251.931	1493.56
252.164	1466.56
252.397	1485.56
252.63	1526.56
252.863	1633.56
253.096	1812.56
253.329	1865.56
253.562	1730.56
253.795	1618.56
254.028	1667.56
254.261	1711.56
254.494	1907.56
254.727	2366.56
254.96	2406.56
255.193	2035.56
255.426	1810.56
255.659	1738.56
255.892	1801.56
256.124	1893.56
256.357	1844.56
256.59	1690.56
256.823	1635.56
257.056	1592.56
257.289	1626.56
257.521	1634.56
257.754	1642.56
257.987	1585.56
258.22	1541.56
258.452	1560.56
258.685	1636.56
258.918	1645.56
259.151	1667.56
259.383	1782.56
259.616	1789.56
259.849	1894.56
260.081	2067.56
260.314	2285.56
260.547	2137.56
260.779	1939.56
261.012	1838.56
261.244	1812.56
261.477	1756.56
261.71	1740.56
261.942	1864.56
262.175	1905.56
262.407	1828.56
262.64	1702.56
262.872	1700.56
263.105	1718.56
263.337	1732.56
263.57	1705.56
263.802	1731.56
264.035	1717.56
264.267	1715.56
264.499	1752.56
264.732	1765.56
264.964	1710.56
265.197	1746.56
265.429	1776.56
265.661	1777.56
265.894	1788.56
266.126	1802.56
266.358	1830.56
266.591	1854.56
266.823	1921.56
267.055	1929.56
267.287	1939.56
267.52	1903.56
267.752	1913.56
267.984	1935.56
268.216	1977.56
268.448	1981.56
268.681	2086.56
268.913	2251.56
269.145	2442.56
269.377	2478.56
269.609	2371.56
269.841	2339.56
270.073	2496.56
270.306	2818.56
270.538	2982.56
270.77	2779.56
271.002	2606.56
271.234	2562.56
271.466	2764.56
271.698	2908.56
271.93	2888.56
272.162	2909.56
272.394	2746.56
272.626	2626.56
272.858	2436.56
273.09	2349.56
273.322	2309.56
273.553	2294.56
273.785	2274.56
274.017	2297.56
274.249	2300.56
274.481	2350.56
274.713	2380.56
274.945	2428.56
275.176	2426.56
275.408	2381.56
275.64	2313.56
275.872	2340.56
276.104	2408.56
276.335	2377.56
276.567	2512.56
276.799	2707.56
277.031	2950.56
277.262	3081.56
277.494	2917.56
277.726	2669.56
277.957	2588.56
278.189	2528.56
278.421	2473.56
278.652	2413.56
278.884	2417.56
279.115	2412.56
279.347	2472.56
279.579	2424.56
279.81	2432.56
280.042	2418.56
280.273	2483.56
280.505	2446.56
280.736	2434.56
280.968	2430.56
281.199	2490.56
281.431	2505.56
281.662	2498.56
281.894	2540.56
282.125	2579.56
282.356	2749.56
282.588	2931.56
282.819	2796.56
283.051	2600.56
283.282	2611.56
283.513	2649.56
283.745	2680.56
283.976	2689.56
284.207	2712.56
284.439	2694.56
284.67	2655.56
284.901	2644.56
285.132	2650.56
285.364	2643.56
285.595	2702.56
285.826	2674.56
286.057	2714.56
286.288	2700.56
286.52	2733.56
286.751	2722.56
286.982	2740.56
287.213	2717.56
287.444	2786.56
287.675	2886.56
287.906	2972.56
288.138	3034.56
288.369	2930.56
288.6	2980.56
288.831	2884.56
289.062	2869.56
289.293	2951.56
289.524	2841.56
289.755	2851.56
289.986	2851.56
290.217	2898.56
290.448	2846.56
290.679	2884.56
290.91	2845.56
291.141	2850.56
291.371	2843.56
291.602	2867.56
291.833	2848.56
292.064	2882.56
292.295	2841.56
292.526	2882.56
292.757	2853.56
292.987	2823.56
293.218	2839.56
293.449	2926.56
293.68	2944.56
293.91	2916.56
294.141	2908.56
294.372	2846.56
294.603	2905.56
294.833	2882.56
295.064	2957.56
295.295	2967.56
295.525	2941.56
295.756	2968.56
295.987	3088.56
296.217	3294.56
296.448	3240.56
296.679	3019.56
296.909	2980.56
297.14	2976.56
297.37	3021.56
297.601	3054.56
297.831	3013.56
298.062	3101.56
298.292	3108.56
298.523	3157.56
298.753	3162.56
298.984	3113.56
299.214	3124.56
299.445	3147.56
299.675	3105.56
299.905	3148.56
300.136	3141.56
300.366	3182.56
300.597	3224.56
300.827	3353.56
301.057	3390.56
301.288	3487.56
301.518	3357.56
301.748	3438.56
301.979	3452.56
302.209	3422.56
302.439	3477.56
302.669	3429.56
302.9	3355.56
303.13	3307.56
303.36	3376.56
303.59	3492.56
303.82	3497.56
304.051	3373.56
304.281	3370.56
304.511	3298.56
304.741	3328.56
304.971	3337.56
305.201	3282.56
305.431	3296.56
305.661	3361.56
305.891	3304.56
306.121	3318.56
306.352	3348.56
306.582	3356.56
306.812	3240.56
307.042	3309.56
307.272	3349.56
307.502	3270.56
307.731	3313.56
307.961	3314.56
308.191	3281.56
308.421	3325.56
308.651	3324.56
308.881	3364.56
309.111	3392.56
309.341	3421.56
309.571	3536.56
309.8	3609.56
310.03	3670.56
310.26	3665.56
310.49	3618.56
310.72	3765.56
310.949	3922.56
311.179	3902.56
311.409	3660.56
311.639	3744.56
311.868	3683.56
312.098	3827.56
312.328	3854.56
312.557	4033.56
312.787	4157.56
313.017	3977.56
313.246	3882.56
313.476	3769.56
313.706	3802.56
313.935	3905.56
314.165	4092.56
314.394	4077.56
314.624	3990.56
314.853	3892.56
315.083	3834.56
315.312	3799.56
315.542	3693.56
315.771	3710.56
316.001	3729.56
316.23	3688.56
316.46	3700.56
316.689	3810.56
316.919	3841.56
317.148	3855.56
317.377	3836.56
317.607	3800.56
317.836	3806.56
318.065	3726.56
318.295	3656.56
318.524	3699.56
318.753	3706.56
318.983	3717.56
319.212	3700.56
319.441	3819.56
319.67	3797.56
319.9	3781.56
320.129	3731.56
320.358	3785.56
320.587	3790.56
320.816	3788.56
321.046	3922.56
321.275	3878.56
321.504	3917.56
321.733	3905.56
321.962	3895.56
322.191	4103.56
322.42	4215.56
322.649	4311.56
322.878	4296.56
323.108	4402.56
323.337	4690.56
323.566	4839.56
323.795	5063.56
324.024	5625.56
324.253	7424.56
324.482	11144.56
324.71	15441.56
324.939	15630.56
325.168	13372.56
325.397	6599.56
325.626	5233.56
325.855	4858.56
326.084	4700.56
326.313	4813.56
326.542	4995.56
326.77	5634.56
326.999	7136.56
327.228	10465.56
327.457	14562.56
327.686	14025.56
327.914	7462.56
328.143	6089.56
328.372	5888.56
328.6	5452.56
328.829	5440.56
329.058	5833.56
329.287	5735.56
329.515	5260.56
329.744	4953.56
329.972	5074.56
330.201	5301.56
330.43	5719.56
330.658	5952.56
330.887	6393.56
331.115	5783.56
331.344	5147.56
331.572	5005.56
331.801	5116.56
332.03	5137.56
332.258	5065.56
332.486	4992.56
332.715	5087.56
332.943	5307.56
333.172	5409.56
333.4	5558.56
333.629	5734.56
333.857	5800.56
334.085	5848.56
334.314	5947.56
334.542	6142.56
334.771	6102.56
334.999	5576.56
335.227	5392.56
335.455	5265.56
335.684	5114.56
335.912	5080.56
336.14	4961.56
336.369	5019.56
336.597	5136.56
336.825	5078.56
337.053	4945.56
337.281	4828.56
337.51	4831.56
337.738	4758.56
337.966	4770.56
338.194	4824.56
338.422	4722.56
338.65	4560.56
338.878	4590.56
339.106	4502.56
339.334	4573.56
339.562	4476.56
339.79	4404.56
340.018	4460.56
340.246	4502.56
340.474	4500.56
340.702	4454.56
340.93	4485.56
341.158	4451.56
341.386	4457.56
341.614	4485.56
341.842	4451.56
342.07	4369.56
342.298	4370.56
342.526	4389.56
342.754	4316.56
342.981	4365.56
343.209	4383.56
343.437	4692.56
343.665	4930.56
343.893	5181.56
344.12	5150.56
344.348	4995.56
344.576	4777.56
344.804	4705.56
345.031	4774.56
345.259	4669.56
345.487	4553.56
345.714	4474.56
345.942	4374.56
346.17	4360.56
346.397	4229.56
346.625	4240.56
346.853	4280.56
347.08	4256.56
347.308	4233.56
347.535	4377.56
347.763	4433.56
347.99	4394.56
348.218	4388.56
348.445	4500.56
348.673	4322.56
348.9	4180.56
349.128	4174.56
349.355	4071.56
349.583	4113.56
349.81	4066.56
350.037	4125.56
350.265	4056.56
350.492	4099.56
350.72	4058.56
350.947	4150.56
351.174	4242.56
351.402	4341.56
351.629	4250.56
351.856	4291.56
352.083	4334.56
352.311	4317.56
352.538	4448.56
352.765	4338.56
352.992	4285.56
353.22	4156.56
353.447	4142.56
353.674	4116.56
353.901	4030.56
354.128	3993.56
354.355	4056.56
354.583	4063.56
354.81	3961.56
355.037	3987.56
355.264	3954.56
355.491	3990.56
355.718	3961.56
355.945	3963.56
356.172	3970.56
356.399	4003.56
356.626	3980.56
356.853	3992.56
357.08	3931.56
357.307	3966.56
357.534	3906.56
357.761	3991.56
357.988	3925.56
358.215	3969.56
358.441	4047.56
358.668	4053.56
358.895	4064.56
359.122	4078.56
359.349	4283.56
359.576	4342.56
359.802	4610.56
360.029	4827.56
360.256	4770.56
360.483	4610.56
360.709	4324.56
360.936	4280.56
361.163	4291.56
361.39	4330.56
361.616	4368.56
361.843	4192.56
362.07	4292.56
362.296	4302.56
362.523	4208.56
362.749	4285.56
362.976	4210.56
363.203	4105.56
363.429	4088.56
363.656	4086.56
363.882	4123.56
364.109	4102.56
364.335	4051.56
364.562	4119.56
364.788	4108.56
365.015	4097.56
365.241	4094.56
365.468	4121.56
365.694	4198.56
365.92	4108.56
366.147	4122.56
366.373	4086.56
366.599	4048.56
366.826	4054.56
367.052	4010.56
367.278	4100.56
367.505	4086.56
367.731	4166.56
367.957	4123.56
368.184	4131.56
368.41	4246.56
368.636	4389.56
368.862	4312.56
369.089	4260.56
369.315	4144.56
369.541	4134.56
369.767	4150.56
369.993	4249.56
370.219	4274.56
370.445	4212.56
370.672	4260.56
370.898	4289.56
371.124	4332.56
371.35	4376.56
371.576	4278.56
371.802	4275.56
372.028	4301.56
372.254	4269.56
372.48	4414.56
372.706	4422.56
372.932	4548.56
373.158	4468.56
373.384	4392.56
373.61	4382.56
373.835	4340.56
374.061	4399.56
374.287	4475.56
374.513	4467.56
374.739	4669.56
374.965	4757.56
375.191	4780.56
375.416	4658.56
375.642	4510.56
375.868	4520.56
376.094	4413.56
376.319	4409.56
376.545	4424.56
376.771	4380.56
376.997	4310.56
377.222	4412.56
377.448	4388.56
377.674	4315.56
377.899	4313.56
378.125	4309.56
378.35	4305.56
378.576	4294.56
378.802	4247.56
379.027	4384.56
379.253	4248.56
379.478	4255.56
379.704	4270.56
379.929	4378.56
380.155	4348.56
380.38	4317.56
380.606	4321.56
380.831	4373.56
381.057	4356.56
381.282	4388.56
381.507	4354.56
381.733	4503.56
381.958	4435.56
382.184	4505.56
382.409	4551.56
382.634	4602.56
382.86	4540.56
383.085	4616.56
383.31	4677.56
383.535	4758.56
383.761	4732.56
383.986	4882.56
384.211	4988.56
384.436	5039.56
384.662	5118.56
384.887	5144.56
385.112	5164.56
385.337	5152.56
385.562	5176.56
385.787	5240.56
386.013	5238.56
386.238	5412.56
386.463	5251.56
386.688	5245.56
386.913	5089.56
387.138	5176.56
387.363	5091.56
387.588	5117.56
387.813	5165.56
388.038	5093.56
388.263	5192.56
388.488	5180.56
388.713	5161.56
388.938	5156.56
389.163	5090.56
389.387	5120.56
389.612	5005.56
389.837	5024.56
390.062	4992.56
390.287	5077.56
390.512	5042.56
390.736	5154.56
390.961	5211.56
391.186	5348.56
391.411	5427.56
391.636	5558.56
391.86	5728.56
392.085	5827.56
392.31	5672.56
392.534	5516.56
392.759	5470.56
392.984	5395.56
393.208	5336.56
393.433	5332.56
393.658	5357.56
393.882	5302.56
394.107	5336.56
394.331	5415.56
394.556	5441.56
394.78	5432.56
395.005	5492.56
395.229	5496.56
395.454	5707.56
395.678	5816.56
395.903	5846.56
396.127	5872.56
396.352	5696.56
396.576	5503.56
396.801	5403.56
397.025	5526.56
397.249	5653.56
397.474	5750.56
397.698	5736.56
397.922	5901.56
398.147	6005.56
398.371	6064.56
398.595	6223.56
398.82	6501.56
399.044	7120.56
399.268	7818.56
399.492	8902.56
399.717	9458.56
399.941	9346.56
400.165	8641.56
400.389	8010.56
400.613	7237.56
400.837	6820.56
401.062	6624.56
401.286	6487.56
401.51	6486.56
401.734	6448.56
401.958	6565.56
402.182	6706.56
402.406	6919.56
402.63	6834.56
402.854	6956.56
403.078	7042.56
403.302	7172.56
403.526	7320.56
403.75	7291.56
403.974	7395.56
404.198	7380.56
404.422	7465.56
404.645	7416.56
404.869	7364.56
405.093	7697.56
405.317	7852.56
405.541	7845.56
405.765	7425.56
405.988	7216.56
406.212	7429.56
406.436	7677.56
406.66	7844.56
406.883	7633.56
407.107	8331.56
407.331	8851.56
407.555	9322.56
407.778	8969.56
408.002	8244.56
408.226	7854.56
408.449	7694.56
408.673	7611.56
408.896	7751.56
409.12	7980.56
409.344	7459.56
409.567	7079.56
409.791	7074.56
410.014	6980.56
410.238	6963.56
410.461	6978.56
410.685	7075.56
410.908	7081.56
411.132	7338.56
411.355	7351.56
411.578	6900.56
411.802	6705.56
412.025	6740.56
412.249	6938.56
412.472	7113.56
412.695	7248.56
412.919	6794.56
413.142	6581.56
413.365	6522.56
413.589	6470.56
413.812	6355.56
414.035	6251.56
414.258	6325.56
414.482	6322.56
414.705	6412.56
414.928	6372.56
415.151	6382.56
415.374	6467.56
415.597	6298.56
415.821	6238.56
416.044	6277.56
416.267	6166.56
416.49	6208.56
416.713	6170.56
416.936	6224.56
417.159	6273.56
417.382	6323.56
417.605	6300.56
417.828	6555.56
418.051	6703.56
418.274	6481.56
418.497	6319.56
418.72	6530.56
418.943	6436.56
419.166	6847.56
419.389	7236.56
419.611	7216.56
419.834	6894.56
420.057	6852.56
420.28	6691.56
420.503	6518.56
420.726	6551.56
420.948	6732.56
421.171	7105.56
421.394	7018.56
421.617	6506.56
421.839	6514.56
422.062	6576.56
422.285	6712.56
422.507	7444.56
422.73	7992.56
422.953	7382.56
423.175	6954.56
423.398	6982.56
423.621	7084.56
423.843	7243.56
424.066	7190.56
424.288	7107.56
424.511	7360.56
424.733	7778.56
424.956	8218.56
425.178	7734.56
425.401	7879.56
425.623	7723.56
425.846	6826.56
426.068	6731.56
426.291	6496.56
426.513	6523.56
426.735	6642.56
426.958	7201.56
427.18	7934.56
427.402	9122.56
427.625	9314.56
427.847	8029.56
428.069	7132.56
428.292	6489.56
428.514	6138.56
428.736	6017.56
428.958	6012.56
429.181	5825.56
429.403	5856.56
429.625	5954.56
429.847	6290.56
430.069	6907.56
430.292	6322.56
430.514	5877.56
430.736	5884.56
430.958	5817.56
431.18	5752.56
431.402	5654.56
431.624	5591.56
431.846	5688.56
432.068	5729.56
432.29	5798.56
432.512	5699.56
432.734	5853.56
432.956	5712.56
433.178	5916.56
433.4	5948.56
433.622	5754.56
433.844	5771.56
434.066	5788.56
434.287	5945.56
434.509	6187.56
434.731	6298.56
434.953	6460.56
435.175	6620.56
435.397	6745.56
435.618	6613.56
435.84	6976.56
436.062	7853.56
436.284	7814.56
436.505	6616.56
436.727	6293.56
436.949	5978.56
437.17	5912.56
437.392	5777.56
437.614	6058.56
437.835	6430.56
438.057	7490.56
438.278	7988.56
438.5	7817.56
438.721	8715.56
438.943	7606.56
439.165	6392.56
439.386	6297.56
439.608	6357.56
439.829	6443.56
440.05	6912.56
440.272	7280.56
440.493	6483.56
440.715	6209.56
440.936	6145.56
441.158	6139.56
441.379	6270.56
441.6	6632.56
441.822	6793.56
442.043	7280.56
442.264	8098.56
442.486	7795.56
442.707	6931.56
442.928	6784.56
443.149	7056.56
443.371	7282.56
443.592	7801.56
443.813	8762.56
444.034	8694.56
444.255	7617.56
444.476	7388.56
444.698	7553.56
444.919	7690.56
445.14	7383.56
445.361	7280.56
445.582	7542.56
445.803	8284.56
446.024	8817.56
446.245	8321.56
446.466	7474.56
446.687	6505.56
446.908	6129.56
447.129	5942.56
447.35	5765.56
447.571	5680.56
447.792	5624.56
448.013	5660.56
448.234	5907.56
448.455	6564.56
448.675	7725.56
448.896	8174.56
449.117	6722.56
449.338	7005.56
449.559	8279.56
449.779	8427.56
450	6476.56
450.221	5781.56
450.442	5633.56
450.662	5496.56
450.883	5705.56
451.104	5782.56
451.324	5600.56
451.545	5433.56
451.766	5230.56
451.986	5123.56
452.207	5116.56
452.428	5083.56
452.648	5142.56
452.869	5181.56
453.089	5252.56
453.31	5360.56
453.53	5157.56
453.751	5008.56
453.971	5118.56
454.192	5287.56
454.412	5036.56
454.633	4908.56
454.853	4916.56
455.073	4880.56
455.294	5371.56
455.514	5968.56
455.734	5419.56
455.955	4833.56
456.175	4742.56
456.395	4632.56
456.616	4617.56
456.836	4627.56
457.056	4680.56
457.276	4547.56
457.497	4726.56
457.717	4724.56
457.937	4846.56
458.157	4912.56
458.377	5011.56
458.598	5360.56
458.818	6252.56
459.038	7145.56
459.258	6870.56
459.478	6035.56
459.698	5913.56
459.918	5960.56
460.138	6016.56
460.358	6218.56
460.578	6272.56
460.798	6377.56
461.018	6387.56
461.238	6193.56
461.458	6211.56
461.678	6146.56
461.898	6276.56
462.118	6358.56
462.338	6607.56
462.558	6766.56
462.777	7032.56
462.997	7641.56
463.217	8069.56
463.437	7828.56
463.657	7217.56
463.876	7068.56
464.096	7159.56
464.316	7105.56
464.536	7155.56
464.755	6976.56
464.975	6927.56
465.195	7277.56
465.414	7458.56
465.634	6386.56
465.854	5917.56
466.073	5712.56
466.293	5462.56
466.512	5307.56
466.732	5234.56
466.951	5200.56
467.171	5220.56
467.391	5357.56
467.61	5428.56
467.829	5311.56
468.049	5224.56
468.268	5164.56
468.488	5117.56
468.707	4986.56
468.927	4991.56
469.146	5056.56
469.365	5126.56
469.585	5127.56
469.804	5285.56
470.023	5470.56
470.243	5434.56
470.462	5499.56
470.681	5698.56
470.901	5546.56
471.12	5393.56
471.339	5287.56
471.558	5306.56
471.777	5163.56
471.997	5069.56
472.216	5209.56
472.435	5437.56
472.654	5250.56
472.873	4995.56
473.092	4972.56
473.311	5053.56
473.53	5072.56
473.749	5152.56
473.968	5752.56
474.187	6752.56
474.406	6276.56
474.625	5330.56
474.844	5078.56
475.063	5024.56
475.282	5047.56
475.501	5000.56
475.72	5229.56
475.939	5136.56
476.158	5268.56
476.377	5221.56
476.596	5213.56
476.814	5412.56
477.033	5528.56
477.252	5506.56
477.471	5658.56
477.69	5740.56
477.908	5813.56
478.127	5980.56
478.346	5900.56
478.564	6077.56
478.783	6119.56
479.002	6364.56
479.22	6404.56
479.439	6414.56
479.658	6581.56
479.876	6680.56
480.095	6813.56
480.313	7355.56
480.532	7078.56
480.751	6932.56
480.969	7046.56
481.188	7436.56
481.406	7246.56
481.624	6549.56
481.843	6331.56
482.061	6132.56
482.28	6004.56
482.498	5944.56
482.717	5884.56
482.935	6002.56
483.153	5983.56
483.372	6024.56
483.59	5879.56
483.808	5920.56
484.027	5902.56
484.245	5916.56
484.463	6054.56
484.681	6105.56
484.9	6124.56
485.118	6173.56
485.336	6209.56
485.554	6324.56
485.772	6368.56
485.99	6356.56
486.209	6401.56
486.427	6442.56
486.645	6449.56
486.863	6551.56
487.081	6480.56
487.299	6444.56
487.517	6285.56
487.735	6330.56
