Data from Circ_1981_H10_HRD10591_00043.txt Node
Date: Wed Jan 03 12:34:29 EST 2024
User: Yrep
Spectrometer: HR+D1059
Trigger mode: 1
Integration Time (sec): 1.000000E-1
Scans to average: 1
Electric dark correction enabled: true
Nonlinearity correction enabled: false
Boxcar width: 0
XAxis mode: Wavelengths
Number of Pixels in Spectrum: 2048
>>>>>Begin Spectral Data<<<<<
223.165	-14.5
223.4	-14.5
223.635	-14.5
223.869	-24.5
224.104	-22.5
224.338	-11.5
224.573	-17.5
224.808	-13.5
225.042	-13.5
225.277	-7.5
225.511	-5.5
225.746	-1.5
225.98	4.5
226.215	24.5
226.449	20.5
226.683	20.5
226.918	21.5
227.152	40.5
227.387	27.5
227.621	38.5
227.856	32.5
228.09	41.5
228.324	45.5
228.559	55.5
228.793	48.5
229.027	61.5
229.262	64.5
229.496	67.5
229.73	89.5
229.964	92.5
230.199	75.5
230.433	79.5
230.667	76.5
230.901	84.5
231.136	77.5
231.37	99.5
231.604	86.5
231.838	88.5
232.072	83.5
232.306	74.5
232.541	88.5
232.775	84.5
233.009	82.5
233.243	78.5
233.477	70.5
233.711	71.5
233.945	90.5
234.179	81.5
234.413	81.5
234.647	88.5
234.881	70.5
235.115	93.5
235.349	85.5
235.583	74.5
235.817	69.5
236.051	85.5
236.285	68.5
236.519	80.5
236.753	80.5
236.987	66.5
237.221	90.5
237.455	80.5
237.689	76.5
237.922	74.5
238.156	86.5
238.39	85.5
238.624	82.5
238.858	77.5
239.091	74.5
239.325	66.5
239.559	91.5
239.793	84.5
240.027	80.5
240.26	77.5
240.494	90.5
240.728	69.5
240.961	72.5
241.195	80.5
241.429	70.5
241.662	66.5
241.896	77.5
242.13	83.5
242.363	60.5
242.597	80.5
242.83	72.5
243.064	70.5
243.298	78.5
243.531	68.5
243.765	77.5
243.998	75.5
244.232	72.5
244.465	91.5
244.699	80.5
244.932	68.5
245.166	72.5
245.399	90.5
245.633	72.5
245.866	67.5
246.099	70.5
246.333	72.5
246.566	85.5
246.8	75.5
247.033	86.5
247.266	89.5
247.5	85.5
247.733	83.5
247.966	77.5
248.2	70.5
248.433	75.5
248.666	80.5
248.899	70.5
249.133	82.5
249.366	78.5
249.599	85.5
249.832	72.5
250.066	72.5
250.299	84.5
250.532	68.5
250.765	67.5
250.998	83.5
251.231	79.5
251.465	85.5
251.698	75.5
251.931	92.5
252.164	75.5
252.397	77.5
252.63	71.5
252.863	69.5
253.096	72.5
253.329	88.5
253.562	91.5
253.795	99.5
254.028	82.5
254.261	102.5
254.494	101.5
254.727	75.5
254.96	82.5
255.193	77.5
255.426	86.5
255.659	75.5
255.892	84.5
256.124	64.5
256.357	86.5
256.59	84.5
256.823	67.5
257.056	76.5
257.289	82.5
257.521	70.5
257.754	98.5
257.987	73.5
258.22	89.5
258.452	93.5
258.685	71.5
258.918	86.5
259.151	66.5
259.383	72.5
259.616	71.5
259.849	69.5
260.081	85.5
260.314	85.5
260.547	67.5
260.779	77.5
261.012	87.5
261.244	88.5
261.477	82.5
261.71	102.5
261.942	106.5
262.175	117.5
262.407	89.5
262.64	71.5
262.872	79.5
263.105	84.5
263.337	74.5
263.57	81.5
263.802	73.5
264.035	79.5
264.267	80.5
264.499	81.5
264.732	88.5
264.964	82.5
265.197	91.5
265.429	88.5
265.661	90.5
265.894	83.5
266.126	82.5
266.358	86.5
266.591	86.5
266.823	91.5
267.055	80.5
267.287	86.5
267.52	77.5
267.752	92.5
267.984	72.5
268.216	88.5
268.448	88.5
268.681	80.5
268.913	78.5
269.145	82.5
269.377	75.5
269.609	96.5
269.841	94.5
270.073	75.5
270.306	69.5
270.538	84.5
270.77	89.5
271.002	76.5
271.234	94.5
271.466	99.5
271.698	72.5
271.93	86.5
272.162	76.5
272.394	72.5
272.626	66.5
272.858	92.5
273.09	70.5
273.322	92.5
273.553	84.5
273.785	82.5
274.017	71.5
274.249	83.5
274.481	84.5
274.713	89.5
274.945	84.5
275.176	89.5
275.408	96.5
275.64	89.5
275.872	90.5
276.104	87.5
276.335	82.5
276.567	81.5
276.799	105.5
277.031	106.5
277.262	96.5
277.494	86.5
277.726	95.5
277.957	90.5
278.189	61.5
278.421	80.5
278.652	93.5
278.884	82.5
279.115	88.5
279.347	93.5
279.579	80.5
279.81	77.5
280.042	91.5
280.273	94.5
280.505	76.5
280.736	76.5
280.968	78.5
281.199	91.5
281.431	87.5
281.662	94.5
281.894	94.5
282.125	94.5
282.356	113.5
282.588	140.5
282.819	104.5
283.051	92.5
283.282	89.5
283.513	80.5
283.745	69.5
283.976	84.5
284.207	88.5
284.439	98.5
284.67	93.5
284.901	91.5
285.132	94.5
285.364	93.5
285.595	78.5
285.826	78.5
286.057	76.5
286.288	82.5
286.52	92.5
286.751	82.5
286.982	95.5
287.213	84.5
287.444	76.5
287.675	91.5
287.906	78.5
288.138	88.5
288.369	97.5
288.6	94.5
288.831	99.5
289.062	92.5
289.293	76.5
289.524	90.5
289.755	87.5
289.986	94.5
290.217	84.5
290.448	84.5
290.679	83.5
290.91	93.5
291.141	96.5
291.371	72.5
291.602	76.5
291.833	82.5
292.064	71.5
292.295	100.5
292.526	86.5
292.757	88.5
292.987	105.5
293.218	88.5
293.449	84.5
293.68	92.5
293.91	86.5
294.141	78.5
294.372	86.5
294.603	92.5
294.833	90.5
295.064	93.5
295.295	89.5
295.525	87.5
295.756	107.5
295.987	98.5
296.217	132.5
296.448	120.5
296.679	84.5
296.909	91.5
297.14	82.5
297.37	92.5
297.601	83.5
297.831	93.5
298.062	90.5
298.292	83.5
298.523	83.5
298.753	85.5
298.984	100.5
299.214	85.5
299.445	77.5
299.675	93.5
299.905	95.5
300.136	101.5
300.366	85.5
300.597	93.5
300.827	85.5
301.057	98.5
301.288	104.5
301.518	93.5
301.748	82.5
301.979	107.5
302.209	89.5
302.439	85.5
302.669	74.5
302.9	88.5
303.13	91.5
303.36	106.5
303.59	101.5
303.82	102.5
304.051	90.5
304.281	109.5
304.511	106.5
304.741	104.5
304.971	82.5
305.201	87.5
305.431	80.5
305.661	92.5
305.891	92.5
306.121	105.5
306.352	92.5
306.582	98.5
306.812	92.5
307.042	89.5
307.272	77.5
307.502	97.5
307.731	96.5
307.961	89.5
308.191	93.5
308.421	96.5
308.651	92.5
308.881	99.5
309.111	94.5
309.341	97.5
309.571	89.5
309.8	94.5
310.03	94.5
310.26	89.5
310.49	88.5
310.72	108.5
310.949	104.5
311.179	97.5
311.409	88.5
311.639	88.5
311.868	103.5
312.098	86.5
312.328	91.5
312.557	96.5
312.787	100.5
313.017	105.5
313.246	100.5
313.476	79.5
313.706	94.5
313.935	90.5
314.165	87.5
314.394	81.5
314.624	107.5
314.853	85.5
315.083	90.5
315.312	97.5
315.542	88.5
315.771	91.5
316.001	102.5
316.23	81.5
316.46	80.5
316.689	87.5
316.919	92.5
317.148	96.5
317.377	91.5
317.607	96.5
317.836	90.5
318.065	96.5
318.295	81.5
318.524	95.5
318.753	85.5
318.983	86.5
319.212	103.5
319.441	102.5
319.67	92.5
319.9	103.5
320.129	84.5
320.358	94.5
320.587	87.5
320.816	88.5
321.046	105.5
321.275	107.5
321.504	103.5
321.733	98.5
321.962	94.5
322.191	117.5
322.42	118.5
322.649	117.5
322.878	120.5
323.108	127.5
323.337	131.5
323.566	124.5
323.795	158.5
324.024	204.5
324.253	413.5
324.482	899.5
324.71	1846.5
324.939	2591.5
325.168	937.5
325.397	280.5
325.626	155.5
325.855	137.5
326.084	126.5
326.313	124.5
326.542	154.5
326.77	245.5
326.999	488.5
327.228	1021.5
327.457	1966.5
327.686	1604.5
327.914	406.5
328.143	197.5
328.372	147.5
328.6	132.5
328.829	118.5
329.058	148.5
329.287	140.5
329.515	114.5
329.744	107.5
329.972	113.5
330.201	122.5
330.43	128.5
330.658	133.5
330.887	148.5
331.115	127.5
331.344	100.5
331.572	100.5
331.801	112.5
332.03	93.5
332.258	107.5
332.486	99.5
332.715	98.5
332.943	98.5
333.172	103.5
333.4	95.5
333.629	110.5
333.857	113.5
334.085	119.5
334.314	118.5
334.542	134.5
334.771	129.5
334.999	101.5
335.227	93.5
335.455	91.5
335.684	103.5
335.912	103.5
336.14	99.5
336.369	101.5
336.597	100.5
336.825	107.5
337.053	105.5
337.281	107.5
337.51	108.5
337.738	86.5
337.966	112.5
338.194	110.5
338.422	97.5
338.65	87.5
338.878	113.5
339.106	86.5
339.334	102.5
339.562	99.5
339.79	104.5
340.018	91.5
340.246	90.5
340.474	88.5
340.702	84.5
340.93	99.5
341.158	84.5
341.386	102.5
341.614	101.5
341.842	91.5
342.07	86.5
342.298	98.5
342.526	93.5
342.754	69.5
342.981	78.5
343.209	108.5
343.437	101.5
343.665	93.5
343.893	92.5
344.12	88.5
344.348	83.5
344.576	98.5
344.804	87.5
345.031	92.5
345.259	100.5
345.487	99.5
345.714	84.5
345.942	89.5
346.17	104.5
346.397	108.5
346.625	93.5
346.853	77.5
347.08	84.5
347.308	96.5
347.535	109.5
347.763	95.5
347.99	105.5
348.218	94.5
348.445	100.5
348.673	91.5
348.9	90.5
349.128	94.5
349.355	105.5
349.583	95.5
349.81	102.5
350.037	92.5
350.265	93.5
350.492	96.5
350.72	104.5
350.947	100.5
351.174	109.5
351.402	104.5
351.629	85.5
351.856	102.5
352.083	116.5
352.311	94.5
352.538	104.5
352.765	98.5
352.992	119.5
353.22	110.5
353.447	115.5
353.674	102.5
353.901	102.5
354.128	101.5
354.355	100.5
354.583	100.5
354.81	102.5
355.037	98.5
355.264	97.5
355.491	96.5
355.718	92.5
355.945	91.5
356.172	92.5
356.399	96.5
356.626	86.5
356.853	80.5
357.08	92.5
357.307	92.5
357.534	87.5
357.761	101.5
357.988	98.5
358.215	101.5
358.441	88.5
358.668	84.5
358.895	88.5
359.122	95.5
359.349	85.5
359.576	82.5
359.802	99.5
360.029	129.5
360.256	110.5
360.483	104.5
360.709	88.5
360.936	101.5
361.163	93.5
361.39	91.5
361.616	88.5
361.843	95.5
362.07	95.5
362.296	110.5
362.523	85.5
362.749	86.5
362.976	90.5
363.203	88.5
363.429	83.5
363.656	101.5
363.882	80.5
364.109	95.5
364.335	92.5
364.562	106.5
364.788	99.5
365.015	91.5
365.241	93.5
365.468	105.5
365.694	103.5
365.92	97.5
366.147	76.5
366.373	78.5
366.599	83.5
366.826	80.5
367.052	86.5
367.278	87.5
367.505	74.5
367.731	95.5
367.957	87.5
368.184	100.5
368.41	91.5
368.636	102.5
368.862	118.5
369.089	104.5
369.315	91.5
369.541	92.5
369.767	103.5
369.993	92.5
370.219	84.5
370.445	102.5
370.672	74.5
370.898	80.5
371.124	81.5
371.35	96.5
371.576	90.5
371.802	91.5
372.028	82.5
372.254	104.5
372.48	83.5
372.706	86.5
372.932	92.5
373.158	94.5
373.384	88.5
373.61	91.5
373.835	102.5
374.061	106.5
374.287	90.5
374.513	93.5
374.739	88.5
374.965	94.5
375.191	95.5
375.416	94.5
375.642	100.5
375.868	89.5
376.094	88.5
376.319	86.5
376.545	92.5
376.771	89.5
376.997	90.5
377.222	94.5
377.448	89.5
377.674	104.5
377.899	86.5
378.125	98.5
378.35	86.5
378.576	98.5
378.802	87.5
379.027	72.5
379.253	86.5
379.478	92.5
379.704	85.5
379.929	88.5
380.155	93.5
380.38	87.5
380.606	101.5
380.831	92.5
381.057	102.5
381.282	96.5
381.507	86.5
381.733	108.5
381.958	98.5
382.184	100.5
382.409	97.5
382.634	87.5
382.86	92.5
383.085	101.5
383.31	96.5
383.535	96.5
383.761	94.5
383.986	94.5
384.211	98.5
384.436	95.5
384.662	90.5
384.887	96.5
385.112	102.5
385.337	98.5
385.562	106.5
385.787	101.5
386.013	115.5
386.238	93.5
386.463	99.5
386.688	105.5
386.913	92.5
387.138	105.5
387.363	95.5
387.588	107.5
387.813	93.5
388.038	105.5
388.263	106.5
388.488	91.5
388.713	84.5
388.938	96.5
389.163	110.5
389.387	89.5
389.612	96.5
389.837	88.5
390.062	108.5
390.287	86.5
390.512	99.5
390.736	91.5
390.961	99.5
391.186	99.5
391.411	100.5
391.636	77.5
391.86	78.5
392.085	78.5
392.31	86.5
392.534	106.5
392.759	95.5
392.984	93.5
393.208	92.5
393.433	79.5
393.658	85.5
393.882	82.5
394.107	94.5
394.331	94.5
394.556	74.5
394.78	72.5
395.005	84.5
395.229	76.5
395.454	84.5
395.678	83.5
395.903	93.5
396.127	82.5
396.352	88.5
396.576	81.5
396.801	89.5
397.025	98.5
397.249	85.5
397.474	108.5
397.698	92.5
397.922	83.5
398.147	92.5
398.371	88.5
398.595	85.5
398.82	96.5
399.044	101.5
399.268	89.5
399.492	102.5
399.717	106.5
399.941	111.5
400.165	89.5
400.389	99.5
400.613	80.5
400.837	99.5
401.062	92.5
401.286	95.5
401.51	107.5
401.734	71.5
401.958	92.5
402.182	128.5
402.406	148.5
402.63	125.5
402.854	100.5
403.078	72.5
403.302	84.5
403.526	77.5
403.75	87.5
403.974	92.5
404.198	84.5
404.422	76.5
404.645	86.5
404.869	82.5
405.093	97.5
405.317	96.5
405.541	98.5
405.765	91.5
405.988	117.5
406.212	161.5
406.436	203.5
406.66	141.5
406.883	107.5
407.107	95.5
407.331	98.5
407.555	110.5
407.778	84.5
408.002	90.5
408.226	88.5
408.449	112.5
408.673	88.5
408.896	91.5
409.12	94.5
409.344	102.5
409.567	97.5
409.791	83.5
410.014	99.5
410.238	77.5
410.461	100.5
410.685	99.5
410.908	108.5
411.132	90.5
411.355	110.5
411.578	98.5
411.802	88.5
412.025	85.5
412.249	76.5
412.472	89.5
412.695	70.5
412.919	84.5
413.142	96.5
413.365	80.5
413.589	98.5
413.812	88.5
414.035	84.5
414.258	89.5
414.482	100.5
414.705	94.5
414.928	93.5
415.151	99.5
415.374	96.5
415.597	89.5
415.821	82.5
416.044	82.5
416.267	100.5
416.49	84.5
416.713	89.5
416.936	109.5
417.159	97.5
417.382	97.5
417.605	98.5
417.828	94.5
418.051	101.5
418.274	92.5
418.497	85.5
418.72	91.5
418.943	99.5
419.166	83.5
419.389	86.5
419.611	93.5
419.834	104.5
420.057	85.5
420.28	98.5
420.503	90.5
420.726	80.5
420.948	85.5
421.171	112.5
421.394	106.5
421.617	86.5
421.839	84.5
422.062	89.5
422.285	86.5
422.507	114.5
422.73	123.5
422.953	92.5
423.175	102.5
423.398	78.5
423.621	88.5
423.843	103.5
424.066	84.5
424.288	86.5
424.511	96.5
424.733	96.5
424.956	109.5
425.178	127.5
425.401	108.5
425.623	113.5
425.846	90.5
426.068	104.5
426.291	96.5
426.513	81.5
426.735	100.5
426.958	101.5
427.18	106.5
427.402	150.5
427.625	192.5
427.847	151.5
428.069	111.5
428.292	91.5
428.514	80.5
428.736	82.5
428.958	93.5
429.181	86.5
429.403	73.5
429.625	86.5
429.847	91.5
430.069	114.5
430.292	97.5
430.514	91.5
430.736	100.5
430.958	82.5
431.18	87.5
431.402	90.5
431.624	89.5
431.846	75.5
432.068	86.5
432.29	82.5
432.512	96.5
432.734	93.5
432.956	87.5
433.178	103.5
433.4	100.5
433.622	82.5
433.844	81.5
434.066	87.5
434.287	95.5
434.509	91.5
434.731	92.5
434.953	93.5
435.175	87.5
435.397	86.5
435.618	86.5
435.84	99.5
436.062	133.5
436.284	118.5
436.505	113.5
436.727	105.5
436.949	88.5
437.17	84.5
437.392	82.5
437.614	92.5
437.835	114.5
438.057	110.5
438.278	117.5
438.5	99.5
438.721	132.5
438.943	112.5
439.165	82.5
439.386	89.5
439.608	98.5
439.829	88.5
440.05	130.5
440.272	164.5
440.493	106.5
440.715	75.5
440.936	90.5
441.158	83.5
441.379	88.5
441.6	94.5
441.822	103.5
442.043	84.5
442.264	102.5
442.486	101.5
442.707	100.5
442.928	110.5
443.149	116.5
443.371	126.5
443.592	110.5
443.813	112.5
444.034	109.5
444.255	84.5
444.476	101.5
444.698	93.5
444.919	85.5
445.14	116.5
445.361	130.5
445.582	119.5
445.803	154.5
446.024	164.5
446.245	157.5
446.466	121.5
446.687	82.5
446.908	78.5
447.129	90.5
447.35	86.5
447.571	107.5
447.792	92.5
448.013	82.5
448.234	113.5
448.455	98.5
448.675	126.5
448.896	135.5
449.117	120.5
449.338	108.5
449.559	141.5
449.779	154.5
450	102.5
450.221	84.5
450.442	86.5
450.662	94.5
450.883	92.5
451.104	111.5
451.324	97.5
451.545	91.5
451.766	101.5
451.986	84.5
452.207	91.5
452.428	102.5
452.648	98.5
452.869	98.5
453.089	104.5
453.31	116.5
453.53	98.5
453.751	90.5
453.971	109.5
454.192	105.5
454.412	90.5
454.633	99.5
454.853	107.5
455.073	98.5
455.294	91.5
455.514	103.5
455.734	90.5
455.955	90.5
456.175	85.5
456.395	86.5
456.616	75.5
456.836	88.5
457.056	84.5
457.276	96.5
457.497	87.5
457.717	88.5
457.937	90.5
458.157	84.5
458.377	96.5
458.598	116.5
458.818	147.5
459.038	165.5
459.258	105.5
459.478	81.5
459.698	86.5
459.918	85.5
460.138	99.5
460.358	83.5
460.578	95.5
460.798	79.5
461.018	87.5
461.238	86.5
461.458	88.5
461.678	83.5
461.898	81.5
462.118	91.5
462.338	87.5
462.558	91.5
462.777	83.5
462.997	83.5
463.217	78.5
463.437	81.5
463.657	92.5
463.876	96.5
464.096	98.5
464.316	92.5
464.536	101.5
464.755	92.5
464.975	103.5
465.195	169.5
465.414	162.5
465.634	91.5
465.854	94.5
466.073	76.5
466.293	74.5
466.512	83.5
466.732	83.5
466.951	105.5
467.171	88.5
467.391	87.5
467.61	101.5
467.829	89.5
468.049	90.5
468.268	111.5
468.488	80.5
468.707	76.5
468.927	86.5
469.146	94.5
469.365	76.5
469.585	95.5
469.804	98.5
470.023	109.5
470.243	84.5
470.462	101.5
470.681	106.5
470.901	96.5
471.12	82.5
471.339	89.5
471.558	76.5
471.777	96.5
471.997	92.5
472.216	121.5
472.435	145.5
472.654	91.5
472.873	91.5
473.092	82.5
473.311	85.5
473.53	86.5
473.749	77.5
473.968	84.5
474.187	102.5
474.406	95.5
474.625	99.5
474.844	89.5
475.063	103.5
475.282	89.5
475.501	85.5
475.72	94.5
475.939	88.5
476.158	68.5
476.377	84.5
476.596	84.5
476.814	90.5
477.033	93.5
477.252	82.5
477.471	85.5
477.69	93.5
477.908	94.5
478.127	89.5
478.346	78.5
478.564	90.5
478.783	96.5
479.002	100.5
479.22	89.5
479.439	93.5
479.658	112.5
479.876	100.5
480.095	88.5
480.313	95.5
480.532	97.5
480.751	97.5
480.969	106.5
481.188	198.5
481.406	146.5
481.624	93.5
481.843	111.5
482.061	89.5
482.28	90.5
482.498	77.5
482.717	85.5
482.935	100.5
483.153	85.5
483.372	78.5
483.59	98.5
483.808	81.5
484.027	85.5
484.245	98.5
484.463	77.5
484.681	92.5
484.9	85.5
485.118	102.5
485.336	96.5
485.554	83.5
485.772	86.5
485.99	95.5
486.209	96.5
486.427	112.5
486.645	113.5
486.863	112.5
487.081	100.5
487.299	88.5
487.517	87.5
487.735	92.5
487.953	85.5
488.171	77.5
488.389	88.5
488.607	95.5
488.825	88.5
489.043	78.5
489.261	86.5
489.479	80.5
489.696	91.5
489.914	81.5
490.132	87.5
490.35	86.5
490.568	99.5
490.786	87.5
491.003	82.5
491.221	93.5
491.439	86.5
491.657	95.5
491.874	99.5
492.092	75.5
492.31	94.5
492.527	82.5
492.745	85.5
492.963	98.5
493.18	92.5
493.398	86.5
493.615	109.5
493.833	94.5
494.05	96.5
494.268	78.5
494.485	96.5
494.703	90.5
494.92	88.5
495.138	75.5
495.355	93.5
495.573	84.5
495.79	98.5
496.008	88.5
496.225	93.5
496.442	78.5
496.66	100.5
496.877	68.5
497.094	88.5
497.312	94.5
497.529	96.5
497.746	83.5
497.963	100.5
498.181	97.5
498.398	92.5
498.615	104.5
498.832	102.5
499.049	101.5
499.267	103.5
499.484	90.5
499.701	85.5
499.918	90.5
500.135	96.5
500.352	85.5
500.569	88.5
500.786	82.5
501.003	78.5
501.22	88.5
501.437	96.5
501.654	91.5
501.871	106.5
502.088	93.5
502.305	90.5
502.522	92.5
502.739	100.5
502.956	82.5
503.172	81.5
503.389	96.5
503.606	107.5
503.823	101.5
504.04	92.5
504.256	101.5
504.473	85.5
504.69	99.5
504.907	92.5
505.123	97.5
505.34	111.5
505.557	85.5
505.773	77.5
505.99	94.5
506.207	90.5
506.423	89.5
506.64	102.5
506.856	90.5
507.073	91.5
507.289	95.5
507.506	96.5
507.722	118.5
507.939	100.5
508.155	91.5
508.372	89.5
508.588	102.5
508.805	88.5
509.021	98.5
509.238	84.5
509.454	96.5
509.67	94.5
509.887	102.5
510.103	136.5
510.319	195.5
510.536	676.5
510.752	2149.5
510.968	560.5
511.184	156.5
511.401	101.5
511.617	99.5
511.833	86.5
512.049	97.5
512.265	83.5
512.481	88.5
512.698	104.5
512.914	95.5
513.13	88.5
513.346	102.5
513.562	99.5
513.778	81.5
513.994	89.5
514.21	99.5
514.426	114.5
514.642	121.5
514.858	107.5
515.074	165.5
515.29	461.5
515.506	1440.5
515.721	544.5
515.937	151.5
516.153	115.5
516.369	92.5
516.585	101.5
516.801	102.5
517.016	92.5
517.232	94.5
517.448	85.5
517.664	108.5
517.879	87.5
518.095	91.5
518.311	92.5
518.527	105.5
518.742	84.5
518.958	82.5
519.173	101.5
519.389	83.5
519.605	94.5
519.82	94.5
520.036	91.5
520.251	119.5
520.467	122.5
520.682	106.5
520.898	104.5
521.113	111.5
521.329	131.5
521.544	209.5
521.76	547.5
521.975	2332.5
522.19	1387.5
522.406	291.5
522.621	114.5
522.836	90.5
523.052	105.5
523.267	99.5
523.482	92.5
523.698	96.5
523.913	117.5
524.128	111.5
524.343	83.5
524.559	93.5
524.774	71.5
524.989	94.5
525.204	107.5
525.419	98.5
525.634	94.5
525.849	92.5
526.064	89.5
526.28	101.5
526.495	96.5
526.71	73.5
526.925	79.5
527.14	72.5
527.355	91.5
527.57	92.5
527.785	70.5
527.999	84.5
528.214	97.5
528.429	100.5
528.644	98.5
528.859	82.5
529.074	94.5
529.289	120.5
529.503	192.5
529.718	106.5
529.933	95.5
530.148	75.5
530.363	91.5
530.577	91.5
530.792	88.5
531.007	95.5
531.221	85.5
531.436	86.5
531.651	79.5
531.865	76.5
532.08	80.5
532.295	99.5
532.509	95.5
532.724	88.5
532.938	90.5
533.153	77.5
533.367	92.5
533.582	90.5
533.796	100.5
534.011	89.5
534.225	88.5
534.44	86.5
534.654	92.5
534.868	83.5
