Data from Circ_1981_H10_HRD10591_00027.txt Node
Date: Wed Jan 03 12:34:26 EST 2024
User: Yrep
Spectrometer: HR+D1059
Trigger mode: 1
Integration Time (sec): 1.000000E-1
Scans to average: 1
Electric dark correction enabled: true
Nonlinearity correction enabled: false
Boxcar width: 0
XAxis mode: Wavelengths
Number of Pixels in Spectrum: 2048
>>>>>Begin Spectral Data<<<<<
223.165	-21.88
223.4	-21.88
223.635	-21.88
223.869	-14.88
224.104	-23.88
224.338	-10.88
224.573	-13.88
224.808	-12.88
225.042	-0.88
225.277	-6.88
225.511	-5.88
225.746	-1.88
225.98	-2.88
226.215	18.12
226.449	18.12
226.683	24.12
226.918	24.12
227.152	32.12
227.387	24.12
227.621	41.12
227.856	29.12
228.09	49.12
228.324	42.12
228.559	55.12
228.793	54.12
229.027	64.12
229.262	70.12
229.496	80.12
229.73	75.12
229.964	103.12
230.199	64.12
230.433	77.12
230.667	89.12
230.901	68.12
231.136	79.12
231.37	68.12
231.604	82.12
231.838	80.12
232.072	82.12
232.306	71.12
232.541	83.12
232.775	82.12
233.009	84.12
233.243	76.12
233.477	60.12
233.711	86.12
233.945	86.12
234.179	72.12
234.413	83.12
234.647	77.12
234.881	68.12
235.115	93.12
235.349	66.12
235.583	70.12
235.817	72.12
236.051	72.12
236.285	83.12
236.519	85.12
236.753	75.12
236.987	87.12
237.221	74.12
237.455	74.12
237.689	75.12
237.922	94.12
238.156	76.12
238.39	68.12
238.624	79.12
238.858	78.12
239.091	93.12
239.325	91.12
239.559	70.12
239.793	80.12
240.027	85.12
240.26	84.12
240.494	95.12
240.728	79.12
240.961	69.12
241.195	88.12
241.429	76.12
241.662	60.12
241.896	74.12
242.13	74.12
242.363	86.12
242.597	82.12
242.83	91.12
243.064	91.12
243.298	78.12
243.531	84.12
243.765	72.12
243.998	82.12
244.232	85.12
244.465	80.12
244.699	86.12
244.932	65.12
245.166	82.12
245.399	94.12
245.633	86.12
245.866	72.12
246.099	68.12
246.333	86.12
246.566	87.12
246.8	74.12
247.033	72.12
247.266	77.12
247.5	79.12
247.733	83.12
247.966	82.12
248.2	92.12
248.433	77.12
248.666	72.12
248.899	96.12
249.133	88.12
249.366	98.12
249.599	90.12
249.832	89.12
250.066	93.12
250.299	86.12
250.532	84.12
250.765	85.12
250.998	75.12
251.231	83.12
251.465	90.12
251.698	72.12
251.931	85.12
252.164	80.12
252.397	82.12
252.63	82.12
252.863	67.12
253.096	76.12
253.329	95.12
253.562	71.12
253.795	71.12
254.028	89.12
254.261	82.12
254.494	70.12
254.727	78.12
254.96	75.12
255.193	93.12
255.426	86.12
255.659	79.12
255.892	77.12
256.124	68.12
256.357	86.12
256.59	76.12
256.823	84.12
257.056	78.12
257.289	80.12
257.521	74.12
257.754	86.12
257.987	97.12
258.22	87.12
258.452	84.12
258.685	69.12
258.918	71.12
259.151	88.12
259.383	82.12
259.616	72.12
259.849	92.12
260.081	81.12
260.314	79.12
260.547	94.12
260.779	75.12
261.012	75.12
261.244	88.12
261.477	86.12
261.71	104.12
261.942	111.12
262.175	102.12
262.407	93.12
262.64	98.12
262.872	83.12
263.105	82.12
263.337	102.12
263.57	90.12
263.802	89.12
264.035	98.12
264.267	77.12
264.499	68.12
264.732	84.12
264.964	70.12
265.197	84.12
265.429	83.12
265.661	74.12
265.894	86.12
266.126	71.12
266.358	92.12
266.591	71.12
266.823	79.12
267.055	94.12
267.287	86.12
267.52	91.12
267.752	94.12
267.984	99.12
268.216	88.12
268.448	95.12
268.681	91.12
268.913	80.12
269.145	86.12
269.377	90.12
269.609	91.12
269.841	100.12
270.073	102.12
270.306	86.12
270.538	83.12
270.77	89.12
271.002	89.12
271.234	98.12
271.466	78.12
271.698	90.12
271.93	70.12
272.162	82.12
272.394	84.12
272.626	89.12
272.858	85.12
273.09	88.12
273.322	91.12
273.553	95.12
273.785	88.12
274.017	92.12
274.249	84.12
274.481	79.12
274.713	80.12
274.945	88.12
275.176	78.12
275.408	76.12
275.64	100.12
275.872	103.12
276.104	91.12
276.335	93.12
276.567	102.12
276.799	100.12
277.031	96.12
277.262	83.12
277.494	79.12
277.726	85.12
277.957	79.12
278.189	89.12
278.421	83.12
278.652	95.12
278.884	87.12
279.115	88.12
279.347	92.12
279.579	92.12
279.81	91.12
280.042	92.12
280.273	95.12
280.505	76.12
280.736	77.12
280.968	84.12
281.199	93.12
281.431	102.12
281.662	90.12
281.894	100.12
282.125	108.12
282.356	120.12
282.588	120.12
282.819	95.12
283.051	96.12
283.282	90.12
283.513	87.12
283.745	76.12
283.976	90.12
284.207	79.12
284.439	92.12
284.67	84.12
284.901	79.12
285.132	82.12
285.364	83.12
285.595	96.12
285.826	86.12
286.057	94.12
286.288	93.12
286.52	92.12
286.751	84.12
286.982	91.12
287.213	91.12
287.444	83.12
287.675	97.12
287.906	86.12
288.138	75.12
288.369	93.12
288.6	106.12
288.831	107.12
289.062	90.12
289.293	68.12
289.524	79.12
289.755	84.12
289.986	86.12
290.217	83.12
290.448	87.12
290.679	94.12
290.91	84.12
291.141	85.12
291.371	96.12
291.602	96.12
291.833	91.12
292.064	97.12
292.295	96.12
292.526	81.12
292.757	86.12
292.987	92.12
293.218	82.12
293.449	89.12
293.68	104.12
293.91	79.12
294.141	102.12
294.372	94.12
294.603	91.12
294.833	99.12
295.064	89.12
295.295	87.12
295.525	85.12
295.756	94.12
295.987	100.12
296.217	128.12
296.448	116.12
296.679	98.12
296.909	95.12
297.14	103.12
297.37	89.12
297.601	95.12
297.831	87.12
298.062	91.12
298.292	107.12
298.523	96.12
298.753	91.12
298.984	82.12
299.214	86.12
299.445	95.12
299.675	92.12
299.905	84.12
300.136	90.12
300.366	84.12
300.597	82.12
300.827	91.12
301.057	97.12
301.288	100.12
301.518	82.12
301.748	81.12
301.979	100.12
302.209	97.12
302.439	90.12
302.669	86.12
302.9	94.12
303.13	79.12
303.36	86.12
303.59	78.12
303.82	116.12
304.051	97.12
304.281	98.12
304.511	90.12
304.741	92.12
304.971	96.12
305.201	69.12
305.431	92.12
305.661	99.12
305.891	80.12
306.121	101.12
306.352	108.12
306.582	93.12
306.812	93.12
307.042	99.12
307.272	90.12
307.502	94.12
307.731	95.12
307.961	92.12
308.191	88.12
308.421	103.12
308.651	91.12
308.881	89.12
309.111	83.12
309.341	90.12
309.571	102.12
309.8	88.12
310.03	85.12
310.26	101.12
310.49	94.12
310.72	101.12
310.949	111.12
311.179	100.12
311.409	95.12
311.639	109.12
311.868	84.12
312.098	92.12
312.328	96.12
312.557	109.12
312.787	91.12
313.017	95.12
313.246	90.12
313.476	97.12
313.706	94.12
313.935	102.12
314.165	99.12
314.394	105.12
314.624	100.12
314.853	82.12
315.083	84.12
315.312	105.12
315.542	102.12
315.771	103.12
316.001	88.12
316.23	98.12
316.46	93.12
316.689	93.12
316.919	90.12
317.148	101.12
317.377	107.12
317.607	106.12
317.836	94.12
318.065	86.12
318.295	92.12
318.524	96.12
318.753	85.12
318.983	88.12
319.212	93.12
319.441	109.12
319.67	105.12
319.9	99.12
320.129	98.12
320.358	108.12
320.587	98.12
320.816	96.12
321.046	97.12
321.275	98.12
321.504	108.12
321.733	107.12
321.962	90.12
322.191	90.12
322.42	109.12
322.649	113.12
322.878	103.12
323.108	124.12
323.337	124.12
323.566	126.12
323.795	154.12
324.024	202.12
324.253	387.12
324.482	904.12
324.71	1844.12
324.939	2533.12
325.168	906.12
325.397	269.12
325.626	138.12
325.855	123.12
326.084	136.12
326.313	127.12
326.542	172.12
326.77	226.12
326.999	442.12
327.228	996.12
327.457	1869.12
327.686	1527.12
327.914	400.12
328.143	199.12
328.372	164.12
328.6	122.12
328.829	108.12
329.058	120.12
329.287	126.12
329.515	108.12
329.744	103.12
329.972	109.12
330.201	120.12
330.43	133.12
330.658	121.12
330.887	133.12
331.115	134.12
331.344	112.12
331.572	119.12
331.801	102.12
332.03	94.12
332.258	102.12
332.486	93.12
332.715	99.12
332.943	94.12
333.172	85.12
333.4	100.12
333.629	114.12
333.857	108.12
334.085	117.12
334.314	119.12
334.542	124.12
334.771	131.12
334.999	102.12
335.227	90.12
335.455	95.12
335.684	99.12
335.912	95.12
336.14	94.12
336.369	97.12
336.597	98.12
336.825	86.12
337.053	94.12
337.281	91.12
337.51	83.12
337.738	99.12
337.966	93.12
338.194	88.12
338.422	100.12
338.65	97.12
338.878	86.12
339.106	93.12
339.334	90.12
339.562	88.12
339.79	89.12
340.018	84.12
340.246	101.12
340.474	91.12
340.702	93.12
340.93	97.12
341.158	87.12
341.386	100.12
341.614	80.12
341.842	100.12
342.07	87.12
342.298	90.12
342.526	103.12
342.754	91.12
342.981	94.12
343.209	99.12
343.437	109.12
343.665	79.12
343.893	96.12
344.12	90.12
344.348	95.12
344.576	104.12
344.804	96.12
345.031	92.12
345.259	87.12
345.487	101.12
345.714	100.12
345.942	93.12
346.17	76.12
346.397	96.12
346.625	93.12
346.853	84.12
347.08	101.12
347.308	93.12
347.535	99.12
347.763	86.12
347.99	89.12
348.218	79.12
348.445	103.12
348.673	87.12
348.9	92.12
349.128	88.12
349.355	88.12
349.583	96.12
349.81	76.12
350.037	86.12
350.265	107.12
350.492	103.12
350.72	103.12
350.947	94.12
351.174	120.12
351.402	102.12
351.629	102.12
351.856	100.12
352.083	112.12
352.311	109.12
352.538	118.12
352.765	110.12
352.992	114.12
353.22	102.12
353.447	106.12
353.674	93.12
353.901	92.12
354.128	104.12
354.355	85.12
354.583	89.12
354.81	99.12
355.037	95.12
355.264	107.12
355.491	105.12
355.718	85.12
355.945	95.12
356.172	88.12
356.399	102.12
356.626	90.12
356.853	97.12
357.08	107.12
357.307	95.12
357.534	93.12
357.761	91.12
357.988	96.12
358.215	102.12
358.441	86.12
358.668	90.12
358.895	79.12
359.122	94.12
359.349	86.12
359.576	95.12
359.802	105.12
360.029	120.12
360.256	103.12
360.483	104.12
360.709	88.12
360.936	100.12
361.163	100.12
361.39	107.12
361.616	82.12
361.843	106.12
362.07	102.12
362.296	100.12
362.523	102.12
362.749	91.12
362.976	104.12
363.203	85.12
363.429	96.12
363.656	89.12
363.882	86.12
364.109	99.12
364.335	87.12
364.562	85.12
364.788	89.12
365.015	92.12
365.241	106.12
365.468	94.12
365.694	100.12
365.92	82.12
366.147	99.12
366.373	89.12
366.599	100.12
366.826	88.12
367.052	89.12
367.278	87.12
367.505	85.12
367.731	96.12
367.957	76.12
368.184	97.12
368.41	86.12
368.636	116.12
368.862	118.12
369.089	108.12
369.315	98.12
369.541	88.12
369.767	92.12
369.993	80.12
370.219	92.12
370.445	85.12
370.672	85.12
370.898	87.12
371.124	93.12
371.35	113.12
371.576	104.12
371.802	102.12
372.028	96.12
372.254	107.12
372.48	84.12
372.706	98.12
372.932	88.12
373.158	85.12
373.384	99.12
373.61	82.12
373.835	100.12
374.061	93.12
374.287	95.12
374.513	89.12
374.739	106.12
374.965	93.12
375.191	101.12
375.416	78.12
375.642	88.12
375.868	91.12
376.094	97.12
376.319	83.12
376.545	97.12
376.771	101.12
376.997	85.12
377.222	96.12
377.448	93.12
377.674	92.12
377.899	88.12
378.125	92.12
378.35	105.12
378.576	79.12
378.802	87.12
379.027	91.12
379.253	98.12
379.478	93.12
379.704	100.12
379.929	90.12
380.155	89.12
380.38	89.12
380.606	93.12
380.831	79.12
381.057	107.12
381.282	99.12
381.507	114.12
381.733	103.12
381.958	84.12
382.184	96.12
382.409	96.12
382.634	102.12
382.86	84.12
383.085	109.12
383.31	97.12
383.535	104.12
383.761	87.12
383.986	100.12
384.211	96.12
384.436	110.12
384.662	106.12
384.887	94.12
385.112	108.12
385.337	104.12
385.562	100.12
385.787	100.12
386.013	122.12
386.238	123.12
386.463	94.12
386.688	120.12
386.913	96.12
387.138	118.12
387.363	98.12
387.588	101.12
387.813	109.12
388.038	116.12
388.263	126.12
388.488	110.12
388.713	88.12
388.938	100.12
389.163	100.12
389.387	95.12
389.612	86.12
389.837	103.12
390.062	112.12
390.287	96.12
390.512	88.12
390.736	98.12
390.961	86.12
391.186	97.12
391.411	101.12
391.636	90.12
391.86	75.12
392.085	102.12
392.31	92.12
392.534	75.12
392.759	96.12
392.984	92.12
393.208	98.12
393.433	104.12
393.658	94.12
393.882	79.12
394.107	87.12
394.331	77.12
394.556	84.12
394.78	92.12
395.005	90.12
395.229	88.12
395.454	86.12
395.678	75.12
395.903	96.12
396.127	86.12
396.352	99.12
396.576	89.12
396.801	87.12
397.025	101.12
397.249	84.12
397.474	83.12
397.698	94.12
397.922	92.12
398.147	75.12
398.371	88.12
398.595	94.12
398.82	88.12
399.044	85.12
399.268	95.12
399.492	93.12
399.717	88.12
399.941	98.12
400.165	94.12
400.389	87.12
400.613	88.12
400.837	90.12
401.062	86.12
401.286	91.12
401.51	88.12
401.734	88.12
401.958	106.12
402.182	106.12
402.406	133.12
402.63	114.12
402.854	95.12
403.078	98.12
403.302	90.12
403.526	94.12
403.75	82.12
403.974	87.12
404.198	85.12
404.422	103.12
404.645	95.12
404.869	101.12
405.093	100.12
405.317	110.12
405.541	106.12
405.765	88.12
405.988	109.12
406.212	159.12
406.436	211.12
406.66	137.12
406.883	108.12
407.107	90.12
407.331	95.12
407.555	126.12
407.778	103.12
408.002	102.12
408.226	93.12
408.449	91.12
408.673	94.12
408.896	97.12
409.12	99.12
409.344	88.12
409.567	78.12
409.791	102.12
410.014	94.12
410.238	93.12
410.461	89.12
410.685	98.12
410.908	100.12
411.132	105.12
411.355	108.12
411.578	97.12
411.802	93.12
412.025	83.12
412.249	80.12
412.472	74.12
412.695	94.12
412.919	90.12
413.142	79.12
413.365	86.12
413.589	90.12
413.812	80.12
414.035	85.12
414.258	79.12
414.482	86.12
414.705	86.12
414.928	87.12
415.151	87.12
415.374	96.12
415.597	86.12
415.821	80.12
416.044	79.12
416.267	103.12
416.49	78.12
416.713	98.12
416.936	96.12
417.159	84.12
417.382	109.12
417.605	95.12
417.828	92.12
418.051	109.12
418.274	86.12
418.497	75.12
418.72	94.12
418.943	76.12
419.166	89.12
419.389	90.12
419.611	81.12
419.834	77.12
420.057	92.12
420.28	88.12
420.503	89.12
420.726	98.12
420.948	91.12
421.171	98.12
421.394	87.12
421.617	99.12
421.839	89.12
422.062	79.12
422.285	90.12
422.507	101.12
422.73	108.12
422.953	105.12
423.175	107.12
423.398	89.12
423.621	81.12
423.843	83.12
424.066	93.12
424.288	103.12
424.511	99.12
424.733	98.12
424.956	92.12
425.178	108.12
425.401	111.12
425.623	92.12
425.846	92.12
426.068	86.12
426.291	102.12
426.513	87.12
426.735	93.12
426.958	95.12
427.18	112.12
427.402	148.12
427.625	178.12
427.847	135.12
428.069	103.12
428.292	80.12
428.514	83.12
428.736	65.12
428.958	86.12
429.181	93.12
429.403	77.12
429.625	92.12
429.847	103.12
430.069	108.12
430.292	94.12
430.514	90.12
430.736	82.12
430.958	86.12
431.18	83.12
431.402	75.12
431.624	99.12
431.846	107.12
432.068	87.12
432.29	81.12
432.512	95.12
432.734	79.12
432.956	92.12
433.178	113.12
433.4	94.12
433.622	104.12
433.844	89.12
434.066	84.12
434.287	97.12
434.509	83.12
434.731	107.12
434.953	86.12
435.175	97.12
435.397	88.12
435.618	93.12
435.84	97.12
436.062	138.12
436.284	128.12
436.505	107.12
436.727	104.12
436.949	96.12
437.17	86.12
437.392	93.12
437.614	95.12
437.835	124.12
438.057	119.12
438.278	112.12
438.5	107.12
438.721	124.12
438.943	120.12
439.165	101.12
439.386	80.12
439.608	90.12
439.829	109.12
440.05	146.12
440.272	151.12
440.493	112.12
440.715	88.12
440.936	89.12
441.158	98.12
441.379	95.12
441.6	89.12
441.822	102.12
442.043	101.12
442.264	95.12
442.486	105.12
442.707	94.12
442.928	98.12
443.149	132.12
443.371	136.12
443.592	119.12
443.813	118.12
444.034	119.12
444.255	88.12
444.476	94.12
444.698	90.12
444.919	76.12
445.14	147.12
445.361	123.12
445.582	118.12
445.803	150.12
446.024	147.12
446.245	156.12
446.466	102.12
446.687	91.12
446.908	72.12
447.129	94.12
447.35	82.12
447.571	84.12
447.792	98.12
448.013	90.12
448.234	103.12
448.455	102.12
448.675	118.12
448.896	115.12
449.117	99.12
449.338	105.12
449.559	139.12
449.779	135.12
450	106.12
450.221	102.12
450.442	98.12
450.662	93.12
450.883	105.12
451.104	121.12
451.324	98.12
451.545	88.12
451.766	86.12
451.986	79.12
452.207	98.12
452.428	88.12
452.648	98.12
452.869	104.12
453.089	103.12
453.31	113.12
453.53	100.12
453.751	97.12
453.971	110.12
454.192	121.12
454.412	91.12
454.633	103.12
454.853	103.12
455.073	83.12
455.294	95.12
455.514	105.12
455.734	90.12
455.955	92.12
456.175	90.12
456.395	85.12
456.616	89.12
456.836	96.12
457.056	91.12
457.276	75.12
457.497	87.12
457.717	83.12
457.937	77.12
458.157	86.12
458.377	78.12
458.598	104.12
458.818	123.12
459.038	154.12
459.258	122.12
459.478	92.12
459.698	87.12
459.918	90.12
460.138	87.12
460.358	83.12
460.578	87.12
460.798	88.12
461.018	71.12
461.238	83.12
461.458	86.12
461.678	95.12
461.898	89.12
462.118	93.12
462.338	91.12
462.558	78.12
462.777	84.12
462.997	92.12
463.217	100.12
463.437	86.12
463.657	85.12
463.876	86.12
464.096	77.12
464.316	80.12
464.536	85.12
464.755	90.12
464.975	93.12
465.195	154.12
465.414	141.12
465.634	91.12
465.854	91.12
466.073	83.12
466.293	75.12
466.512	86.12
466.732	81.12
466.951	109.12
467.171	102.12
467.391	99.12
467.61	110.12
467.829	83.12
468.049	90.12
468.268	80.12
468.488	88.12
468.707	93.12
468.927	89.12
469.146	100.12
469.365	98.12
469.585	84.12
469.804	86.12
470.023	108.12
470.243	108.12
470.462	111.12
470.681	110.12
470.901	92.12
471.12	90.12
471.339	82.12
471.558	98.12
471.777	82.12
471.997	99.12
472.216	102.12
472.435	131.12
472.654	91.12
472.873	76.12
473.092	91.12
473.311	85.12
473.53	88.12
473.749	99.12
473.968	89.12
474.187	109.12
474.406	90.12
474.625	87.12
474.844	99.12
475.063	86.12
475.282	88.12
475.501	97.12
475.72	95.12
475.939	80.12
476.158	87.12
476.377	91.12
476.596	71.12
476.814	92.12
477.033	89.12
477.252	96.12
477.471	88.12
477.69	92.12
477.908	83.12
478.127	82.12
478.346	79.12
478.564	97.12
478.783	98.12
479.002	87.12
479.22	97.12
479.439	102.12
479.658	110.12
479.876	104.12
480.095	83.12
480.313	91.12
480.532	90.12
480.751	98.12
480.969	118.12
481.188	169.12
481.406	141.12
481.624	109.12
481.843	79.12
482.061	90.12
482.28	90.12
482.498	95.12
482.717	110.12
482.935	93.12
483.153	86.12
483.372	87.12
483.59	85.12
483.808	79.12
484.027	97.12
484.245	93.12
484.463	85.12
484.681	102.12
484.9	108.12
485.118	108.12
485.336	89.12
485.554	86.12
485.772	103.12
485.99	102.12
486.209	102.12
486.427	107.12
486.645	114.12
486.863	116.12
487.081	109.12
487.299	93.12
487.517	94.12
487.735	91.12
487.953	85.12
488.171	101.12
488.389	110.12
488.607	102.12
488.825	89.12
489.043	90.12
489.261	94.12
489.479	85.12
489.696	81.12
489.914	88.12
490.132	92.12
490.35	83.12
490.568	101.12
490.786	90.12
491.003	89.12
491.221	92.12
491.439	94.12
491.657	92.12
491.874	102.12
492.092	85.12
492.31	91.12
492.527	88.12
492.745	88.12
492.963	92.12
493.18	89.12
493.398	93.12
493.615	101.12
493.833	93.12
494.05	89.12
494.268	101.12
494.485	84.12
494.703	100.12
494.92	89.12
495.138	78.12
495.355	80.12
495.573	101.12
495.79	92.12
496.008	86.12
496.225	89.12
496.442	92.12
496.66	111.12
496.877	83.12
497.094	86.12
497.312	95.12
497.529	98.12
497.746	103.12
497.963	98.12
498.181	98.12
498.398	96.12
498.615	112.12
498.832	104.12
499.049	92.12
499.267	82.12
499.484	93.12
499.701	87.12
499.918	91.12
500.135	102.12
500.352	86.12
500.569	86.12
500.786	90.12
501.003	87.12
501.22	88.12
501.437	85.12
501.654	99.12
501.871	101.12
502.088	86.12
502.305	99.12
502.522	96.12
502.739	94.12
502.956	100.12
503.172	80.12
503.389	90.12
503.606	100.12
503.823	98.12
504.04	88.12
504.256	100.12
504.473	84.12
504.69	75.12
504.907	95.12
505.123	94.12
505.34	103.12
505.557	94.12
505.773	93.12
505.99	103.12
506.207	100.12
506.423	85.12
506.64	88.12
506.856	94.12
507.073	88.12
507.289	94.12
507.506	98.12
507.722	112.12
507.939	111.12
508.155	100.12
508.372	90.12
508.588	93.12
508.805	85.12
509.021	100.12
509.238	90.12
509.454	102.12
509.67	108.12
509.887	94.12
510.103	117.12
510.319	189.12
510.536	601.12
510.752	1864.12
510.968	523.12
511.184	137.12
511.401	99.12
511.617	105.12
511.833	91.12
512.049	100.12
512.265	90.12
512.481	95.12
512.698	96.12
512.914	101.12
513.13	98.12
513.346	98.12
513.562	83.12
513.778	95.12
513.994	97.12
514.21	106.12
514.426	97.12
514.642	146.12
514.858	120.12
