Data from Circ_1981_H10_HRD10591_00076.txt Node
Date: Wed Jan 03 12:34:36 EST 2024
User: Yrep
Spectrometer: HR+D1059
Trigger mode: 1
Integration Time (sec): 1.000000E-1
Scans to average: 1
Electric dark correction enabled: true
Nonlinearity correction enabled: false
Boxcar width: 0
XAxis mode: Wavelengths
Number of Pixels in Spectrum: 2048
>>>>>Begin Spectral Data<<<<<
223.165	-22.81
223.4	-22.81
223.635	-22.81
223.869	-5.81
224.104	-7.81
224.338	-17.81
224.573	-22.81
224.808	-24.81
225.042	-11.81
225.277	2.19
225.511	1.19
225.746	16.19
225.98	-11.81
226.215	6.19
226.449	9.19
226.683	31.19
226.918	26.19
227.152	33.19
227.387	38.19
227.621	34.19
227.856	64.19
228.09	43.19
228.324	61.19
228.559	67.19
228.793	61.19
229.027	52.19
229.262	65.19
229.496	90.19
229.73	99.19
229.964	95.19
230.199	74.19
230.433	73.19
230.667	82.19
230.901	79.19
231.136	87.19
231.37	75.19
231.604	79.19
231.838	80.19
232.072	78.19
232.306	75.19
232.541	88.19
232.775	87.19
233.009	73.19
233.243	77.19
233.477	73.19
233.711	87.19
233.945	81.19
234.179	84.19
234.413	76.19
234.647	74.19
234.881	85.19
235.115	78.19
235.349	57.19
235.583	77.19
235.817	72.19
236.051	89.19
236.285	81.19
236.519	78.19
236.753	93.19
236.987	93.19
237.221	85.19
237.455	99.19
237.689	77.19
237.922	74.19
238.156	82.19
238.39	76.19
238.624	68.19
238.858	83.19
239.091	89.19
239.325	77.19
239.559	85.19
239.793	93.19
240.027	86.19
240.26	73.19
240.494	83.19
240.728	73.19
240.961	74.19
241.195	86.19
241.429	74.19
241.662	63.19
241.896	68.19
242.13	76.19
242.363	92.19
242.597	72.19
242.83	95.19
243.064	76.19
243.298	76.19
243.531	84.19
243.765	82.19
243.998	75.19
244.232	85.19
244.465	87.19
244.699	89.19
244.932	83.19
245.166	80.19
245.399	73.19
245.633	79.19
245.866	84.19
246.099	81.19
246.333	85.19
246.566	79.19
246.8	73.19
247.033	73.19
247.266	84.19
247.5	66.19
247.733	76.19
247.966	91.19
248.2	74.19
248.433	73.19
248.666	76.19
248.899	77.19
249.133	71.19
249.366	98.19
249.599	111.19
249.832	84.19
250.066	82.19
250.299	83.19
250.532	71.19
250.765	68.19
250.998	78.19
251.231	91.19
251.465	85.19
251.698	59.19
251.931	66.19
252.164	74.19
252.397	82.19
252.63	74.19
252.863	87.19
253.096	78.19
253.329	72.19
253.562	88.19
253.795	92.19
254.028	84.19
254.261	71.19
254.494	77.19
254.727	85.19
254.96	90.19
255.193	78.19
255.426	73.19
255.659	95.19
255.892	91.19
256.124	76.19
256.357	86.19
256.59	99.19
256.823	90.19
257.056	81.19
257.289	82.19
257.521	73.19
257.754	68.19
257.987	83.19
258.22	103.19
258.452	77.19
258.685	84.19
258.918	88.19
259.151	87.19
259.383	83.19
259.616	79.19
259.849	90.19
260.081	89.19
260.314	105.19
260.547	79.19
260.779	87.19
261.012	83.19
261.244	75.19
261.477	93.19
261.71	100.19
261.942	125.19
262.175	117.19
262.407	85.19
262.64	86.19
262.872	96.19
263.105	85.19
263.337	82.19
263.57	102.19
263.802	81.19
264.035	72.19
264.267	65.19
264.499	83.19
264.732	102.19
264.964	72.19
265.197	86.19
265.429	94.19
265.661	86.19
265.894	93.19
266.126	91.19
266.358	91.19
266.591	87.19
266.823	89.19
267.055	83.19
267.287	83.19
267.52	97.19
267.752	94.19
267.984	83.19
268.216	75.19
268.448	90.19
268.681	97.19
268.913	85.19
269.145	90.19
269.377	97.19
269.609	86.19
269.841	85.19
270.073	74.19
270.306	81.19
270.538	87.19
270.77	101.19
271.002	91.19
271.234	99.19
271.466	87.19
271.698	97.19
271.93	85.19
272.162	100.19
272.394	100.19
272.626	84.19
272.858	91.19
273.09	91.19
273.322	100.19
273.553	74.19
273.785	77.19
274.017	89.19
274.249	81.19
274.481	82.19
274.713	93.19
274.945	81.19
275.176	90.19
275.408	85.19
275.64	87.19
275.872	81.19
276.104	91.19
276.335	84.19
276.567	105.19
276.799	115.19
277.031	121.19
277.262	87.19
277.494	82.19
277.726	88.19
277.957	79.19
278.189	85.19
278.421	92.19
278.652	89.19
278.884	71.19
279.115	83.19
279.347	89.19
279.579	90.19
279.81	97.19
280.042	98.19
280.273	90.19
280.505	77.19
280.736	77.19
280.968	86.19
281.199	104.19
281.431	90.19
281.662	88.19
281.894	99.19
282.125	124.19
282.356	131.19
282.588	149.19
282.819	124.19
283.051	89.19
283.282	73.19
283.513	91.19
283.745	94.19
283.976	87.19
284.207	87.19
284.439	97.19
284.67	69.19
284.901	92.19
285.132	83.19
285.364	95.19
285.595	79.19
285.826	102.19
286.057	86.19
286.288	91.19
286.52	79.19
286.751	97.19
286.982	91.19
287.213	97.19
287.444	77.19
287.675	94.19
287.906	94.19
288.138	101.19
288.369	89.19
288.6	94.19
288.831	93.19
289.062	92.19
289.293	101.19
289.524	75.19
289.755	100.19
289.986	95.19
290.217	91.19
290.448	88.19
290.679	84.19
290.91	71.19
291.141	78.19
291.371	92.19
291.602	94.19
291.833	95.19
292.064	90.19
292.295	95.19
292.526	81.19
292.757	85.19
292.987	76.19
293.218	83.19
293.449	81.19
293.68	81.19
293.91	79.19
294.141	99.19
294.372	89.19
294.603	85.19
294.833	98.19
295.064	100.19
295.295	88.19
295.525	84.19
295.756	113.19
295.987	124.19
296.217	159.19
296.448	122.19
296.679	101.19
296.909	100.19
297.14	90.19
297.37	85.19
297.601	87.19
297.831	88.19
298.062	104.19
298.292	100.19
298.523	98.19
298.753	95.19
298.984	97.19
299.214	85.19
299.445	94.19
299.675	86.19
299.905	95.19
300.136	101.19
300.366	83.19
300.597	94.19
300.827	77.19
301.057	105.19
301.288	97.19
301.518	89.19
301.748	96.19
301.979	109.19
302.209	74.19
302.439	100.19
302.669	93.19
302.9	86.19
303.13	90.19
303.36	97.19
303.59	111.19
303.82	119.19
304.051	99.19
304.281	92.19
304.511	87.19
304.741	82.19
304.971	94.19
305.201	92.19
305.431	85.19
305.661	96.19
305.891	90.19
306.121	97.19
306.352	85.19
306.582	94.19
306.812	101.19
307.042	93.19
307.272	78.19
307.502	94.19
307.731	97.19
307.961	101.19
308.191	86.19
308.421	97.19
308.651	93.19
308.881	93.19
309.111	89.19
309.341	102.19
309.571	113.19
309.8	100.19
310.03	100.19
310.26	117.19
310.49	101.19
310.72	96.19
310.949	117.19
311.179	102.19
311.409	106.19
311.639	91.19
311.868	100.19
312.098	91.19
312.328	99.19
312.557	108.19
312.787	119.19
313.017	113.19
313.246	85.19
313.476	93.19
313.706	106.19
313.935	111.19
314.165	116.19
314.394	115.19
314.624	94.19
314.853	87.19
315.083	96.19
315.312	96.19
315.542	94.19
315.771	84.19
316.001	95.19
316.23	89.19
316.46	81.19
316.689	102.19
316.919	93.19
317.148	102.19
317.377	99.19
317.607	90.19
317.836	105.19
318.065	100.19
318.295	100.19
318.524	96.19
318.753	108.19
318.983	101.19
319.212	110.19
319.441	106.19
319.67	119.19
319.9	101.19
320.129	106.19
320.358	82.19
320.587	87.19
320.816	91.19
321.046	106.19
321.275	124.19
321.504	105.19
321.733	85.19
321.962	118.19
322.191	94.19
322.42	106.19
322.649	119.19
322.878	123.19
323.108	131.19
323.337	139.19
323.566	152.19
323.795	179.19
324.024	243.19
324.253	490.19
324.482	1141.19
324.71	2362.19
324.939	3302.19
325.168	1160.19
325.397	310.19
325.626	194.19
325.855	145.19
326.084	143.19
326.313	149.19
326.542	189.19
326.77	274.19
326.999	566.19
327.228	1214.19
327.457	2337.19
327.686	1921.19
327.914	501.19
328.143	257.19
328.372	193.19
328.6	137.19
328.829	122.19
329.058	149.19
329.287	153.19
329.515	130.19
329.744	101.19
329.972	113.19
330.201	124.19
330.43	166.19
330.658	170.19
330.887	196.19
331.115	175.19
331.344	99.19
331.572	98.19
331.801	115.19
332.03	135.19
332.258	107.19
332.486	87.19
332.715	99.19
332.943	91.19
333.172	102.19
333.4	83.19
333.629	116.19
333.857	128.19
334.085	146.19
334.314	119.19
334.542	166.19
334.771	175.19
334.999	111.19
335.227	90.19
335.455	99.19
335.684	98.19
335.912	102.19
336.14	101.19
336.369	96.19
336.597	99.19
336.825	95.19
337.053	89.19
337.281	99.19
337.51	102.19
337.738	99.19
337.966	89.19
338.194	106.19
338.422	92.19
338.65	88.19
338.878	109.19
339.106	94.19
339.334	97.19
339.562	89.19
339.79	89.19
340.018	103.19
340.246	108.19
340.474	107.19
340.702	107.19
340.93	103.19
341.158	91.19
341.386	101.19
341.614	102.19
341.842	104.19
342.07	106.19
342.298	80.19
342.526	105.19
342.754	74.19
342.981	96.19
343.209	90.19
343.437	104.19
343.665	86.19
343.893	87.19
344.12	92.19
344.348	102.19
344.576	82.19
344.804	101.19
345.031	114.19
345.259	103.19
345.487	101.19
345.714	95.19
345.942	97.19
346.17	85.19
346.397	90.19
346.625	89.19
346.853	97.19
347.08	86.19
347.308	93.19
347.535	95.19
347.763	108.19
347.99	95.19
348.218	121.19
348.445	107.19
348.673	108.19
348.9	95.19
349.128	91.19
349.355	77.19
349.583	89.19
349.81	93.19
350.037	92.19
350.265	79.19
350.492	99.19
350.72	85.19
350.947	107.19
351.174	114.19
351.402	104.19
351.629	108.19
351.856	101.19
352.083	102.19
352.311	117.19
352.538	110.19
352.765	127.19
352.992	115.19
353.22	116.19
353.447	103.19
353.674	105.19
353.901	100.19
354.128	96.19
354.355	102.19
354.583	100.19
354.81	101.19
355.037	75.19
355.264	91.19
355.491	97.19
355.718	84.19
355.945	109.19
356.172	89.19
356.399	86.19
356.626	85.19
356.853	95.19
357.08	86.19
357.307	100.19
357.534	68.19
357.761	101.19
357.988	104.19
358.215	117.19
358.441	95.19
358.668	92.19
358.895	88.19
359.122	77.19
359.349	83.19
359.576	97.19
359.802	109.19
360.029	127.19
360.256	122.19
360.483	118.19
360.709	92.19
360.936	87.19
361.163	103.19
361.39	111.19
361.616	102.19
361.843	81.19
362.07	90.19
362.296	106.19
362.523	92.19
362.749	107.19
362.976	103.19
363.203	102.19
363.429	100.19
363.656	107.19
363.882	101.19
364.109	93.19
364.335	85.19
364.562	76.19
364.788	98.19
365.015	100.19
365.241	102.19
365.468	105.19
365.694	109.19
365.92	103.19
366.147	106.19
366.373	114.19
366.599	93.19
366.826	93.19
367.052	94.19
367.278	93.19
367.505	83.19
367.731	78.19
367.957	90.19
368.184	85.19
368.41	120.19
368.636	123.19
368.862	128.19
369.089	120.19
369.315	115.19
369.541	95.19
369.767	92.19
369.993	81.19
370.219	100.19
370.445	87.19
370.672	87.19
370.898	100.19
371.124	90.19
371.35	71.19
371.576	94.19
371.802	89.19
372.028	83.19
372.254	98.19
372.48	84.19
372.706	83.19
372.932	85.19
373.158	85.19
373.384	91.19
373.61	88.19
373.835	94.19
374.061	87.19
374.287	94.19
374.513	98.19
374.739	93.19
374.965	85.19
375.191	98.19
375.416	89.19
375.642	82.19
375.868	96.19
376.094	98.19
376.319	88.19
376.545	87.19
376.771	92.19
376.997	90.19
377.222	103.19
377.448	94.19
377.674	81.19
377.899	86.19
378.125	90.19
378.35	97.19
378.576	78.19
378.802	89.19
379.027	87.19
379.253	103.19
379.478	105.19
379.704	89.19
379.929	92.19
380.155	99.19
380.38	86.19
380.606	101.19
380.831	90.19
381.057	83.19
381.282	106.19
381.507	94.19
381.733	105.19
381.958	88.19
382.184	97.19
382.409	98.19
382.634	102.19
382.86	101.19
383.085	98.19
383.31	98.19
383.535	99.19
383.761	101.19
383.986	90.19
384.211	100.19
384.436	99.19
384.662	89.19
384.887	107.19
385.112	99.19
385.337	87.19
385.562	97.19
385.787	107.19
386.013	103.19
386.238	116.19
386.463	109.19
386.688	114.19
386.913	93.19
387.138	92.19
387.363	84.19
387.588	81.19
387.813	85.19
388.038	98.19
388.263	101.19
388.488	103.19
388.713	89.19
388.938	92.19
389.163	84.19
389.387	85.19
389.612	83.19
389.837	89.19
390.062	99.19
390.287	74.19
390.512	93.19
390.736	91.19
390.961	77.19
391.186	99.19
391.411	96.19
391.636	99.19
391.86	83.19
392.085	84.19
392.31	90.19
392.534	86.19
392.759	79.19
392.984	90.19
393.208	99.19
393.433	90.19
393.658	81.19
393.882	83.19
394.107	85.19
394.331	93.19
394.556	100.19
394.78	99.19
395.005	90.19
395.229	89.19
395.454	85.19
395.678	94.19
395.903	95.19
396.127	90.19
396.352	89.19
396.576	104.19
396.801	91.19
397.025	91.19
397.249	83.19
397.474	82.19
397.698	99.19
397.922	78.19
398.147	89.19
398.371	95.19
398.595	79.19
398.82	89.19
399.044	89.19
399.268	81.19
399.492	80.19
399.717	87.19
399.941	95.19
400.165	94.19
400.389	103.19
400.613	84.19
400.837	76.19
401.062	109.19
401.286	93.19
401.51	91.19
401.734	99.19
401.958	105.19
402.182	133.19
402.406	173.19
402.63	134.19
402.854	102.19
403.078	88.19
403.302	81.19
403.526	97.19
403.75	99.19
403.974	86.19
404.198	84.19
404.422	102.19
404.645	95.19
404.869	120.19
405.093	108.19
405.317	114.19
405.541	93.19
405.765	109.19
405.988	125.19
406.212	200.19
406.436	307.19
406.66	185.19
406.883	102.19
407.107	105.19
407.331	89.19
407.555	102.19
407.778	113.19
408.002	93.19
408.226	87.19
408.449	90.19
408.673	83.19
408.896	94.19
409.12	102.19
409.344	93.19
409.567	87.19
409.791	84.19
410.014	86.19
410.238	87.19
410.461	98.19
410.685	90.19
410.908	82.19
411.132	101.19
411.355	97.19
411.578	87.19
411.802	87.19
412.025	90.19
412.249	105.19
412.472	106.19
412.695	113.19
412.919	89.19
413.142	94.19
413.365	83.19
413.589	73.19
413.812	98.19
414.035	97.19
414.258	92.19
414.482	70.19
414.705	90.19
414.928	94.19
415.151	90.19
415.374	98.19
415.597	86.19
415.821	95.19
416.044	96.19
416.267	86.19
416.49	102.19
416.713	94.19
416.936	83.19
417.159	83.19
417.382	85.19
417.605	88.19
417.828	98.19
418.051	90.19
418.274	100.19
418.497	73.19
418.72	76.19
418.943	100.19
419.166	91.19
419.389	82.19
419.611	99.19
419.834	88.19
420.057	92.19
420.28	86.19
420.503	91.19
420.726	90.19
420.948	85.19
421.171	92.19
421.394	98.19
421.617	81.19
421.839	94.19
422.062	89.19
422.285	87.19
422.507	99.19
422.73	109.19
422.953	89.19
423.175	86.19
423.398	92.19
423.621	86.19
423.843	98.19
424.066	87.19
424.288	70.19
424.511	95.19
424.733	108.19
424.956	121.19
425.178	115.19
425.401	120.19
425.623	111.19
425.846	95.19
426.068	106.19
426.291	97.19
426.513	99.19
426.735	88.19
426.958	98.19
427.18	117.19
427.402	162.19
427.625	235.19
427.847	182.19
428.069	122.19
428.292	86.19
428.514	90.19
428.736	94.19
428.958	71.19
429.181	100.19
429.403	92.19
429.625	81.19
429.847	89.19
430.069	97.19
430.292	92.19
430.514	103.19
430.736	92.19
430.958	85.19
431.18	85.19
431.402	97.19
431.624	87.19
431.846	93.19
432.068	95.19
432.29	73.19
432.512	81.19
432.734	91.19
432.956	73.19
433.178	110.19
433.4	105.19
433.622	90.19
433.844	98.19
434.066	95.19
434.287	88.19
434.509	98.19
434.731	83.19
434.953	83.19
435.175	99.19
435.397	98.19
435.618	101.19
435.84	114.19
436.062	147.19
436.284	153.19
436.505	124.19
436.727	102.19
436.949	98.19
437.17	91.19
437.392	88.19
437.614	95.19
437.835	122.19
438.057	137.19
438.278	133.19
438.5	117.19
438.721	158.19
438.943	114.19
439.165	81.19
439.386	102.19
439.608	104.19
439.829	117.19
440.05	142.19
440.272	199.19
440.493	103.19
440.715	100.19
440.936	92.19
441.158	103.19
441.379	91.19
441.6	100.19
441.822	107.19
442.043	105.19
442.264	126.19
442.486	119.19
442.707	102.19
442.928	110.19
443.149	145.19
443.371	165.19
443.592	129.19
443.813	129.19
444.034	124.19
444.255	90.19
444.476	79.19
444.698	87.19
444.919	95.19
445.14	133.19
445.361	134.19
445.582	136.19
445.803	176.19
446.024	200.19
446.245	171.19
446.466	129.19
446.687	102.19
446.908	90.19
447.129	87.19
447.35	107.19
447.571	97.19
447.792	110.19
448.013	95.19
448.234	106.19
448.455	105.19
448.675	134.19
448.896	135.19
449.117	109.19
449.338	107.19
449.559	164.19
449.779	156.19
450	97.19
450.221	98.19
450.442	108.19
450.662	105.19
450.883	122.19
451.104	146.19
451.324	103.19
451.545	100.19
451.766	88.19
451.986	85.19
452.207	106.19
452.428	97.19
452.648	116.19
452.869	133.19
453.089	123.19
453.31	140.19
453.53	91.19
453.751	101.19
453.971	120.19
454.192	122.19
454.412	100.19
454.633	85.19
454.853	79.19
455.073	83.19
455.294	84.19
455.514	118.19
455.734	100.19
455.955	102.19
456.175	97.19
456.395	82.19
456.616	84.19
456.836	90.19
457.056	74.19
457.276	83.19
457.497	82.19
457.717	73.19
457.937	90.19
458.157	96.19
458.377	94.19
458.598	117.19
458.818	195.19
459.038	220.19
459.258	148.19
459.478	96.19
459.698	84.19
459.918	89.19
460.138	86.19
460.358	86.19
460.578	98.19
460.798	99.19
461.018	86.19
461.238	98.19
461.458	98.19
461.678	78.19
461.898	70.19
462.118	82.19
462.338	77.19
462.558	101.19
462.777	83.19
462.997	87.19
463.217	80.19
463.437	78.19
463.657	86.19
463.876	89.19
464.096	78.19
464.316	103.19
464.536	93.19
464.755	99.19
464.975	111.19
465.195	213.19
465.414	230.19
465.634	101.19
465.854	86.19
466.073	86.19
466.293	89.19
466.512	94.19
466.732	90.19
466.951	82.19
467.171	90.19
467.391	98.19
467.61	110.19
467.829	89.19
468.049	104.19
468.268	107.19
468.488	91.19
468.707	82.19
468.927	91.19
469.146	95.19
469.365	88.19
469.585	83.19
469.804	98.19
470.023	92.19
470.243	92.19
470.462	102.19
470.681	122.19
470.901	95.19
471.12	77.19
471.339	87.19
471.558	92.19
471.777	85.19
471.997	91.19
472.216	129.19
472.435	160.19
472.654	119.19
472.873	105.19
473.092	85.19
473.311	83.19
473.53	72.19
473.749	85.19
473.968	89.19
474.187	119.19
474.406	113.19
474.625	95.19
474.844	98.19
475.063	86.19
475.282	89.19
475.501	95.19
475.72	84.19
475.939	75.19
476.158	93.19
476.377	88.19
476.596	82.19
476.814	91.19
477.033	82.19
477.252	89.19
477.471	78.19
477.69	101.19
477.908	95.19
478.127	84.19
478.346	94.19
478.564	92.19
478.783	100.19
479.002	104.19
479.22	93.19
479.439	105.19
479.658	104.19
479.876	95.19
480.095	85.19
480.313	105.19
480.532	77.19
480.751	101.19
480.969	122.19
481.188	265.19
481.406	193.19
481.624	95.19
481.843	89.19
482.061	107.19
482.28	90.19
482.498	100.19
482.717	102.19
482.935	88.19
483.153	91.19
483.372	92.19
483.59	78.19
483.808	76.19
484.027	87.19
484.245	110.19
484.463	95.19
484.681	95.19
484.9	102.19
485.118	87.19
485.336	95.19
485.554	95.19
485.772	96.19
485.99	103.19
486.209	87.19
486.427	105.19
486.645	106.19
486.863	117.19
487.081	97.19
487.299	89.19
487.517	82.19
487.735	98.19
487.953	93.19
488.171	87.19
488.389	97.19
488.607	86.19
488.825	103.19
489.043	86.19
489.261	102.19
489.479	88.19
489.696	79.19
489.914	104.19
490.132	90.19
490.35	95.19
490.568	91.19
490.786	78.19
491.003	81.19
491.221	77.19
491.439	77.19
491.657	94.19
491.874	88.19
492.092	95.19
492.31	99.19
492.527	91.19
492.745	89.19
492.963	84.19
493.18	92.19
493.398	101.19
493.615	82.19
493.833	95.19
494.05	84.19
494.268	95.19
494.485	95.19
494.703	79.19
494.92	81.19
495.138	90.19
495.355	94.19
495.573	103.19
495.79	91.19
496.008	86.19
496.225	95.19
496.442	81.19
496.66	81.19
496.877	90.19
497.094	87.19
497.312	88.19
497.529	89.19
497.746	89.19
497.963	73.19
498.181	95.19
498.398	96.19
498.615	123.19
498.832	113.19
499.049	104.19
499.267	87.19
499.484	96.19
499.701	103.19
499.918	89.19
500.135	83.19
500.352	86.19
500.569	85.19
500.786	99.19
501.003	104.19
501.22	88.19
501.437	85.19
501.654	85.19
501.871	126.19
502.088	94.19
502.305	94.19
502.522	91.19
502.739	84.19
502.956	85.19
503.172	90.19
503.389	94.19
503.606	122.19
503.823	118.19
504.04	82.19
504.256	84.19
504.473	89.19
504.69	76.19
504.907	81.19
505.123	79.19
505.34	94.19
505.557	100.19
505.773	86.19
505.99	78.19
506.207	81.19
506.423	75.19
506.64	88.19
506.856	103.19
507.073	105.19
507.289	88.19
507.506	108.19
507.722	139.19
507.939	134.19
508.155	95.19
508.372	95.19
508.588	91.19
508.805	95.19
509.021	101.19
509.238	91.19
509.454	97.19
509.67	91.19
509.887	126.19
510.103	130.19
510.319	223.19
510.536	870.19
510.752	2911.19
510.968	793.19
511.184	188.19
511.401	127.19
511.617	108.19
511.833	110.19
512.049	92.19
512.265	94.19
512.481	103.19
512.698	93.19
512.914	93.19
513.13	89.19
513.346	90.19
513.562	90.19
513.778	110.19
513.994	95.19
514.21	111.19
