Data from Circ_1981_H10_HRD10591_00059.txt Node
Date: Wed Jan 03 12:34:32 EST 2024
User: Yrep
Spectrometer: HR+D1059
Trigger mode: 1
Integration Time (sec): 1.000000E-1
Scans to average: 1
Electric dark correction enabled: true
Nonlinearity correction enabled: false
Boxcar width: 0
XAxis mode: Wavelengths
Number of Pixels in Spectrum: 2048
>>>>>Begin Spectral Data<<<<<
223.165	-14.88
223.4	-14.88
223.635	-14.88
223.869	-19.88
224.104	-14.88
224.338	-17.88
224.573	-7.88
224.808	-27.88
225.042	-17.88
225.277	-4.88
225.511	-7.88
225.746	-2.88
225.98	8.12
226.215	22.12
226.449	23.12
226.683	22.12
226.918	22.12
227.152	39.12
227.387	40.12
227.621	45.12
227.856	40.12
228.09	52.12
228.324	56.12
228.559	59.12
228.793	62.12
229.027	69.12
229.262	67.12
229.496	75.12
229.73	86.12
229.964	93.12
230.199	65.12
230.433	80.12
230.667	68.12
230.901	68.12
231.136	79.12
231.37	77.12
231.604	77.12
231.838	75.12
232.072	74.12
232.306	90.12
232.541	97.12
232.775	83.12
233.009	87.12
233.243	67.12
233.477	96.12
233.711	90.12
233.945	87.12
234.179	85.12
234.413	82.12
234.647	82.12
234.881	72.12
235.115	74.12
235.349	67.12
235.583	93.12
235.817	91.12
236.051	76.12
236.285	72.12
236.519	86.12
236.753	96.12
236.987	83.12
237.221	105.12
237.455	100.12
237.689	61.12
237.922	84.12
238.156	72.12
238.39	89.12
238.624	71.12
238.858	90.12
239.091	82.12
239.325	67.12
239.559	84.12
239.793	84.12
240.027	93.12
240.26	76.12
240.494	84.12
240.728	74.12
240.961	62.12
241.195	75.12
241.429	70.12
241.662	76.12
241.896	76.12
242.13	81.12
242.363	77.12
242.597	84.12
242.83	72.12
243.064	73.12
243.298	83.12
243.531	86.12
243.765	74.12
243.998	84.12
244.232	70.12
244.465	80.12
244.699	75.12
244.932	77.12
245.166	80.12
245.399	80.12
245.633	73.12
245.866	77.12
246.099	82.12
246.333	73.12
246.566	95.12
246.8	91.12
247.033	75.12
247.266	75.12
247.5	77.12
247.733	75.12
247.966	71.12
248.2	80.12
248.433	75.12
248.666	78.12
248.899	97.12
249.133	88.12
249.366	107.12
249.599	108.12
249.832	82.12
250.066	83.12
250.299	79.12
250.532	81.12
250.765	77.12
250.998	88.12
251.231	78.12
251.465	85.12
251.698	68.12
251.931	72.12
252.164	84.12
252.397	82.12
252.63	82.12
252.863	86.12
253.096	94.12
253.329	76.12
253.562	84.12
253.795	90.12
254.028	82.12
254.261	83.12
254.494	84.12
254.727	92.12
254.96	85.12
255.193	72.12
255.426	71.12
255.659	92.12
255.892	94.12
256.124	93.12
256.357	80.12
256.59	89.12
256.823	75.12
257.056	85.12
257.289	69.12
257.521	75.12
257.754	84.12
257.987	83.12
258.22	71.12
258.452	90.12
258.685	71.12
258.918	76.12
259.151	75.12
259.383	86.12
259.616	75.12
259.849	70.12
260.081	82.12
260.314	86.12
260.547	99.12
260.779	89.12
261.012	70.12
261.244	70.12
261.477	100.12
261.71	98.12
261.942	121.12
262.175	138.12
262.407	92.12
262.64	82.12
262.872	79.12
263.105	90.12
263.337	82.12
263.57	80.12
263.802	95.12
264.035	82.12
264.267	74.12
264.499	79.12
264.732	81.12
264.964	80.12
265.197	94.12
265.429	86.12
265.661	85.12
265.894	70.12
266.126	84.12
266.358	96.12
266.591	87.12
266.823	84.12
267.055	91.12
267.287	95.12
267.52	92.12
267.752	78.12
267.984	80.12
268.216	74.12
268.448	81.12
268.681	94.12
268.913	83.12
269.145	89.12
269.377	85.12
269.609	90.12
269.841	100.12
270.073	104.12
270.306	91.12
270.538	88.12
270.77	78.12
271.002	76.12
271.234	90.12
271.466	100.12
271.698	92.12
271.93	93.12
272.162	85.12
272.394	92.12
272.626	102.12
272.858	91.12
273.09	84.12
273.322	76.12
273.553	88.12
273.785	99.12
274.017	75.12
274.249	79.12
274.481	86.12
274.713	89.12
274.945	92.12
275.176	77.12
275.408	77.12
275.64	89.12
275.872	84.12
276.104	78.12
276.335	101.12
276.567	98.12
276.799	112.12
277.031	114.12
277.262	103.12
277.494	89.12
277.726	92.12
277.957	80.12
278.189	73.12
278.421	92.12
278.652	80.12
278.884	95.12
279.115	85.12
279.347	94.12
279.579	78.12
279.81	78.12
280.042	92.12
280.273	83.12
280.505	96.12
280.736	91.12
280.968	89.12
281.199	86.12
281.431	99.12
281.662	87.12
281.894	89.12
282.125	94.12
282.356	110.12
282.588	148.12
282.819	125.12
283.051	101.12
283.282	85.12
283.513	103.12
283.745	92.12
283.976	75.12
284.207	85.12
284.439	73.12
284.67	85.12
284.901	99.12
285.132	76.12
285.364	84.12
285.595	84.12
285.826	103.12
286.057	110.12
286.288	83.12
286.52	94.12
286.751	98.12
286.982	101.12
287.213	90.12
287.444	96.12
287.675	94.12
287.906	96.12
288.138	85.12
288.369	98.12
288.6	90.12
288.831	96.12
289.062	72.12
289.293	87.12
289.524	99.12
289.755	88.12
289.986	81.12
290.217	84.12
290.448	90.12
290.679	94.12
290.91	96.12
291.141	83.12
291.371	82.12
291.602	77.12
291.833	80.12
292.064	75.12
292.295	92.12
292.526	96.12
292.757	73.12
292.987	82.12
293.218	89.12
293.449	81.12
293.68	99.12
293.91	81.12
294.141	91.12
294.372	93.12
294.603	91.12
294.833	81.12
295.064	72.12
295.295	88.12
295.525	91.12
295.756	104.12
295.987	113.12
296.217	136.12
296.448	133.12
296.679	86.12
296.909	84.12
297.14	91.12
297.37	86.12
297.601	96.12
297.831	98.12
298.062	81.12
298.292	93.12
298.523	88.12
298.753	83.12
298.984	93.12
299.214	87.12
299.445	94.12
299.675	96.12
299.905	91.12
300.136	96.12
300.366	84.12
300.597	94.12
300.827	93.12
301.057	105.12
301.288	119.12
301.518	88.12
301.748	84.12
301.979	114.12
302.209	97.12
302.439	93.12
302.669	89.12
302.9	92.12
303.13	97.12
303.36	82.12
303.59	96.12
303.82	96.12
304.051	104.12
304.281	90.12
304.511	92.12
304.741	87.12
304.971	96.12
305.201	94.12
305.431	82.12
305.661	112.12
305.891	85.12
306.121	98.12
306.352	96.12
306.582	108.12
306.812	85.12
307.042	92.12
307.272	100.12
307.502	92.12
307.731	107.12
307.961	94.12
308.191	98.12
308.421	86.12
308.651	80.12
308.881	84.12
309.111	89.12
309.341	88.12
309.571	107.12
309.8	99.12
310.03	91.12
310.26	101.12
310.49	92.12
310.72	104.12
310.949	123.12
311.179	107.12
311.409	101.12
311.639	106.12
311.868	99.12
312.098	100.12
312.328	105.12
312.557	107.12
312.787	109.12
313.017	111.12
313.246	109.12
313.476	97.12
313.706	90.12
313.935	93.12
314.165	110.12
314.394	105.12
314.624	114.12
314.853	98.12
315.083	84.12
315.312	98.12
315.542	98.12
315.771	106.12
316.001	93.12
316.23	84.12
316.46	69.12
316.689	98.12
316.919	102.12
317.148	94.12
317.377	103.12
317.607	97.12
317.836	94.12
318.065	86.12
318.295	92.12
318.524	78.12
318.753	93.12
318.983	100.12
319.212	109.12
319.441	118.12
319.67	112.12
319.9	97.12
320.129	88.12
320.358	91.12
320.587	109.12
320.816	115.12
321.046	107.12
321.275	95.12
321.504	102.12
321.733	105.12
321.962	108.12
322.191	105.12
322.42	107.12
322.649	124.12
322.878	122.12
323.108	134.12
323.337	149.12
323.566	143.12
323.795	189.12
324.024	254.12
324.253	473.12
324.482	1040.12
324.71	2220.12
324.939	2932.12
325.168	1025.12
325.397	292.12
325.626	170.12
325.855	135.12
326.084	136.12
326.313	149.12
326.542	186.12
326.77	272.12
326.999	540.12
327.228	1161.12
327.457	2188.12
327.686	1746.12
327.914	470.12
328.143	231.12
328.372	174.12
328.6	145.12
328.829	132.12
329.058	144.12
329.287	158.12
329.515	124.12
329.744	122.12
329.972	121.12
330.201	126.12
330.43	163.12
330.658	156.12
330.887	175.12
331.115	140.12
331.344	121.12
331.572	113.12
331.801	110.12
332.03	117.12
332.258	99.12
332.486	92.12
332.715	84.12
332.943	89.12
333.172	103.12
333.4	109.12
333.629	118.12
333.857	126.12
334.085	124.12
334.314	114.12
334.542	150.12
334.771	141.12
334.999	105.12
335.227	89.12
335.455	92.12
335.684	105.12
335.912	105.12
336.14	104.12
336.369	103.12
336.597	116.12
336.825	106.12
337.053	92.12
337.281	94.12
337.51	91.12
337.738	92.12
337.966	99.12
338.194	121.12
338.422	109.12
338.65	100.12
338.878	101.12
339.106	90.12
339.334	99.12
339.562	92.12
339.79	101.12
340.018	113.12
340.246	104.12
340.474	93.12
340.702	76.12
340.93	100.12
341.158	101.12
341.386	93.12
341.614	95.12
341.842	100.12
342.07	77.12
342.298	84.12
342.526	97.12
342.754	85.12
342.981	97.12
343.209	93.12
343.437	103.12
343.665	88.12
343.893	82.12
344.12	92.12
344.348	90.12
344.576	94.12
344.804	92.12
345.031	90.12
345.259	116.12
345.487	96.12
345.714	105.12
345.942	108.12
346.17	93.12
346.397	89.12
346.625	100.12
346.853	86.12
347.08	88.12
347.308	101.12
347.535	107.12
347.763	110.12
347.99	116.12
348.218	121.12
348.445	112.12
348.673	101.12
348.9	90.12
349.128	92.12
349.355	84.12
349.583	94.12
349.81	95.12
350.037	93.12
350.265	89.12
350.492	92.12
350.72	101.12
350.947	104.12
351.174	99.12
351.402	116.12
351.629	111.12
351.856	108.12
352.083	117.12
352.311	115.12
352.538	110.12
352.765	120.12
352.992	108.12
353.22	117.12
353.447	103.12
353.674	109.12
353.901	106.12
354.128	94.12
354.355	87.12
354.583	97.12
354.81	103.12
355.037	86.12
355.264	83.12
355.491	80.12
355.718	98.12
355.945	92.12
356.172	95.12
356.399	90.12
356.626	93.12
356.853	90.12
357.08	100.12
357.307	89.12
357.534	99.12
357.761	91.12
357.988	76.12
358.215	118.12
358.441	88.12
358.668	94.12
358.895	100.12
359.122	84.12
359.349	98.12
359.576	104.12
359.802	116.12
360.029	136.12
360.256	133.12
360.483	102.12
360.709	84.12
360.936	95.12
361.163	96.12
361.39	101.12
361.616	95.12
361.843	92.12
362.07	102.12
362.296	116.12
362.523	101.12
362.749	102.12
362.976	96.12
363.203	95.12
363.429	96.12
363.656	97.12
363.882	94.12
364.109	96.12
364.335	84.12
364.562	97.12
364.788	98.12
365.015	98.12
365.241	108.12
365.468	121.12
365.694	109.12
365.92	99.12
366.147	108.12
366.373	97.12
366.599	97.12
366.826	87.12
367.052	100.12
367.278	93.12
367.505	99.12
367.731	93.12
367.957	95.12
368.184	80.12
368.41	114.12
368.636	116.12
368.862	135.12
369.089	121.12
369.315	92.12
369.541	86.12
369.767	107.12
369.993	106.12
370.219	101.12
370.445	93.12
370.672	85.12
370.898	85.12
371.124	89.12
371.35	91.12
371.576	85.12
371.802	100.12
372.028	101.12
372.254	96.12
372.48	100.12
372.706	81.12
372.932	88.12
373.158	87.12
373.384	96.12
373.61	86.12
373.835	89.12
374.061	87.12
374.287	101.12
374.513	97.12
374.739	87.12
374.965	94.12
375.191	97.12
375.416	105.12
375.642	83.12
375.868	95.12
376.094	101.12
376.319	81.12
376.545	88.12
376.771	80.12
376.997	94.12
377.222	95.12
377.448	88.12
377.674	81.12
377.899	95.12
378.125	100.12
378.35	100.12
378.576	96.12
378.802	92.12
379.027	101.12
379.253	100.12
379.478	88.12
379.704	98.12
379.929	98.12
380.155	92.12
380.38	101.12
380.606	109.12
380.831	114.12
381.057	96.12
381.282	81.12
381.507	100.12
381.733	100.12
381.958	96.12
382.184	90.12
382.409	107.12
382.634	107.12
382.86	107.12
383.085	86.12
383.31	94.12
383.535	83.12
383.761	93.12
383.986	91.12
384.211	96.12
384.436	84.12
384.662	101.12
384.887	93.12
385.112	97.12
385.337	108.12
385.562	91.12
385.787	97.12
386.013	117.12
386.238	115.12
386.463	104.12
386.688	116.12
386.913	94.12
387.138	103.12
387.363	115.12
387.588	107.12
387.813	93.12
388.038	107.12
388.263	96.12
388.488	99.12
388.713	88.12
388.938	102.12
389.163	90.12
389.387	97.12
389.612	92.12
389.837	92.12
390.062	92.12
390.287	86.12
390.512	82.12
390.736	109.12
390.961	118.12
391.186	93.12
391.411	99.12
391.636	93.12
391.86	91.12
392.085	102.12
392.31	95.12
392.534	92.12
392.759	87.12
392.984	87.12
393.208	90.12
393.433	92.12
393.658	98.12
393.882	85.12
394.107	73.12
394.331	77.12
394.556	88.12
394.78	80.12
395.005	96.12
395.229	84.12
395.454	80.12
395.678	94.12
395.903	96.12
396.127	91.12
396.352	92.12
396.576	83.12
396.801	82.12
397.025	106.12
397.249	83.12
397.474	97.12
397.698	80.12
397.922	97.12
398.147	86.12
398.371	95.12
398.595	88.12
398.82	85.12
399.044	88.12
399.268	88.12
399.492	98.12
399.717	105.12
399.941	96.12
400.165	87.12
400.389	98.12
400.613	90.12
400.837	81.12
401.062	103.12
401.286	100.12
401.51	98.12
401.734	94.12
401.958	102.12
402.182	121.12
402.406	179.12
402.63	133.12
402.854	84.12
403.078	89.12
403.302	82.12
403.526	95.12
403.75	80.12
403.974	88.12
404.198	92.12
404.422	101.12
404.645	90.12
404.869	80.12
405.093	96.12
405.317	108.12
405.541	99.12
405.765	117.12
405.988	125.12
406.212	173.12
406.436	249.12
406.66	172.12
406.883	107.12
407.107	109.12
407.331	102.12
407.555	122.12
407.778	94.12
408.002	109.12
408.226	121.12
408.449	93.12
408.673	85.12
408.896	105.12
409.12	101.12
409.344	92.12
409.567	62.12
409.791	92.12
410.014	92.12
410.238	89.12
410.461	92.12
410.685	87.12
410.908	96.12
411.132	105.12
411.355	96.12
411.578	97.12
411.802	85.12
412.025	97.12
412.249	97.12
412.472	94.12
412.695	102.12
412.919	83.12
413.142	88.12
413.365	93.12
413.589	90.12
413.812	91.12
414.035	93.12
414.258	87.12
414.482	66.12
414.705	92.12
414.928	102.12
415.151	80.12
415.374	104.12
415.597	96.12
415.821	85.12
416.044	92.12
416.267	89.12
416.49	109.12
416.713	84.12
416.936	72.12
417.159	84.12
417.382	98.12
417.605	99.12
417.828	84.12
418.051	98.12
418.274	94.12
418.497	70.12
418.72	104.12
418.943	100.12
419.166	93.12
419.389	86.12
419.611	103.12
419.834	90.12
420.057	89.12
420.28	80.12
420.503	82.12
420.726	92.12
420.948	98.12
421.171	99.12
421.394	92.12
421.617	88.12
421.839	101.12
422.062	91.12
422.285	89.12
422.507	111.12
422.73	128.12
422.953	99.12
423.175	99.12
423.398	90.12
423.621	100.12
423.843	98.12
424.066	92.12
424.288	91.12
424.511	93.12
424.733	119.12
424.956	121.12
425.178	115.12
425.401	119.12
425.623	118.12
425.846	96.12
426.068	101.12
426.291	96.12
426.513	104.12
426.735	86.12
426.958	95.12
427.18	125.12
427.402	169.12
427.625	214.12
427.847	160.12
428.069	108.12
428.292	103.12
428.514	96.12
428.736	81.12
428.958	86.12
429.181	83.12
429.403	84.12
429.625	96.12
429.847	82.12
430.069	109.12
430.292	110.12
430.514	92.12
430.736	80.12
430.958	80.12
431.18	94.12
431.402	89.12
431.624	104.12
431.846	88.12
432.068	99.12
432.29	95.12
432.512	93.12
432.734	83.12
432.956	92.12
433.178	100.12
433.4	112.12
433.622	92.12
433.844	89.12
434.066	103.12
434.287	96.12
434.509	90.12
434.731	94.12
434.953	101.12
435.175	100.12
435.397	91.12
435.618	84.12
435.84	112.12
436.062	141.12
436.284	134.12
436.505	119.12
436.727	107.12
436.949	104.12
437.17	85.12
437.392	88.12
437.614	99.12
437.835	119.12
438.057	139.12
438.278	118.12
438.5	124.12
438.721	154.12
438.943	125.12
439.165	88.12
439.386	100.12
439.608	98.12
439.829	118.12
440.05	148.12
440.272	189.12
440.493	121.12
440.715	112.12
440.936	97.12
441.158	97.12
441.379	98.12
441.6	99.12
441.822	102.12
442.043	105.12
442.264	120.12
442.486	123.12
442.707	99.12
442.928	116.12
443.149	156.12
443.371	140.12
443.592	114.12
443.813	140.12
444.034	126.12
444.255	97.12
444.476	84.12
444.698	80.12
444.919	97.12
445.14	130.12
445.361	131.12
445.582	150.12
445.803	180.12
446.024	184.12
446.245	185.12
446.466	143.12
446.687	85.12
446.908	91.12
447.129	90.12
447.35	84.12
447.571	73.12
447.792	84.12
448.013	105.12
448.234	102.12
448.455	99.12
448.675	148.12
448.896	137.12
449.117	103.12
449.338	107.12
449.559	158.12
449.779	172.12
450	107.12
450.221	70.12
450.442	92.12
450.662	105.12
450.883	117.12
451.104	125.12
451.324	107.12
451.545	90.12
451.766	88.12
451.986	92.12
452.207	79.12
452.428	97.12
452.648	101.12
452.869	122.12
453.089	126.12
453.31	121.12
453.53	100.12
453.751	100.12
453.971	103.12
454.192	120.12
454.412	97.12
454.633	90.12
454.853	91.12
455.073	91.12
455.294	85.12
455.514	109.12
455.734	96.12
455.955	87.12
456.175	77.12
456.395	100.12
456.616	91.12
456.836	92.12
457.056	65.12
457.276	68.12
457.497	71.12
457.717	101.12
457.937	79.12
458.157	81.12
458.377	100.12
458.598	97.12
458.818	188.12
459.038	207.12
459.258	138.12
459.478	98.12
459.698	90.12
459.918	103.12
460.138	96.12
460.358	81.12
460.578	98.12
460.798	88.12
461.018	76.12
461.238	72.12
461.458	81.12
461.678	77.12
461.898	86.12
462.118	86.12
462.338	94.12
462.558	78.12
462.777	84.12
462.997	85.12
463.217	84.12
463.437	85.12
463.657	83.12
463.876	89.12
464.096	101.12
464.316	100.12
464.536	102.12
464.755	92.12
464.975	93.12
465.195	202.12
465.414	215.12
465.634	105.12
465.854	90.12
466.073	96.12
466.293	92.12
466.512	83.12
466.732	86.12
466.951	89.12
467.171	95.12
467.391	100.12
467.61	100.12
467.829	96.12
468.049	80.12
468.268	109.12
468.488	96.12
468.707	86.12
468.927	87.12
469.146	90.12
469.365	97.12
469.585	101.12
469.804	92.12
470.023	95.12
470.243	98.12
470.462	105.12
470.681	119.12
470.901	85.12
471.12	101.12
471.339	99.12
471.558	99.12
471.777	84.12
471.997	102.12
472.216	104.12
472.435	164.12
472.654	100.12
472.873	94.12
473.092	88.12
473.311	88.12
473.53	91.12
473.749	96.12
473.968	94.12
474.187	129.12
474.406	109.12
474.625	93.12
474.844	69.12
475.063	86.12
475.282	98.12
475.501	97.12
475.72	81.12
475.939	92.12
476.158	81.12
476.377	84.12
476.596	85.12
476.814	88.12
477.033	98.12
477.252	95.12
477.471	86.12
477.69	89.12
477.908	81.12
478.127	79.12
478.346	97.12
478.564	98.12
478.783	87.12
479.002	96.12
479.22	94.12
479.439	103.12
479.658	120.12
479.876	98.12
480.095	97.12
480.313	105.12
480.532	103.12
480.751	93.12
480.969	123.12
481.188	235.12
481.406	162.12
481.624	106.12
481.843	97.12
482.061	68.12
482.28	90.12
482.498	87.12
482.717	90.12
482.935	86.12
483.153	101.12
483.372	103.12
483.59	92.12
483.808	93.12
484.027	78.12
484.245	87.12
484.463	88.12
484.681	73.12
484.9	93.12
485.118	104.12
485.336	103.12
485.554	98.12
485.772	109.12
485.99	125.12
486.209	104.12
486.427	105.12
486.645	103.12
486.863	123.12
487.081	98.12
487.299	90.12
487.517	103.12
487.735	88.12
487.953	99.12
488.171	100.12
488.389	94.12
488.607	98.12
488.825	99.12
489.043	108.12
489.261	78.12
489.479	94.12
489.696	96.12
489.914	88.12
490.132	90.12
490.35	90.12
490.568	77.12
490.786	100.12
491.003	85.12
491.221	108.12
491.439	96.12
491.657	98.12
491.874	108.12
492.092	94.12
492.31	91.12
492.527	82.12
492.745	89.12
492.963	100.12
493.18	86.12
493.398	104.12
493.615	104.12
493.833	95.12
494.05	97.12
494.268	90.12
494.485	88.12
494.703	88.12
494.92	92.12
495.138	75.12
495.355	84.12
495.573	98.12
495.79	105.12
496.008	104.12
496.225	92.12
496.442	70.12
496.66	82.12
496.877	101.12
497.094	104.12
497.312	100.12
497.529	99.12
497.746	86.12
497.963	90.12
498.181	105.12
498.398	113.12
498.615	111.12
498.832	116.12
499.049	85.12
499.267	95.12
499.484	85.12
499.701	90.12
499.918	82.12
500.135	87.12
500.352	91.12
500.569	85.12
500.786	89.12
501.003	96.12
501.22	82.12
501.437	90.12
501.654	91.12
501.871	106.12
502.088	94.12
502.305	87.12
502.522	90.12
502.739	78.12
502.956	90.12
503.172	94.12
503.389	101.12
503.606	104.12
503.823	105.12
504.04	98.12
504.256	90.12
504.473	95.12
504.69	98.12
504.907	101.12
505.123	83.12
505.34	94.12
505.557	85.12
505.773	85.12
505.99	91.12
506.207	91.12
506.423	94.12
506.64	100.12
506.856	86.12
507.073	99.12
507.289	75.12
507.506	92.12
507.722	131.12
507.939	130.12
508.155	106.12
508.372	96.12
508.588	83.12
508.805	106.12
509.021	93.12
509.238	109.12
509.454	114.12
509.67	117.12
509.887	111.12
510.103	144.12
510.319	204.12
510.536	772.12
510.752	2537.12
510.968	676.12
511.184	154.12
511.401	126.12
511.617	87.12
511.833	98.12
512.049	94.12
512.265	96.12
512.481	96.12
512.698	84.12
512.914	86.12
513.13	91.12
513.346	82.12
513.562	92.12
513.778	85.12
513.994	109.12
