Data from Circ_1981_H10_HRD10591_00026.txt Node
Date: Wed Jan 03 12:34:26 EST 2024
User: Yrep
Spectrometer: HR+D1059
Trigger mode: 1
Integration Time (sec): 1.000000E-1
Scans to average: 1
Electric dark correction enabled: true
Nonlinearity correction enabled: false
Boxcar width: 0
XAxis mode: Wavelengths
Number of Pixels in Spectrum: 2048
>>>>>Begin Spectral Data<<<<<
223.165	-24.94
223.4	-24.94
223.635	-24.94
223.869	-22.94
224.104	-12.94
224.338	-3.94
224.573	-15.94
224.808	-16.94
225.042	-2.94
225.277	-5.94
225.511	-0.94
225.746	3.06
225.98	2.06
226.215	-4.94
226.449	25.06
226.683	23.06
226.918	23.06
227.152	36.06
227.387	32.06
227.621	40.06
227.856	28.06
228.09	35.06
228.324	45.06
228.559	50.06
228.793	60.06
229.027	67.06
229.262	65.06
229.496	91.06
229.73	95.06
229.964	87.06
230.199	77.06
230.433	73.06
230.667	69.06
230.901	75.06
231.136	73.06
231.37	61.06
231.604	78.06
231.838	72.06
232.072	92.06
232.306	80.06
232.541	85.06
232.775	84.06
233.009	90.06
233.243	67.06
233.477	83.06
233.711	83.06
233.945	78.06
234.179	93.06
234.413	90.06
234.647	87.06
234.881	86.06
235.115	77.06
235.349	66.06
235.583	86.06
235.817	71.06
236.051	95.06
236.285	86.06
236.519	87.06
236.753	86.06
236.987	82.06
237.221	90.06
237.455	92.06
237.689	68.06
237.922	75.06
238.156	71.06
238.39	68.06
238.624	69.06
238.858	69.06
239.091	75.06
239.325	63.06
239.559	83.06
239.793	88.06
240.027	79.06
240.26	93.06
240.494	99.06
240.728	80.06
240.961	87.06
241.195	81.06
241.429	72.06
241.662	78.06
241.896	83.06
242.13	74.06
242.363	67.06
242.597	78.06
242.83	75.06
243.064	85.06
243.298	79.06
243.531	71.06
243.765	79.06
243.998	79.06
244.232	75.06
244.465	96.06
244.699	72.06
244.932	79.06
245.166	68.06
245.399	78.06
245.633	84.06
245.866	74.06
246.099	75.06
246.333	83.06
246.566	82.06
246.8	68.06
247.033	80.06
247.266	78.06
247.5	97.06
247.733	86.06
247.966	89.06
248.2	88.06
248.433	76.06
248.666	95.06
248.899	94.06
249.133	92.06
249.366	97.06
249.599	94.06
249.832	75.06
250.066	84.06
250.299	68.06
250.532	80.06
250.765	90.06
250.998	92.06
251.231	74.06
251.465	90.06
251.698	86.06
251.931	78.06
252.164	72.06
252.397	69.06
252.63	90.06
252.863	72.06
253.096	68.06
253.329	87.06
253.562	70.06
253.795	81.06
254.028	101.06
254.261	88.06
254.494	98.06
254.727	79.06
254.96	89.06
255.193	77.06
255.426	86.06
255.659	82.06
255.892	91.06
256.124	79.06
256.357	79.06
256.59	79.06
256.823	84.06
257.056	79.06
257.289	77.06
257.521	88.06
257.754	78.06
257.987	89.06
258.22	86.06
258.452	85.06
258.685	82.06
258.918	76.06
259.151	94.06
259.383	86.06
259.616	86.06
259.849	77.06
260.081	88.06
260.314	98.06
260.547	89.06
260.779	84.06
261.012	78.06
261.244	85.06
261.477	75.06
261.71	92.06
261.942	122.06
262.175	106.06
262.407	102.06
262.64	67.06
262.872	82.06
263.105	91.06
263.337	99.06
263.57	86.06
263.802	87.06
264.035	75.06
264.267	91.06
264.499	75.06
264.732	106.06
264.964	91.06
265.197	90.06
265.429	89.06
265.661	84.06
265.894	87.06
266.126	76.06
266.358	84.06
266.591	89.06
266.823	79.06
267.055	78.06
267.287	86.06
267.52	75.06
267.752	77.06
267.984	85.06
268.216	82.06
268.448	76.06
268.681	94.06
268.913	84.06
269.145	79.06
269.377	95.06
269.609	87.06
269.841	87.06
270.073	98.06
270.306	107.06
270.538	86.06
270.77	88.06
271.002	95.06
271.234	83.06
271.466	92.06
271.698	84.06
271.93	89.06
272.162	84.06
272.394	92.06
272.626	91.06
272.858	93.06
273.09	99.06
273.322	83.06
273.553	84.06
273.785	75.06
274.017	82.06
274.249	91.06
274.481	78.06
274.713	93.06
274.945	80.06
275.176	83.06
275.408	90.06
275.64	83.06
275.872	85.06
276.104	100.06
276.335	93.06
276.567	110.06
276.799	115.06
277.031	108.06
277.262	110.06
277.494	93.06
277.726	87.06
277.957	84.06
278.189	76.06
278.421	87.06
278.652	98.06
278.884	93.06
279.115	83.06
279.347	105.06
279.579	90.06
279.81	98.06
280.042	90.06
280.273	95.06
280.505	75.06
280.736	99.06
280.968	95.06
281.199	104.06
281.431	79.06
281.662	69.06
281.894	99.06
282.125	84.06
282.356	127.06
282.588	172.06
282.819	114.06
283.051	102.06
283.282	84.06
283.513	86.06
283.745	82.06
283.976	77.06
284.207	90.06
284.439	87.06
284.67	86.06
284.901	78.06
285.132	82.06
285.364	88.06
285.595	88.06
285.826	86.06
286.057	87.06
286.288	72.06
286.52	73.06
286.751	84.06
286.982	84.06
287.213	69.06
287.444	87.06
287.675	99.06
287.906	92.06
288.138	98.06
288.369	88.06
288.6	92.06
288.831	100.06
289.062	92.06
289.293	90.06
289.524	97.06
289.755	79.06
289.986	80.06
290.217	90.06
290.448	75.06
290.679	94.06
290.91	87.06
291.141	110.06
291.371	89.06
291.602	86.06
291.833	82.06
292.064	83.06
292.295	96.06
292.526	91.06
292.757	84.06
292.987	82.06
293.218	94.06
293.449	89.06
293.68	79.06
293.91	79.06
294.141	106.06
294.372	82.06
294.603	100.06
294.833	83.06
295.064	98.06
295.295	97.06
295.525	93.06
295.756	94.06
295.987	119.06
296.217	143.06
296.448	123.06
296.679	99.06
296.909	88.06
297.14	83.06
297.37	90.06
297.601	85.06
297.831	95.06
298.062	103.06
298.292	109.06
298.523	75.06
298.753	89.06
298.984	92.06
299.214	83.06
299.445	104.06
299.675	106.06
299.905	96.06
300.136	94.06
300.366	92.06
300.597	76.06
300.827	95.06
301.057	110.06
301.288	103.06
301.518	104.06
301.748	101.06
301.979	126.06
302.209	102.06
302.439	97.06
302.669	95.06
302.9	100.06
303.13	89.06
303.36	95.06
303.59	106.06
303.82	115.06
304.051	93.06
304.281	85.06
304.511	94.06
304.741	90.06
304.971	102.06
305.201	92.06
305.431	111.06
305.661	99.06
305.891	107.06
306.121	97.06
306.352	109.06
306.582	105.06
306.812	95.06
307.042	107.06
307.272	93.06
307.502	92.06
307.731	104.06
307.961	82.06
308.191	96.06
308.421	92.06
308.651	105.06
308.881	92.06
309.111	105.06
309.341	95.06
309.571	100.06
309.8	96.06
310.03	94.06
310.26	103.06
310.49	100.06
310.72	113.06
310.949	116.06
311.179	114.06
311.409	77.06
311.639	97.06
311.868	109.06
312.098	114.06
312.328	110.06
312.557	114.06
312.787	111.06
313.017	110.06
313.246	101.06
313.476	101.06
313.706	96.06
313.935	94.06
314.165	110.06
314.394	114.06
314.624	117.06
314.853	115.06
315.083	87.06
315.312	99.06
315.542	105.06
315.771	95.06
316.001	88.06
316.23	100.06
316.46	85.06
316.689	84.06
316.919	101.06
317.148	113.06
317.377	98.06
317.607	100.06
317.836	104.06
318.065	98.06
318.295	78.06
318.524	87.06
318.753	96.06
318.983	104.06
319.212	109.06
319.441	111.06
319.67	107.06
319.9	106.06
320.129	89.06
320.358	88.06
320.587	95.06
320.816	96.06
321.046	97.06
321.275	97.06
321.504	80.06
321.733	114.06
321.962	116.06
322.191	104.06
322.42	122.06
322.649	125.06
322.878	131.06
323.108	121.06
323.337	137.06
323.566	147.06
323.795	171.06
324.024	226.06
324.253	440.06
324.482	953.06
324.71	1971.06
324.939	2629.06
325.168	948.06
325.397	276.06
325.626	160.06
325.855	140.06
326.084	142.06
326.313	141.06
326.542	176.06
326.77	254.06
326.999	510.06
327.228	1073.06
327.457	1989.06
327.686	1574.06
327.914	426.06
328.143	220.06
328.372	198.06
328.6	130.06
328.829	134.06
329.058	152.06
329.287	159.06
329.515	124.06
329.744	91.06
329.972	117.06
330.201	133.06
330.43	151.06
330.658	163.06
330.887	188.06
331.115	157.06
331.344	102.06
331.572	107.06
331.801	130.06
332.03	107.06
332.258	114.06
332.486	106.06
332.715	92.06
332.943	103.06
333.172	110.06
333.4	115.06
333.629	116.06
333.857	122.06
334.085	110.06
334.314	124.06
334.542	164.06
334.771	164.06
334.999	103.06
335.227	108.06
335.455	92.06
335.684	92.06
335.912	101.06
336.14	116.06
336.369	105.06
336.597	112.06
336.825	103.06
337.053	96.06
337.281	87.06
337.51	103.06
337.738	100.06
337.966	112.06
338.194	83.06
338.422	105.06
338.65	100.06
338.878	95.06
339.106	104.06
339.334	92.06
339.562	108.06
339.79	103.06
340.018	93.06
340.246	99.06
340.474	103.06
340.702	97.06
340.93	97.06
341.158	105.06
341.386	110.06
341.614	115.06
341.842	103.06
342.07	91.06
342.298	91.06
342.526	95.06
342.754	102.06
342.981	86.06
343.209	103.06
343.437	108.06
343.665	101.06
343.893	99.06
344.12	94.06
344.348	91.06
344.576	88.06
344.804	101.06
345.031	100.06
345.259	107.06
345.487	106.06
345.714	105.06
345.942	87.06
346.17	98.06
346.397	95.06
346.625	94.06
346.853	82.06
347.08	76.06
347.308	111.06
347.535	99.06
347.763	115.06
347.99	105.06
348.218	118.06
348.445	110.06
348.673	106.06
348.9	102.06
349.128	92.06
349.355	103.06
349.583	108.06
349.81	76.06
350.037	96.06
350.265	106.06
350.492	111.06
350.72	111.06
350.947	110.06
351.174	113.06
351.402	115.06
351.629	112.06
351.856	113.06
352.083	107.06
352.311	118.06
352.538	130.06
352.765	114.06
352.992	124.06
353.22	110.06
353.447	120.06
353.674	115.06
353.901	113.06
354.128	93.06
354.355	95.06
354.583	107.06
354.81	107.06
355.037	78.06
355.264	94.06
355.491	88.06
355.718	87.06
355.945	98.06
356.172	96.06
356.399	100.06
356.626	103.06
356.853	99.06
357.08	98.06
357.307	91.06
357.534	87.06
357.761	104.06
357.988	89.06
358.215	95.06
358.441	94.06
358.668	95.06
358.895	89.06
359.122	95.06
359.349	94.06
359.576	102.06
359.802	106.06
360.029	142.06
360.256	125.06
360.483	115.06
360.709	96.06
360.936	92.06
361.163	107.06
361.39	88.06
361.616	107.06
361.843	90.06
362.07	109.06
362.296	105.06
362.523	99.06
362.749	99.06
362.976	100.06
363.203	87.06
363.429	88.06
363.656	102.06
363.882	91.06
364.109	91.06
364.335	90.06
364.562	93.06
364.788	99.06
365.015	102.06
365.241	119.06
365.468	130.06
365.694	107.06
365.92	98.06
366.147	88.06
366.373	98.06
366.599	95.06
366.826	98.06
367.052	78.06
367.278	84.06
367.505	101.06
367.731	93.06
367.957	101.06
368.184	95.06
368.41	108.06
368.636	121.06
368.862	116.06
369.089	93.06
369.315	96.06
369.541	98.06
369.767	102.06
369.993	106.06
370.219	105.06
370.445	96.06
370.672	84.06
370.898	91.06
371.124	88.06
371.35	89.06
371.576	95.06
371.802	96.06
372.028	105.06
372.254	82.06
372.48	91.06
372.706	102.06
372.932	87.06
373.158	71.06
373.384	100.06
373.61	106.06
373.835	99.06
374.061	97.06
374.287	102.06
374.513	99.06
374.739	87.06
374.965	76.06
375.191	80.06
375.416	90.06
375.642	92.06
375.868	104.06
376.094	97.06
376.319	84.06
376.545	97.06
376.771	95.06
376.997	103.06
377.222	108.06
377.448	102.06
377.674	77.06
377.899	82.06
378.125	100.06
378.35	94.06
378.576	110.06
378.802	85.06
379.027	79.06
379.253	80.06
379.478	88.06
379.704	94.06
379.929	102.06
380.155	104.06
380.38	115.06
380.606	98.06
380.831	93.06
381.057	108.06
381.282	97.06
381.507	109.06
381.733	99.06
381.958	100.06
382.184	102.06
382.409	103.06
382.634	112.06
382.86	106.06
383.085	110.06
383.31	98.06
383.535	106.06
383.761	91.06
383.986	100.06
384.211	105.06
384.436	98.06
384.662	88.06
384.887	102.06
385.112	87.06
385.337	91.06
385.562	111.06
385.787	115.06
386.013	116.06
386.238	118.06
386.463	110.06
386.688	120.06
386.913	124.06
387.138	117.06
387.363	107.06
387.588	101.06
387.813	94.06
388.038	122.06
388.263	112.06
388.488	102.06
388.713	86.06
388.938	101.06
389.163	96.06
389.387	84.06
389.612	96.06
389.837	102.06
390.062	88.06
390.287	92.06
390.512	95.06
390.736	82.06
390.961	88.06
391.186	104.06
391.411	95.06
391.636	93.06
391.86	94.06
392.085	88.06
392.31	79.06
392.534	95.06
392.759	79.06
392.984	78.06
393.208	98.06
393.433	109.06
393.658	105.06
393.882	95.06
394.107	95.06
394.331	93.06
394.556	96.06
394.78	75.06
395.005	74.06
395.229	92.06
395.454	84.06
395.678	77.06
395.903	84.06
396.127	94.06
396.352	90.06
396.576	95.06
396.801	99.06
397.025	99.06
397.249	90.06
397.474	89.06
397.698	87.06
397.922	80.06
398.147	94.06
398.371	102.06
398.595	90.06
398.82	82.06
399.044	85.06
399.268	86.06
399.492	92.06
399.717	95.06
399.941	89.06
400.165	102.06
400.389	98.06
400.613	88.06
400.837	95.06
401.062	92.06
401.286	78.06
401.51	90.06
401.734	103.06
401.958	110.06
402.182	139.06
402.406	173.06
402.63	142.06
402.854	106.06
403.078	83.06
403.302	99.06
403.526	86.06
403.75	90.06
403.974	112.06
404.198	92.06
404.422	109.06
404.645	77.06
404.869	97.06
405.093	113.06
405.317	100.06
405.541	111.06
405.765	119.06
405.988	136.06
406.212	201.06
406.436	278.06
406.66	159.06
406.883	114.06
407.107	107.06
407.331	100.06
407.555	108.06
407.778	93.06
408.002	98.06
408.226	89.06
408.449	91.06
408.673	90.06
408.896	111.06
409.12	98.06
409.344	95.06
409.567	88.06
409.791	92.06
410.014	95.06
410.238	92.06
410.461	88.06
410.685	98.06
410.908	95.06
411.132	107.06
411.355	111.06
411.578	106.06
411.802	86.06
412.025	84.06
412.249	103.06
412.472	90.06
412.695	114.06
412.919	87.06
413.142	95.06
413.365	95.06
413.589	99.06
413.812	93.06
414.035	83.06
414.258	90.06
414.482	87.06
414.705	85.06
414.928	93.06
415.151	88.06
415.374	96.06
415.597	88.06
415.821	95.06
416.044	101.06
416.267	96.06
416.49	85.06
416.713	89.06
416.936	96.06
417.159	89.06
417.382	85.06
417.605	98.06
417.828	105.06
418.051	82.06
418.274	82.06
418.497	104.06
418.72	96.06
418.943	93.06
419.166	83.06
419.389	101.06
419.611	103.06
419.834	89.06
420.057	94.06
420.28	96.06
420.503	98.06
420.726	94.06
420.948	99.06
421.171	110.06
421.394	92.06
421.617	106.06
421.839	96.06
422.062	91.06
422.285	93.06
422.507	93.06
422.73	116.06
422.953	108.06
423.175	98.06
423.398	93.06
423.621	95.06
423.843	91.06
424.066	86.06
424.288	91.06
424.511	86.06
424.733	90.06
424.956	127.06
425.178	106.06
425.401	111.06
425.623	112.06
425.846	93.06
426.068	104.06
426.291	100.06
426.513	75.06
426.735	80.06
426.958	97.06
427.18	125.06
427.402	173.06
427.625	216.06
427.847	167.06
428.069	122.06
428.292	100.06
428.514	77.06
428.736	85.06
428.958	83.06
429.181	89.06
429.403	84.06
429.625	88.06
429.847	97.06
430.069	112.06
430.292	103.06
430.514	80.06
430.736	84.06
430.958	95.06
431.18	91.06
431.402	90.06
431.624	92.06
431.846	83.06
432.068	100.06
432.29	78.06
432.512	72.06
432.734	95.06
432.956	73.06
433.178	98.06
433.4	98.06
433.622	100.06
433.844	100.06
434.066	95.06
434.287	93.06
434.509	106.06
434.731	94.06
434.953	94.06
435.175	93.06
435.397	92.06
435.618	108.06
435.84	127.06
436.062	127.06
436.284	144.06
436.505	127.06
436.727	110.06
436.949	89.06
437.17	90.06
437.392	100.06
437.614	109.06
437.835	116.06
438.057	147.06
438.278	136.06
438.5	136.06
438.721	136.06
438.943	110.06
439.165	101.06
439.386	101.06
439.608	94.06
439.829	112.06
440.05	138.06
440.272	188.06
440.493	128.06
440.715	92.06
440.936	91.06
441.158	101.06
441.379	91.06
441.6	105.06
441.822	99.06
442.043	91.06
442.264	114.06
442.486	119.06
442.707	98.06
442.928	117.06
443.149	151.06
443.371	176.06
443.592	130.06
443.813	131.06
444.034	138.06
444.255	106.06
444.476	96.06
444.698	96.06
444.919	87.06
445.14	135.06
445.361	141.06
445.582	142.06
445.803	187.06
446.024	170.06
446.245	157.06
446.466	127.06
446.687	85.06
446.908	88.06
447.129	98.06
447.35	104.06
447.571	110.06
447.792	98.06
448.013	119.06
448.234	120.06
448.455	116.06
448.675	152.06
448.896	137.06
449.117	108.06
449.338	111.06
449.559	141.06
449.779	148.06
450	103.06
450.221	94.06
450.442	110.06
450.662	105.06
450.883	118.06
451.104	125.06
451.324	112.06
451.545	98.06
451.766	95.06
451.986	93.06
452.207	93.06
452.428	100.06
452.648	108.06
452.869	117.06
453.089	127.06
453.31	135.06
453.53	115.06
453.751	90.06
453.971	101.06
454.192	94.06
454.412	107.06
454.633	76.06
454.853	87.06
455.073	90.06
455.294	95.06
455.514	123.06
455.734	93.06
455.955	99.06
456.175	88.06
456.395	84.06
456.616	84.06
456.836	84.06
457.056	90.06
457.276	78.06
457.497	84.06
457.717	100.06
457.937	94.06
458.157	106.06
458.377	87.06
458.598	127.06
458.818	190.06
459.038	196.06
459.258	140.06
459.478	90.06
459.698	90.06
459.918	89.06
460.138	81.06
460.358	78.06
460.578	89.06
460.798	100.06
461.018	90.06
461.238	80.06
461.458	87.06
461.678	90.06
461.898	76.06
462.118	74.06
462.338	97.06
462.558	90.06
462.777	91.06
462.997	87.06
463.217	100.06
463.437	80.06
463.657	87.06
463.876	89.06
464.096	86.06
464.316	90.06
464.536	99.06
464.755	116.06
464.975	115.06
465.195	214.06
465.414	208.06
465.634	110.06
465.854	79.06
466.073	101.06
466.293	91.06
466.512	86.06
466.732	89.06
466.951	106.06
467.171	100.06
467.391	95.06
467.61	111.06
467.829	116.06
468.049	94.06
468.268	96.06
468.488	76.06
468.707	82.06
468.927	74.06
469.146	93.06
469.365	80.06
469.585	88.06
469.804	99.06
470.023	106.06
470.243	99.06
470.462	108.06
470.681	131.06
470.901	99.06
471.12	90.06
471.339	100.06
471.558	70.06
471.777	74.06
471.997	91.06
472.216	119.06
472.435	158.06
472.654	104.06
472.873	94.06
473.092	107.06
473.311	87.06
473.53	95.06
473.749	91.06
473.968	104.06
474.187	138.06
474.406	119.06
474.625	92.06
474.844	93.06
475.063	88.06
475.282	82.06
475.501	77.06
475.72	94.06
475.939	77.06
476.158	86.06
476.377	90.06
476.596	88.06
476.814	96.06
477.033	85.06
477.252	90.06
477.471	80.06
477.69	78.06
477.908	99.06
478.127	82.06
478.346	81.06
478.564	94.06
478.783	100.06
479.002	101.06
479.22	99.06
479.439	109.06
479.658	108.06
479.876	96.06
480.095	96.06
480.313	103.06
480.532	95.06
480.751	92.06
480.969	125.06
481.188	223.06
481.406	162.06
481.624	94.06
481.843	80.06
482.061	86.06
482.28	87.06
482.498	80.06
482.717	87.06
482.935	82.06
483.153	90.06
483.372	110.06
483.59	92.06
483.808	98.06
484.027	88.06
484.245	97.06
484.463	102.06
484.681	104.06
484.9	106.06
485.118	94.06
485.336	95.06
485.554	98.06
485.772	104.06
485.99	110.06
486.209	106.06
486.427	113.06
486.645	124.06
486.863	122.06
487.081	99.06
487.299	107.06
487.517	99.06
487.735	110.06
487.953	100.06
488.171	103.06
488.389	96.06
488.607	98.06
488.825	94.06
489.043	75.06
489.261	100.06
489.479	87.06
489.696	84.06
489.914	101.06
490.132	88.06
490.35	91.06
490.568	85.06
490.786	88.06
491.003	85.06
491.221	90.06
491.439	86.06
491.657	91.06
491.874	93.06
492.092	82.06
492.31	108.06
492.527	101.06
492.745	76.06
492.963	78.06
493.18	78.06
493.398	90.06
493.615	82.06
493.833	85.06
494.05	67.06
494.268	79.06
494.485	97.06
494.703	94.06
494.92	86.06
495.138	98.06
495.355	83.06
495.573	85.06
495.79	107.06
496.008	100.06
496.225	91.06
496.442	92.06
496.66	92.06
496.877	83.06
497.094	94.06
497.312	97.06
497.529	85.06
497.746	98.06
497.963	84.06
498.181	94.06
498.398	115.06
498.615	123.06
498.832	115.06
499.049	109.06
499.267	84.06
499.484	92.06
499.701	84.06
499.918	84.06
500.135	97.06
500.352	74.06
500.569	83.06
500.786	100.06
501.003	93.06
501.22	89.06
501.437	94.06
501.654	110.06
501.871	119.06
502.088	98.06
502.305	100.06
502.522	92.06
502.739	82.06
502.956	83.06
503.172	93.06
503.389	98.06
503.606	112.06
503.823	108.06
504.04	105.06
504.256	91.06
504.473	84.06
504.69	102.06
504.907	106.06
505.123	102.06
505.34	103.06
505.557	91.06
505.773	96.06
505.99	91.06
506.207	103.06
506.423	93.06
506.64	98.06
506.856	101.06
507.073	104.06
507.289	95.06
507.506	106.06
507.722	139.06
507.939	121.06
508.155	95.06
508.372	98.06
508.588	96.06
508.805	94.06
509.021	121.06
509.238	106.06
509.454	107.06
509.67	87.06
509.887	92.06
510.103	120.06
510.319	206.06
510.536	756.06
510.752	2470.06
510.968	664.06
511.184	156.06
511.401	131.06
511.617	90.06
511.833	76.06
512.049	94.06
512.265	86.06
512.481	85.06
512.698	87.06
512.914	85.06
513.13	95.06
513.346	98.06
