Data from Circ_1981_H10_HRD10591_00028.txt Node
Date: Wed Jan 03 12:34:26 EST 2024
User: Yrep
Spectrometer: HR+D1059
Trigger mode: 1
Integration Time (sec): 1.000000E-1
Scans to average: 1
Electric dark correction enabled: true
Nonlinearity correction enabled: false
Boxcar width: 0
XAxis mode: Wavelengths
Number of Pixels in Spectrum: 2048
>>>>>Begin Spectral Data<<<<<
223.165	-17.06
223.4	-17.06
223.635	-17.06
223.869	-15.06
224.104	-12.06
224.338	-18.06
224.573	-17.06
224.808	4.94
225.042	-4.06
225.277	-2.06
225.511	-0.06
225.746	4.94
225.98	-0.06
226.215	6.94
226.449	11.94
226.683	5.94
226.918	20.94
227.152	29.94
227.387	33.94
227.621	45.94
227.856	50.94
228.09	45.94
228.324	50.94
228.559	54.94
228.793	48.94
229.027	62.94
229.262	71.94
229.496	79.94
229.73	99.94
229.964	92.94
230.199	86.94
230.433	91.94
230.667	83.94
230.901	92.94
231.136	91.94
231.37	77.94
231.604	86.94
231.838	104.94
232.072	78.94
232.306	84.94
232.541	87.94
232.775	75.94
233.009	82.94
233.243	75.94
233.477	93.94
233.711	88.94
233.945	73.94
234.179	70.94
234.413	84.94
234.647	73.94
234.881	86.94
235.115	68.94
235.349	97.94
235.583	74.94
235.817	94.94
236.051	81.94
236.285	84.94
236.519	64.94
236.753	86.94
236.987	86.94
237.221	100.94
237.455	94.94
237.689	85.94
237.922	73.94
238.156	77.94
238.39	72.94
238.624	74.94
238.858	88.94
239.091	68.94
239.325	86.94
239.559	86.94
239.793	87.94
240.027	88.94
240.26	96.94
240.494	78.94
240.728	70.94
240.961	84.94
241.195	88.94
241.429	79.94
241.662	86.94
241.896	86.94
242.13	86.94
242.363	80.94
242.597	81.94
242.83	71.94
243.064	70.94
243.298	84.94
243.531	84.94
243.765	79.94
243.998	82.94
244.232	78.94
244.465	96.94
244.699	86.94
244.932	76.94
245.166	69.94
245.399	82.94
245.633	80.94
245.866	92.94
246.099	79.94
246.333	79.94
246.566	88.94
246.8	78.94
247.033	64.94
247.266	86.94
247.5	87.94
247.733	79.94
247.966	86.94
248.2	84.94
248.433	68.94
248.666	84.94
248.899	85.94
249.133	79.94
249.366	111.94
249.599	100.94
249.832	79.94
250.066	84.94
250.299	87.94
250.532	85.94
250.765	85.94
250.998	92.94
251.231	79.94
251.465	79.94
251.698	80.94
251.931	73.94
252.164	79.94
252.397	79.94
252.63	83.94
252.863	72.94
253.096	80.94
253.329	94.94
253.562	88.94
253.795	90.94
254.028	91.94
254.261	96.94
254.494	88.94
254.727	95.94
254.96	78.94
255.193	78.94
255.426	81.94
255.659	78.94
255.892	81.94
256.124	84.94
256.357	80.94
256.59	89.94
256.823	87.94
257.056	79.94
257.289	78.94
257.521	76.94
257.754	75.94
257.987	90.94
258.22	90.94
258.452	96.94
258.685	77.94
258.918	87.94
259.151	66.94
259.383	103.94
259.616	72.94
259.849	93.94
260.081	92.94
260.314	90.94
260.547	104.94
260.779	91.94
261.012	84.94
261.244	86.94
261.477	94.94
261.71	102.94
261.942	123.94
262.175	152.94
262.407	91.94
262.64	93.94
262.872	82.94
263.105	92.94
263.337	89.94
263.57	93.94
263.802	82.94
264.035	82.94
264.267	90.94
264.499	86.94
264.732	89.94
264.964	86.94
265.197	88.94
265.429	87.94
265.661	82.94
265.894	93.94
266.126	90.94
266.358	86.94
266.591	78.94
266.823	88.94
267.055	86.94
267.287	85.94
267.52	89.94
267.752	84.94
267.984	91.94
268.216	95.94
268.448	98.94
268.681	85.94
268.913	87.94
269.145	94.94
269.377	86.94
269.609	86.94
269.841	75.94
270.073	82.94
270.306	90.94
270.538	87.94
270.77	94.94
271.002	80.94
271.234	78.94
271.466	101.94
271.698	87.94
271.93	84.94
272.162	94.94
272.394	89.94
272.626	85.94
272.858	83.94
273.09	84.94
273.322	103.94
273.553	96.94
273.785	100.94
274.017	92.94
274.249	82.94
274.481	101.94
274.713	100.94
274.945	92.94
275.176	79.94
275.408	92.94
275.64	79.94
275.872	84.94
276.104	100.94
276.335	101.94
276.567	112.94
276.799	123.94
277.031	111.94
277.262	102.94
277.494	107.94
277.726	88.94
277.957	96.94
278.189	82.94
278.421	98.94
278.652	92.94
278.884	92.94
279.115	98.94
279.347	109.94
279.579	79.94
279.81	90.94
280.042	74.94
280.273	88.94
280.505	101.94
280.736	90.94
280.968	92.94
281.199	96.94
281.431	93.94
281.662	96.94
281.894	96.94
282.125	101.94
282.356	129.94
282.588	160.94
282.819	122.94
283.051	91.94
283.282	98.94
283.513	87.94
283.745	80.94
283.976	91.94
284.207	86.94
284.439	105.94
284.67	98.94
284.901	88.94
285.132	87.94
285.364	84.94
285.595	101.94
285.826	84.94
286.057	95.94
286.288	86.94
286.52	111.94
286.751	91.94
286.982	103.94
287.213	78.94
287.444	94.94
287.675	88.94
287.906	87.94
288.138	90.94
288.369	96.94
288.6	91.94
288.831	90.94
289.062	101.94
289.293	97.94
289.524	95.94
289.755	96.94
289.986	101.94
290.217	90.94
290.448	89.94
290.679	97.94
290.91	86.94
291.141	94.94
291.371	84.94
291.602	89.94
291.833	98.94
292.064	89.94
292.295	96.94
292.526	103.94
292.757	92.94
292.987	96.94
293.218	96.94
293.449	88.94
293.68	91.94
293.91	104.94
294.141	85.94
294.372	98.94
294.603	97.94
294.833	100.94
295.064	79.94
295.295	97.94
295.525	90.94
295.756	108.94
295.987	137.94
296.217	147.94
296.448	140.94
296.679	104.94
296.909	88.94
297.14	68.94
297.37	98.94
297.601	87.94
297.831	92.94
298.062	89.94
298.292	105.94
298.523	98.94
298.753	90.94
298.984	84.94
299.214	93.94
299.445	120.94
299.675	106.94
299.905	107.94
300.136	90.94
300.366	104.94
300.597	81.94
300.827	90.94
301.057	119.94
301.288	112.94
301.518	97.94
301.748	86.94
301.979	96.94
302.209	90.94
302.439	103.94
302.669	78.94
302.9	96.94
303.13	99.94
303.36	105.94
303.59	112.94
303.82	111.94
304.051	103.94
304.281	99.94
304.511	105.94
304.741	107.94
304.971	85.94
305.201	92.94
305.431	102.94
305.661	97.94
305.891	102.94
306.121	103.94
306.352	104.94
306.582	119.94
306.812	102.94
307.042	86.94
307.272	113.94
307.502	108.94
307.731	111.94
307.961	97.94
308.191	86.94
308.421	96.94
308.651	103.94
308.881	102.94
309.111	100.94
309.341	88.94
309.571	103.94
309.8	100.94
310.03	115.94
310.26	111.94
310.49	94.94
310.72	97.94
310.949	114.94
311.179	125.94
311.409	113.94
311.639	112.94
311.868	103.94
312.098	104.94
312.328	97.94
312.557	111.94
312.787	119.94
313.017	112.94
313.246	100.94
313.476	87.94
313.706	89.94
313.935	108.94
314.165	116.94
314.394	112.94
314.624	94.94
314.853	108.94
315.083	98.94
315.312	102.94
315.542	89.94
315.771	88.94
316.001	81.94
316.23	97.94
316.46	91.94
316.689	106.94
316.919	101.94
317.148	95.94
317.377	97.94
317.607	107.94
317.836	106.94
318.065	97.94
318.295	113.94
318.524	105.94
318.753	95.94
318.983	97.94
319.212	103.94
319.441	117.94
319.67	112.94
319.9	99.94
320.129	93.94
320.358	100.94
320.587	98.94
320.816	115.94
321.046	116.94
321.275	105.94
321.504	101.94
321.733	94.94
321.962	105.94
322.191	100.94
322.42	116.94
322.649	116.94
322.878	118.94
323.108	126.94
323.337	138.94
323.566	150.94
323.795	171.94
324.024	226.94
324.253	417.94
324.482	891.94
324.71	1870.94
324.939	2600.94
325.168	941.94
325.397	282.94
325.626	158.94
325.855	138.94
326.084	130.94
326.313	137.94
326.542	158.94
326.77	245.94
326.999	474.94
327.228	978.94
327.457	1810.94
327.686	1455.94
327.914	416.94
328.143	253.94
328.372	187.94
328.6	148.94
328.829	121.94
329.058	152.94
329.287	159.94
329.515	127.94
329.744	123.94
329.972	99.94
330.201	121.94
330.43	164.94
330.658	166.94
330.887	198.94
331.115	158.94
331.344	117.94
331.572	105.94
331.801	115.94
332.03	110.94
332.258	105.94
332.486	90.94
332.715	106.94
332.943	106.94
333.172	111.94
333.4	108.94
333.629	105.94
333.857	121.94
334.085	130.94
334.314	117.94
334.542	153.94
334.771	171.94
334.999	102.94
335.227	108.94
335.455	94.94
335.684	90.94
335.912	108.94
336.14	113.94
336.369	102.94
336.597	115.94
336.825	117.94
337.053	104.94
337.281	90.94
337.51	89.94
337.738	88.94
337.966	104.94
338.194	114.94
338.422	96.94
338.65	77.94
338.878	109.94
339.106	101.94
339.334	105.94
339.562	98.94
339.79	110.94
340.018	97.94
340.246	103.94
340.474	96.94
340.702	97.94
340.93	93.94
341.158	81.94
341.386	101.94
341.614	114.94
341.842	110.94
342.07	92.94
342.298	95.94
342.526	94.94
342.754	76.94
342.981	94.94
343.209	98.94
343.437	108.94
343.665	107.94
343.893	89.94
344.12	88.94
344.348	81.94
344.576	101.94
344.804	116.94
345.031	105.94
345.259	122.94
345.487	98.94
345.714	101.94
345.942	96.94
346.17	100.94
346.397	84.94
346.625	91.94
346.853	101.94
347.08	103.94
347.308	104.94
347.535	106.94
347.763	108.94
347.99	107.94
348.218	107.94
348.445	130.94
348.673	118.94
348.9	106.94
349.128	101.94
349.355	98.94
349.583	100.94
349.81	94.94
350.037	117.94
350.265	108.94
350.492	100.94
350.72	97.94
350.947	109.94
351.174	111.94
351.402	115.94
351.629	113.94
351.856	110.94
352.083	112.94
352.311	104.94
352.538	127.94
352.765	114.94
352.992	120.94
353.22	122.94
353.447	124.94
353.674	108.94
353.901	103.94
354.128	94.94
354.355	98.94
354.583	117.94
354.81	92.94
355.037	92.94
355.264	93.94
355.491	110.94
355.718	102.94
355.945	93.94
356.172	108.94
356.399	105.94
356.626	94.94
356.853	100.94
357.08	92.94
357.307	104.94
357.534	98.94
357.761	95.94
357.988	100.94
358.215	98.94
358.441	97.94
358.668	96.94
358.895	105.94
359.122	98.94
359.349	102.94
359.576	103.94
359.802	108.94
360.029	137.94
360.256	143.94
360.483	126.94
360.709	103.94
360.936	104.94
361.163	98.94
361.39	103.94
361.616	114.94
361.843	96.94
362.07	95.94
362.296	112.94
362.523	113.94
362.749	106.94
362.976	100.94
363.203	103.94
363.429	95.94
363.656	106.94
363.882	101.94
364.109	95.94
364.335	100.94
364.562	94.94
364.788	89.94
365.015	90.94
365.241	116.94
365.468	113.94
365.694	111.94
365.92	103.94
366.147	117.94
366.373	100.94
366.599	106.94
366.826	93.94
367.052	82.94
367.278	91.94
367.505	104.94
367.731	107.94
367.957	108.94
368.184	102.94
368.41	117.94
368.636	120.94
368.862	114.94
369.089	121.94
369.315	93.94
369.541	94.94
369.767	101.94
369.993	88.94
370.219	106.94
370.445	94.94
370.672	93.94
370.898	94.94
371.124	93.94
371.35	84.94
371.576	92.94
371.802	97.94
372.028	96.94
372.254	101.94
372.48	105.94
372.706	92.94
372.932	96.94
373.158	105.94
373.384	100.94
373.61	104.94
373.835	94.94
374.061	111.94
374.287	113.94
374.513	102.94
374.739	105.94
374.965	94.94
375.191	96.94
375.416	94.94
375.642	81.94
375.868	86.94
376.094	97.94
376.319	88.94
376.545	99.94
376.771	93.94
376.997	100.94
377.222	108.94
377.448	109.94
377.674	89.94
377.899	91.94
378.125	86.94
378.35	90.94
378.576	97.94
378.802	114.94
379.027	89.94
379.253	93.94
379.478	108.94
379.704	93.94
379.929	103.94
380.155	85.94
380.38	92.94
380.606	92.94
380.831	100.94
381.057	100.94
381.282	90.94
381.507	101.94
381.733	89.94
381.958	95.94
382.184	104.94
382.409	97.94
382.634	96.94
382.86	93.94
383.085	92.94
383.31	102.94
383.535	110.94
383.761	110.94
383.986	95.94
384.211	113.94
384.436	92.94
384.662	110.94
384.887	107.94
385.112	106.94
385.337	98.94
385.562	111.94
385.787	106.94
386.013	111.94
386.238	124.94
386.463	112.94
386.688	108.94
386.913	110.94
387.138	118.94
387.363	106.94
387.588	100.94
387.813	91.94
388.038	102.94
388.263	111.94
388.488	103.94
388.713	102.94
388.938	111.94
389.163	78.94
389.387	94.94
389.612	94.94
389.837	97.94
390.062	101.94
390.287	93.94
390.512	96.94
390.736	91.94
390.961	104.94
391.186	102.94
391.411	98.94
391.636	108.94
391.86	86.94
392.085	90.94
392.31	92.94
392.534	80.94
392.759	92.94
392.984	87.94
393.208	92.94
393.433	104.94
393.658	90.94
393.882	90.94
394.107	90.94
394.331	87.94
394.556	104.94
394.78	88.94
395.005	90.94
395.229	81.94
395.454	89.94
395.678	79.94
395.903	96.94
396.127	87.94
396.352	100.94
396.576	97.94
396.801	80.94
397.025	105.94
397.249	100.94
397.474	94.94
397.698	84.94
397.922	102.94
398.147	93.94
398.371	80.94
398.595	90.94
398.82	101.94
399.044	94.94
399.268	109.94
399.492	95.94
399.717	85.94
399.941	98.94
400.165	91.94
400.389	91.94
400.613	89.94
400.837	90.94
401.062	78.94
401.286	99.94
401.51	91.94
401.734	100.94
401.958	120.94
402.182	142.94
402.406	182.94
402.63	152.94
402.854	103.94
403.078	98.94
403.302	107.94
403.526	109.94
403.75	93.94
403.974	102.94
404.198	102.94
404.422	99.94
404.645	107.94
404.869	89.94
405.093	106.94
405.317	110.94
405.541	105.94
405.765	118.94
405.988	165.94
406.212	206.94
406.436	313.94
406.66	198.94
406.883	114.94
407.107	103.94
407.331	98.94
407.555	113.94
407.778	105.94
408.002	114.94
408.226	93.94
408.449	90.94
408.673	100.94
408.896	109.94
409.12	101.94
409.344	105.94
409.567	96.94
409.791	89.94
410.014	87.94
410.238	94.94
410.461	95.94
410.685	97.94
410.908	101.94
411.132	108.94
411.355	110.94
411.578	92.94
411.802	88.94
412.025	88.94
412.249	102.94
412.472	79.94
412.695	103.94
412.919	111.94
413.142	106.94
413.365	95.94
413.589	80.94
413.812	89.94
414.035	92.94
414.258	93.94
414.482	92.94
414.705	96.94
414.928	103.94
415.151	108.94
415.374	86.94
415.597	86.94
415.821	92.94
416.044	91.94
416.267	98.94
416.49	87.94
416.713	94.94
416.936	92.94
417.159	88.94
417.382	82.94
417.605	97.94
417.828	98.94
418.051	92.94
418.274	95.94
418.497	77.94
418.72	72.94
418.943	101.94
419.166	102.94
419.389	95.94
419.611	80.94
419.834	88.94
420.057	100.94
420.28	95.94
420.503	92.94
420.726	109.94
420.948	82.94
421.171	103.94
421.394	117.94
421.617	106.94
421.839	86.94
422.062	84.94
422.285	85.94
422.507	92.94
422.73	113.94
422.953	92.94
423.175	88.94
423.398	82.94
423.621	95.94
423.843	89.94
424.066	88.94
424.288	96.94
424.511	94.94
424.733	113.94
424.956	110.94
425.178	113.94
425.401	112.94
425.623	105.94
425.846	96.94
426.068	108.94
426.291	99.94
426.513	104.94
426.735	81.94
426.958	106.94
427.18	122.94
427.402	157.94
427.625	226.94
427.847	174.94
428.069	130.94
428.292	105.94
428.514	85.94
428.736	92.94
428.958	96.94
429.181	104.94
429.403	85.94
429.625	96.94
429.847	100.94
430.069	113.94
430.292	88.94
430.514	97.94
430.736	84.94
430.958	93.94
431.18	93.94
431.402	93.94
431.624	103.94
431.846	88.94
432.068	90.94
432.29	94.94
432.512	103.94
432.734	91.94
432.956	98.94
433.178	108.94
433.4	101.94
433.622	97.94
433.844	105.94
434.066	96.94
434.287	80.94
434.509	97.94
434.731	91.94
434.953	86.94
435.175	101.94
435.397	106.94
435.618	104.94
435.84	109.94
436.062	120.94
436.284	116.94
436.505	116.94
436.727	107.94
436.949	88.94
437.17	92.94
437.392	105.94
437.614	107.94
437.835	120.94
438.057	132.94
438.278	135.94
438.5	106.94
438.721	129.94
438.943	104.94
439.165	89.94
439.386	93.94
439.608	94.94
439.829	118.94
440.05	130.94
440.272	164.94
440.493	118.94
440.715	97.94
440.936	102.94
441.158	94.94
441.379	95.94
441.6	105.94
441.822	104.94
442.043	92.94
442.264	109.94
442.486	106.94
442.707	97.94
442.928	117.94
443.149	168.94
443.371	162.94
443.592	116.94
443.813	129.94
444.034	120.94
444.255	90.94
444.476	88.94
444.698	79.94
444.919	105.94
445.14	143.94
445.361	139.94
445.582	135.94
445.803	148.94
446.024	161.94
446.245	158.94
446.466	138.94
446.687	102.94
446.908	98.94
447.129	92.94
447.35	90.94
447.571	99.94
447.792	88.94
448.013	103.94
448.234	118.94
448.455	124.94
448.675	114.94
448.896	133.94
449.117	105.94
449.338	106.94
449.559	141.94
449.779	141.94
450	92.94
450.221	99.94
450.442	91.94
450.662	102.94
450.883	120.94
451.104	137.94
451.324	109.94
451.545	106.94
451.766	111.94
451.986	97.94
452.207	85.94
452.428	98.94
452.648	114.94
452.869	123.94
453.089	140.94
453.31	132.94
453.53	99.94
453.751	101.94
453.971	107.94
454.192	138.94
454.412	102.94
454.633	103.94
454.853	100.94
455.073	94.94
455.294	95.94
455.514	107.94
455.734	102.94
455.955	101.94
456.175	94.94
456.395	87.94
456.616	88.94
456.836	84.94
457.056	88.94
457.276	94.94
457.497	82.94
457.717	83.94
457.937	101.94
458.157	92.94
458.377	109.94
458.598	124.94
458.818	186.94
459.038	220.94
459.258	141.94
459.478	93.94
459.698	91.94
459.918	100.94
460.138	88.94
460.358	82.94
460.578	94.94
460.798	98.94
461.018	88.94
461.238	88.94
461.458	92.94
461.678	94.94
461.898	93.94
462.118	96.94
462.338	100.94
462.558	92.94
462.777	97.94
462.997	89.94
463.217	91.94
463.437	70.94
463.657	89.94
463.876	80.94
464.096	94.94
464.316	103.94
464.536	90.94
464.755	120.94
464.975	125.94
465.195	223.94
465.414	224.94
465.634	109.94
465.854	88.94
466.073	102.94
466.293	84.94
466.512	84.94
466.732	81.94
466.951	102.94
467.171	103.94
467.391	100.94
467.61	119.94
467.829	121.94
468.049	109.94
468.268	118.94
468.488	88.94
468.707	93.94
468.927	96.94
469.146	96.94
469.365	91.94
469.585	99.94
469.804	97.94
470.023	107.94
470.243	99.94
470.462	106.94
470.681	131.94
470.901	84.94
471.12	89.94
471.339	88.94
471.558	78.94
471.777	92.94
471.997	94.94
472.216	132.94
472.435	181.94
472.654	87.94
472.873	102.94
473.092	89.94
473.311	90.94
473.53	90.94
473.749	84.94
473.968	125.94
474.187	121.94
474.406	94.94
474.625	90.94
474.844	94.94
475.063	72.94
475.282	94.94
475.501	85.94
475.72	97.94
475.939	79.94
476.158	72.94
476.377	101.94
476.596	102.94
476.814	108.94
477.033	103.94
477.252	103.94
477.471	90.94
477.69	98.94
477.908	91.94
478.127	90.94
478.346	84.94
478.564	104.94
478.783	107.94
479.002	105.94
479.22	79.94
479.439	116.94
479.658	106.94
479.876	88.94
480.095	96.94
480.313	88.94
480.532	86.94
480.751	103.94
480.969	136.94
481.188	254.94
481.406	204.94
481.624	114.94
481.843	93.94
482.061	92.94
482.28	102.94
482.498	86.94
482.717	93.94
482.935	108.94
483.153	86.94
483.372	95.94
483.59	108.94
483.808	108.94
484.027	87.94
484.245	88.94
484.463	95.94
484.681	89.94
484.9	85.94
485.118	96.94
485.336	97.94
485.554	107.94
485.772	104.94
485.99	105.94
486.209	102.94
486.427	107.94
486.645	107.94
486.863	119.94
487.081	107.94
487.299	91.94
487.517	105.94
487.735	98.94
487.953	96.94
488.171	96.94
488.389	102.94
488.607	104.94
488.825	90.94
489.043	100.94
489.261	98.94
489.479	88.94
489.696	84.94
489.914	97.94
490.132	95.94
490.35	90.94
490.568	101.94
490.786	97.94
491.003	78.94
491.221	101.94
491.439	88.94
491.657	101.94
491.874	99.94
492.092	98.94
492.31	95.94
492.527	92.94
492.745	102.94
492.963	84.94
493.18	96.94
493.398	104.94
493.615	96.94
493.833	96.94
494.05	98.94
494.268	93.94
494.485	100.94
494.703	92.94
494.92	98.94
495.138	89.94
495.355	103.94
495.573	78.94
495.79	76.94
496.008	91.94
496.225	102.94
496.442	77.94
496.66	100.94
496.877	88.94
497.094	94.94
497.312	92.94
497.529	82.94
497.746	92.94
497.963	86.94
498.181	96.94
498.398	101.94
498.615	104.94
498.832	121.94
499.049	104.94
499.267	95.94
499.484	86.94
499.701	103.94
499.918	106.94
500.135	107.94
500.352	85.94
500.569	87.94
500.786	82.94
501.003	104.94
501.22	96.94
501.437	108.94
501.654	101.94
501.871	111.94
502.088	101.94
502.305	92.94
502.522	80.94
502.739	90.94
502.956	100.94
503.172	94.94
503.389	101.94
503.606	120.94
503.823	120.94
504.04	100.94
504.256	102.94
504.473	83.94
504.69	106.94
504.907	84.94
505.123	109.94
505.34	105.94
505.557	87.94
505.773	92.94
505.99	93.94
506.207	93.94
506.423	100.94
506.64	91.94
506.856	82.94
507.073	80.94
507.289	107.94
507.506	96.94
507.722	112.94
507.939	142.94
508.155	95.94
508.372	97.94
508.588	112.94
508.805	102.94
509.021	99.94
509.238	117.94
509.454	112.94
509.67	104.94
509.887	104.94
510.103	133.94
510.319	226.94
510.536	824.94
510.752	2910.94
510.968	777.94
511.184	169.94
511.401	133.94
511.617	102.94
511.833	110.94
512.049	105.94
512.265	93.94
