Data from Circ_1981_H10_HRD10591_00049.txt Node
Date: Wed Jan 03 12:34:30 EST 2024
User: Yrep
Spectrometer: HR+D1059
Trigger mode: 1
Integration Time (sec): 1.000000E-1
Scans to average: 1
Electric dark correction enabled: true
Nonlinearity correction enabled: false
Boxcar width: 0
XAxis mode: Wavelengths
Number of Pixels in Spectrum: 2048
>>>>>Begin Spectral Data<<<<<
223.165	6
223.4	6
223.635	6
223.869	-13
224.104	-20
224.338	-25
224.573	-17
224.808	-18
225.042	-11
225.277	-5
225.511	-3
225.746	2
225.98	-11
226.215	15
226.449	25
226.683	21
226.918	29
227.152	25
227.387	49
227.621	34
227.856	41
228.09	35
228.324	56
228.559	64
228.793	54
229.027	62
229.262	78
229.496	79
229.73	102
229.964	90
230.199	71
230.433	68
230.667	85
230.901	72
231.136	77
231.37	79
231.604	75
231.838	76
232.072	100
232.306	86
232.541	72
232.775	78
233.009	83
233.243	78
233.477	79
233.711	85
233.945	94
234.179	80
234.413	74
234.647	82
234.881	86
235.115	83
235.349	102
235.583	88
235.817	73
236.051	74
236.285	72
236.519	83
236.753	70
236.987	97
237.221	90
237.455	89
237.689	88
237.922	66
238.156	70
238.39	79
238.624	82
238.858	66
239.091	78
239.325	86
239.559	85
239.793	86
240.027	94
240.26	77
240.494	75
240.728	70
240.961	75
241.195	76
241.429	78
241.662	75
241.896	94
242.13	79
242.363	86
242.597	80
242.83	90
243.064	77
243.298	84
243.531	85
243.765	79
243.998	80
244.232	84
244.465	86
244.699	89
244.932	78
245.166	83
245.399	80
245.633	69
245.866	72
246.099	92
246.333	93
246.566	71
246.8	86
247.033	66
247.266	63
247.5	93
247.733	86
247.966	84
248.2	74
248.433	86
248.666	71
248.899	100
249.133	112
249.366	105
249.599	99
249.832	66
250.066	78
250.299	77
250.532	81
250.765	87
250.998	88
251.231	80
251.465	66
251.698	72
251.931	76
252.164	84
252.397	87
252.63	96
252.863	79
253.096	89
253.329	79
253.562	64
253.795	84
254.028	88
254.261	73
254.494	91
254.727	102
254.96	73
255.193	89
255.426	92
255.659	74
255.892	82
256.124	73
256.357	80
256.59	102
256.823	88
257.056	80
257.289	87
257.521	69
257.754	68
257.987	87
258.22	90
258.452	78
258.685	77
258.918	91
259.151	84
259.383	79
259.616	88
259.849	92
260.081	81
260.314	94
260.547	91
260.779	92
261.012	79
261.244	83
261.477	84
261.71	100
261.942	119
262.175	138
262.407	98
262.64	82
262.872	79
263.105	92
263.337	90
263.57	93
263.802	88
264.035	79
264.267	95
264.499	88
264.732	102
264.964	86
265.197	80
265.429	79
265.661	75
265.894	79
266.126	98
266.358	86
266.591	86
266.823	99
267.055	85
267.287	90
267.52	86
267.752	87
267.984	90
268.216	90
268.448	80
268.681	86
268.913	90
269.145	107
269.377	84
269.609	95
269.841	79
270.073	86
270.306	82
270.538	100
270.77	88
271.002	86
271.234	80
271.466	96
271.698	87
271.93	84
272.162	88
272.394	86
272.626	72
272.858	88
273.09	80
273.322	103
273.553	98
273.785	85
274.017	86
274.249	78
274.481	94
274.713	90
274.945	87
275.176	91
275.408	92
275.64	87
275.872	93
276.104	95
276.335	87
276.567	108
276.799	122
277.031	106
277.262	89
277.494	91
277.726	104
277.957	92
278.189	95
278.421	87
278.652	107
278.884	90
279.115	75
279.347	86
279.579	88
279.81	83
280.042	96
280.273	86
280.505	90
280.736	99
280.968	86
281.199	89
281.431	87
281.662	94
281.894	101
282.125	114
282.356	133
282.588	175
282.819	118
283.051	98
283.282	111
283.513	94
283.745	82
283.976	70
284.207	88
284.439	88
284.67	91
284.901	88
285.132	96
285.364	87
285.595	90
285.826	86
286.057	88
286.288	92
286.52	97
286.751	100
286.982	92
287.213	78
287.444	84
287.675	89
287.906	82
288.138	84
288.369	87
288.6	78
288.831	90
289.062	76
289.293	84
289.524	85
289.755	96
289.986	93
290.217	100
290.448	94
290.679	87
290.91	90
291.141	92
291.371	103
291.602	86
291.833	87
292.064	89
292.295	68
292.526	84
292.757	91
292.987	86
293.218	98
293.449	88
293.68	93
293.91	80
294.141	93
294.372	79
294.603	84
294.833	84
295.064	89
295.295	95
295.525	87
295.756	102
295.987	118
296.217	140
296.448	141
296.679	102
296.909	94
297.14	92
297.37	82
297.601	94
297.831	95
298.062	91
298.292	90
298.523	100
298.753	96
298.984	76
299.214	84
299.445	91
299.675	90
299.905	105
300.136	91
300.366	86
300.597	94
300.827	84
301.057	90
301.288	105
301.518	98
301.748	98
301.979	103
302.209	103
302.439	93
302.669	95
302.9	90
303.13	84
303.36	96
303.59	99
303.82	118
304.051	100
304.281	76
304.511	79
304.741	85
304.971	84
305.201	92
305.431	81
305.661	91
305.891	92
306.121	102
306.352	106
306.582	108
306.812	93
307.042	97
307.272	105
307.502	103
307.731	99
307.961	90
308.191	106
308.421	100
308.651	96
308.881	79
309.111	94
309.341	103
309.571	96
309.8	114
310.03	97
310.26	109
310.49	88
310.72	114
310.949	133
311.179	122
311.409	111
311.639	100
311.868	114
312.098	101
312.328	100
312.557	101
312.787	124
313.017	119
313.246	106
313.476	110
313.706	102
313.935	102
314.165	123
314.394	109
314.624	119
314.853	115
315.083	104
315.312	95
315.542	91
315.771	85
316.001	95
316.23	84
316.46	95
316.689	107
316.919	114
317.148	111
317.377	116
317.607	100
317.836	98
318.065	87
318.295	90
318.524	98
318.753	75
318.983	98
319.212	106
319.441	112
319.67	122
319.9	94
320.129	85
320.358	92
320.587	89
320.816	101
321.046	108
321.275	104
321.504	103
321.733	106
321.962	105
322.191	116
322.42	100
322.649	122
322.878	110
323.108	122
323.337	140
323.566	164
323.795	163
324.024	208
324.253	403
324.482	834
324.71	1676
324.939	2222
325.168	814
325.397	260
325.626	153
325.855	136
326.084	130
326.313	139
326.542	149
326.77	238
326.999	426
327.228	884
327.457	1582
327.686	1276
327.914	374
328.143	232
328.372	193
328.6	151
328.829	150
329.058	166
329.287	172
329.515	141
329.744	121
329.972	122
330.201	140
330.43	162
330.658	156
330.887	196
331.115	160
331.344	109
331.572	123
331.801	112
332.03	119
332.258	100
332.486	94
332.715	100
332.943	107
333.172	96
333.4	103
333.629	106
333.857	108
334.085	118
334.314	128
334.542	172
334.771	157
334.999	106
335.227	107
335.455	115
335.684	110
335.912	92
336.14	101
336.369	99
336.597	121
336.825	110
337.053	96
337.281	93
337.51	100
337.738	93
337.966	109
338.194	103
338.422	116
338.65	89
338.878	91
339.106	95
339.334	93
339.562	108
339.79	108
340.018	101
340.246	91
340.474	114
340.702	91
340.93	107
341.158	93
341.386	92
341.614	102
341.842	85
342.07	96
342.298	93
342.526	93
342.754	94
342.981	83
343.209	90
343.437	98
343.665	87
343.893	98
344.12	106
344.348	97
344.576	90
344.804	98
345.031	95
345.259	109
345.487	94
345.714	105
345.942	98
346.17	99
346.397	87
346.625	123
346.853	101
347.08	84
347.308	102
347.535	92
347.763	107
347.99	99
348.218	107
348.445	127
348.673	103
348.9	104
349.128	103
349.355	94
349.583	106
349.81	95
350.037	106
350.265	100
350.492	95
350.72	88
350.947	117
351.174	137
351.402	110
351.629	110
351.856	97
352.083	109
352.311	116
352.538	113
352.765	118
352.992	130
353.22	116
353.447	119
353.674	107
353.901	99
354.128	107
354.355	84
354.583	101
354.81	95
355.037	86
355.264	91
355.491	102
355.718	103
355.945	94
356.172	99
356.399	102
356.626	93
356.853	107
357.08	101
357.307	106
357.534	79
357.761	92
357.988	98
358.215	90
358.441	91
358.668	93
358.895	92
359.122	86
359.349	94
359.576	114
359.802	118
360.029	146
360.256	117
360.483	126
360.709	104
360.936	114
361.163	110
361.39	98
361.616	91
361.843	91
362.07	104
362.296	105
362.523	107
362.749	106
362.976	95
363.203	110
363.429	94
363.656	86
363.882	86
364.109	95
364.335	88
364.562	101
364.788	89
365.015	105
365.241	111
365.468	111
365.694	117
365.92	108
366.147	84
366.373	103
366.599	86
366.826	91
367.052	76
367.278	96
367.505	96
367.731	100
367.957	100
368.184	121
368.41	90
368.636	134
368.862	137
369.089	121
369.315	94
369.541	89
369.767	89
369.993	95
370.219	103
370.445	94
370.672	98
370.898	86
371.124	71
371.35	98
371.576	94
371.802	83
372.028	96
372.254	111
372.48	86
372.706	86
372.932	71
373.158	87
373.384	72
373.61	100
373.835	102
374.061	100
374.287	102
374.513	90
374.739	87
374.965	86
375.191	78
375.416	84
375.642	99
375.868	96
376.094	86
376.319	104
376.545	107
376.771	103
376.997	75
377.222	79
377.448	107
377.674	98
377.899	75
378.125	92
378.35	94
378.576	98
378.802	88
379.027	92
379.253	96
379.478	87
379.704	97
379.929	99
380.155	102
380.38	95
380.606	91
380.831	98
381.057	104
381.282	103
381.507	94
381.733	94
381.958	94
382.184	102
382.409	95
382.634	100
382.86	92
383.085	113
383.31	109
383.535	102
383.761	111
383.986	97
384.211	89
384.436	112
384.662	100
384.887	92
385.112	103
385.337	88
385.562	110
385.787	109
386.013	101
386.238	116
386.463	117
386.688	115
386.913	109
387.138	108
387.363	102
387.588	86
387.813	92
388.038	98
388.263	110
388.488	99
388.713	100
388.938	92
389.163	93
389.387	102
389.612	89
389.837	97
390.062	93
390.287	92
390.512	104
390.736	92
390.961	98
391.186	91
391.411	103
391.636	102
391.86	90
392.085	96
392.31	81
392.534	84
392.759	85
392.984	80
393.208	90
393.433	107
393.658	93
393.882	94
394.107	92
394.331	91
394.556	95
394.78	88
395.005	87
395.229	94
395.454	90
395.678	86
395.903	80
396.127	92
396.352	94
396.576	90
396.801	98
397.025	90
397.249	113
397.474	94
397.698	87
397.922	88
398.147	100
398.371	83
398.595	89
398.82	90
399.044	86
399.268	91
399.492	87
399.717	98
399.941	80
400.165	98
400.389	92
400.613	91
400.837	84
401.062	93
401.286	69
401.51	92
401.734	108
401.958	108
402.182	143
402.406	211
402.63	133
402.854	110
403.078	93
403.302	107
403.526	82
403.75	89
403.974	86
404.198	98
404.422	95
404.645	100
404.869	87
405.093	95
405.317	115
405.541	109
405.765	105
405.988	135
406.212	224
406.436	289
406.66	196
406.883	132
407.107	93
407.331	109
407.555	101
407.778	118
408.002	100
408.226	99
408.449	101
408.673	84
408.896	110
409.12	110
409.344	97
409.567	90
409.791	90
410.014	99
410.238	82
410.461	87
410.685	89
410.908	100
411.132	106
411.355	96
411.578	99
411.802	96
412.025	99
412.249	84
412.472	83
412.695	98
412.919	94
413.142	93
413.365	94
413.589	98
413.812	90
414.035	87
414.258	94
414.482	87
414.705	77
414.928	79
415.151	93
415.374	110
415.597	90
415.821	87
416.044	82
416.267	90
416.49	86
416.713	91
416.936	92
417.159	88
417.382	72
417.605	80
417.828	103
418.051	95
418.274	90
418.497	85
418.72	81
418.943	95
419.166	93
419.389	98
419.611	86
419.834	102
420.057	83
420.28	86
420.503	86
420.726	85
420.948	98
421.171	94
421.394	102
421.617	96
421.839	94
422.062	91
422.285	88
422.507	108
422.73	105
422.953	98
423.175	97
423.398	83
423.621	109
423.843	94
424.066	107
424.288	101
424.511	102
424.733	92
424.956	125
425.178	113
425.401	119
425.623	115
425.846	87
426.068	111
426.291	103
426.513	106
426.735	100
426.958	104
427.18	124
427.402	170
427.625	222
427.847	161
428.069	124
428.292	94
428.514	90
428.736	87
428.958	82
429.181	89
429.403	86
429.625	83
429.847	109
430.069	95
430.292	106
430.514	87
430.736	80
430.958	90
431.18	95
431.402	87
431.624	94
431.846	79
432.068	90
432.29	82
432.512	83
432.734	99
432.956	85
433.178	107
433.4	102
433.622	73
433.844	90
434.066	81
434.287	87
434.509	96
434.731	87
434.953	79
435.175	86
435.397	101
435.618	91
435.84	110
436.062	131
436.284	118
436.505	106
436.727	91
436.949	90
437.17	103
437.392	101
437.614	105
437.835	125
438.057	148
438.278	122
438.5	108
438.721	139
438.943	99
439.165	107
439.386	111
439.608	100
439.829	102
440.05	154
440.272	178
440.493	109
440.715	76
440.936	86
441.158	91
441.379	85
441.6	91
441.822	99
442.043	91
442.264	111
442.486	119
442.707	104
442.928	132
443.149	152
443.371	162
443.592	132
443.813	131
444.034	131
444.255	98
444.476	88
444.698	102
444.919	100
445.14	133
445.361	145
445.582	123
445.803	179
446.024	171
446.245	166
446.466	125
446.687	96
446.908	90
447.129	94
447.35	104
447.571	103
447.792	104
448.013	109
448.234	107
448.455	113
448.675	136
448.896	155
449.117	116
449.338	121
449.559	154
449.779	154
450	109
450.221	95
450.442	95
450.662	125
450.883	109
451.104	149
451.324	123
451.545	93
451.766	90
451.986	94
452.207	94
452.428	103
452.648	112
452.869	120
453.089	123
453.31	135
453.53	93
453.751	88
453.971	107
454.192	127
454.412	101
454.633	88
454.853	90
455.073	95
455.294	93
455.514	106
455.734	98
455.955	94
456.175	79
456.395	78
456.616	93
456.836	76
457.056	90
457.276	96
457.497	81
457.717	86
457.937	74
458.157	100
458.377	94
458.598	116
458.818	194
459.038	212
459.258	144
459.478	104
459.698	86
459.918	99
460.138	93
460.358	88
460.578	95
460.798	82
461.018	102
461.238	94
461.458	84
461.678	88
461.898	76
462.118	86
462.338	84
462.558	90
462.777	76
462.997	85
463.217	79
463.437	92
463.657	77
463.876	94
464.096	90
464.316	101
464.536	108
464.755	109
464.975	108
465.195	223
465.414	224
465.634	119
465.854	99
466.073	85
466.293	89
466.512	75
466.732	89
466.951	95
467.171	96
467.391	102
467.61	118
467.829	115
468.049	105
468.268	106
468.488	89
468.707	91
468.927	89
469.146	95
469.365	82
469.585	96
469.804	110
470.023	110
470.243	105
470.462	111
470.681	134
470.901	83
471.12	86
471.339	94
471.558	96
471.777	86
471.997	89
472.216	120
472.435	163
472.654	94
472.873	102
473.092	74
473.311	94
473.53	86
473.749	103
473.968	108
474.187	117
474.406	118
474.625	95
474.844	88
475.063	95
475.282	70
475.501	98
475.72	91
475.939	96
476.158	87
476.377	82
476.596	89
476.814	109
477.033	107
477.252	102
477.471	90
477.69	86
477.908	85
478.127	95
478.346	92
478.564	103
478.783	80
479.002	109
479.22	80
479.439	116
479.658	133
479.876	108
480.095	99
480.313	106
480.532	95
480.751	106
480.969	118
481.188	218
481.406	182
481.624	111
481.843	87
482.061	90
482.28	93
482.498	94
482.717	95
482.935	104
483.153	77
483.372	101
483.59	102
483.808	101
484.027	96
484.245	91
484.463	97
484.681	94
484.9	106
485.118	93
485.336	90
485.554	98
485.772	106
485.99	110
486.209	119
486.427	113
486.645	123
486.863	130
487.081	107
487.299	92
487.517	87
487.735	86
487.953	78
488.171	76
488.389	104
488.607	109
488.825	87
489.043	83
489.261	92
489.479	82
489.696	81
489.914	91
490.132	99
490.35	90
490.568	90
490.786	88
491.003	88
491.221	91
491.439	88
491.657	91
491.874	106
492.092	97
492.31	98
492.527	104
492.745	91
492.963	100
493.18	88
493.398	84
493.615	99
493.833	103
494.05	104
494.268	86
494.485	92
494.703	86
494.92	95
495.138	91
495.355	75
495.573	92
495.79	84
496.008	83
496.225	76
496.442	92
496.66	88
496.877	97
497.094	97
497.312	99
497.529	85
497.746	107
497.963	92
498.181	86
498.398	95
498.615	112
498.832	112
499.049	102
499.267	90
499.484	84
499.701	103
499.918	95
500.135	92
500.352	94
500.569	100
500.786	93
501.003	94
501.22	89
501.437	95
501.654	101
501.871	114
502.088	82
502.305	92
502.522	92
502.739	97
502.956	92
503.172	94
503.389	106
503.606	118
503.823	113
504.04	103
504.256	86
504.473	90
504.69	101
504.907	102
505.123	100
505.34	94
505.557	102
505.773	90
505.99	93
506.207	99
506.423	98
506.64	82
506.856	96
507.073	95
507.289	83
507.506	109
507.722	120
507.939	122
508.155	100
508.372	96
508.588	105
508.805	102
509.021	102
509.238	94
509.454	93
509.67	109
509.887	105
510.103	126
510.319	237
510.536	862
510.752	2882
510.968	771
511.184	170
511.401	132
511.617	108
511.833	81
512.049	102
512.265	87
512.481	87
512.698	98
512.914	102
513.13	96
513.346	98
513.562	100
513.778	108
513.994	105
514.21	126
514.426	131
514.642	164
514.858	144
515.074	217
515.29	634
515.506	2130
515.721	767
515.937	199
516.153	138
516.369	101
516.585	100
516.801	101
517.016	98
517.232	94
517.448	101
517.664	94
517.879	95
518.095	91
518.311	99
518.527	89
518.742	96
518.958	98
519.173	102
519.389	102
519.605	101
519.82	109
520.036	120
520.251	142
520.467	135
520.682	120
520.898	113
521.113	133
521.329	156
521.544	263
521.76	826
521.975	3606
522.19	2123
522.406	429
522.621	156
522.836	121
523.052	96
523.267	104
523.482	93
523.698	107
523.913	153
524.128	111
524.343	112
524.559	108
524.774	86
524.989	94
525.204	105
525.419	112
525.634	89
525.849	102
526.064	90
526.28	93
526.495	86
526.71	90
526.925	92
527.14	93
527.355	103
527.57	96
527.785	93
527.999	94
528.214	99
528.429	105
528.644	92
528.859	84
529.074	87
529.289	144
529.503	256
529.718	119
529.933	79
530.148	98
530.363	87
530.577	86
530.792	86
531.007	90
531.221	98
531.436	95
531.651	104
531.865	104
532.08	87
532.295	86
532.509	101
532.724	69
532.938	95
533.153	108
533.367	83
533.582	110
533.796	100
534.011	99
534.225	80
534.44	91
534.654	104
534.868	98
535.083	94
535.297	95
535.511	107
535.726	114
535.94	103
536.154	102
536.369	79
536.583	91
536.797	93
537.011	85
537.225	100
537.44	89
537.654	104
537.868	101
538.082	88
538.296	89
538.51	97
538.724	95
538.938	98
539.153	108
539.367	122
539.581	86
539.795	87
540.009	92
540.222	104
540.436	75
540.65	99
540.864	101
541.078	93
541.292	97
541.506	94
541.72	84
541.934	98
542.147	103
542.361	90
542.575	110
542.789	102
543.002	85
543.216	94
543.43	103
543.644	102
543.857	93
544.071	98
544.285	74
544.498	81
544.712	79
544.925	88
545.139	102
545.352	89
545.566	85
545.779	87
545.993	91
546.206	103
546.42	95
546.633	101
546.847	96
547.06	87
547.274	100
547.487	86
547.7	95
547.914	86
548.127	88
548.34	86
548.554	83
548.767	88
548.98	98
549.193	103
549.407	98
549.62	88
549.833	87
550.046	96
550.259	94
550.473	91
550.686	85
550.899	94
551.112	104
551.325	98
551.538	102
551.751	90
551.964	86
552.177	83
552.39	85
552.603	100
552.816	82
553.029	98
553.242	94
553.455	106
553.667	101
553.88	107
554.093	104
554.306	96
554.519	92
554.732	88
554.944	94
555.157	82
555.37	78
555.583	86
555.795	106
556.008	90
556.221	96
556.433	94
556.646	102
556.859	92
557.071	84
557.284	90
557.496	97
557.709	81
557.921	82
558.134	85
558.346	88
558.559	79
558.771	90
558.984	100
559.196	90
559.409	84
559.621	77
559.833	82
560.046	86
560.258	106
560.47	90
560.683	85
560.895	102
561.107	84
561.32	92
561.532	83
561.744	79
561.956	104
562.168	96
562.381	111
562.593	100
562.805	102
563.017	101
563.229	89
563.441	96
563.653	82
563.865	90
564.077	87
564.289	90
564.501	105
564.713	113
564.925	80
565.137	107
565.349	98
565.561	90
565.773	88
565.985	86
566.197	96
566.408	95
566.62	93
566.832	90
567.044	104
567.255	91
567.467	82
567.679	91
567.891	90
568.102	88
568.314	83
568.526	82
568.737	94
568.949	72
569.161	83
569.372	89
569.584	101
569.795	100
570.007	114
570.218	282
570.43	138
570.641	86
570.853	91
571.064	98
571.276	94
571.487	94
571.698	99
571.91	90
572.121	94
572.333	90
572.544	107
572.755	99
572.966	96
573.178	106
573.389	98
573.6	87
573.811	87
574.023	94
574.234	87
574.445	83
574.656	89
574.867	89
575.078	96
575.289	80
575.501	94
575.712	88
575.923	97
576.134	94
576.345	92
576.556	89
576.767	98
576.978	102
577.188	103
577.399	100
577.61	95
577.821	94
578.032	120
578.243	308
578.454	873
578.665	227
578.875	87
579.086	89
579.297	89
579.508	79
579.718	92
579.929	94
580.14	91
580.35	75
580.561	84
