Data from Circ_1981_H10_HRD10591_00004.txt Node
Date: Wed Jan 03 12:34:21 EST 2024
User: Yrep
Spectrometer: HR+D1059
Trigger mode: 1
Integration Time (sec): 1.000000E-1
Scans to average: 1
Electric dark correction enabled: true
Nonlinearity correction enabled: false
Boxcar width: 0
XAxis mode: Wavelengths
Number of Pixels in Spectrum: 2048
>>>>>Begin Spectral Data<<<<<
223.165	-23
223.4	-23
223.635	-23
223.869	-18
224.104	-17
224.338	-22
224.573	-3
224.808	-23
225.042	-16
225.277	-13
225.511	6
225.746	10
225.98	1
226.215	22
226.449	30
226.683	22
226.918	19
227.152	25
227.387	25
227.621	37
227.856	39
228.09	49
228.324	49
228.559	36
228.793	51
229.027	61
229.262	58
229.496	56
229.73	81
229.964	109
230.199	70
230.433	77
230.667	60
230.901	85
231.136	71
231.37	72
231.604	71
231.838	79
232.072	71
232.306	81
232.541	85
232.775	70
233.009	77
233.243	90
233.477	84
233.711	86
233.945	72
234.179	79
234.413	81
234.647	73
234.881	68
235.115	54
235.349	94
235.583	68
235.817	85
236.051	82
236.285	81
236.519	89
236.753	71
236.987	79
237.221	87
237.455	90
237.689	75
237.922	81
238.156	67
238.39	70
238.624	71
238.858	70
239.091	74
239.325	70
239.559	56
239.793	76
240.027	77
240.26	72
240.494	76
240.728	71
240.961	78
241.195	72
241.429	73
241.662	85
241.896	69
242.13	64
242.363	63
242.597	78
242.83	61
243.064	75
243.298	82
243.531	66
243.765	68
243.998	79
244.232	78
244.465	67
244.699	84
244.932	77
245.166	71
245.399	68
245.633	90
245.866	77
246.099	54
246.333	83
246.566	66
246.8	87
247.033	83
247.266	61
247.5	79
247.733	73
247.966	77
248.2	88
248.433	74
248.666	73
248.899	70
249.133	80
249.366	85
249.599	89
249.832	80
250.066	61
250.299	72
250.532	74
250.765	67
250.998	74
251.231	72
251.465	72
251.698	70
251.931	70
252.164	79
252.397	89
252.63	86
252.863	75
253.096	83
253.329	71
253.562	70
253.795	67
254.028	81
254.261	85
254.494	81
254.727	98
254.96	71
255.193	79
255.426	70
255.659	64
255.892	67
256.124	72
256.357	81
256.59	79
256.823	90
257.056	74
257.289	79
257.521	87
257.754	72
257.987	77
258.22	76
258.452	70
258.685	86
258.918	88
259.151	79
259.383	88
259.616	80
259.849	79
260.081	95
260.314	56
260.547	72
260.779	82
261.012	75
261.244	81
261.477	97
261.71	95
261.942	105
262.175	110
262.407	72
262.64	87
262.872	83
263.105	72
263.337	85
263.57	81
263.802	81
264.035	83
264.267	99
264.499	71
264.732	90
264.964	75
265.197	86
265.429	79
265.661	77
265.894	70
266.126	82
266.358	77
266.591	85
266.823	88
267.055	80
267.287	84
267.52	65
267.752	68
267.984	82
268.216	79
268.448	88
268.681	79
268.913	82
269.145	74
269.377	73
269.609	77
269.841	89
270.073	65
270.306	83
270.538	69
270.77	80
271.002	86
271.234	89
271.466	77
271.698	82
271.93	71
272.162	84
272.394	101
272.626	86
272.858	83
273.09	86
273.322	67
273.553	92
273.785	81
274.017	78
274.249	71
274.481	75
274.713	79
274.945	96
275.176	88
275.408	82
275.64	93
275.872	77
276.104	70
276.335	87
276.567	102
276.799	98
277.031	80
277.262	92
277.494	94
277.726	80
277.957	85
278.189	84
278.421	92
278.652	83
278.884	84
279.115	80
279.347	88
279.579	81
279.81	89
280.042	86
280.273	78
280.505	77
280.736	89
280.968	82
281.199	75
281.431	83
281.662	89
281.894	88
282.125	92
282.356	120
282.588	140
282.819	113
283.051	74
283.282	102
283.513	91
283.745	95
283.976	79
284.207	77
284.439	84
284.67	83
284.901	83
285.132	71
285.364	83
285.595	72
285.826	91
286.057	95
286.288	82
286.52	95
286.751	88
286.982	83
287.213	77
287.444	99
287.675	87
287.906	89
288.138	85
288.369	82
288.6	93
288.831	83
289.062	73
289.293	86
289.524	89
289.755	87
289.986	85
290.217	83
290.448	84
290.679	68
290.91	84
291.141	77
291.371	86
291.602	80
291.833	78
292.064	82
292.295	88
292.526	95
292.757	87
292.987	90
293.218	86
293.449	81
293.68	97
293.91	87
294.141	81
294.372	89
294.603	94
294.833	83
295.064	78
295.295	89
295.525	105
295.756	91
295.987	112
296.217	132
296.448	114
296.679	102
296.909	90
297.14	93
297.37	83
297.601	87
297.831	57
298.062	99
298.292	81
298.523	75
298.753	87
298.984	87
299.214	89
299.445	93
299.675	88
299.905	87
300.136	78
300.366	84
300.597	78
300.827	110
301.057	99
301.288	103
301.518	91
301.748	93
301.979	95
302.209	98
302.439	91
302.669	95
302.9	93
303.13	87
303.36	87
303.59	91
303.82	82
304.051	81
304.281	97
304.511	114
304.741	87
304.971	77
305.201	92
305.431	87
305.661	73
305.891	89
306.121	98
306.352	107
306.582	103
306.812	91
307.042	87
307.272	85
307.502	87
307.731	75
307.961	93
308.191	83
308.421	88
308.651	84
308.881	83
309.111	105
309.341	91
309.571	100
309.8	93
310.03	91
310.26	97
310.49	96
310.72	103
310.949	108
311.179	97
311.409	83
311.639	101
311.868	92
312.098	88
312.328	106
312.557	96
312.787	103
313.017	99
313.246	101
313.476	95
313.706	83
313.935	97
314.165	102
314.394	86
314.624	86
314.853	90
315.083	98
315.312	78
315.542	97
315.771	102
316.001	88
316.23	82
316.46	96
316.689	99
316.919	93
317.148	102
317.377	87
317.607	97
317.836	83
318.065	87
318.295	89
318.524	81
318.753	83
318.983	90
319.212	91
319.441	106
319.67	105
319.9	100
320.129	74
320.358	97
320.587	94
320.816	84
321.046	90
321.275	100
321.504	102
321.733	97
321.962	94
322.191	86
322.42	106
322.649	131
322.878	106
323.108	113
323.337	145
323.566	147
323.795	144
324.024	198
324.253	404
324.482	833
324.71	1781
324.939	2459
325.168	863
325.397	256
325.626	149
325.855	120
326.084	125
326.313	130
326.542	168
326.77	211
326.999	442
327.228	953
327.457	1799
327.686	1477
327.914	407
328.143	197
328.372	147
328.6	121
328.829	120
329.058	133
329.287	115
329.515	106
329.744	111
329.972	107
330.201	117
330.43	140
330.658	122
330.887	144
331.115	118
331.344	110
331.572	100
331.801	94
332.03	99
332.258	92
332.486	97
332.715	81
332.943	98
333.172	92
333.4	96
333.629	102
333.857	114
334.085	99
334.314	102
334.542	127
334.771	128
334.999	97
335.227	105
335.455	98
335.684	100
335.912	84
336.14	97
336.369	90
336.597	103
336.825	100
337.053	97
337.281	97
337.51	81
337.738	91
337.966	82
338.194	89
338.422	95
338.65	83
338.878	92
339.106	85
339.334	82
339.562	80
339.79	85
340.018	94
340.246	83
340.474	87
340.702	88
340.93	80
341.158	88
341.386	86
341.614	97
341.842	78
342.07	82
342.298	109
342.526	86
342.754	81
342.981	97
343.209	85
343.437	85
343.665	98
343.893	93
344.12	98
344.348	81
344.576	85
344.804	96
345.031	87
345.259	95
345.487	94
345.714	85
345.942	103
346.17	84
346.397	87
346.625	83
346.853	79
347.08	90
347.308	94
347.535	97
347.763	88
347.99	97
348.218	98
348.445	94
348.673	100
348.9	106
349.128	86
349.355	96
349.583	86
349.81	94
350.037	85
350.265	90
350.492	79
350.72	84
350.947	96
351.174	105
351.402	93
351.629	106
351.856	86
352.083	92
352.311	106
352.538	111
352.765	121
352.992	116
353.22	110
353.447	101
353.674	119
353.901	103
354.128	109
354.355	92
354.583	104
354.81	86
355.037	91
355.264	81
355.491	89
355.718	92
355.945	81
356.172	94
356.399	97
356.626	91
356.853	87
357.08	90
357.307	87
357.534	81
357.761	95
357.988	91
358.215	88
358.441	95
358.668	89
358.895	101
359.122	89
359.349	93
359.576	97
359.802	112
360.029	132
360.256	108
360.483	111
360.709	84
360.936	102
361.163	97
361.39	72
361.616	95
361.843	91
362.07	79
362.296	85
362.523	91
362.749	92
362.976	94
363.203	92
363.429	80
363.656	85
363.882	78
364.109	90
364.335	77
364.562	92
364.788	100
365.015	96
365.241	95
365.468	91
365.694	114
365.92	89
366.147	81
366.373	77
366.599	88
366.826	94
367.052	95
367.278	76
367.505	83
367.731	77
367.957	81
368.184	85
368.41	103
368.636	129
368.862	110
369.089	99
369.315	93
369.541	81
369.767	77
369.993	95
370.219	95
370.445	77
370.672	78
370.898	83
371.124	77
371.35	86
371.576	79
371.802	77
372.028	85
372.254	96
372.48	96
372.706	93
372.932	91
373.158	90
373.384	93
373.61	93
373.835	82
374.061	85
374.287	91
374.513	85
374.739	86
374.965	87
375.191	84
375.416	91
375.642	78
375.868	85
376.094	93
376.319	83
376.545	83
376.771	73
376.997	90
377.222	77
377.448	73
377.674	87
377.899	111
378.125	98
378.35	99
378.576	85
378.802	74
379.027	94
379.253	91
379.478	90
379.704	89
379.929	91
380.155	95
380.38	90
380.606	94
380.831	85
381.057	88
381.282	80
381.507	101
381.733	98
381.958	92
382.184	110
382.409	92
382.634	114
382.86	95
383.085	104
383.31	101
383.535	95
383.761	97
383.986	101
384.211	110
384.436	88
384.662	97
384.887	93
385.112	88
385.337	108
385.562	106
385.787	118
386.013	122
386.238	125
386.463	118
386.688	98
386.913	124
387.138	96
387.363	90
387.588	104
387.813	106
388.038	114
388.263	121
388.488	110
388.713	86
388.938	100
389.163	94
389.387	103
389.612	84
389.837	84
390.062	98
390.287	83
390.512	87
390.736	93
390.961	91
391.186	79
391.411	98
391.636	103
391.86	73
392.085	71
392.31	80
392.534	91
392.759	102
392.984	93
393.208	96
393.433	102
393.658	91
393.882	92
394.107	95
394.331	83
394.556	73
394.78	89
395.005	70
395.229	81
395.454	81
395.678	84
395.903	78
396.127	87
396.352	78
396.576	79
396.801	84
397.025	88
397.249	90
397.474	81
397.698	77
397.922	78
398.147	72
398.371	82
398.595	91
398.82	70
399.044	73
399.268	83
399.492	87
399.717	75
399.941	81
400.165	85
400.389	87
400.613	86
400.837	80
401.062	85
401.286	100
401.51	74
401.734	79
401.958	87
402.182	117
402.406	151
402.63	107
402.854	102
403.078	73
403.302	79
403.526	81
403.75	84
403.974	83
404.198	88
404.422	92
404.645	83
404.869	78
405.093	90
405.317	115
405.541	104
405.765	83
405.988	100
406.212	162
406.436	222
406.66	152
406.883	106
407.107	86
407.331	94
407.555	97
407.778	89
408.002	85
408.226	83
408.449	80
408.673	88
408.896	87
409.12	85
409.344	85
409.567	90
409.791	92
410.014	89
410.238	86
410.461	83
410.685	93
410.908	98
411.132	91
411.355	106
411.578	85
411.802	87
412.025	85
412.249	105
412.472	93
412.695	100
412.919	87
413.142	82
413.365	101
413.589	76
413.812	91
414.035	89
414.258	94
414.482	91
414.705	76
414.928	87
415.151	85
415.374	96
415.597	67
415.821	77
416.044	84
416.267	88
416.49	91
416.713	85
416.936	90
417.159	75
417.382	96
417.605	74
417.828	98
418.051	89
418.274	91
418.497	75
418.72	91
418.943	73
419.166	98
419.389	83
419.611	91
419.834	94
420.057	87
420.28	73
420.503	99
420.726	83
420.948	91
421.171	87
421.394	102
421.617	97
421.839	81
422.062	80
422.285	105
422.507	96
422.73	108
422.953	94
423.175	96
423.398	94
423.621	90
423.843	91
424.066	89
424.288	75
424.511	80
424.733	85
424.956	107
425.178	96
425.401	116
425.623	105
425.846	85
426.068	90
426.291	89
426.513	79
426.735	65
426.958	87
427.18	99
427.402	136
427.625	181
427.847	150
428.069	103
428.292	86
428.514	79
428.736	81
428.958	74
429.181	79
429.403	79
429.625	86
429.847	90
430.069	77
430.292	89
430.514	98
430.736	88
430.958	75
431.18	71
431.402	80
431.624	75
431.846	81
432.068	80
432.29	88
432.512	82
432.734	81
432.956	86
433.178	75
433.4	90
433.622	91
433.844	92
434.066	93
434.287	88
434.509	94
434.731	76
434.953	93
435.175	82
435.397	89
435.618	92
435.84	88
436.062	125
436.284	129
436.505	100
436.727	94
436.949	80
437.17	81
437.392	83
437.614	112
437.835	114
438.057	122
438.278	112
438.5	112
438.721	138
438.943	102
439.165	93
439.386	90
439.608	94
439.829	112
440.05	121
440.272	163
440.493	105
440.715	79
440.936	73
441.158	72
441.379	86
441.6	91
441.822	92
442.043	84
442.264	90
442.486	104
442.707	77
442.928	103
443.149	132
443.371	135
443.592	111
443.813	111
444.034	113
444.255	86
444.476	86
444.698	87
444.919	101
445.14	138
445.361	118
445.582	126
445.803	162
446.024	147
446.245	140
446.466	113
446.687	89
446.908	101
447.129	94
447.35	82
447.571	75
447.792	95
448.013	98
448.234	99
448.455	109
448.675	113
448.896	109
449.117	90
449.338	111
449.559	136
449.779	141
450	101
450.221	66
450.442	77
450.662	87
450.883	110
451.104	121
451.324	95
451.545	93
451.766	85
451.986	89
452.207	83
452.428	95
452.648	96
452.869	110
453.089	106
453.31	111
453.53	91
453.751	87
453.971	106
454.192	99
454.412	86
454.633	93
454.853	83
455.073	80
455.294	87
455.514	96
455.734	89
455.955	87
456.175	81
456.395	85
456.616	75
456.836	83
457.056	95
457.276	91
457.497	86
457.717	74
457.937	75
458.157	87
458.377	97
458.598	100
458.818	148
459.038	167
459.258	110
459.478	77
459.698	85
459.918	75
460.138	74
460.358	75
460.578	86
460.798	91
461.018	88
461.238	80
461.458	73
461.678	83
461.898	89
462.118	78
462.338	83
462.558	86
462.777	88
462.997	98
463.217	93
463.437	92
463.657	83
463.876	75
464.096	85
464.316	93
464.536	92
464.755	90
464.975	103
465.195	165
465.414	158
465.634	91
465.854	79
466.073	81
466.293	87
466.512	87
466.732	86
466.951	88
467.171	102
467.391	86
467.61	92
467.829	96
468.049	94
468.268	99
468.488	80
468.707	80
468.927	88
469.146	79
469.365	75
469.585	89
469.804	102
470.023	89
470.243	94
470.462	89
470.681	112
470.901	90
471.12	89
471.339	91
471.558	74
471.777	84
471.997	90
472.216	104
472.435	135
472.654	102
472.873	91
473.092	91
473.311	77
473.53	71
473.749	90
473.968	96
474.187	107
474.406	100
474.625	101
474.844	84
475.063	76
475.282	83
475.501	85
475.72	85
475.939	78
476.158	60
476.377	79
476.596	90
476.814	85
477.033	89
477.252	87
477.471	81
477.69	83
477.908	90
478.127	86
478.346	86
478.564	86
478.783	93
479.002	89
479.22	95
479.439	99
479.658	116
479.876	94
480.095	86
480.313	93
480.532	93
480.751	100
480.969	106
481.188	183
481.406	151
481.624	94
481.843	99
482.061	65
482.28	96
482.498	84
482.717	90
482.935	95
483.153	82
483.372	88
483.59	78
483.808	78
484.027	76
484.245	99
484.463	96
484.681	98
484.9	109
485.118	91
485.336	85
485.554	107
485.772	111
485.99	95
486.209	106
486.427	95
486.645	96
486.863	123
487.081	104
487.299	90
487.517	99
487.735	87
487.953	98
488.171	103
488.389	93
488.607	90
488.825	81
489.043	88
489.261	102
489.479	81
489.696	102
489.914	87
490.132	77
490.35	93
490.568	87
490.786	87
491.003	78
491.221	94
491.439	93
491.657	99
491.874	88
492.092	80
492.31	99
492.527	86
492.745	83
492.963	84
493.18	102
493.398	92
493.615	111
493.833	93
494.05	80
494.268	83
494.485	96
494.703	81
494.92	82
495.138	85
495.355	88
495.573	88
495.79	92
496.008	102
496.225	87
496.442	92
496.66	86
496.877	88
497.094	81
497.312	94
497.529	79
497.746	93
497.963	91
498.181	91
498.398	84
498.615	101
498.832	109
499.049	90
499.267	87
499.484	96
499.701	82
499.918	92
500.135	91
500.352	97
500.569	58
500.786	87
501.003	94
501.22	99
501.437	97
501.654	95
501.871	88
502.088	90
502.305	94
502.522	93
502.739	94
502.956	74
503.172	94
503.389	88
503.606	100
503.823	110
504.04	89
504.256	94
504.473	81
504.69	74
504.907	95
505.123	89
505.34	85
505.557	69
505.773	78
505.99	77
506.207	91
506.423	84
506.64	82
506.856	85
507.073	89
507.289	81
507.506	100
507.722	112
507.939	116
508.155	105
508.372	87
508.588	90
508.805	85
509.021	93
509.238	102
509.454	99
509.67	105
509.887	109
510.103	109
510.319	161
510.536	643
510.752	2045
510.968	557
511.184	147
511.401	113
511.617	90
511.833	97
512.049	94
512.265	94
512.481	82
512.698	89
512.914	90
513.13	94
513.346	88
513.562	85
513.778	97
513.994	92
514.21	103
514.426	127
514.642	132
514.858	127
515.074	162
515.29	426
515.506	1476
515.721	537
515.937	143
516.153	105
516.369	106
516.585	98
516.801	95
517.016	84
517.232	78
517.448	88
517.664	81
517.879	96
518.095	100
518.311	86
518.527	82
518.742	93
518.958	87
519.173	90
519.389	94
519.605	90
519.82	97
520.036	101
520.251	128
520.467	116
520.682	107
520.898	103
521.113	111
521.329	145
521.544	193
521.76	550
521.975	2395
522.19	1408
522.406	299
522.621	141
522.836	101
523.052	85
523.267	92
523.482	99
523.698	97
523.913	132
524.128	98
524.343	92
524.559	94
524.774	94
524.989	95
525.204	106
525.419	81
525.634	89
525.849	92
526.064	90
526.28	81
526.495	87
526.71	95
526.925	71
527.14	89
527.355	90
527.57	83
527.785	92
527.999	79
528.214	86
528.429	79
528.644	87
528.859	87
529.074	97
529.289	120
529.503	177
529.718	99
529.933	80
530.148	94
530.363	82
530.577	91
530.792	72
531.007	77
531.221	68
531.436	77
531.651	89
531.865	86
532.08	59
532.295	97
532.509	86
532.724	105
532.938	90
533.153	93
533.367	85
533.582	82
533.796	90
534.011	86
534.225	101
534.44	79
534.654	98
534.868	91
535.083	92
535.297	98
535.511	91
535.726	111
535.94	91
536.154	87
536.369	95
536.583	75
536.797	94
537.011	82
537.225	97
537.44	89
537.654	89
537.868	83
538.082	94
538.296	98
538.51	73
538.724	99
538.938	87
539.153	92
539.367	113
539.581	99
539.795	85
540.009	95
540.222	73
540.436	85
540.65	84
540.864	91
541.078	89
541.292	81
541.506	79
541.72	90
541.934	91
542.147	89
542.361	76
542.575	88
542.789	75
543.002	81
543.216	94
543.43	104
543.644	90
543.857	82
544.071	81
544.285	83
544.498	83
544.712	99
544.925	85
545.139	85
545.352	70
545.566	73
545.779	82
545.993	88
546.206	82
546.42	81
546.633	101
546.847	87
547.06	91
547.274	84
547.487	91
547.7	71
547.914	65
548.127	83
548.34	80
548.554	63
548.767	81
548.98	83
549.193	85
549.407	87
549.62	80
549.833	77
550.046	86
550.259	83
550.473	100
550.686	77
550.899	91
551.112	88
551.325	86
551.538	89
551.751	81
551.964	85
552.177	98
552.39	77
552.603	93
552.816	108
553.029	92
553.242	89
553.455	67
553.667	95
553.88	81
554.093	95
554.306	82
554.519	94
554.732	95
554.944	96
555.157	83
555.37	89
555.583	86
555.795	85
556.008	89
556.221	91
556.433	102
556.646	81
556.859	85
557.071	85
557.284	94
557.496	91
557.709	84
557.921	92
558.134	100
558.346	87
558.559	94
558.771	83
558.984	81
559.196	66
559.409	80
559.621	85
559.833	87
560.046	80
560.258	80
560.47	70
560.683	81
560.895	84
561.107	81
561.32	93
561.532	92
561.744	87
561.956	82
562.168	89
562.381	92
562.593	88
562.805	103
563.017	95
563.229	94
563.441	69
563.653	80
563.865	93
564.077	94
564.289	69
564.501	98
564.713	93
564.925	89
565.137	97
565.349	93
565.561	84
565.773	75
565.985	73
566.197	87
566.408	98
566.62	83
566.832	88
567.044	81
567.255	87
567.467	82
567.679	81
567.891	70
568.102	61
568.314	92
568.526	95
568.737	84
568.949	89
569.161	90
569.372	77
569.584	91
569.795	102
570.007	104
570.218	187
570.43	130
570.641	75
570.853	86
571.064	91
571.276	90
571.487	70
571.698	79
571.91	83
572.121	71
572.333	83
572.544	83
572.755	81
572.966	90
573.178	90
573.389	91
573.6	87
573.811	77
574.023	84
574.234	80
574.445	69
574.656	90
574.867	83
575.078	82
575.289	80
575.501	90
575.712	73
575.923	86
576.134	77
576.345	98
576.556	87
576.767	87
576.978	86
577.188	87
577.399	94
577.61	89
577.821	94
578.032	102
578.243	223
578.454	639
578.665	187
578.875	90
579.086	86
579.297	82
579.508	82
579.718	87
579.929	85
580.14	97
580.35	86
580.561	91
580.772	76
580.982	77
581.193	83
581.403	83
581.614	67
581.825	89
582.035	83
582.246	86
582.456	78
582.667	88
582.877	74
583.087	84
583.298	93
583.508	92
583.719	82
583.929	81
584.139	78
584.35	84
584.56	83
584.77	79
584.981	84
585.191	73
585.401	75
