Data from Circ_1981_H10_HRD10591_00082.txt Node
Date: Wed Jan 03 12:34:37 EST 2024
User: Yrep
Spectrometer: HR+D1059
Trigger mode: 1
Integration Time (sec): 1.000000E-1
Scans to average: 1
Electric dark correction enabled: true
Nonlinearity correction enabled: false
Boxcar width: 0
XAxis mode: Wavelengths
Number of Pixels in Spectrum: 2048
>>>>>Begin Spectral Data<<<<<
223.165	-24.25
223.4	-24.25
223.635	-24.25
223.869	-14.25
224.104	-18.25
224.338	-19.25
224.573	-15.25
224.808	-29.25
225.042	-11.25
225.277	-1.25
225.511	-13.25
225.746	10.75
225.98	20.75
226.215	15.75
226.449	18.75
226.683	14.75
226.918	26.75
227.152	38.75
227.387	43.75
227.621	42.75
227.856	52.75
228.09	63.75
228.324	56.75
228.559	79.75
228.793	62.75
229.027	60.75
229.262	70.75
229.496	80.75
229.73	111.75
229.964	80.75
230.199	72.75
230.433	70.75
230.667	87.75
230.901	79.75
231.136	88.75
231.37	83.75
231.604	98.75
231.838	81.75
232.072	78.75
232.306	94.75
232.541	92.75
232.775	73.75
233.009	94.75
233.243	78.75
233.477	93.75
233.711	85.75
233.945	66.75
234.179	91.75
234.413	94.75
234.647	90.75
234.881	91.75
235.115	90.75
235.349	88.75
235.583	78.75
235.817	83.75
236.051	81.75
236.285	86.75
236.519	84.75
236.753	78.75
236.987	84.75
237.221	123.75
237.455	87.75
237.689	83.75
237.922	86.75
238.156	79.75
238.39	88.75
238.624	72.75
238.858	66.75
239.091	96.75
239.325	86.75
239.559	90.75
239.793	78.75
240.027	97.75
240.26	81.75
240.494	73.75
240.728	86.75
240.961	90.75
241.195	75.75
241.429	72.75
241.662	93.75
241.896	90.75
242.13	79.75
242.363	74.75
242.597	82.75
242.83	92.75
243.064	79.75
243.298	96.75
243.531	78.75
243.765	84.75
243.998	76.75
244.232	93.75
244.465	79.75
244.699	79.75
244.932	88.75
245.166	71.75
245.399	77.75
245.633	94.75
245.866	80.75
246.099	81.75
246.333	81.75
246.566	90.75
246.8	71.75
247.033	93.75
247.266	72.75
247.5	63.75
247.733	90.75
247.966	78.75
248.2	81.75
248.433	86.75
248.666	74.75
248.899	87.75
249.133	89.75
249.366	104.75
249.599	105.75
249.832	93.75
250.066	91.75
250.299	87.75
250.532	96.75
250.765	84.75
250.998	89.75
251.231	81.75
251.465	85.75
251.698	87.75
251.931	79.75
252.164	89.75
252.397	86.75
252.63	72.75
252.863	75.75
253.096	81.75
253.329	88.75
253.562	73.75
253.795	86.75
254.028	81.75
254.261	81.75
254.494	94.75
254.727	81.75
254.96	79.75
255.193	77.75
255.426	79.75
255.659	85.75
255.892	88.75
256.124	78.75
256.357	82.75
256.59	76.75
256.823	73.75
257.056	77.75
257.289	86.75
257.521	86.75
257.754	90.75
257.987	97.75
258.22	71.75
258.452	93.75
258.685	96.75
258.918	93.75
259.151	100.75
259.383	72.75
259.616	102.75
259.849	101.75
260.081	80.75
260.314	80.75
260.547	78.75
260.779	88.75
261.012	80.75
261.244	80.75
261.477	97.75
261.71	95.75
261.942	114.75
262.175	122.75
262.407	97.75
262.64	89.75
262.872	87.75
263.105	95.75
263.337	85.75
263.57	92.75
263.802	84.75
264.035	90.75
264.267	92.75
264.499	93.75
264.732	85.75
264.964	79.75
265.197	94.75
265.429	82.75
265.661	79.75
265.894	89.75
266.126	82.75
266.358	90.75
266.591	100.75
266.823	86.75
267.055	104.75
267.287	89.75
267.52	79.75
267.752	91.75
267.984	91.75
268.216	76.75
268.448	78.75
268.681	71.75
268.913	71.75
269.145	89.75
269.377	69.75
269.609	79.75
269.841	102.75
270.073	106.75
270.306	89.75
270.538	92.75
270.77	80.75
271.002	110.75
271.234	86.75
271.466	85.75
271.698	94.75
271.93	86.75
272.162	87.75
272.394	93.75
272.626	98.75
272.858	73.75
273.09	70.75
273.322	87.75
273.553	80.75
273.785	91.75
274.017	88.75
274.249	98.75
274.481	91.75
274.713	79.75
274.945	92.75
275.176	84.75
275.408	98.75
275.64	96.75
275.872	87.75
276.104	82.75
276.335	96.75
276.567	93.75
276.799	112.75
277.031	92.75
277.262	78.75
277.494	100.75
277.726	85.75
277.957	102.75
278.189	92.75
278.421	95.75
278.652	98.75
278.884	72.75
279.115	96.75
279.347	82.75
279.579	84.75
279.81	86.75
280.042	101.75
280.273	109.75
280.505	85.75
280.736	82.75
280.968	91.75
281.199	78.75
281.431	99.75
281.662	94.75
281.894	78.75
282.125	102.75
282.356	127.75
282.588	162.75
282.819	111.75
283.051	101.75
283.282	79.75
283.513	81.75
283.745	96.75
283.976	94.75
284.207	93.75
284.439	86.75
284.67	97.75
284.901	77.75
285.132	88.75
285.364	86.75
285.595	104.75
285.826	69.75
286.057	96.75
286.288	91.75
286.52	91.75
286.751	98.75
286.982	98.75
287.213	92.75
287.444	93.75
287.675	90.75
287.906	92.75
288.138	94.75
288.369	99.75
288.6	89.75
288.831	107.75
289.062	105.75
289.293	94.75
289.524	100.75
289.755	101.75
289.986	87.75
290.217	78.75
290.448	99.75
290.679	80.75
290.91	79.75
291.141	82.75
291.371	105.75
291.602	86.75
291.833	77.75
292.064	88.75
292.295	86.75
292.526	81.75
292.757	92.75
292.987	101.75
293.218	90.75
293.449	77.75
293.68	104.75
293.91	84.75
294.141	104.75
294.372	88.75
294.603	87.75
294.833	103.75
295.064	89.75
295.295	102.75
295.525	93.75
295.756	87.75
295.987	90.75
296.217	122.75
296.448	118.75
296.679	107.75
296.909	101.75
297.14	98.75
297.37	90.75
297.601	89.75
297.831	89.75
298.062	92.75
298.292	90.75
298.523	87.75
298.753	90.75
298.984	98.75
299.214	104.75
299.445	90.75
299.675	99.75
299.905	102.75
300.136	108.75
300.366	81.75
300.597	96.75
300.827	86.75
301.057	94.75
301.288	100.75
301.518	86.75
301.748	94.75
301.979	112.75
302.209	103.75
302.439	102.75
302.669	94.75
302.9	88.75
303.13	101.75
303.36	94.75
303.59	103.75
303.82	98.75
304.051	102.75
304.281	93.75
304.511	96.75
304.741	92.75
304.971	93.75
305.201	92.75
305.431	98.75
305.661	114.75
305.891	89.75
306.121	103.75
306.352	100.75
306.582	104.75
306.812	104.75
307.042	105.75
307.272	97.75
307.502	111.75
307.731	107.75
307.961	96.75
308.191	89.75
308.421	92.75
308.651	97.75
308.881	97.75
309.111	108.75
309.341	104.75
309.571	87.75
309.8	103.75
310.03	109.75
310.26	101.75
310.49	108.75
310.72	114.75
310.949	108.75
311.179	117.75
311.409	109.75
311.639	102.75
311.868	106.75
312.098	107.75
312.328	107.75
312.557	120.75
312.787	118.75
313.017	114.75
313.246	90.75
313.476	80.75
313.706	108.75
313.935	107.75
314.165	109.75
314.394	113.75
314.624	106.75
314.853	100.75
315.083	90.75
315.312	107.75
315.542	82.75
315.771	88.75
316.001	92.75
316.23	113.75
316.46	91.75
316.689	112.75
316.919	109.75
317.148	102.75
317.377	98.75
317.607	103.75
317.836	95.75
318.065	102.75
318.295	97.75
318.524	102.75
318.753	98.75
318.983	102.75
319.212	104.75
319.441	117.75
319.67	113.75
319.9	92.75
320.129	96.75
320.358	90.75
320.587	89.75
320.816	101.75
321.046	109.75
321.275	107.75
321.504	96.75
321.733	128.75
321.962	106.75
322.191	107.75
322.42	116.75
322.649	123.75
322.878	130.75
323.108	108.75
323.337	126.75
323.566	137.75
323.795	153.75
324.024	248.75
324.253	452.75
324.482	1028.75
324.71	2165.75
324.939	2953.75
325.168	1042.75
325.397	293.75
325.626	182.75
325.855	158.75
326.084	139.75
326.313	134.75
326.542	176.75
326.77	247.75
326.999	541.75
327.228	1150.75
327.457	2253.75
327.686	1762.75
327.914	434.75
328.143	221.75
328.372	181.75
328.6	149.75
328.829	136.75
329.058	143.75
329.287	148.75
329.515	120.75
329.744	123.75
329.972	102.75
330.201	126.75
330.43	133.75
330.658	141.75
330.887	157.75
331.115	152.75
331.344	107.75
331.572	108.75
331.801	111.75
332.03	105.75
332.258	102.75
332.486	91.75
332.715	105.75
332.943	107.75
333.172	106.75
333.4	108.75
333.629	94.75
333.857	122.75
334.085	124.75
334.314	111.75
334.542	157.75
334.771	139.75
334.999	119.75
335.227	96.75
335.455	84.75
335.684	96.75
335.912	84.75
336.14	101.75
336.369	114.75
336.597	112.75
336.825	95.75
337.053	98.75
337.281	99.75
337.51	100.75
337.738	89.75
337.966	106.75
338.194	101.75
338.422	91.75
338.65	108.75
338.878	103.75
339.106	90.75
339.334	120.75
339.562	96.75
339.79	91.75
340.018	95.75
340.246	107.75
340.474	80.75
340.702	109.75
340.93	97.75
341.158	111.75
341.386	105.75
341.614	103.75
341.842	97.75
342.07	86.75
342.298	105.75
342.526	101.75
342.754	106.75
342.981	78.75
343.209	90.75
343.437	102.75
343.665	94.75
343.893	86.75
344.12	105.75
344.348	105.75
344.576	92.75
344.804	97.75
345.031	104.75
345.259	104.75
345.487	123.75
345.714	117.75
345.942	94.75
346.17	92.75
346.397	85.75
346.625	89.75
346.853	98.75
347.08	111.75
347.308	88.75
347.535	106.75
347.763	107.75
347.99	91.75
348.218	105.75
348.445	117.75
348.673	106.75
348.9	98.75
349.128	106.75
349.355	98.75
349.583	109.75
349.81	89.75
350.037	95.75
350.265	97.75
350.492	84.75
350.72	109.75
350.947	115.75
351.174	119.75
351.402	124.75
351.629	112.75
351.856	106.75
352.083	106.75
352.311	126.75
352.538	120.75
352.765	117.75
352.992	111.75
353.22	119.75
353.447	116.75
353.674	106.75
353.901	102.75
354.128	89.75
354.355	105.75
354.583	104.75
354.81	97.75
355.037	114.75
355.264	100.75
355.491	96.75
355.718	96.75
355.945	90.75
356.172	95.75
356.399	101.75
356.626	93.75
356.853	92.75
357.08	87.75
357.307	100.75
357.534	98.75
357.761	105.75
357.988	91.75
358.215	92.75
358.441	99.75
358.668	76.75
358.895	96.75
359.122	99.75
359.349	85.75
359.576	80.75
359.802	104.75
360.029	131.75
360.256	129.75
360.483	114.75
360.709	93.75
360.936	97.75
361.163	102.75
361.39	113.75
361.616	105.75
361.843	99.75
362.07	89.75
362.296	101.75
362.523	87.75
362.749	84.75
362.976	89.75
363.203	92.75
363.429	98.75
363.656	95.75
363.882	89.75
364.109	100.75
364.335	99.75
364.562	94.75
364.788	98.75
365.015	98.75
365.241	95.75
365.468	119.75
365.694	124.75
365.92	109.75
366.147	82.75
366.373	89.75
366.599	90.75
366.826	96.75
367.052	86.75
367.278	87.75
367.505	93.75
367.731	107.75
367.957	108.75
368.184	92.75
368.41	101.75
368.636	119.75
368.862	139.75
369.089	113.75
369.315	94.75
369.541	115.75
369.767	106.75
369.993	105.75
370.219	93.75
370.445	82.75
370.672	110.75
370.898	97.75
371.124	94.75
371.35	97.75
371.576	96.75
371.802	101.75
372.028	94.75
372.254	82.75
372.48	90.75
372.706	73.75
372.932	102.75
373.158	84.75
373.384	93.75
373.61	90.75
373.835	97.75
374.061	108.75
374.287	76.75
374.513	79.75
374.739	107.75
374.965	90.75
375.191	97.75
375.416	100.75
375.642	92.75
375.868	96.75
376.094	84.75
376.319	92.75
376.545	87.75
376.771	80.75
376.997	99.75
377.222	87.75
377.448	91.75
377.674	86.75
377.899	103.75
378.125	104.75
378.35	89.75
378.576	100.75
378.802	88.75
379.027	89.75
379.253	92.75
379.478	97.75
379.704	84.75
379.929	89.75
380.155	100.75
380.38	96.75
380.606	97.75
380.831	111.75
381.057	107.75
381.282	110.75
381.507	91.75
381.733	105.75
381.958	96.75
382.184	108.75
382.409	92.75
382.634	108.75
382.86	94.75
383.085	93.75
383.31	94.75
383.535	97.75
383.761	95.75
383.986	113.75
384.211	90.75
384.436	94.75
384.662	92.75
384.887	105.75
385.112	102.75
385.337	114.75
385.562	76.75
385.787	112.75
386.013	111.75
386.238	106.75
386.463	118.75
386.688	108.75
386.913	104.75
387.138	103.75
387.363	108.75
387.588	92.75
387.813	112.75
388.038	101.75
388.263	101.75
388.488	115.75
388.713	110.75
388.938	98.75
389.163	106.75
389.387	107.75
389.612	103.75
389.837	119.75
390.062	119.75
390.287	87.75
390.512	90.75
390.736	95.75
390.961	89.75
391.186	97.75
391.411	86.75
391.636	81.75
391.86	87.75
392.085	92.75
392.31	85.75
392.534	97.75
392.759	91.75
392.984	81.75
393.208	88.75
393.433	93.75
393.658	94.75
393.882	93.75
394.107	86.75
394.331	90.75
394.556	78.75
394.78	90.75
395.005	96.75
395.229	96.75
395.454	91.75
395.678	88.75
395.903	89.75
396.127	92.75
396.352	103.75
396.576	85.75
396.801	98.75
397.025	90.75
397.249	76.75
397.474	78.75
397.698	91.75
397.922	84.75
398.147	94.75
398.371	86.75
398.595	90.75
398.82	91.75
399.044	92.75
399.268	94.75
399.492	92.75
399.717	97.75
399.941	92.75
400.165	109.75
400.389	90.75
400.613	79.75
400.837	98.75
401.062	88.75
401.286	104.75
401.51	99.75
401.734	106.75
401.958	104.75
402.182	119.75
402.406	153.75
402.63	126.75
402.854	122.75
403.078	90.75
403.302	72.75
403.526	106.75
403.75	96.75
403.974	94.75
404.198	93.75
404.422	105.75
404.645	100.75
404.869	93.75
405.093	109.75
405.317	118.75
405.541	107.75
405.765	103.75
405.988	134.75
406.212	174.75
406.436	241.75
406.66	154.75
406.883	114.75
407.107	109.75
407.331	102.75
407.555	124.75
407.778	112.75
408.002	107.75
408.226	94.75
408.449	88.75
408.673	107.75
408.896	102.75
409.12	100.75
409.344	90.75
409.567	88.75
409.791	88.75
410.014	103.75
410.238	86.75
410.461	100.75
410.685	96.75
410.908	95.75
411.132	126.75
411.355	118.75
411.578	95.75
411.802	98.75
412.025	96.75
412.249	104.75
412.472	94.75
412.695	100.75
412.919	92.75
413.142	89.75
413.365	88.75
413.589	93.75
413.812	91.75
414.035	87.75
414.258	88.75
414.482	97.75
414.705	94.75
414.928	98.75
415.151	96.75
415.374	105.75
415.597	95.75
415.821	97.75
416.044	89.75
416.267	107.75
416.49	78.75
416.713	92.75
416.936	102.75
417.159	96.75
417.382	100.75
417.605	97.75
417.828	90.75
418.051	98.75
418.274	73.75
418.497	85.75
418.72	78.75
418.943	89.75
419.166	92.75
419.389	90.75
419.611	94.75
419.834	77.75
420.057	113.75
420.28	105.75
420.503	97.75
420.726	80.75
420.948	91.75
421.171	98.75
421.394	104.75
421.617	92.75
421.839	88.75
422.062	114.75
422.285	97.75
422.507	99.75
422.73	114.75
422.953	104.75
423.175	94.75
423.398	95.75
423.621	88.75
423.843	91.75
424.066	89.75
424.288	93.75
424.511	107.75
424.733	107.75
424.956	114.75
425.178	120.75
425.401	103.75
425.623	113.75
425.846	97.75
426.068	94.75
426.291	88.75
426.513	102.75
426.735	84.75
426.958	97.75
427.18	122.75
427.402	170.75
427.625	193.75
427.847	169.75
428.069	127.75
428.292	103.75
428.514	90.75
428.736	94.75
428.958	84.75
429.181	93.75
429.403	76.75
429.625	96.75
429.847	97.75
430.069	117.75
430.292	106.75
430.514	78.75
430.736	87.75
430.958	98.75
431.18	92.75
431.402	92.75
431.624	87.75
431.846	80.75
432.068	91.75
432.29	91.75
432.512	93.75
432.734	88.75
432.956	98.75
433.178	116.75
433.4	96.75
433.622	92.75
433.844	88.75
434.066	92.75
434.287	97.75
434.509	90.75
434.731	106.75
434.953	90.75
435.175	89.75
435.397	101.75
435.618	106.75
435.84	122.75
436.062	154.75
436.284	143.75
436.505	117.75
436.727	118.75
436.949	92.75
437.17	95.75
437.392	93.75
437.614	95.75
437.835	113.75
438.057	138.75
438.278	134.75
438.5	121.75
438.721	146.75
438.943	111.75
439.165	98.75
439.386	95.75
439.608	94.75
439.829	113.75
440.05	149.75
440.272	168.75
440.493	108.75
440.715	97.75
440.936	85.75
441.158	93.75
441.379	97.75
441.6	104.75
441.822	111.75
442.043	95.75
442.264	130.75
442.486	117.75
442.707	98.75
442.928	110.75
443.149	148.75
443.371	155.75
443.592	143.75
443.813	136.75
444.034	130.75
444.255	107.75
444.476	95.75
444.698	101.75
444.919	98.75
445.14	134.75
445.361	133.75
445.582	144.75
445.803	183.75
446.024	168.75
446.245	181.75
446.466	120.75
446.687	92.75
446.908	108.75
447.129	102.75
447.35	100.75
447.571	106.75
447.792	104.75
448.013	111.75
448.234	117.75
448.455	110.75
448.675	141.75
448.896	158.75
449.117	109.75
449.338	117.75
449.559	155.75
449.779	152.75
450	96.75
450.221	93.75
450.442	84.75
450.662	104.75
450.883	119.75
451.104	124.75
451.324	88.75
451.545	97.75
451.766	86.75
451.986	92.75
452.207	88.75
452.428	103.75
452.648	94.75
452.869	116.75
453.089	104.75
453.31	119.75
453.53	102.75
453.751	96.75
453.971	110.75
454.192	108.75
454.412	113.75
454.633	88.75
454.853	88.75
455.073	101.75
455.294	89.75
455.514	119.75
455.734	107.75
455.955	93.75
456.175	81.75
456.395	95.75
456.616	94.75
456.836	101.75
457.056	94.75
457.276	77.75
457.497	78.75
457.717	90.75
457.937	99.75
458.157	87.75
458.377	104.75
458.598	109.75
458.818	156.75
459.038	180.75
459.258	123.75
459.478	84.75
459.698	98.75
459.918	93.75
460.138	93.75
460.358	92.75
460.578	100.75
460.798	89.75
461.018	86.75
461.238	96.75
461.458	88.75
461.678	94.75
461.898	85.75
462.118	96.75
462.338	107.75
462.558	88.75
462.777	100.75
462.997	84.75
463.217	93.75
463.437	82.75
463.657	88.75
463.876	93.75
464.096	101.75
464.316	105.75
464.536	93.75
464.755	107.75
464.975	113.75
465.195	172.75
465.414	189.75
465.634	94.75
465.854	93.75
466.073	82.75
466.293	84.75
466.512	92.75
466.732	99.75
466.951	87.75
467.171	94.75
467.391	110.75
467.61	114.75
467.829	101.75
468.049	103.75
468.268	107.75
468.488	95.75
468.707	86.75
468.927	89.75
469.146	92.75
469.365	88.75
469.585	91.75
469.804	105.75
470.023	119.75
470.243	97.75
470.462	99.75
470.681	124.75
470.901	94.75
471.12	89.75
471.339	96.75
471.558	90.75
471.777	97.75
471.997	98.75
472.216	105.75
472.435	153.75
472.654	104.75
472.873	94.75
473.092	81.75
473.311	90.75
473.53	76.75
473.749	92.75
473.968	104.75
474.187	130.75
474.406	114.75
474.625	88.75
474.844	94.75
475.063	82.75
475.282	78.75
475.501	90.75
475.72	108.75
475.939	84.75
476.158	95.75
476.377	96.75
476.596	98.75
476.814	103.75
477.033	93.75
477.252	97.75
477.471	82.75
477.69	90.75
477.908	92.75
478.127	97.75
478.346	81.75
478.564	86.75
478.783	94.75
479.002	90.75
479.22	95.75
479.439	110.75
479.658	119.75
479.876	111.75
480.095	97.75
480.313	103.75
480.532	104.75
480.751	88.75
480.969	94.75
481.188	222.75
481.406	153.75
481.624	114.75
481.843	96.75
482.061	89.75
482.28	80.75
482.498	86.75
482.717	90.75
482.935	88.75
483.153	87.75
483.372	98.75
483.59	90.75
483.808	79.75
484.027	84.75
484.245	94.75
484.463	79.75
484.681	104.75
484.9	98.75
485.118	97.75
485.336	100.75
485.554	108.75
485.772	96.75
485.99	94.75
486.209	105.75
486.427	98.75
486.645	113.75
486.863	120.75
487.081	119.75
487.299	103.75
487.517	97.75
487.735	94.75
487.953	87.75
488.171	99.75
488.389	101.75
488.607	103.75
488.825	100.75
489.043	89.75
489.261	100.75
489.479	99.75
489.696	72.75
489.914	83.75
490.132	86.75
490.35	79.75
490.568	81.75
490.786	93.75
491.003	92.75
491.221	93.75
491.439	103.75
491.657	103.75
491.874	96.75
492.092	82.75
492.31	97.75
492.527	96.75
492.745	105.75
492.963	87.75
493.18	96.75
493.398	93.75
493.615	112.75
493.833	96.75
494.05	95.75
494.268	95.75
494.485	81.75
494.703	105.75
494.92	111.75
495.138	95.75
495.355	92.75
495.573	98.75
495.79	84.75
496.008	98.75
496.225	96.75
496.442	107.75
496.66	100.75
496.877	106.75
497.094	98.75
497.312	89.75
497.529	85.75
497.746	98.75
497.963	100.75
498.181	95.75
498.398	100.75
498.615	113.75
498.832	108.75
499.049	107.75
499.267	103.75
499.484	94.75
499.701	92.75
499.918	89.75
500.135	97.75
500.352	94.75
500.569	84.75
500.786	100.75
501.003	95.75
501.22	85.75
501.437	90.75
501.654	111.75
501.871	107.75
502.088	96.75
502.305	87.75
502.522	94.75
502.739	84.75
502.956	100.75
503.172	97.75
503.389	106.75
503.606	116.75
503.823	88.75
504.04	95.75
504.256	97.75
504.473	86.75
504.69	94.75
504.907	87.75
505.123	88.75
505.34	88.75
505.557	87.75
505.773	88.75
505.99	100.75
506.207	95.75
506.423	115.75
506.64	96.75
506.856	87.75
507.073	101.75
507.289	114.75
507.506	97.75
507.722	116.75
507.939	117.75
508.155	106.75
508.372	115.75
508.588	99.75
508.805	100.75
509.021	102.75
509.238	106.75
509.454	95.75
509.67	97.75
509.887	100.75
510.103	132.75
510.319	230.75
510.536	705.75
510.752	2279.75
510.968	632.75
511.184	166.75
511.401	114.75
511.617	105.75
511.833	98.75
512.049	118.75
512.265	88.75
512.481	112.75
512.698	92.75
512.914	82.75
