Data from Circ_1981_H10_HRD10591_00061.txt Node
Date: Wed Jan 03 12:34:33 EST 2024
User: Yrep
Spectrometer: HR+D1059
Trigger mode: 1
Integration Time (sec): 1.000000E-1
Scans to average: 1
Electric dark correction enabled: true
Nonlinearity correction enabled: false
Boxcar width: 0
XAxis mode: Wavelengths
Number of Pixels in Spectrum: 2048
>>>>>Begin Spectral Data<<<<<
223.165	-16.25
223.4	-16.25
223.635	-16.25
223.869	-19.25
224.104	-12.25
224.338	-18.25
224.573	-5.25
224.808	-13.25
225.042	-3.25
225.277	-3.25
225.511	-7.25
225.746	0.75
225.98	1.75
226.215	21.75
226.449	7.75
226.683	22.75
226.918	15.75
227.152	27.75
227.387	44.75
227.621	21.75
227.856	45.75
228.09	47.75
228.324	33.75
228.559	53.75
228.793	55.75
229.027	68.75
229.262	47.75
229.496	68.75
229.73	77.75
229.964	87.75
230.199	68.75
230.433	72.75
230.667	83.75
230.901	75.75
231.136	72.75
231.37	77.75
231.604	79.75
231.838	81.75
232.072	84.75
232.306	88.75
232.541	74.75
232.775	64.75
233.009	67.75
233.243	83.75
233.477	57.75
233.711	75.75
233.945	70.75
234.179	61.75
234.413	94.75
234.647	82.75
234.881	72.75
235.115	61.75
235.349	70.75
235.583	79.75
235.817	66.75
236.051	81.75
236.285	66.75
236.519	82.75
236.753	67.75
236.987	79.75
237.221	75.75
237.455	70.75
237.689	59.75
237.922	52.75
238.156	75.75
238.39	69.75
238.624	84.75
238.858	81.75
239.091	73.75
239.325	59.75
239.559	69.75
239.793	78.75
240.027	79.75
240.26	84.75
240.494	77.75
240.728	88.75
240.961	71.75
241.195	68.75
241.429	79.75
241.662	80.75
241.896	64.75
242.13	67.75
242.363	69.75
242.597	81.75
242.83	75.75
243.064	72.75
243.298	74.75
243.531	69.75
243.765	84.75
243.998	75.75
244.232	75.75
244.465	81.75
244.699	77.75
244.932	65.75
245.166	67.75
245.399	64.75
245.633	67.75
245.866	82.75
246.099	67.75
246.333	63.75
246.566	75.75
246.8	88.75
247.033	80.75
247.266	77.75
247.5	69.75
247.733	62.75
247.966	78.75
248.2	68.75
248.433	78.75
248.666	88.75
248.899	71.75
249.133	71.75
249.366	99.75
249.599	97.75
249.832	96.75
250.066	72.75
250.299	64.75
250.532	58.75
250.765	70.75
250.998	62.75
251.231	72.75
251.465	75.75
251.698	58.75
251.931	72.75
252.164	85.75
252.397	82.75
252.63	69.75
252.863	75.75
253.096	82.75
253.329	84.75
253.562	81.75
253.795	90.75
254.028	67.75
254.261	84.75
254.494	71.75
254.727	77.75
254.96	80.75
255.193	68.75
255.426	69.75
255.659	71.75
255.892	80.75
256.124	63.75
256.357	69.75
256.59	64.75
256.823	64.75
257.056	79.75
257.289	67.75
257.521	67.75
257.754	72.75
257.987	72.75
258.22	68.75
258.452	86.75
258.685	69.75
258.918	77.75
259.151	79.75
259.383	83.75
259.616	76.75
259.849	80.75
260.081	92.75
260.314	89.75
260.547	87.75
260.779	72.75
261.012	89.75
261.244	89.75
261.477	86.75
261.71	81.75
261.942	104.75
262.175	118.75
262.407	85.75
262.64	96.75
262.872	78.75
263.105	76.75
263.337	82.75
263.57	89.75
263.802	83.75
264.035	85.75
264.267	72.75
264.499	89.75
264.732	77.75
264.964	80.75
265.197	81.75
265.429	79.75
265.661	70.75
265.894	77.75
266.126	79.75
266.358	85.75
266.591	72.75
266.823	77.75
267.055	75.75
267.287	84.75
267.52	60.75
267.752	69.75
267.984	89.75
268.216	72.75
268.448	86.75
268.681	79.75
268.913	81.75
269.145	83.75
269.377	72.75
269.609	83.75
269.841	88.75
270.073	74.75
270.306	81.75
270.538	77.75
270.77	76.75
271.002	82.75
271.234	79.75
271.466	80.75
271.698	70.75
271.93	83.75
272.162	72.75
272.394	79.75
272.626	75.75
272.858	92.75
273.09	84.75
273.322	95.75
273.553	83.75
273.785	69.75
274.017	82.75
274.249	71.75
274.481	85.75
274.713	79.75
274.945	82.75
275.176	86.75
275.408	91.75
275.64	84.75
275.872	80.75
276.104	90.75
276.335	86.75
276.567	91.75
276.799	114.75
277.031	108.75
277.262	91.75
277.494	88.75
277.726	84.75
277.957	83.75
278.189	78.75
278.421	71.75
278.652	64.75
278.884	87.75
279.115	83.75
279.347	84.75
279.579	77.75
279.81	76.75
280.042	74.75
280.273	85.75
280.505	83.75
280.736	70.75
280.968	79.75
281.199	67.75
281.431	83.75
281.662	83.75
281.894	78.75
282.125	114.75
282.356	123.75
282.588	177.75
282.819	117.75
283.051	73.75
283.282	72.75
283.513	87.75
283.745	77.75
283.976	87.75
284.207	87.75
284.439	87.75
284.67	85.75
284.901	81.75
285.132	87.75
285.364	93.75
285.595	90.75
285.826	86.75
286.057	84.75
286.288	88.75
286.52	89.75
286.751	90.75
286.982	87.75
287.213	89.75
287.444	84.75
287.675	88.75
287.906	91.75
288.138	84.75
288.369	85.75
288.6	89.75
288.831	79.75
289.062	77.75
289.293	85.75
289.524	96.75
289.755	95.75
289.986	94.75
290.217	79.75
290.448	83.75
290.679	82.75
290.91	87.75
291.141	89.75
291.371	93.75
291.602	79.75
291.833	75.75
292.064	83.75
292.295	87.75
292.526	84.75
292.757	94.75
292.987	85.75
293.218	95.75
293.449	76.75
293.68	94.75
293.91	86.75
294.141	85.75
294.372	100.75
294.603	94.75
294.833	91.75
295.064	101.75
295.295	84.75
295.525	89.75
295.756	109.75
295.987	118.75
296.217	139.75
296.448	132.75
296.679	98.75
296.909	79.75
297.14	77.75
297.37	73.75
297.601	86.75
297.831	96.75
298.062	92.75
298.292	92.75
298.523	98.75
298.753	88.75
298.984	87.75
299.214	72.75
299.445	93.75
299.675	85.75
299.905	102.75
300.136	98.75
300.366	96.75
300.597	97.75
300.827	81.75
301.057	89.75
301.288	114.75
301.518	93.75
301.748	95.75
301.979	102.75
302.209	79.75
302.439	87.75
302.669	76.75
302.9	80.75
303.13	86.75
303.36	79.75
303.59	103.75
303.82	102.75
304.051	106.75
304.281	85.75
304.511	80.75
304.741	88.75
304.971	72.75
305.201	80.75
305.431	86.75
305.661	91.75
305.891	89.75
306.121	93.75
306.352	111.75
306.582	114.75
306.812	82.75
307.042	93.75
307.272	76.75
307.502	86.75
307.731	77.75
307.961	95.75
308.191	86.75
308.421	86.75
308.651	99.75
308.881	80.75
309.111	92.75
309.341	86.75
309.571	91.75
309.8	96.75
310.03	99.75
310.26	103.75
310.49	102.75
310.72	99.75
310.949	108.75
311.179	109.75
311.409	87.75
311.639	108.75
311.868	102.75
312.098	85.75
312.328	96.75
312.557	113.75
312.787	110.75
313.017	105.75
313.246	105.75
313.476	95.75
313.706	79.75
313.935	102.75
314.165	115.75
314.394	111.75
314.624	102.75
314.853	102.75
315.083	88.75
315.312	82.75
315.542	82.75
315.771	80.75
316.001	75.75
316.23	91.75
316.46	77.75
316.689	87.75
316.919	97.75
317.148	90.75
317.377	91.75
317.607	92.75
317.836	97.75
318.065	94.75
318.295	86.75
318.524	88.75
318.753	96.75
318.983	86.75
319.212	106.75
319.441	114.75
319.67	113.75
319.9	101.75
320.129	95.75
320.358	92.75
320.587	94.75
320.816	94.75
321.046	102.75
321.275	101.75
321.504	85.75
321.733	81.75
321.962	95.75
322.191	107.75
322.42	108.75
322.649	125.75
322.878	118.75
323.108	126.75
323.337	130.75
323.566	132.75
323.795	192.75
324.024	235.75
324.253	447.75
324.482	993.75
324.71	2062.75
324.939	2828.75
325.168	1028.75
325.397	302.75
325.626	165.75
325.855	131.75
326.084	142.75
326.313	131.75
326.542	147.75
326.77	249.75
326.999	504.75
327.228	1096.75
327.457	1933.75
327.686	1604.75
327.914	445.75
328.143	235.75
328.372	183.75
328.6	167.75
328.829	131.75
329.058	159.75
329.287	179.75
329.515	126.75
329.744	93.75
329.972	108.75
330.201	141.75
330.43	153.75
330.658	151.75
330.887	204.75
331.115	167.75
331.344	89.75
331.572	89.75
331.801	91.75
332.03	116.75
332.258	109.75
332.486	101.75
332.715	101.75
332.943	92.75
333.172	97.75
333.4	84.75
333.629	93.75
333.857	110.75
334.085	130.75
334.314	113.75
334.542	150.75
334.771	169.75
334.999	108.75
335.227	93.75
335.455	92.75
335.684	78.75
335.912	93.75
336.14	89.75
336.369	108.75
336.597	105.75
336.825	113.75
337.053	80.75
337.281	86.75
337.51	90.75
337.738	103.75
337.966	92.75
338.194	104.75
338.422	96.75
338.65	90.75
338.878	94.75
339.106	88.75
339.334	93.75
339.562	85.75
339.79	83.75
340.018	102.75
340.246	108.75
340.474	83.75
340.702	93.75
340.93	105.75
341.158	107.75
341.386	96.75
341.614	99.75
341.842	85.75
342.07	85.75
342.298	99.75
342.526	98.75
342.754	83.75
342.981	95.75
343.209	84.75
343.437	110.75
343.665	87.75
343.893	94.75
344.12	87.75
344.348	88.75
344.576	83.75
344.804	94.75
345.031	101.75
345.259	94.75
345.487	82.75
345.714	92.75
345.942	83.75
346.17	100.75
346.397	85.75
346.625	84.75
346.853	89.75
347.08	97.75
347.308	98.75
347.535	90.75
347.763	105.75
347.99	91.75
348.218	102.75
348.445	112.75
348.673	94.75
348.9	106.75
349.128	93.75
349.355	81.75
349.583	70.75
349.81	84.75
350.037	100.75
350.265	93.75
350.492	94.75
350.72	109.75
350.947	81.75
351.174	125.75
351.402	123.75
351.629	104.75
351.856	93.75
352.083	109.75
352.311	109.75
352.538	119.75
352.765	123.75
352.992	117.75
353.22	115.75
353.447	106.75
353.674	83.75
353.901	94.75
354.128	101.75
354.355	91.75
354.583	85.75
354.81	89.75
355.037	94.75
355.264	86.75
355.491	86.75
355.718	86.75
355.945	73.75
356.172	100.75
356.399	81.75
356.626	98.75
356.853	97.75
357.08	93.75
357.307	104.75
357.534	88.75
357.761	91.75
357.988	96.75
358.215	107.75
358.441	82.75
358.668	93.75
358.895	87.75
359.122	83.75
359.349	71.75
359.576	84.75
359.802	109.75
360.029	134.75
360.256	135.75
360.483	100.75
360.709	81.75
360.936	102.75
361.163	87.75
361.39	89.75
361.616	97.75
361.843	91.75
362.07	92.75
362.296	94.75
362.523	95.75
362.749	86.75
362.976	103.75
363.203	69.75
363.429	101.75
363.656	82.75
363.882	89.75
364.109	82.75
364.335	91.75
364.562	96.75
364.788	81.75
365.015	87.75
365.241	103.75
365.468	107.75
365.694	106.75
365.92	96.75
366.147	102.75
366.373	107.75
366.599	97.75
366.826	90.75
367.052	88.75
367.278	92.75
367.505	80.75
367.731	95.75
367.957	97.75
368.184	94.75
368.41	102.75
368.636	100.75
368.862	112.75
369.089	105.75
369.315	101.75
369.541	95.75
369.767	85.75
369.993	100.75
370.219	93.75
370.445	93.75
370.672	76.75
370.898	81.75
371.124	84.75
371.35	94.75
371.576	68.75
371.802	82.75
372.028	87.75
372.254	95.75
372.48	95.75
372.706	98.75
372.932	83.75
373.158	89.75
373.384	95.75
373.61	90.75
373.835	98.75
374.061	89.75
374.287	104.75
374.513	92.75
374.739	69.75
374.965	79.75
375.191	79.75
375.416	75.75
375.642	96.75
375.868	85.75
376.094	92.75
376.319	91.75
376.545	91.75
376.771	82.75
376.997	80.75
377.222	95.75
377.448	91.75
377.674	84.75
377.899	79.75
378.125	80.75
378.35	69.75
378.576	77.75
378.802	72.75
379.027	75.75
379.253	83.75
379.478	77.75
379.704	72.75
379.929	87.75
380.155	92.75
380.38	95.75
380.606	88.75
380.831	88.75
381.057	93.75
381.282	68.75
381.507	83.75
381.733	80.75
381.958	76.75
382.184	77.75
382.409	98.75
382.634	90.75
382.86	89.75
383.085	100.75
383.31	97.75
383.535	97.75
383.761	97.75
383.986	93.75
384.211	92.75
384.436	92.75
384.662	94.75
384.887	96.75
385.112	104.75
385.337	87.75
385.562	105.75
385.787	96.75
386.013	97.75
386.238	117.75
386.463	105.75
386.688	90.75
386.913	81.75
387.138	104.75
387.363	97.75
387.588	92.75
387.813	103.75
388.038	86.75
388.263	113.75
388.488	101.75
388.713	84.75
388.938	85.75
389.163	94.75
389.387	87.75
389.612	93.75
389.837	90.75
390.062	93.75
390.287	89.75
390.512	79.75
390.736	89.75
390.961	86.75
391.186	90.75
391.411	92.75
391.636	76.75
391.86	71.75
392.085	70.75
392.31	88.75
392.534	89.75
392.759	91.75
392.984	89.75
393.208	79.75
393.433	83.75
393.658	99.75
393.882	80.75
394.107	82.75
394.331	92.75
394.556	85.75
394.78	83.75
395.005	71.75
395.229	82.75
395.454	88.75
395.678	84.75
395.903	78.75
396.127	87.75
396.352	79.75
396.576	80.75
396.801	82.75
397.025	91.75
397.249	91.75
397.474	76.75
397.698	87.75
397.922	73.75
398.147	95.75
398.371	85.75
398.595	83.75
398.82	90.75
399.044	92.75
399.268	78.75
399.492	82.75
399.717	81.75
399.941	86.75
400.165	96.75
400.389	81.75
400.613	95.75
400.837	87.75
401.062	91.75
401.286	79.75
401.51	94.75
401.734	83.75
401.958	101.75
402.182	144.75
402.406	191.75
402.63	148.75
402.854	99.75
403.078	83.75
403.302	75.75
403.526	87.75
403.75	81.75
403.974	84.75
404.198	84.75
404.422	85.75
404.645	96.75
404.869	97.75
405.093	91.75
405.317	90.75
405.541	95.75
405.765	107.75
405.988	153.75
406.212	219.75
406.436	311.75
406.66	192.75
406.883	113.75
407.107	111.75
407.331	112.75
407.555	111.75
407.778	112.75
408.002	79.75
408.226	80.75
408.449	83.75
408.673	83.75
408.896	87.75
409.12	85.75
409.344	81.75
409.567	82.75
409.791	101.75
410.014	95.75
410.238	86.75
410.461	84.75
410.685	88.75
410.908	100.75
411.132	96.75
411.355	102.75
411.578	92.75
411.802	85.75
412.025	82.75
412.249	93.75
412.472	86.75
412.695	95.75
412.919	93.75
413.142	76.75
413.365	82.75
413.589	90.75
413.812	87.75
414.035	77.75
414.258	82.75
414.482	88.75
414.705	93.75
414.928	89.75
415.151	88.75
415.374	96.75
415.597	80.75
415.821	84.75
416.044	84.75
416.267	84.75
416.49	85.75
416.713	81.75
416.936	68.75
417.159	77.75
417.382	70.75
417.605	88.75
417.828	86.75
418.051	88.75
418.274	65.75
418.497	65.75
418.72	90.75
418.943	75.75
419.166	94.75
419.389	85.75
419.611	80.75
419.834	96.75
420.057	80.75
420.28	73.75
420.503	77.75
420.726	81.75
420.948	93.75
421.171	101.75
421.394	92.75
421.617	80.75
421.839	77.75
422.062	79.75
422.285	80.75
422.507	87.75
422.73	106.75
422.953	90.75
423.175	101.75
423.398	74.75
423.621	88.75
423.843	97.75
424.066	91.75
424.288	90.75
424.511	96.75
424.733	95.75
424.956	126.75
425.178	107.75
425.401	110.75
425.623	101.75
425.846	84.75
426.068	91.75
426.291	86.75
426.513	97.75
426.735	95.75
426.958	89.75
427.18	110.75
427.402	183.75
427.625	219.75
427.847	172.75
428.069	119.75
428.292	87.75
428.514	73.75
428.736	76.75
428.958	91.75
429.181	80.75
429.403	77.75
429.625	93.75
429.847	78.75
430.069	99.75
430.292	85.75
430.514	94.75
430.736	87.75
430.958	77.75
431.18	79.75
431.402	88.75
431.624	91.75
431.846	77.75
432.068	71.75
432.29	84.75
432.512	95.75
432.734	82.75
432.956	91.75
433.178	98.75
433.4	95.75
433.622	93.75
433.844	83.75
434.066	91.75
434.287	76.75
434.509	76.75
434.731	84.75
434.953	87.75
435.175	89.75
435.397	84.75
435.618	114.75
435.84	103.75
436.062	138.75
436.284	129.75
436.505	116.75
436.727	112.75
436.949	99.75
437.17	85.75
437.392	92.75
437.614	92.75
437.835	113.75
438.057	149.75
438.278	127.75
438.5	128.75
438.721	136.75
438.943	98.75
439.165	91.75
439.386	92.75
439.608	93.75
439.829	113.75
440.05	151.75
440.272	186.75
440.493	106.75
440.715	89.75
440.936	79.75
441.158	74.75
441.379	95.75
441.6	103.75
441.822	96.75
442.043	111.75
442.264	113.75
442.486	113.75
442.707	86.75
442.928	113.75
443.149	169.75
443.371	175.75
443.592	121.75
443.813	135.75
444.034	108.75
444.255	95.75
444.476	79.75
444.698	94.75
444.919	91.75
445.14	108.75
445.361	124.75
445.582	135.75
445.803	179.75
446.024	184.75
446.245	171.75
446.466	134.75
446.687	91.75
446.908	83.75
447.129	84.75
447.35	95.75
447.571	85.75
447.792	109.75
448.013	102.75
448.234	118.75
448.455	109.75
448.675	123.75
448.896	131.75
449.117	105.75
449.338	97.75
449.559	142.75
449.779	157.75
450	99.75
450.221	93.75
450.442	88.75
450.662	87.75
450.883	116.75
451.104	130.75
451.324	104.75
451.545	85.75
451.766	95.75
451.986	77.75
452.207	92.75
452.428	79.75
452.648	99.75
452.869	119.75
453.089	134.75
453.31	137.75
453.53	106.75
453.751	93.75
453.971	114.75
454.192	121.75
454.412	92.75
454.633	72.75
454.853	74.75
455.073	79.75
455.294	86.75
455.514	99.75
455.734	100.75
455.955	71.75
456.175	79.75
456.395	77.75
456.616	77.75
456.836	79.75
457.056	83.75
457.276	62.75
457.497	78.75
457.717	78.75
457.937	84.75
458.157	90.75
458.377	75.75
458.598	111.75
458.818	191.75
459.038	227.75
459.258	137.75
459.478	97.75
459.698	79.75
459.918	84.75
460.138	98.75
460.358	77.75
460.578	86.75
460.798	90.75
461.018	88.75
461.238	69.75
461.458	77.75
461.678	81.75
461.898	77.75
462.118	80.75
462.338	80.75
462.558	84.75
462.777	72.75
462.997	78.75
463.217	66.75
463.437	81.75
463.657	96.75
463.876	82.75
464.096	84.75
464.316	101.75
464.536	101.75
464.755	94.75
464.975	120.75
465.195	214.75
465.414	233.75
465.634	92.75
465.854	86.75
466.073	83.75
466.293	82.75
466.512	75.75
466.732	75.75
466.951	80.75
467.171	96.75
467.391	84.75
467.61	116.75
467.829	83.75
468.049	101.75
468.268	99.75
468.488	78.75
468.707	90.75
468.927	79.75
469.146	83.75
469.365	76.75
469.585	88.75
469.804	93.75
470.023	102.75
470.243	93.75
470.462	115.75
470.681	130.75
470.901	89.75
471.12	96.75
471.339	73.75
471.558	73.75
471.777	89.75
471.997	89.75
472.216	115.75
472.435	173.75
472.654	104.75
472.873	95.75
473.092	80.75
473.311	92.75
473.53	81.75
473.749	89.75
473.968	88.75
474.187	115.75
474.406	106.75
474.625	77.75
474.844	86.75
475.063	77.75
475.282	83.75
475.501	75.75
475.72	79.75
475.939	87.75
476.158	85.75
476.377	85.75
476.596	78.75
476.814	83.75
477.033	84.75
477.252	83.75
477.471	83.75
477.69	93.75
477.908	79.75
478.127	88.75
478.346	88.75
478.564	82.75
478.783	105.75
479.002	100.75
479.22	95.75
479.439	109.75
479.658	108.75
479.876	88.75
480.095	99.75
480.313	104.75
480.532	89.75
480.751	85.75
480.969	136.75
481.188	261.75
481.406	195.75
481.624	96.75
481.843	92.75
482.061	83.75
482.28	100.75
482.498	87.75
482.717	79.75
482.935	69.75
483.153	78.75
483.372	83.75
483.59	84.75
483.808	76.75
484.027	96.75
484.245	90.75
484.463	99.75
484.681	87.75
484.9	90.75
485.118	85.75
485.336	85.75
485.554	94.75
485.772	93.75
485.99	102.75
486.209	95.75
486.427	92.75
486.645	111.75
486.863	118.75
487.081	110.75
487.299	83.75
487.517	80.75
487.735	86.75
487.953	88.75
488.171	94.75
488.389	89.75
488.607	109.75
488.825	84.75
489.043	90.75
489.261	77.75
489.479	85.75
489.696	103.75
489.914	70.75
490.132	78.75
490.35	91.75
490.568	83.75
490.786	82.75
491.003	79.75
491.221	74.75
491.439	80.75
491.657	100.75
491.874	75.75
492.092	85.75
492.31	98.75
492.527	74.75
492.745	86.75
492.963	91.75
493.18	85.75
493.398	89.75
493.615	89.75
493.833	92.75
494.05	82.75
494.268	81.75
494.485	103.75
494.703	86.75
494.92	83.75
495.138	77.75
495.355	84.75
495.573	70.75
495.79	80.75
496.008	91.75
496.225	83.75
496.442	84.75
496.66	95.75
496.877	91.75
497.094	83.75
497.312	77.75
497.529	79.75
497.746	85.75
497.963	97.75
498.181	96.75
498.398	95.75
498.615	119.75
498.832	100.75
499.049	89.75
499.267	75.75
499.484	91.75
499.701	91.75
499.918	85.75
500.135	81.75
500.352	89.75
500.569	72.75
500.786	72.75
501.003	82.75
501.22	95.75
501.437	89.75
501.654	97.75
501.871	120.75
502.088	89.75
502.305	96.75
502.522	75.75
502.739	93.75
502.956	87.75
503.172	81.75
503.389	92.75
503.606	113.75
503.823	92.75
504.04	81.75
504.256	91.75
504.473	73.75
504.69	90.75
504.907	79.75
505.123	77.75
505.34	75.75
505.557	95.75
505.773	88.75
505.99	79.75
506.207	99.75
506.423	85.75
506.64	85.75
506.856	76.75
507.073	88.75
507.289	99.75
507.506	91.75
507.722	123.75
507.939	132.75
508.155	99.75
508.372	75.75
508.588	84.75
508.805	82.75
509.021	89.75
509.238	83.75
509.454	89.75
509.67	91.75
509.887	112.75
510.103	128.75
510.319	232.75
510.536	863.75
510.752	2956.75
510.968	801.75
511.184	155.75
511.401	127.75
511.617	102.75
511.833	89.75
512.049	80.75
512.265	76.75
512.481	79.75
512.698	87.75
512.914	84.75
513.13	70.75
513.346	85.75
513.562	99.75
513.778	88.75
513.994	107.75
514.21	99.75
514.426	144.75
514.642	175.75
514.858	141.75
515.074	207.75
515.29	654.75
515.506	2354.75
515.721	835.75
515.937	195.75
