Data from Circ_1981_H10_HRD10591_00031.txt Node
Date: Wed Jan 03 12:34:27 EST 2024
User: Yrep
Spectrometer: HR+D1059
Trigger mode: 1
Integration Time (sec): 1.000000E-1
Scans to average: 1
Electric dark correction enabled: true
Nonlinearity correction enabled: false
Boxcar width: 0
XAxis mode: Wavelengths
Number of Pixels in Spectrum: 2048
>>>>>Begin Spectral Data<<<<<
223.165	-4.06
223.4	-4.06
223.635	-4.06
223.869	-29.06
224.104	-27.06
224.338	-23.06
224.573	-11.06
224.808	-15.06
225.042	-11.06
225.277	-9.06
225.511	14.94
225.746	6.94
225.98	1.94
226.215	3.94
226.449	16.94
226.683	25.94
226.918	27.94
227.152	30.94
227.387	42.94
227.621	29.94
227.856	38.94
228.09	45.94
228.324	53.94
228.559	61.94
228.793	60.94
229.027	59.94
229.262	59.94
229.496	78.94
229.73	83.94
229.964	88.94
230.199	63.94
230.433	71.94
230.667	82.94
230.901	73.94
231.136	73.94
231.37	80.94
231.604	78.94
231.838	75.94
232.072	82.94
232.306	89.94
232.541	88.94
232.775	81.94
233.009	76.94
233.243	74.94
233.477	79.94
233.711	69.94
233.945	76.94
234.179	78.94
234.413	94.94
234.647	86.94
234.881	89.94
235.115	77.94
235.349	86.94
235.583	73.94
235.817	93.94
236.051	85.94
236.285	86.94
236.519	87.94
236.753	76.94
236.987	70.94
237.221	82.94
237.455	103.94
237.689	72.94
237.922	68.94
238.156	74.94
238.39	64.94
238.624	76.94
238.858	79.94
239.091	71.94
239.325	69.94
239.559	76.94
239.793	67.94
240.027	82.94
240.26	70.94
240.494	68.94
240.728	96.94
240.961	73.94
241.195	78.94
241.429	81.94
241.662	82.94
241.896	85.94
242.13	70.94
242.363	85.94
242.597	75.94
242.83	81.94
243.064	82.94
243.298	80.94
243.531	66.94
243.765	72.94
243.998	86.94
244.232	91.94
244.465	81.94
244.699	76.94
244.932	75.94
245.166	70.94
245.399	83.94
245.633	80.94
245.866	75.94
246.099	80.94
246.333	86.94
246.566	87.94
246.8	77.94
247.033	78.94
247.266	63.94
247.5	71.94
247.733	86.94
247.966	84.94
248.2	79.94
248.433	69.94
248.666	90.94
248.899	75.94
249.133	84.94
249.366	90.94
249.599	87.94
249.832	84.94
250.066	84.94
250.299	89.94
250.532	82.94
250.765	83.94
250.998	79.94
251.231	79.94
251.465	92.94
251.698	94.94
251.931	81.94
252.164	63.94
252.397	80.94
252.63	74.94
252.863	75.94
253.096	70.94
253.329	88.94
253.562	87.94
253.795	69.94
254.028	80.94
254.261	77.94
254.494	94.94
254.727	86.94
254.96	73.94
255.193	84.94
255.426	81.94
255.659	73.94
255.892	90.94
256.124	78.94
256.357	73.94
256.59	75.94
256.823	76.94
257.056	80.94
257.289	98.94
257.521	75.94
257.754	82.94
257.987	78.94
258.22	94.94
258.452	85.94
258.685	78.94
258.918	83.94
259.151	75.94
259.383	89.94
259.616	67.94
259.849	86.94
260.081	82.94
260.314	82.94
260.547	87.94
260.779	77.94
261.012	89.94
261.244	84.94
261.477	90.94
261.71	102.94
261.942	110.94
262.175	129.94
262.407	82.94
262.64	98.94
262.872	79.94
263.105	78.94
263.337	90.94
263.57	84.94
263.802	96.94
264.035	84.94
264.267	79.94
264.499	84.94
264.732	86.94
264.964	74.94
265.197	70.94
265.429	64.94
265.661	86.94
265.894	90.94
266.126	76.94
266.358	94.94
266.591	73.94
266.823	71.94
267.055	85.94
267.287	84.94
267.52	74.94
267.752	80.94
267.984	76.94
268.216	85.94
268.448	74.94
268.681	87.94
268.913	86.94
269.145	95.94
269.377	85.94
269.609	84.94
269.841	82.94
270.073	84.94
270.306	77.94
270.538	88.94
270.77	82.94
271.002	69.94
271.234	88.94
271.466	95.94
271.698	78.94
271.93	76.94
272.162	88.94
272.394	91.94
272.626	76.94
272.858	82.94
273.09	76.94
273.322	94.94
273.553	86.94
273.785	88.94
274.017	72.94
274.249	94.94
274.481	82.94
274.713	87.94
274.945	88.94
275.176	93.94
275.408	89.94
275.64	85.94
275.872	86.94
276.104	92.94
276.335	90.94
276.567	100.94
276.799	94.94
277.031	112.94
277.262	91.94
277.494	103.94
277.726	84.94
277.957	84.94
278.189	87.94
278.421	92.94
278.652	99.94
278.884	82.94
279.115	77.94
279.347	70.94
279.579	85.94
279.81	81.94
280.042	96.94
280.273	91.94
280.505	87.94
280.736	91.94
280.968	86.94
281.199	84.94
281.431	82.94
281.662	86.94
281.894	87.94
282.125	98.94
282.356	133.94
282.588	166.94
282.819	129.94
283.051	94.94
283.282	90.94
283.513	87.94
283.745	94.94
283.976	88.94
284.207	79.94
284.439	74.94
284.67	96.94
284.901	90.94
285.132	96.94
285.364	75.94
285.595	85.94
285.826	89.94
286.057	94.94
286.288	78.94
286.52	89.94
286.751	82.94
286.982	100.94
287.213	83.94
287.444	91.94
287.675	97.94
287.906	87.94
288.138	90.94
288.369	96.94
288.6	91.94
288.831	83.94
289.062	99.94
289.293	106.94
289.524	87.94
289.755	88.94
289.986	79.94
290.217	77.94
290.448	86.94
290.679	74.94
290.91	90.94
291.141	90.94
291.371	86.94
291.602	77.94
291.833	74.94
292.064	96.94
292.295	81.94
292.526	79.94
292.757	83.94
292.987	71.94
293.218	82.94
293.449	81.94
293.68	88.94
293.91	82.94
294.141	91.94
294.372	80.94
294.603	89.94
294.833	91.94
295.064	84.94
295.295	87.94
295.525	96.94
295.756	106.94
295.987	135.94
296.217	169.94
296.448	144.94
296.679	95.94
296.909	102.94
297.14	88.94
297.37	91.94
297.601	76.94
297.831	95.94
298.062	91.94
298.292	98.94
298.523	86.94
298.753	90.94
298.984	97.94
299.214	95.94
299.445	98.94
299.675	96.94
299.905	94.94
300.136	78.94
300.366	87.94
300.597	94.94
300.827	108.94
301.057	89.94
301.288	110.94
301.518	90.94
301.748	83.94
301.979	94.94
302.209	81.94
302.439	102.94
302.669	95.94
302.9	90.94
303.13	80.94
303.36	100.94
303.59	99.94
303.82	125.94
304.051	101.94
304.281	81.94
304.511	92.94
304.741	76.94
304.971	88.94
305.201	80.94
305.431	86.94
305.661	79.94
305.891	91.94
306.121	95.94
306.352	94.94
306.582	97.94
306.812	90.94
307.042	90.94
307.272	84.94
307.502	87.94
307.731	107.94
307.961	81.94
308.191	95.94
308.421	90.94
308.651	82.94
308.881	104.94
309.111	86.94
309.341	95.94
309.571	90.94
309.8	97.94
310.03	93.94
310.26	95.94
310.49	95.94
310.72	103.94
310.949	113.94
311.179	116.94
311.409	96.94
311.639	104.94
311.868	88.94
312.098	105.94
312.328	103.94
312.557	110.94
312.787	106.94
313.017	108.94
313.246	101.94
313.476	96.94
313.706	92.94
313.935	93.94
314.165	106.94
314.394	105.94
314.624	87.94
314.853	98.94
315.083	113.94
315.312	97.94
315.542	64.94
315.771	87.94
316.001	93.94
316.23	90.94
316.46	86.94
316.689	92.94
316.919	98.94
317.148	88.94
317.377	100.94
317.607	88.94
317.836	96.94
318.065	89.94
318.295	75.94
318.524	90.94
318.753	82.94
318.983	103.94
319.212	91.94
319.441	121.94
319.67	97.94
319.9	94.94
320.129	93.94
320.358	106.94
320.587	96.94
320.816	101.94
321.046	116.94
321.275	94.94
321.504	91.94
321.733	92.94
321.962	92.94
322.191	111.94
322.42	118.94
322.649	105.94
322.878	121.94
323.108	119.94
323.337	127.94
323.566	138.94
323.795	179.94
324.024	221.94
324.253	420.94
324.482	891.94
324.71	1775.94
324.939	2385.94
325.168	892.94
325.397	275.94
325.626	158.94
325.855	133.94
326.084	134.94
326.313	147.94
326.542	154.94
326.77	245.94
326.999	452.94
327.228	926.94
327.457	1688.94
327.686	1376.94
327.914	394.94
328.143	241.94
328.372	188.94
328.6	141.94
328.829	128.94
329.058	152.94
329.287	175.94
329.515	123.94
329.744	106.94
329.972	110.94
330.201	118.94
330.43	164.94
330.658	132.94
330.887	195.94
331.115	164.94
331.344	113.94
331.572	119.94
331.801	108.94
332.03	111.94
332.258	94.94
332.486	91.94
332.715	100.94
332.943	96.94
333.172	95.94
333.4	100.94
333.629	118.94
333.857	132.94
334.085	115.94
334.314	135.94
334.542	171.94
334.771	171.94
334.999	118.94
335.227	111.94
335.455	108.94
335.684	103.94
335.912	95.94
336.14	94.94
336.369	94.94
336.597	115.94
336.825	94.94
337.053	94.94
337.281	100.94
337.51	65.94
337.738	96.94
337.966	102.94
338.194	98.94
338.422	96.94
338.65	99.94
338.878	96.94
339.106	90.94
339.334	97.94
339.562	88.94
339.79	94.94
340.018	82.94
340.246	88.94
340.474	86.94
340.702	92.94
340.93	97.94
341.158	102.94
341.386	90.94
341.614	96.94
341.842	95.94
342.07	91.94
342.298	88.94
342.526	95.94
342.754	81.94
342.981	90.94
343.209	85.94
343.437	95.94
343.665	91.94
343.893	78.94
344.12	81.94
344.348	91.94
344.576	83.94
344.804	83.94
345.031	100.94
345.259	105.94
345.487	111.94
345.714	102.94
345.942	90.94
346.17	84.94
346.397	93.94
346.625	104.94
346.853	97.94
347.08	101.94
347.308	82.94
347.535	89.94
347.763	118.94
347.99	110.94
348.218	109.94
348.445	98.94
348.673	101.94
348.9	91.94
349.128	98.94
349.355	83.94
349.583	91.94
349.81	97.94
350.037	74.94
350.265	105.94
350.492	82.94
350.72	113.94
350.947	91.94
351.174	103.94
351.402	116.94
351.629	94.94
351.856	103.94
352.083	113.94
352.311	114.94
352.538	115.94
352.765	108.94
352.992	119.94
353.22	103.94
353.447	105.94
353.674	103.94
353.901	86.94
354.128	103.94
354.355	101.94
354.583	96.94
354.81	103.94
355.037	84.94
355.264	87.94
355.491	87.94
355.718	90.94
355.945	94.94
356.172	86.94
356.399	100.94
356.626	98.94
356.853	91.94
357.08	89.94
357.307	86.94
357.534	91.94
357.761	92.94
357.988	106.94
358.215	100.94
358.441	98.94
358.668	96.94
358.895	100.94
359.122	87.94
359.349	91.94
359.576	105.94
359.802	107.94
360.029	135.94
360.256	136.94
360.483	115.94
360.709	92.94
360.936	108.94
361.163	89.94
361.39	108.94
361.616	109.94
361.843	90.94
362.07	88.94
362.296	111.94
362.523	90.94
362.749	102.94
362.976	86.94
363.203	113.94
363.429	82.94
363.656	94.94
363.882	90.94
364.109	98.94
364.335	94.94
364.562	95.94
364.788	81.94
365.015	84.94
365.241	111.94
365.468	116.94
365.694	123.94
365.92	114.94
366.147	96.94
366.373	88.94
366.599	95.94
366.826	92.94
367.052	94.94
367.278	105.94
367.505	90.94
367.731	111.94
367.957	95.94
368.184	86.94
368.41	99.94
368.636	117.94
368.862	129.94
369.089	112.94
369.315	102.94
369.541	88.94
369.767	98.94
369.993	99.94
370.219	96.94
370.445	86.94
370.672	78.94
370.898	89.94
371.124	94.94
371.35	89.94
371.576	84.94
371.802	85.94
372.028	88.94
372.254	100.94
372.48	90.94
372.706	94.94
372.932	82.94
373.158	87.94
373.384	86.94
373.61	90.94
373.835	87.94
374.061	87.94
374.287	92.94
374.513	89.94
374.739	81.94
374.965	86.94
375.191	84.94
375.416	92.94
375.642	92.94
375.868	98.94
376.094	90.94
376.319	84.94
376.545	79.94
376.771	79.94
376.997	82.94
377.222	82.94
377.448	84.94
377.674	78.94
377.899	76.94
378.125	98.94
378.35	84.94
378.576	88.94
378.802	76.94
379.027	88.94
379.253	88.94
379.478	85.94
379.704	89.94
379.929	94.94
380.155	92.94
380.38	86.94
380.606	89.94
380.831	81.94
381.057	90.94
381.282	95.94
381.507	104.94
381.733	87.94
381.958	106.94
382.184	105.94
382.409	95.94
382.634	106.94
382.86	99.94
383.085	84.94
383.31	97.94
383.535	92.94
383.761	111.94
383.986	94.94
384.211	94.94
384.436	89.94
384.662	91.94
384.887	103.94
385.112	95.94
385.337	112.94
385.562	91.94
385.787	102.94
386.013	111.94
386.238	123.94
386.463	117.94
386.688	97.94
386.913	94.94
387.138	109.94
387.363	99.94
387.588	105.94
387.813	112.94
388.038	104.94
388.263	114.94
388.488	104.94
388.713	110.94
388.938	77.94
389.163	95.94
389.387	92.94
389.612	88.94
389.837	82.94
390.062	85.94
390.287	87.94
390.512	94.94
390.736	97.94
390.961	86.94
391.186	91.94
391.411	87.94
391.636	84.94
391.86	78.94
392.085	81.94
392.31	83.94
392.534	77.94
392.759	83.94
392.984	85.94
393.208	82.94
393.433	107.94
393.658	92.94
393.882	82.94
394.107	93.94
394.331	75.94
394.556	101.94
394.78	91.94
395.005	86.94
395.229	70.94
395.454	71.94
395.678	86.94
395.903	91.94
396.127	89.94
396.352	92.94
396.576	89.94
396.801	70.94
397.025	88.94
397.249	96.94
397.474	86.94
397.698	96.94
397.922	80.94
398.147	81.94
398.371	82.94
398.595	91.94
398.82	92.94
399.044	89.94
399.268	93.94
399.492	69.94
399.717	82.94
399.941	95.94
400.165	95.94
400.389	98.94
400.613	84.94
400.837	74.94
401.062	80.94
401.286	90.94
401.51	98.94
401.734	100.94
401.958	101.94
402.182	148.94
402.406	206.94
402.63	135.94
402.854	90.94
403.078	99.94
403.302	78.94
403.526	84.94
403.75	86.94
403.974	90.94
404.198	82.94
404.422	103.94
404.645	94.94
404.869	94.94
405.093	98.94
405.317	119.94
405.541	113.94
405.765	116.94
405.988	139.94
406.212	222.94
406.436	340.94
406.66	198.94
406.883	123.94
407.107	105.94
407.331	100.94
407.555	106.94
407.778	85.94
408.002	100.94
408.226	92.94
408.449	101.94
408.673	89.94
408.896	85.94
409.12	126.94
409.344	100.94
409.567	98.94
409.791	93.94
410.014	98.94
410.238	74.94
410.461	100.94
410.685	87.94
410.908	91.94
411.132	93.94
411.355	83.94
411.578	75.94
411.802	74.94
412.025	81.94
412.249	83.94
412.472	97.94
412.695	88.94
412.919	82.94
413.142	91.94
413.365	102.94
413.589	88.94
413.812	87.94
414.035	87.94
414.258	76.94
414.482	81.94
414.705	80.94
414.928	81.94
415.151	84.94
415.374	96.94
415.597	87.94
415.821	91.94
416.044	78.94
416.267	105.94
416.49	94.94
416.713	91.94
416.936	88.94
417.159	80.94
417.382	79.94
417.605	93.94
417.828	95.94
418.051	89.94
418.274	86.94
418.497	87.94
418.72	89.94
418.943	84.94
419.166	94.94
419.389	93.94
419.611	99.94
419.834	89.94
420.057	101.94
420.28	83.94
420.503	83.94
420.726	86.94
420.948	88.94
421.171	91.94
421.394	103.94
421.617	95.94
421.839	82.94
422.062	105.94
422.285	104.94
422.507	94.94
422.73	112.94
422.953	107.94
423.175	84.94
423.398	91.94
423.621	83.94
423.843	93.94
424.066	82.94
424.288	84.94
424.511	101.94
424.733	102.94
424.956	108.94
425.178	86.94
425.401	100.94
425.623	99.94
425.846	93.94
426.068	102.94
426.291	96.94
426.513	84.94
426.735	102.94
426.958	101.94
427.18	142.94
427.402	153.94
427.625	214.94
427.847	162.94
428.069	116.94
428.292	78.94
428.514	76.94
428.736	78.94
428.958	85.94
429.181	73.94
429.403	82.94
429.625	89.94
429.847	89.94
430.069	108.94
430.292	101.94
430.514	104.94
430.736	84.94
430.958	83.94
431.18	82.94
431.402	83.94
431.624	76.94
431.846	82.94
432.068	80.94
432.29	86.94
432.512	96.94
432.734	84.94
432.956	94.94
433.178	94.94
433.4	86.94
433.622	75.94
433.844	88.94
434.066	87.94
434.287	87.94
434.509	73.94
434.731	94.94
434.953	89.94
435.175	94.94
435.397	82.94
435.618	105.94
435.84	108.94
436.062	130.94
436.284	110.94
436.505	99.94
436.727	106.94
436.949	98.94
437.17	93.94
437.392	94.94
437.614	105.94
437.835	116.94
438.057	135.94
438.278	130.94
438.5	105.94
438.721	127.94
438.943	107.94
439.165	73.94
439.386	99.94
439.608	84.94
439.829	96.94
440.05	144.94
440.272	145.94
440.493	112.94
440.715	87.94
440.936	88.94
441.158	76.94
441.379	92.94
441.6	87.94
441.822	101.94
442.043	103.94
442.264	109.94
442.486	99.94
442.707	88.94
442.928	123.94
443.149	163.94
443.371	158.94
443.592	108.94
443.813	120.94
444.034	122.94
444.255	87.94
444.476	85.94
444.698	89.94
444.919	87.94
445.14	128.94
445.361	123.94
445.582	115.94
445.803	136.94
446.024	162.94
446.245	161.94
446.466	118.94
446.687	88.94
446.908	89.94
447.129	90.94
447.35	105.94
447.571	95.94
447.792	90.94
448.013	94.94
448.234	124.94
448.455	103.94
448.675	130.94
448.896	135.94
449.117	112.94
449.338	88.94
449.559	133.94
449.779	131.94
450	97.94
450.221	100.94
450.442	79.94
450.662	104.94
450.883	133.94
451.104	137.94
451.324	106.94
451.545	95.94
451.766	85.94
451.986	78.94
452.207	88.94
452.428	93.94
452.648	119.94
452.869	126.94
453.089	127.94
453.31	128.94
453.53	99.94
453.751	98.94
453.971	117.94
454.192	135.94
454.412	101.94
454.633	85.94
454.853	85.94
455.073	81.94
455.294	95.94
455.514	107.94
455.734	83.94
455.955	75.94
456.175	94.94
456.395	91.94
456.616	73.94
456.836	82.94
457.056	79.94
457.276	72.94
457.497	78.94
457.717	87.94
457.937	78.94
458.157	89.94
458.377	100.94
458.598	114.94
458.818	190.94
459.038	225.94
459.258	150.94
459.478	82.94
459.698	100.94
459.918	91.94
460.138	71.94
460.358	78.94
460.578	95.94
460.798	88.94
461.018	93.94
461.238	104.94
461.458	75.94
461.678	94.94
461.898	97.94
462.118	73.94
462.338	72.94
462.558	86.94
462.777	74.94
462.997	85.94
463.217	66.94
463.437	92.94
463.657	76.94
463.876	73.94
464.096	94.94
464.316	94.94
464.536	118.94
464.755	96.94
464.975	110.94
465.195	227.94
465.414	214.94
465.634	106.94
465.854	81.94
466.073	92.94
466.293	76.94
466.512	68.94
466.732	91.94
466.951	87.94
467.171	92.94
467.391	106.94
467.61	109.94
467.829	98.94
468.049	103.94
468.268	113.94
468.488	94.94
468.707	78.94
468.927	75.94
469.146	81.94
469.365	90.94
469.585	80.94
469.804	110.94
470.023	105.94
470.243	94.94
470.462	119.94
470.681	126.94
470.901	90.94
471.12	71.94
471.339	87.94
471.558	97.94
471.777	98.94
471.997	100.94
472.216	131.94
472.435	179.94
472.654	103.94
472.873	85.94
473.092	79.94
473.311	80.94
473.53	74.94
473.749	93.94
473.968	96.94
474.187	113.94
474.406	110.94
474.625	81.94
474.844	80.94
475.063	79.94
475.282	86.94
475.501	89.94
475.72	82.94
475.939	76.94
476.158	69.94
476.377	91.94
476.596	96.94
476.814	103.94
477.033	87.94
477.252	76.94
477.471	96.94
477.69	105.94
477.908	94.94
478.127	82.94
478.346	104.94
478.564	87.94
478.783	95.94
479.002	83.94
479.22	90.94
479.439	120.94
479.658	124.94
479.876	106.94
480.095	83.94
480.313	103.94
480.532	88.94
480.751	91.94
480.969	114.94
481.188	245.94
481.406	183.94
481.624	95.94
481.843	91.94
482.061	80.94
482.28	96.94
482.498	76.94
482.717	85.94
482.935	78.94
483.153	92.94
483.372	80.94
483.59	98.94
483.808	100.94
484.027	97.94
484.245	80.94
484.463	85.94
484.681	82.94
484.9	88.94
485.118	94.94
485.336	100.94
485.554	92.94
485.772	104.94
485.99	98.94
486.209	102.94
486.427	99.94
486.645	106.94
486.863	131.94
487.081	108.94
487.299	108.94
487.517	102.94
487.735	100.94
487.953	95.94
488.171	108.94
488.389	89.94
488.607	104.94
488.825	83.94
489.043	87.94
489.261	84.94
489.479	79.94
489.696	82.94
489.914	90.94
490.132	84.94
490.35	80.94
490.568	80.94
490.786	81.94
491.003	93.94
491.221	90.94
491.439	84.94
491.657	91.94
491.874	89.94
492.092	95.94
492.31	92.94
492.527	95.94
492.745	90.94
492.963	87.94
493.18	78.94
493.398	94.94
493.615	76.94
493.833	89.94
494.05	94.94
494.268	89.94
494.485	98.94
494.703	86.94
494.92	85.94
495.138	85.94
495.355	89.94
495.573	92.94
495.79	73.94
496.008	80.94
496.225	78.94
496.442	84.94
496.66	99.94
496.877	96.94
497.094	97.94
497.312	92.94
497.529	90.94
497.746	95.94
497.963	72.94
498.181	87.94
498.398	86.94
498.615	112.94
498.832	107.94
499.049	92.94
499.267	108.94
499.484	91.94
499.701	85.94
499.918	92.94
500.135	90.94
500.352	91.94
500.569	83.94
500.786	82.94
501.003	90.94
501.22	90.94
501.437	92.94
501.654	98.94
501.871	116.94
502.088	82.94
502.305	88.94
502.522	92.94
502.739	90.94
502.956	88.94
503.172	98.94
503.389	101.94
503.606	105.94
503.823	100.94
504.04	78.94
504.256	96.94
504.473	100.94
504.69	91.94
504.907	84.94
505.123	86.94
505.34	85.94
505.557	86.94
505.773	83.94
505.99	88.94
506.207	86.94
506.423	77.94
506.64	94.94
506.856	90.94
507.073	96.94
507.289	86.94
507.506	92.94
507.722	136.94
507.939	118.94
508.155	108.94
508.372	99.94
508.588	104.94
508.805	89.94
509.021	92.94
509.238	108.94
509.454	108.94
509.67	100.94
509.887	121.94
510.103	151.94
510.319	256.94
510.536	940.94
510.752	3224.94
510.968	831.94
511.184	182.94
511.401	109.94
511.617	101.94
511.833	101.94
512.049	86.94
512.265	96.94
512.481	98.94
512.698	91.94
512.914	107.94
513.13	102.94
513.346	86.94
513.562	82.94
513.778	86.94
513.994	92.94
514.21	106.94
514.426	136.94
514.642	180.94
514.858	148.94
515.074	220.94
