Data from Circ_1981_H10_HRD10591_00009.txt Node
Date: Wed Jan 03 12:34:22 EST 2024
User: Yrep
Spectrometer: HR+D1059
Trigger mode: 1
Integration Time (sec): 1.000000E-1
Scans to average: 1
Electric dark correction enabled: true
Nonlinearity correction enabled: false
Boxcar width: 0
XAxis mode: Wavelengths
Number of Pixels in Spectrum: 2048
>>>>>Begin Spectral Data<<<<<
223.165	-21.62
223.4	-21.62
223.635	-21.62
223.869	-7.62
224.104	-22.62
224.338	-7.62
224.573	-22.62
224.808	-12.62
225.042	-4.62
225.277	5.38
225.511	-9.62
225.746	6.38
225.98	6.38
226.215	17.38
226.449	9.38
226.683	8.38
226.918	18.38
227.152	37.38
227.387	30.38
227.621	53.38
227.856	65.38
228.09	44.38
228.324	35.38
228.559	47.38
228.793	61.38
229.027	70.38
229.262	73.38
229.496	75.38
229.73	89.38
229.964	82.38
230.199	69.38
230.433	81.38
230.667	77.38
230.901	68.38
231.136	75.38
231.37	76.38
231.604	79.38
231.838	79.38
232.072	77.38
232.306	86.38
232.541	76.38
232.775	94.38
233.009	80.38
233.243	90.38
233.477	90.38
233.711	86.38
233.945	86.38
234.179	78.38
234.413	78.38
234.647	78.38
234.881	70.38
235.115	92.38
235.349	75.38
235.583	80.38
235.817	79.38
236.051	73.38
236.285	89.38
236.519	82.38
236.753	79.38
236.987	69.38
237.221	86.38
237.455	89.38
237.689	79.38
237.922	78.38
238.156	87.38
238.39	75.38
238.624	75.38
238.858	90.38
239.091	63.38
239.325	66.38
239.559	75.38
239.793	93.38
240.027	93.38
240.26	83.38
240.494	75.38
240.728	90.38
240.961	79.38
241.195	82.38
241.429	73.38
241.662	78.38
241.896	73.38
242.13	70.38
242.363	81.38
242.597	61.38
242.83	84.38
243.064	83.38
243.298	70.38
243.531	87.38
243.765	78.38
243.998	77.38
244.232	77.38
244.465	94.38
244.699	80.38
244.932	78.38
245.166	95.38
245.399	87.38
245.633	81.38
245.866	73.38
246.099	77.38
246.333	89.38
246.566	82.38
246.8	71.38
247.033	83.38
247.266	81.38
247.5	77.38
247.733	87.38
247.966	79.38
248.2	78.38
248.433	64.38
248.666	73.38
248.899	79.38
249.133	79.38
249.366	93.38
249.599	93.38
249.832	71.38
250.066	78.38
250.299	82.38
250.532	73.38
250.765	87.38
250.998	74.38
251.231	66.38
251.465	74.38
251.698	73.38
251.931	70.38
252.164	78.38
252.397	83.38
252.63	88.38
252.863	65.38
253.096	72.38
253.329	83.38
253.562	87.38
253.795	75.38
254.028	89.38
254.261	93.38
254.494	72.38
254.727	74.38
254.96	83.38
255.193	85.38
255.426	89.38
255.659	87.38
255.892	69.38
256.124	73.38
256.357	94.38
256.59	84.38
256.823	80.38
257.056	78.38
257.289	75.38
257.521	86.38
257.754	91.38
257.987	93.38
258.22	89.38
258.452	86.38
258.685	77.38
258.918	83.38
259.151	75.38
259.383	89.38
259.616	93.38
259.849	80.38
260.081	71.38
260.314	93.38
260.547	92.38
260.779	90.38
261.012	77.38
261.244	83.38
261.477	95.38
261.71	102.38
261.942	127.38
262.175	115.38
262.407	95.38
262.64	91.38
262.872	75.38
263.105	74.38
263.337	88.38
263.57	86.38
263.802	76.38
264.035	88.38
264.267	84.38
264.499	86.38
264.732	75.38
264.964	89.38
265.197	76.38
265.429	78.38
265.661	81.38
265.894	87.38
266.126	88.38
266.358	84.38
266.591	85.38
266.823	75.38
267.055	78.38
267.287	87.38
267.52	65.38
267.752	81.38
267.984	76.38
268.216	88.38
268.448	84.38
268.681	73.38
268.913	83.38
269.145	87.38
269.377	79.38
269.609	75.38
269.841	74.38
270.073	85.38
270.306	89.38
270.538	88.38
270.77	77.38
271.002	88.38
271.234	94.38
271.466	81.38
271.698	85.38
271.93	89.38
272.162	87.38
272.394	89.38
272.626	94.38
272.858	92.38
273.09	73.38
273.322	102.38
273.553	75.38
273.785	84.38
274.017	78.38
274.249	77.38
274.481	87.38
274.713	74.38
274.945	70.38
275.176	87.38
275.408	100.38
275.64	87.38
275.872	87.38
276.104	84.38
276.335	91.38
276.567	98.38
276.799	119.38
277.031	93.38
277.262	101.38
277.494	90.38
277.726	79.38
277.957	77.38
278.189	83.38
278.421	93.38
278.652	86.38
278.884	87.38
279.115	76.38
279.347	85.38
279.579	88.38
279.81	68.38
280.042	71.38
280.273	81.38
280.505	83.38
280.736	87.38
280.968	75.38
281.199	91.38
281.431	69.38
281.662	88.38
281.894	101.38
282.125	95.38
282.356	120.38
282.588	134.38
282.819	119.38
283.051	97.38
283.282	91.38
283.513	84.38
283.745	87.38
283.976	87.38
284.207	96.38
284.439	71.38
284.67	101.38
284.901	87.38
285.132	91.38
285.364	101.38
285.595	88.38
285.826	89.38
286.057	85.38
286.288	74.38
286.52	93.38
286.751	83.38
286.982	90.38
287.213	83.38
287.444	97.38
287.675	82.38
287.906	95.38
288.138	90.38
288.369	97.38
288.6	87.38
288.831	93.38
289.062	91.38
289.293	93.38
289.524	93.38
289.755	75.38
289.986	91.38
290.217	102.38
290.448	90.38
290.679	88.38
290.91	103.38
291.141	73.38
291.371	87.38
291.602	85.38
291.833	75.38
292.064	81.38
292.295	95.38
292.526	87.38
292.757	106.38
292.987	96.38
293.218	89.38
293.449	80.38
293.68	71.38
293.91	87.38
294.141	83.38
294.372	85.38
294.603	87.38
294.833	92.38
295.064	87.38
295.295	83.38
295.525	95.38
295.756	100.38
295.987	117.38
296.217	159.38
296.448	140.38
296.679	95.38
296.909	104.38
297.14	69.38
297.37	91.38
297.601	101.38
297.831	92.38
298.062	99.38
298.292	105.38
298.523	86.38
298.753	93.38
298.984	73.38
299.214	90.38
299.445	88.38
299.675	89.38
299.905	89.38
300.136	102.38
300.366	104.38
300.597	97.38
300.827	97.38
301.057	114.38
301.288	108.38
301.518	81.38
301.748	84.38
301.979	110.38
302.209	87.38
302.439	94.38
302.669	93.38
302.9	84.38
303.13	85.38
303.36	93.38
303.59	92.38
303.82	93.38
304.051	90.38
304.281	100.38
304.511	83.38
304.741	93.38
304.971	95.38
305.201	91.38
305.431	86.38
305.661	77.38
305.891	105.38
306.121	94.38
306.352	95.38
306.582	108.38
306.812	86.38
307.042	91.38
307.272	89.38
307.502	92.38
307.731	93.38
307.961	90.38
308.191	89.38
308.421	92.38
308.651	79.38
308.881	94.38
309.111	85.38
309.341	101.38
309.571	98.38
309.8	108.38
310.03	106.38
310.26	89.38
310.49	98.38
310.72	107.38
310.949	106.38
311.179	100.38
311.409	94.38
311.639	97.38
311.868	83.38
312.098	93.38
312.328	86.38
312.557	94.38
312.787	106.38
313.017	121.38
313.246	101.38
313.476	85.38
313.706	90.38
313.935	97.38
314.165	108.38
314.394	89.38
314.624	90.38
314.853	90.38
315.083	88.38
315.312	92.38
315.542	91.38
315.771	92.38
316.001	96.38
316.23	83.38
316.46	88.38
316.689	91.38
316.919	103.38
317.148	87.38
317.377	98.38
317.607	108.38
317.836	96.38
318.065	77.38
318.295	83.38
318.524	95.38
318.753	79.38
318.983	82.38
319.212	91.38
319.441	101.38
319.67	102.38
319.9	101.38
320.129	91.38
320.358	104.38
320.587	94.38
320.816	105.38
321.046	110.38
321.275	104.38
321.504	98.38
321.733	99.38
321.962	108.38
322.191	99.38
322.42	101.38
322.649	104.38
322.878	108.38
323.108	107.38
323.337	126.38
323.566	139.38
323.795	141.38
324.024	189.38
324.253	379.38
324.482	757.38
324.71	1514.38
324.939	1945.38
325.168	742.38
325.397	237.38
325.626	157.38
325.855	140.38
326.084	125.38
326.313	124.38
326.542	142.38
326.77	209.38
326.999	401.38
327.228	809.38
327.457	1450.38
327.686	1150.38
327.914	318.38
328.143	184.38
328.372	150.38
328.6	124.38
328.829	125.38
329.058	137.38
329.287	126.38
329.515	97.38
329.744	117.38
329.972	103.38
330.201	118.38
330.43	134.38
330.658	137.38
330.887	149.38
331.115	135.38
331.344	101.38
331.572	100.38
331.801	110.38
332.03	95.38
332.258	91.38
332.486	102.38
332.715	95.38
332.943	87.38
333.172	91.38
333.4	92.38
333.629	105.38
333.857	134.38
334.085	113.38
334.314	103.38
334.542	136.38
334.771	131.38
334.999	103.38
335.227	99.38
335.455	93.38
335.684	95.38
335.912	96.38
336.14	95.38
336.369	102.38
336.597	109.38
336.825	88.38
337.053	105.38
337.281	102.38
337.51	96.38
337.738	92.38
337.966	106.38
338.194	97.38
338.422	85.38
338.65	86.38
338.878	85.38
339.106	100.38
339.334	93.38
339.562	86.38
339.79	102.38
340.018	84.38
340.246	109.38
340.474	89.38
340.702	93.38
340.93	85.38
341.158	83.38
341.386	106.38
341.614	109.38
341.842	88.38
342.07	97.38
342.298	93.38
342.526	83.38
342.754	90.38
342.981	85.38
343.209	97.38
343.437	105.38
343.665	102.38
343.893	88.38
344.12	107.38
344.348	99.38
344.576	92.38
344.804	85.38
345.031	100.38
345.259	101.38
345.487	90.38
345.714	101.38
345.942	89.38
346.17	91.38
346.397	103.38
346.625	87.38
346.853	102.38
347.08	115.38
347.308	98.38
347.535	107.38
347.763	110.38
347.99	98.38
348.218	105.38
348.445	101.38
348.673	94.38
348.9	92.38
349.128	87.38
349.355	98.38
349.583	92.38
349.81	97.38
350.037	92.38
350.265	97.38
350.492	104.38
350.72	97.38
350.947	85.38
351.174	125.38
351.402	105.38
351.629	105.38
351.856	99.38
352.083	102.38
352.311	121.38
352.538	109.38
352.765	116.38
352.992	110.38
353.22	90.38
353.447	110.38
353.674	94.38
353.901	107.38
354.128	85.38
354.355	100.38
354.583	103.38
354.81	92.38
355.037	110.38
355.264	98.38
355.491	103.38
355.718	93.38
355.945	89.38
356.172	93.38
356.399	103.38
356.626	94.38
356.853	98.38
357.08	89.38
357.307	105.38
357.534	95.38
357.761	90.38
357.988	94.38
358.215	99.38
358.441	84.38
358.668	93.38
358.895	82.38
359.122	75.38
359.349	84.38
359.576	87.38
359.802	100.38
360.029	134.38
360.256	115.38
360.483	105.38
360.709	93.38
360.936	97.38
361.163	89.38
361.39	83.38
361.616	90.38
361.843	89.38
362.07	94.38
362.296	100.38
362.523	83.38
362.749	79.38
362.976	94.38
363.203	85.38
363.429	102.38
363.656	91.38
363.882	87.38
364.109	93.38
364.335	94.38
364.562	98.38
364.788	105.38
365.015	94.38
365.241	101.38
365.468	98.38
365.694	115.38
365.92	100.38
366.147	87.38
366.373	98.38
366.599	82.38
366.826	105.38
367.052	92.38
367.278	102.38
367.505	93.38
367.731	98.38
367.957	91.38
368.184	93.38
368.41	99.38
368.636	96.38
368.862	111.38
369.089	109.38
369.315	100.38
369.541	102.38
369.767	94.38
369.993	110.38
370.219	85.38
370.445	81.38
370.672	91.38
370.898	81.38
371.124	81.38
371.35	90.38
371.576	88.38
371.802	86.38
372.028	73.38
372.254	89.38
372.48	85.38
372.706	80.38
372.932	85.38
373.158	74.38
373.384	85.38
373.61	96.38
373.835	88.38
374.061	105.38
374.287	98.38
374.513	93.38
374.739	83.38
374.965	92.38
375.191	86.38
375.416	103.38
375.642	91.38
375.868	85.38
376.094	99.38
376.319	89.38
376.545	94.38
376.771	97.38
376.997	84.38
377.222	94.38
377.448	88.38
377.674	94.38
377.899	86.38
378.125	100.38
378.35	98.38
378.576	98.38
378.802	83.38
379.027	87.38
379.253	82.38
379.478	92.38
379.704	103.38
379.929	95.38
380.155	88.38
380.38	85.38
380.606	92.38
380.831	97.38
381.057	103.38
381.282	87.38
381.507	103.38
381.733	76.38
381.958	118.38
382.184	109.38
382.409	101.38
382.634	102.38
382.86	99.38
383.085	105.38
383.31	102.38
383.535	102.38
383.761	106.38
383.986	111.38
384.211	96.38
384.436	96.38
384.662	105.38
384.887	97.38
385.112	106.38
385.337	108.38
385.562	119.38
385.787	106.38
386.013	125.38
386.238	125.38
386.463	110.38
386.688	141.38
386.913	112.38
387.138	115.38
387.363	109.38
387.588	99.38
387.813	106.38
388.038	117.38
388.263	121.38
388.488	110.38
388.713	99.38
388.938	85.38
389.163	90.38
389.387	102.38
389.612	96.38
389.837	77.38
390.062	86.38
390.287	88.38
390.512	89.38
390.736	93.38
390.961	86.38
391.186	88.38
391.411	98.38
391.636	102.38
391.86	105.38
392.085	85.38
392.31	95.38
392.534	87.38
392.759	92.38
392.984	105.38
393.208	97.38
393.433	125.38
393.658	115.38
393.882	87.38
394.107	91.38
394.331	103.38
394.556	71.38
394.78	94.38
395.005	91.38
395.229	83.38
395.454	86.38
395.678	95.38
395.903	79.38
396.127	76.38
396.352	90.38
396.576	82.38
396.801	92.38
397.025	110.38
397.249	91.38
397.474	107.38
397.698	95.38
397.922	94.38
398.147	95.38
398.371	91.38
398.595	87.38
398.82	83.38
399.044	75.38
399.268	85.38
399.492	87.38
399.717	76.38
399.941	87.38
400.165	96.38
400.389	98.38
400.613	93.38
400.837	87.38
401.062	88.38
401.286	95.38
401.51	92.38
401.734	95.38
401.958	116.38
402.182	126.38
402.406	159.38
402.63	130.38
402.854	95.38
403.078	70.38
403.302	82.38
403.526	96.38
403.75	95.38
403.974	87.38
404.198	74.38
404.422	77.38
404.645	85.38
404.869	102.38
405.093	109.38
405.317	110.38
405.541	95.38
405.765	95.38
405.988	122.38
406.212	159.38
406.436	252.38
406.66	156.38
406.883	104.38
407.107	93.38
407.331	109.38
407.555	111.38
407.778	93.38
408.002	101.38
408.226	82.38
408.449	101.38
408.673	102.38
408.896	103.38
409.12	98.38
409.344	96.38
409.567	85.38
409.791	101.38
410.014	94.38
410.238	78.38
410.461	92.38
410.685	84.38
410.908	79.38
411.132	101.38
411.355	106.38
411.578	92.38
411.802	87.38
412.025	87.38
412.249	90.38
412.472	87.38
412.695	98.38
412.919	86.38
413.142	86.38
413.365	87.38
413.589	93.38
413.812	108.38
414.035	96.38
414.258	85.38
414.482	97.38
414.705	101.38
414.928	94.38
415.151	111.38
415.374	105.38
415.597	92.38
415.821	83.38
416.044	82.38
416.267	91.38
416.49	89.38
416.713	92.38
416.936	73.38
417.159	78.38
417.382	93.38
417.605	93.38
417.828	110.38
418.051	81.38
418.274	95.38
418.497	81.38
418.72	90.38
418.943	87.38
419.166	87.38
419.389	88.38
419.611	82.38
419.834	95.38
420.057	89.38
420.28	88.38
420.503	90.38
420.726	94.38
420.948	99.38
421.171	101.38
421.394	92.38
421.617	96.38
421.839	100.38
422.062	97.38
422.285	89.38
422.507	105.38
422.73	110.38
422.953	99.38
423.175	89.38
423.398	77.38
423.621	81.38
423.843	85.38
424.066	77.38
424.288	85.38
424.511	85.38
424.733	83.38
424.956	106.38
425.178	97.38
425.401	93.38
425.623	98.38
425.846	88.38
426.068	93.38
426.291	89.38
426.513	92.38
426.735	97.38
426.958	91.38
427.18	113.38
427.402	150.38
427.625	181.38
427.847	133.38
428.069	110.38
428.292	79.38
428.514	100.38
428.736	85.38
428.958	78.38
429.181	93.38
429.403	86.38
429.625	94.38
429.847	100.38
430.069	98.38
430.292	87.38
430.514	77.38
430.736	102.38
430.958	89.38
431.18	89.38
431.402	104.38
431.624	73.38
431.846	60.38
432.068	90.38
432.29	93.38
432.512	77.38
432.734	94.38
432.956	92.38
433.178	94.38
433.4	101.38
433.622	92.38
433.844	85.38
434.066	90.38
434.287	103.38
434.509	89.38
434.731	97.38
434.953	96.38
435.175	102.38
435.397	107.38
435.618	100.38
435.84	92.38
436.062	116.38
436.284	95.38
436.505	107.38
436.727	102.38
436.949	108.38
437.17	102.38
437.392	92.38
437.614	87.38
437.835	118.38
438.057	119.38
438.278	115.38
438.5	110.38
438.721	138.38
438.943	107.38
439.165	110.38
439.386	92.38
439.608	98.38
439.829	76.38
440.05	121.38
440.272	140.38
440.493	101.38
440.715	93.38
440.936	77.38
441.158	83.38
441.379	93.38
441.6	87.38
441.822	100.38
442.043	95.38
442.264	106.38
442.486	102.38
442.707	90.38
442.928	97.38
443.149	132.38
443.371	126.38
443.592	122.38
443.813	105.38
444.034	121.38
444.255	90.38
444.476	98.38
444.698	98.38
444.919	102.38
445.14	141.38
445.361	122.38
445.582	113.38
445.803	137.38
446.024	146.38
446.245	128.38
446.466	116.38
446.687	94.38
446.908	91.38
447.129	97.38
447.35	80.38
447.571	98.38
447.792	114.38
448.013	112.38
448.234	85.38
448.455	96.38
448.675	118.38
448.896	110.38
449.117	101.38
449.338	98.38
449.559	132.38
449.779	138.38
450	105.38
450.221	99.38
450.442	86.38
450.662	93.38
450.883	110.38
451.104	120.38
451.324	94.38
451.545	85.38
451.766	81.38
451.986	82.38
452.207	96.38
452.428	95.38
452.648	102.38
452.869	110.38
453.089	109.38
453.31	111.38
453.53	91.38
453.751	81.38
453.971	109.38
454.192	114.38
454.412	110.38
454.633	92.38
454.853	96.38
455.073	83.38
455.294	99.38
455.514	99.38
455.734	95.38
455.955	85.38
456.175	76.38
456.395	99.38
456.616	90.38
456.836	77.38
457.056	79.38
457.276	87.38
457.497	84.38
457.717	99.38
457.937	85.38
458.157	76.38
458.377	94.38
458.598	106.38
458.818	165.38
459.038	186.38
459.258	126.38
459.478	103.38
459.698	80.38
459.918	89.38
460.138	99.38
460.358	88.38
460.578	91.38
460.798	104.38
461.018	93.38
461.238	68.38
461.458	96.38
461.678	97.38
461.898	99.38
462.118	76.38
462.338	79.38
462.558	86.38
462.777	91.38
462.997	87.38
463.217	87.38
463.437	98.38
463.657	99.38
463.876	91.38
464.096	101.38
464.316	74.38
464.536	89.38
464.755	107.38
464.975	109.38
465.195	179.38
465.414	172.38
465.634	101.38
465.854	87.38
466.073	87.38
466.293	96.38
466.512	91.38
466.732	91.38
466.951	82.38
467.171	93.38
467.391	88.38
467.61	108.38
467.829	105.38
468.049	100.38
468.268	102.38
468.488	94.38
468.707	78.38
468.927	111.38
469.146	82.38
469.365	86.38
469.585	94.38
469.804	96.38
470.023	97.38
470.243	93.38
470.462	105.38
470.681	115.38
470.901	97.38
471.12	84.38
471.339	83.38
471.558	99.38
471.777	97.38
471.997	92.38
472.216	113.38
472.435	154.38
472.654	101.38
472.873	92.38
473.092	93.38
473.311	96.38
473.53	81.38
473.749	82.38
473.968	92.38
474.187	110.38
474.406	95.38
474.625	84.38
474.844	92.38
475.063	71.38
475.282	97.38
475.501	94.38
475.72	91.38
475.939	85.38
476.158	86.38
476.377	85.38
476.596	96.38
476.814	112.38
477.033	99.38
477.252	95.38
477.471	100.38
477.69	87.38
477.908	91.38
478.127	98.38
478.346	90.38
478.564	95.38
478.783	90.38
479.002	70.38
479.22	108.38
479.439	99.38
479.658	107.38
479.876	90.38
480.095	73.38
480.313	104.38
480.532	95.38
480.751	96.38
480.969	114.38
481.188	221.38
481.406	175.38
481.624	105.38
481.843	86.38
482.061	94.38
482.28	96.38
482.498	96.38
482.717	107.38
482.935	80.38
483.153	99.38
483.372	101.38
483.59	81.38
483.808	81.38
484.027	103.38
484.245	102.38
484.463	94.38
484.681	99.38
484.9	88.38
485.118	93.38
485.336	105.38
485.554	92.38
485.772	91.38
485.99	97.38
486.209	101.38
486.427	104.38
486.645	89.38
486.863	123.38
487.081	89.38
487.299	94.38
487.517	102.38
487.735	93.38
487.953	97.38
488.171	91.38
488.389	96.38
488.607	94.38
488.825	89.38
489.043	76.38
489.261	86.38
489.479	92.38
489.696	92.38
489.914	72.38
490.132	93.38
490.35	87.38
490.568	91.38
490.786	102.38
491.003	102.38
491.221	98.38
491.439	90.38
491.657	99.38
491.874	94.38
492.092	90.38
492.31	104.38
492.527	86.38
492.745	87.38
492.963	96.38
493.18	97.38
493.398	90.38
493.615	120.38
493.833	100.38
494.05	99.38
494.268	99.38
494.485	94.38
494.703	86.38
494.92	82.38
495.138	93.38
495.355	87.38
495.573	96.38
495.79	98.38
496.008	86.38
496.225	90.38
496.442	95.38
496.66	94.38
496.877	83.38
497.094	83.38
497.312	106.38
497.529	103.38
497.746	93.38
497.963	97.38
498.181	98.38
498.398	96.38
498.615	115.38
498.832	112.38
499.049	87.38
499.267	106.38
499.484	90.38
499.701	75.38
499.918	90.38
500.135	85.38
500.352	101.38
500.569	76.38
500.786	86.38
501.003	92.38
501.22	76.38
501.437	86.38
501.654	101.38
501.871	115.38
502.088	94.38
502.305	89.38
502.522	109.38
502.739	102.38
502.956	99.38
503.172	78.38
503.389	96.38
503.606	98.38
503.823	93.38
504.04	95.38
504.256	94.38
504.473	86.38
504.69	81.38
504.907	78.38
505.123	90.38
505.34	92.38
505.557	81.38
505.773	83.38
505.99	77.38
506.207	97.38
506.423	105.38
506.64	97.38
506.856	87.38
507.073	89.38
507.289	75.38
507.506	85.38
507.722	117.38
507.939	119.38
508.155	111.38
508.372	91.38
508.588	89.38
508.805	93.38
509.021	96.38
509.238	105.38
509.454	92.38
509.67	111.38
509.887	110.38
510.103	120.38
510.319	213.38
510.536	741.38
510.752	2423.38
510.968	666.38
511.184	163.38
511.401	120.38
511.617	107.38
511.833	91.38
512.049	103.38
512.265	90.38
512.481	90.38
512.698	106.38
512.914	106.38
513.13	100.38
513.346	95.38
513.562	99.38
513.778	88.38
513.994	108.38
514.21	97.38
514.426	113.38
514.642	151.38
514.858	130.38
