Data from Circ_1981_H10_HRD10591_00051.txt Node
Date: Wed Jan 03 12:34:31 EST 2024
User: Yrep
Spectrometer: HR+D1059
Trigger mode: 1
Integration Time (sec): 1.000000E-1
Scans to average: 1
Electric dark correction enabled: true
Nonlinearity correction enabled: false
Boxcar width: 0
XAxis mode: Wavelengths
Number of Pixels in Spectrum: 2048
>>>>>Begin Spectral Data<<<<<
223.165	-26.38
223.4	-26.38
223.635	-26.38
223.869	-21.38
224.104	-15.38
224.338	-3.38
224.573	-6.38
224.808	-16.38
225.042	-12.38
225.277	-0.38
225.511	-2.38
225.746	-1.38
225.98	-9.38
226.215	9.62
226.449	10.62
226.683	24.62
226.918	26.62
227.152	43.62
227.387	29.62
227.621	42.62
227.856	55.62
228.09	51.62
228.324	58.62
228.559	61.62
228.793	59.62
229.027	59.62
229.262	67.62
229.496	70.62
229.73	94.62
229.964	89.62
230.199	68.62
230.433	77.62
230.667	90.62
230.901	75.62
231.136	77.62
231.37	89.62
231.604	74.62
231.838	75.62
232.072	69.62
232.306	75.62
232.541	73.62
232.775	81.62
233.009	70.62
233.243	82.62
233.477	79.62
233.711	86.62
233.945	73.62
234.179	97.62
234.413	90.62
234.647	77.62
234.881	70.62
235.115	90.62
235.349	97.62
235.583	91.62
235.817	86.62
236.051	66.62
236.285	81.62
236.519	75.62
236.753	90.62
236.987	94.62
237.221	77.62
237.455	81.62
237.689	73.62
237.922	66.62
238.156	63.62
238.39	81.62
238.624	71.62
238.858	86.62
239.091	83.62
239.325	80.62
239.559	81.62
239.793	85.62
240.027	84.62
240.26	84.62
240.494	71.62
240.728	74.62
240.961	89.62
241.195	73.62
241.429	74.62
241.662	76.62
241.896	75.62
242.13	62.62
242.363	65.62
242.597	83.62
242.83	77.62
243.064	83.62
243.298	73.62
243.531	81.62
243.765	77.62
243.998	76.62
244.232	74.62
244.465	89.62
244.699	72.62
244.932	76.62
245.166	83.62
245.399	85.62
245.633	82.62
245.866	76.62
246.099	76.62
246.333	61.62
246.566	72.62
246.8	77.62
247.033	78.62
247.266	83.62
247.5	73.62
247.733	82.62
247.966	69.62
248.2	57.62
248.433	84.62
248.666	85.62
248.899	95.62
249.133	84.62
249.366	100.62
249.599	101.62
249.832	74.62
250.066	79.62
250.299	77.62
250.532	65.62
250.765	85.62
250.998	81.62
251.231	78.62
251.465	63.62
251.698	86.62
251.931	74.62
252.164	83.62
252.397	65.62
252.63	86.62
252.863	83.62
253.096	83.62
253.329	78.62
253.562	75.62
253.795	86.62
254.028	87.62
254.261	85.62
254.494	71.62
254.727	95.62
254.96	78.62
255.193	87.62
255.426	76.62
255.659	84.62
255.892	74.62
256.124	84.62
256.357	83.62
256.59	73.62
256.823	75.62
257.056	87.62
257.289	78.62
257.521	78.62
257.754	78.62
257.987	78.62
258.22	94.62
258.452	81.62
258.685	71.62
258.918	79.62
259.151	81.62
259.383	82.62
259.616	87.62
259.849	82.62
260.081	89.62
260.314	76.62
260.547	94.62
260.779	88.62
261.012	91.62
261.244	89.62
261.477	96.62
261.71	99.62
261.942	119.62
262.175	139.62
262.407	92.62
262.64	78.62
262.872	86.62
263.105	89.62
263.337	81.62
263.57	77.62
263.802	77.62
264.035	76.62
264.267	79.62
264.499	80.62
264.732	86.62
264.964	78.62
265.197	85.62
265.429	83.62
265.661	81.62
265.894	85.62
266.126	84.62
266.358	95.62
266.591	84.62
266.823	90.62
267.055	68.62
267.287	93.62
267.52	90.62
267.752	78.62
267.984	99.62
268.216	89.62
268.448	79.62
268.681	93.62
268.913	85.62
269.145	86.62
269.377	75.62
269.609	94.62
269.841	92.62
270.073	77.62
270.306	86.62
270.538	89.62
270.77	85.62
271.002	87.62
271.234	84.62
271.466	83.62
271.698	88.62
271.93	84.62
272.162	101.62
272.394	87.62
272.626	88.62
272.858	90.62
273.09	71.62
273.322	81.62
273.553	83.62
273.785	81.62
274.017	82.62
274.249	81.62
274.481	87.62
274.713	90.62
274.945	94.62
275.176	100.62
275.408	95.62
275.64	90.62
275.872	90.62
276.104	81.62
276.335	90.62
276.567	81.62
276.799	104.62
277.031	108.62
277.262	90.62
277.494	90.62
277.726	83.62
277.957	86.62
278.189	86.62
278.421	86.62
278.652	83.62
278.884	90.62
279.115	88.62
279.347	89.62
279.579	86.62
279.81	88.62
280.042	86.62
280.273	89.62
280.505	82.62
280.736	101.62
280.968	85.62
281.199	84.62
281.431	85.62
281.662	90.62
281.894	78.62
282.125	113.62
282.356	133.62
282.588	146.62
282.819	125.62
283.051	90.62
283.282	77.62
283.513	90.62
283.745	69.62
283.976	87.62
284.207	97.62
284.439	93.62
284.67	96.62
284.901	100.62
285.132	88.62
285.364	86.62
285.595	91.62
285.826	83.62
286.057	108.62
286.288	95.62
286.52	81.62
286.751	89.62
286.982	85.62
287.213	93.62
287.444	105.62
287.675	94.62
287.906	93.62
288.138	87.62
288.369	93.62
288.6	96.62
288.831	78.62
289.062	95.62
289.293	94.62
289.524	82.62
289.755	83.62
289.986	78.62
290.217	89.62
290.448	88.62
290.679	76.62
290.91	75.62
291.141	83.62
291.371	98.62
291.602	88.62
291.833	87.62
292.064	91.62
292.295	84.62
292.526	89.62
292.757	88.62
292.987	100.62
293.218	82.62
293.449	90.62
293.68	82.62
293.91	77.62
294.141	87.62
294.372	73.62
294.603	83.62
294.833	88.62
295.064	85.62
295.295	84.62
295.525	83.62
295.756	102.62
295.987	121.62
296.217	136.62
296.448	136.62
296.679	94.62
296.909	99.62
297.14	98.62
297.37	82.62
297.601	77.62
297.831	81.62
298.062	103.62
298.292	91.62
298.523	83.62
298.753	100.62
298.984	86.62
299.214	85.62
299.445	97.62
299.675	90.62
299.905	90.62
300.136	109.62
300.366	93.62
300.597	87.62
300.827	93.62
301.057	100.62
301.288	104.62
301.518	95.62
301.748	87.62
301.979	97.62
302.209	98.62
302.439	84.62
302.669	69.62
302.9	91.62
303.13	106.62
303.36	104.62
303.59	114.62
303.82	112.62
304.051	95.62
304.281	87.62
304.511	95.62
304.741	87.62
304.971	88.62
305.201	90.62
305.431	95.62
305.661	87.62
305.891	78.62
306.121	93.62
306.352	103.62
306.582	112.62
306.812	102.62
307.042	103.62
307.272	96.62
307.502	86.62
307.731	97.62
307.961	88.62
308.191	83.62
308.421	96.62
308.651	106.62
308.881	102.62
309.111	108.62
309.341	99.62
309.571	111.62
309.8	86.62
310.03	102.62
310.26	103.62
310.49	98.62
310.72	104.62
310.949	125.62
311.179	118.62
311.409	102.62
311.639	111.62
311.868	119.62
312.098	105.62
312.328	108.62
312.557	110.62
312.787	136.62
313.017	101.62
313.246	102.62
313.476	90.62
313.706	98.62
313.935	96.62
314.165	105.62
314.394	123.62
314.624	97.62
314.853	108.62
315.083	114.62
315.312	89.62
315.542	95.62
315.771	97.62
316.001	88.62
316.23	83.62
316.46	98.62
316.689	93.62
316.919	89.62
317.148	118.62
317.377	85.62
317.607	105.62
317.836	102.62
318.065	100.62
318.295	101.62
318.524	90.62
318.753	92.62
318.983	88.62
319.212	99.62
319.441	129.62
319.67	106.62
319.9	99.62
320.129	91.62
320.358	108.62
320.587	96.62
320.816	111.62
321.046	101.62
321.275	96.62
321.504	94.62
321.733	101.62
321.962	94.62
322.191	88.62
322.42	106.62
322.649	123.62
322.878	120.62
323.108	130.62
323.337	127.62
323.566	147.62
323.795	161.62
324.024	214.62
324.253	386.62
324.482	849.62
324.71	1701.62
324.939	2268.62
325.168	831.62
325.397	260.62
325.626	154.62
325.855	118.62
326.084	141.62
326.313	127.62
326.542	155.62
326.77	243.62
326.999	422.62
327.228	885.62
327.457	1615.62
327.686	1297.62
327.914	361.62
328.143	225.62
328.372	176.62
328.6	132.62
328.829	124.62
329.058	145.62
329.287	160.62
329.515	111.62
329.744	122.62
329.972	99.62
330.201	129.62
330.43	145.62
330.658	158.62
330.887	179.62
331.115	146.62
331.344	120.62
331.572	109.62
331.801	104.62
332.03	118.62
332.258	112.62
332.486	90.62
332.715	96.62
332.943	104.62
333.172	108.62
333.4	109.62
333.629	111.62
333.857	127.62
334.085	108.62
334.314	136.62
334.542	158.62
334.771	161.62
334.999	110.62
335.227	107.62
335.455	105.62
335.684	116.62
335.912	106.62
336.14	92.62
336.369	107.62
336.597	105.62
336.825	103.62
337.053	103.62
337.281	112.62
337.51	97.62
337.738	101.62
337.966	114.62
338.194	88.62
338.422	99.62
338.65	94.62
338.878	104.62
339.106	85.62
339.334	97.62
339.562	98.62
339.79	104.62
340.018	93.62
340.246	90.62
340.474	103.62
340.702	100.62
340.93	89.62
341.158	97.62
341.386	91.62
341.614	97.62
341.842	90.62
342.07	88.62
342.298	80.62
342.526	101.62
342.754	97.62
342.981	107.62
343.209	95.62
343.437	108.62
343.665	85.62
343.893	99.62
344.12	81.62
344.348	78.62
344.576	93.62
344.804	89.62
345.031	103.62
345.259	117.62
345.487	102.62
345.714	104.62
345.942	101.62
346.17	94.62
346.397	94.62
346.625	96.62
346.853	101.62
347.08	91.62
347.308	107.62
347.535	102.62
347.763	113.62
347.99	113.62
348.218	110.62
348.445	108.62
348.673	101.62
348.9	101.62
349.128	105.62
349.355	94.62
349.583	106.62
349.81	109.62
350.037	96.62
350.265	102.62
350.492	102.62
350.72	95.62
350.947	99.62
351.174	109.62
351.402	128.62
351.629	105.62
351.856	121.62
352.083	123.62
352.311	121.62
352.538	107.62
352.765	117.62
352.992	124.62
353.22	106.62
353.447	114.62
353.674	113.62
353.901	97.62
354.128	90.62
354.355	89.62
354.583	103.62
354.81	97.62
355.037	96.62
355.264	98.62
355.491	92.62
355.718	99.62
355.945	117.62
356.172	93.62
356.399	99.62
356.626	97.62
356.853	91.62
357.08	108.62
357.307	92.62
357.534	82.62
357.761	98.62
357.988	95.62
358.215	99.62
358.441	102.62
358.668	102.62
358.895	103.62
359.122	92.62
359.349	96.62
359.576	98.62
359.802	104.62
360.029	122.62
360.256	124.62
360.483	94.62
360.709	99.62
360.936	92.62
361.163	87.62
361.39	119.62
361.616	97.62
361.843	103.62
362.07	107.62
362.296	104.62
362.523	100.62
362.749	102.62
362.976	107.62
363.203	82.62
363.429	107.62
363.656	95.62
363.882	97.62
364.109	106.62
364.335	83.62
364.562	96.62
364.788	89.62
365.015	96.62
365.241	96.62
365.468	116.62
365.694	100.62
365.92	98.62
366.147	115.62
366.373	99.62
366.599	88.62
366.826	88.62
367.052	98.62
367.278	99.62
367.505	106.62
367.731	108.62
367.957	96.62
368.184	93.62
368.41	90.62
368.636	129.62
368.862	119.62
369.089	125.62
369.315	109.62
369.541	106.62
369.767	91.62
369.993	84.62
370.219	101.62
370.445	93.62
370.672	89.62
370.898	88.62
371.124	89.62
371.35	88.62
371.576	92.62
371.802	89.62
372.028	84.62
372.254	95.62
372.48	94.62
372.706	88.62
372.932	85.62
373.158	94.62
373.384	91.62
373.61	93.62
373.835	96.62
374.061	87.62
374.287	89.62
374.513	116.62
374.739	81.62
374.965	102.62
375.191	84.62
375.416	88.62
375.642	109.62
375.868	109.62
376.094	101.62
376.319	94.62
376.545	94.62
376.771	90.62
376.997	93.62
377.222	93.62
377.448	90.62
377.674	99.62
377.899	87.62
378.125	95.62
378.35	94.62
378.576	87.62
378.802	96.62
379.027	93.62
379.253	81.62
379.478	85.62
379.704	88.62
379.929	103.62
380.155	82.62
380.38	93.62
380.606	105.62
380.831	102.62
381.057	106.62
381.282	88.62
381.507	92.62
381.733	114.62
381.958	104.62
382.184	77.62
382.409	102.62
382.634	102.62
382.86	97.62
383.085	98.62
383.31	114.62
383.535	96.62
383.761	95.62
383.986	94.62
384.211	95.62
384.436	95.62
384.662	91.62
384.887	99.62
385.112	100.62
385.337	95.62
385.562	99.62
385.787	108.62
386.013	105.62
386.238	110.62
386.463	103.62
386.688	104.62
386.913	110.62
387.138	95.62
387.363	105.62
387.588	116.62
387.813	92.62
388.038	91.62
388.263	109.62
388.488	112.62
388.713	117.62
388.938	104.62
389.163	91.62
389.387	107.62
389.612	106.62
389.837	100.62
390.062	98.62
390.287	85.62
390.512	80.62
390.736	89.62
390.961	98.62
391.186	90.62
391.411	92.62
391.636	99.62
391.86	104.62
392.085	88.62
392.31	94.62
392.534	98.62
392.759	100.62
392.984	74.62
393.208	84.62
393.433	97.62
393.658	102.62
393.882	91.62
394.107	73.62
394.331	83.62
394.556	87.62
394.78	98.62
395.005	94.62
395.229	91.62
395.454	91.62
395.678	87.62
395.903	86.62
396.127	98.62
396.352	95.62
396.576	82.62
396.801	86.62
397.025	100.62
397.249	95.62
397.474	102.62
397.698	96.62
397.922	93.62
398.147	91.62
398.371	81.62
398.595	88.62
398.82	87.62
399.044	85.62
399.268	89.62
399.492	77.62
399.717	88.62
399.941	92.62
400.165	94.62
400.389	93.62
400.613	88.62
400.837	94.62
401.062	101.62
401.286	70.62
401.51	96.62
401.734	93.62
401.958	109.62
402.182	133.62
402.406	167.62
402.63	139.62
402.854	108.62
403.078	87.62
403.302	93.62
403.526	100.62
403.75	94.62
403.974	83.62
404.198	99.62
404.422	85.62
404.645	87.62
404.869	79.62
405.093	101.62
405.317	99.62
405.541	109.62
405.765	106.62
405.988	107.62
406.212	178.62
406.436	257.62
406.66	187.62
406.883	113.62
407.107	89.62
407.331	100.62
407.555	118.62
407.778	98.62
408.002	97.62
408.226	100.62
408.449	89.62
408.673	95.62
408.896	97.62
409.12	112.62
409.344	89.62
409.567	116.62
409.791	92.62
410.014	88.62
410.238	109.62
410.461	81.62
410.685	95.62
410.908	92.62
411.132	114.62
411.355	107.62
411.578	84.62
411.802	93.62
412.025	87.62
412.249	84.62
412.472	98.62
412.695	101.62
412.919	98.62
413.142	89.62
413.365	97.62
413.589	90.62
413.812	89.62
414.035	95.62
414.258	101.62
414.482	82.62
414.705	87.62
414.928	93.62
415.151	106.62
415.374	99.62
415.597	96.62
415.821	92.62
416.044	88.62
416.267	92.62
416.49	86.62
416.713	109.62
416.936	92.62
417.159	88.62
417.382	101.62
417.605	95.62
417.828	106.62
418.051	81.62
418.274	98.62
418.497	81.62
418.72	90.62
418.943	93.62
419.166	89.62
419.389	93.62
419.611	101.62
419.834	95.62
420.057	73.62
420.28	91.62
420.503	89.62
420.726	94.62
420.948	97.62
421.171	88.62
421.394	84.62
421.617	86.62
421.839	104.62
422.062	89.62
422.285	98.62
422.507	120.62
422.73	107.62
422.953	111.62
423.175	100.62
423.398	101.62
423.621	82.62
423.843	78.62
424.066	89.62
424.288	86.62
424.511	89.62
424.733	97.62
424.956	125.62
425.178	103.62
425.401	113.62
425.623	116.62
425.846	91.62
426.068	104.62
426.291	98.62
426.513	100.62
426.735	81.62
426.958	92.62
427.18	106.62
427.402	168.62
427.625	201.62
427.847	152.62
428.069	109.62
428.292	102.62
428.514	102.62
428.736	82.62
428.958	91.62
429.181	90.62
429.403	90.62
429.625	84.62
429.847	77.62
430.069	103.62
430.292	86.62
430.514	108.62
430.736	98.62
430.958	104.62
431.18	72.62
431.402	85.62
431.624	93.62
431.846	73.62
432.068	84.62
432.29	87.62
432.512	98.62
432.734	102.62
432.956	105.62
433.178	100.62
433.4	87.62
433.622	101.62
433.844	86.62
434.066	94.62
434.287	82.62
434.509	90.62
434.731	89.62
434.953	107.62
435.175	91.62
435.397	88.62
435.618	79.62
435.84	95.62
436.062	126.62
436.284	137.62
436.505	105.62
436.727	103.62
436.949	83.62
437.17	83.62
437.392	99.62
437.614	88.62
437.835	114.62
438.057	136.62
438.278	125.62
438.5	99.62
438.721	140.62
438.943	110.62
439.165	97.62
439.386	91.62
439.608	89.62
439.829	111.62
440.05	124.62
440.272	156.62
440.493	110.62
440.715	104.62
440.936	92.62
441.158	92.62
441.379	101.62
441.6	103.62
441.822	111.62
442.043	108.62
442.264	121.62
442.486	123.62
442.707	90.62
442.928	120.62
443.149	141.62
443.371	137.62
443.592	128.62
443.813	123.62
444.034	114.62
444.255	98.62
444.476	92.62
444.698	87.62
444.919	99.62
445.14	131.62
445.361	120.62
445.582	111.62
445.803	166.62
446.024	145.62
446.245	147.62
446.466	131.62
446.687	94.62
446.908	84.62
447.129	92.62
447.35	104.62
447.571	91.62
447.792	98.62
448.013	102.62
448.234	119.62
448.455	99.62
448.675	116.62
448.896	132.62
449.117	116.62
449.338	120.62
449.559	134.62
449.779	146.62
450	105.62
450.221	104.62
450.442	90.62
450.662	101.62
450.883	122.62
451.104	116.62
451.324	97.62
451.545	97.62
451.766	101.62
451.986	87.62
452.207	77.62
452.428	100.62
452.648	93.62
452.869	121.62
453.089	124.62
453.31	126.62
453.53	107.62
453.751	101.62
453.971	118.62
454.192	132.62
454.412	97.62
454.633	85.62
454.853	87.62
455.073	75.62
455.294	99.62
455.514	104.62
455.734	92.62
455.955	83.62
456.175	93.62
456.395	85.62
456.616	84.62
456.836	89.62
457.056	85.62
457.276	73.62
457.497	83.62
457.717	85.62
457.937	89.62
458.157	85.62
458.377	98.62
458.598	112.62
458.818	190.62
459.038	202.62
459.258	144.62
459.478	86.62
459.698	91.62
459.918	86.62
460.138	92.62
460.358	102.62
460.578	97.62
460.798	85.62
461.018	86.62
461.238	85.62
461.458	93.62
461.678	87.62
461.898	91.62
462.118	93.62
462.338	96.62
462.558	88.62
462.777	95.62
462.997	70.62
463.217	94.62
463.437	93.62
463.657	98.62
463.876	102.62
464.096	93.62
464.316	97.62
464.536	85.62
464.755	94.62
464.975	107.62
465.195	205.62
465.414	202.62
465.634	94.62
465.854	97.62
466.073	76.62
466.293	83.62
466.512	84.62
466.732	82.62
466.951	93.62
467.171	101.62
467.391	96.62
467.61	116.62
467.829	107.62
468.049	109.62
468.268	98.62
468.488	107.62
468.707	86.62
468.927	90.62
469.146	93.62
469.365	90.62
469.585	92.62
469.804	104.62
470.023	107.62
470.243	89.62
470.462	104.62
470.681	121.62
470.901	89.62
471.12	81.62
471.339	101.62
471.558	87.62
471.777	94.62
471.997	87.62
472.216	91.62
472.435	148.62
472.654	107.62
472.873	89.62
473.092	90.62
473.311	81.62
473.53	85.62
473.749	82.62
473.968	104.62
474.187	121.62
474.406	112.62
474.625	86.62
474.844	92.62
475.063	83.62
475.282	91.62
475.501	92.62
475.72	98.62
475.939	73.62
476.158	94.62
476.377	88.62
476.596	76.62
476.814	96.62
477.033	91.62
477.252	81.62
477.471	95.62
477.69	82.62
477.908	90.62
478.127	84.62
478.346	96.62
478.564	108.62
478.783	91.62
479.002	93.62
479.22	112.62
479.439	114.62
479.658	115.62
479.876	105.62
480.095	97.62
480.313	78.62
480.532	93.62
480.751	77.62
480.969	107.62
481.188	220.62
481.406	169.62
481.624	92.62
481.843	90.62
482.061	93.62
482.28	98.62
482.498	103.62
482.717	94.62
482.935	97.62
483.153	96.62
483.372	84.62
483.59	91.62
483.808	94.62
484.027	83.62
484.245	77.62
484.463	89.62
484.681	99.62
484.9	103.62
485.118	97.62
485.336	108.62
485.554	104.62
485.772	106.62
485.99	104.62
486.209	102.62
486.427	114.62
486.645	111.62
486.863	119.62
487.081	87.62
487.299	109.62
487.517	106.62
487.735	107.62
487.953	99.62
488.171	95.62
488.389	93.62
488.607	101.62
488.825	100.62
489.043	97.62
489.261	90.62
489.479	98.62
489.696	95.62
489.914	94.62
490.132	102.62
490.35	93.62
490.568	87.62
490.786	79.62
491.003	95.62
491.221	90.62
491.439	90.62
491.657	98.62
491.874	87.62
492.092	78.62
492.31	76.62
492.527	85.62
492.745	103.62
492.963	83.62
493.18	94.62
493.398	105.62
493.615	89.62
493.833	95.62
494.05	82.62
494.268	94.62
494.485	93.62
494.703	76.62
494.92	92.62
495.138	93.62
495.355	82.62
495.573	85.62
495.79	97.62
496.008	107.62
496.225	91.62
496.442	71.62
496.66	93.62
496.877	80.62
497.094	109.62
497.312	106.62
497.529	108.62
497.746	99.62
497.963	77.62
498.181	98.62
498.398	96.62
498.615	107.62
498.832	103.62
499.049	84.62
499.267	79.62
499.484	94.62
499.701	95.62
499.918	93.62
500.135	98.62
500.352	117.62
500.569	88.62
500.786	85.62
501.003	82.62
501.22	88.62
501.437	78.62
501.654	93.62
501.871	111.62
502.088	90.62
502.305	102.62
502.522	93.62
502.739	99.62
502.956	77.62
503.172	96.62
503.389	102.62
503.606	98.62
503.823	105.62
504.04	94.62
504.256	97.62
504.473	93.62
504.69	98.62
504.907	104.62
505.123	98.62
505.34	64.62
505.557	89.62
505.773	78.62
505.99	92.62
506.207	87.62
506.423	90.62
506.64	106.62
506.856	100.62
507.073	93.62
507.289	95.62
507.506	115.62
507.722	118.62
507.939	131.62
508.155	95.62
508.372	87.62
508.588	91.62
508.805	100.62
509.021	110.62
509.238	93.62
509.454	105.62
509.67	108.62
509.887	126.62
510.103	136.62
510.319	223.62
510.536	819.62
510.752	2768.62
510.968	763.62
511.184	169.62
511.401	118.62
511.617	110.62
511.833	90.62
512.049	76.62
512.265	106.62
512.481	85.62
512.698	94.62
512.914	90.62
513.13	104.62
513.346	101.62
513.562	82.62
513.778	99.62
513.994	103.62
