Data from Circ_1981_H10_HRD10591_00007.txt Node
Date: Wed Jan 03 12:34:22 EST 2024
User: Yrep
Spectrometer: HR+D1059
Trigger mode: 1
Integration Time (sec): 1.000000E-1
Scans to average: 1
Electric dark correction enabled: true
Nonlinearity correction enabled: false
Boxcar width: 0
XAxis mode: Wavelengths
Number of Pixels in Spectrum: 2048
>>>>>Begin Spectral Data<<<<<
223.165	-19.69
223.4	-19.69
223.635	-19.69
223.869	-21.69
224.104	-18.69
224.338	-5.69
224.573	-26.69
224.808	-6.69
225.042	-15.69
225.277	-4.69
225.511	-6.69
225.746	-4.69
225.98	12.31
226.215	23.31
226.449	11.31
226.683	25.31
226.918	33.31
227.152	25.31
227.387	27.31
227.621	35.31
227.856	54.31
228.09	39.31
228.324	52.31
228.559	59.31
228.793	173.31
229.027	452.31
229.262	541.31
229.496	589.31
229.73	829.31
229.964	818.31
230.199	553.31
230.433	493.31
230.667	501.31
230.901	465.31
231.136	445.31
231.37	458.31
231.604	451.31
231.838	446.31
232.072	429.31
232.306	467.31
232.541	478.31
232.775	468.31
233.009	463.31
233.243	477.31
233.477	476.31
233.711	487.31
233.945	519.31
234.179	535.31
234.413	505.31
234.647	516.31
234.881	511.31
235.115	536.31
235.349	556.31
235.583	562.31
235.817	607.31
236.051	625.31
236.285	613.31
236.519	615.31
236.753	676.31
236.987	909.31
237.221	1371.31
237.455	1493.31
237.689	882.31
237.922	755.31
238.156	736.31
238.39	695.31
238.624	687.31
238.858	663.31
239.091	644.31
239.325	665.31
239.559	675.31
239.793	722.31
240.027	773.31
240.26	951.31
240.494	1024.31
240.728	1004.31
240.961	925.31
241.195	848.31
241.429	800.31
241.662	773.31
241.896	780.31
242.13	779.31
242.363	784.31
242.597	819.31
242.83	855.31
243.064	857.31
243.298	871.31
243.531	817.31
243.765	820.31
243.998	883.31
244.232	870.31
244.465	883.31
244.699	925.31
244.932	933.31
245.166	895.31
245.399	907.31
245.633	914.31
245.866	906.31
246.099	927.31
246.333	951.31
246.566	957.31
246.8	965.31
247.033	1019.31
247.266	1066.31
247.5	1146.31
247.733	1173.31
247.966	1154.31
248.2	1158.31
248.433	1175.31
248.666	1224.31
248.899	1373.31
249.133	1519.31
249.366	1490.31
249.599	1360.31
249.832	1240.31
250.066	1255.31
250.299	1345.31
250.532	1453.31
250.765	1625.31
250.998	1826.31
251.231	1670.31
251.465	1507.31
251.698	1457.31
251.931	1395.31
252.164	1403.31
252.397	1448.31
252.63	1487.31
252.863	1581.31
253.096	1740.31
253.329	1797.31
253.562	1663.31
253.795	1586.31
254.028	1573.31
254.261	1636.31
254.494	1883.31
254.727	2154.31
254.96	2271.31
255.193	1969.31
255.426	1763.31
255.659	1715.31
255.892	1747.31
256.124	1817.31
256.357	1761.31
256.59	1642.31
256.823	1573.31
257.056	1583.31
257.289	1584.31
257.521	1619.31
257.754	1535.31
257.987	1547.31
258.22	1535.31
258.452	1587.31
258.685	1567.31
258.918	1585.31
259.151	1630.31
259.383	1723.31
259.616	1732.31
259.849	1793.31
260.081	1984.31
260.314	2142.31
260.547	2063.31
260.779	1903.31
261.012	1775.31
261.244	1743.31
261.477	1704.31
261.71	1704.31
261.942	1744.31
262.175	1783.31
262.407	1719.31
262.64	1667.31
262.872	1668.31
263.105	1653.31
263.337	1653.31
263.57	1679.31
263.802	1657.31
264.035	1661.31
264.267	1696.31
264.499	1714.31
264.732	1730.31
264.964	1658.31
265.197	1717.31
265.429	1713.31
265.661	1748.31
265.894	1755.31
266.126	1763.31
266.358	1748.31
266.591	1810.31
266.823	1902.31
267.055	1910.31
267.287	1893.31
267.52	1846.31
267.752	1858.31
267.984	1906.31
268.216	1893.31
268.448	1937.31
268.681	2046.31
268.913	2134.31
269.145	2335.31
269.377	2428.31
269.609	2288.31
269.841	2261.31
270.073	2380.31
270.306	2666.31
270.538	2874.31
270.77	2670.31
271.002	2503.31
271.234	2477.31
271.466	2655.31
271.698	2788.31
271.93	2759.31
272.162	2775.31
272.394	2675.31
272.626	2489.31
272.858	2385.31
273.09	2293.31
273.322	2231.31
273.553	2172.31
273.785	2214.31
274.017	2246.31
274.249	2252.31
274.481	2269.31
274.713	2317.31
274.945	2304.31
275.176	2316.31
275.408	2304.31
275.64	2304.31
275.872	2270.31
276.104	2287.31
276.335	2292.31
276.567	2406.31
276.799	2601.31
277.031	2927.31
277.262	2973.31
277.494	2802.31
277.726	2579.31
277.957	2483.31
278.189	2447.31
278.421	2396.31
278.652	2393.31
278.884	2403.31
279.115	2376.31
279.347	2355.31
279.579	2383.31
279.81	2381.31
280.042	2362.31
280.273	2424.31
280.505	2406.31
280.736	2405.31
280.968	2383.31
281.199	2419.31
281.431	2472.31
281.662	2442.31
281.894	2493.31
282.125	2486.31
282.356	2723.31
282.588	2847.31
282.819	2688.31
283.051	2529.31
283.282	2529.31
283.513	2560.31
283.745	2601.31
283.976	2633.31
284.207	2653.31
284.439	2613.31
284.67	2589.31
284.901	2562.31
285.132	2609.31
285.364	2583.31
285.595	2602.31
285.826	2620.31
286.057	2665.31
286.288	2714.31
286.52	2672.31
286.751	2679.31
286.982	2668.31
287.213	2731.31
287.444	2740.31
287.675	2810.31
287.906	2859.31
288.138	2973.31
288.369	2939.31
288.6	2901.31
288.831	2835.31
289.062	2804.31
289.293	2796.31
289.524	2822.31
289.755	2763.31
289.986	2769.31
290.217	2745.31
290.448	2805.31
290.679	2834.31
290.91	2781.31
291.141	2768.31
291.371	2791.31
291.602	2759.31
291.833	2777.31
292.064	2821.31
292.295	2803.31
292.526	2826.31
292.757	2843.31
292.987	2785.31
293.218	2815.31
293.449	2887.31
293.68	2792.31
293.91	2821.31
294.141	2837.31
294.372	2845.31
294.603	2855.31
294.833	2801.31
295.064	2863.31
295.295	2839.31
295.525	2881.31
295.756	2944.31
295.987	3027.31
296.217	3163.31
296.448	3163.31
296.679	2953.31
296.909	2915.31
297.14	2916.31
297.37	3003.31
297.601	3045.31
297.831	3003.31
298.062	2987.31
298.292	3045.31
298.523	3068.31
298.753	3096.31
298.984	3056.31
299.214	3071.31
299.445	3069.31
299.675	3071.31
299.905	3091.31
300.136	3096.31
300.366	3157.31
300.597	3166.31
300.827	3246.31
301.057	3319.31
301.288	3353.31
301.518	3282.31
301.748	3303.31
301.979	3386.31
302.209	3338.31
302.439	3387.31
302.669	3315.31
302.9	3223.31
303.13	3283.31
303.36	3302.31
303.59	3300.31
303.82	3287.31
304.051	3215.31
304.281	3284.31
304.511	3241.31
304.741	3222.31
304.971	3272.31
305.201	3234.31
305.431	3233.31
305.661	3204.31
305.891	3180.31
306.121	3193.31
306.352	3251.31
306.582	3249.31
306.812	3194.31
307.042	3174.31
307.272	3212.31
307.502	3239.31
307.731	3160.31
307.961	3251.31
308.191	3202.31
308.421	3239.31
308.651	3285.31
308.881	3235.31
309.111	3323.31
309.341	3321.31
309.571	3411.31
309.8	3453.31
310.03	3516.31
310.26	3571.31
310.49	3565.31
310.72	3701.31
310.949	3809.31
311.179	3730.31
311.409	3579.31
311.639	3615.31
311.868	3607.31
312.098	3618.31
312.328	3758.31
312.557	3930.31
312.787	4033.31
313.017	3855.31
313.246	3778.31
313.476	3623.31
313.706	3680.31
313.935	3818.31
314.165	3891.31
314.394	4006.31
314.624	3903.31
314.853	3803.31
315.083	3709.31
315.312	3619.31
315.542	3677.31
315.771	3574.31
316.001	3652.31
316.23	3600.31
316.46	3627.31
316.689	3702.31
316.919	3712.31
317.148	3769.31
317.377	3729.31
317.607	3698.31
317.836	3671.31
318.065	3580.31
318.295	3581.31
318.524	3637.31
318.753	3574.31
318.983	3546.31
319.212	3597.31
319.441	3663.31
319.67	3671.31
319.9	3618.31
320.129	3586.31
320.358	3643.31
320.587	3665.31
320.816	3735.31
321.046	3791.31
321.275	3791.31
321.504	3757.31
321.733	3788.31
321.962	3856.31
322.191	3899.31
322.42	4072.31
322.649	4120.31
322.878	4200.31
323.108	4257.31
323.337	4434.31
323.566	4655.31
323.795	4837.31
324.024	5321.31
324.253	7004.31
324.482	10575.31
324.71	15005.31
324.939	15629.31
325.168	12812.31
325.397	6246.31
325.626	5016.31
325.855	4657.31
326.084	4543.31
326.313	4650.31
326.542	4789.31
326.77	5356.31
326.999	6719.31
327.228	9856.31
327.457	14200.31
327.686	13649.31
327.914	7116.31
328.143	5811.31
328.372	5524.31
328.6	5275.31
328.829	5106.31
329.058	5490.31
329.287	5410.31
329.515	5046.31
329.744	4773.31
329.972	4824.31
330.201	5081.31
330.43	5545.31
330.658	5731.31
330.887	6102.31
331.115	5493.31
331.344	4990.31
331.572	4892.31
331.801	5030.31
332.03	5013.31
332.258	4927.31
332.486	4824.31
332.715	4897.31
332.943	5087.31
333.172	5257.31
333.4	5440.31
333.629	5475.31
333.857	5645.31
334.085	5723.31
334.314	5830.31
334.542	6001.31
334.771	5955.31
334.999	5466.31
335.227	5199.31
335.455	5058.31
335.684	5029.31
335.912	4952.31
336.14	4882.31
336.369	4895.31
336.597	4924.31
336.825	4864.31
337.053	4815.31
337.281	4696.31
337.51	4668.31
337.738	4725.31
337.966	4643.31
338.194	4651.31
338.422	4605.31
338.65	4444.31
338.878	4442.31
339.106	4454.31
339.334	4414.31
339.562	4382.31
339.79	4319.31
340.018	4332.31
340.246	4386.31
340.474	4403.31
340.702	4333.31
340.93	4407.31
341.158	4369.31
341.386	4340.31
341.614	4313.31
341.842	4346.31
342.07	4256.31
342.298	4236.31
342.526	4259.31
342.754	4209.31
342.981	4177.31
343.209	4312.31
343.437	4568.31
343.665	4839.31
343.893	5027.31
344.12	5022.31
344.348	4891.31
344.576	4654.31
344.804	4651.31
345.031	4641.31
345.259	4638.31
345.487	4404.31
345.714	4275.31
345.942	4212.31
346.17	4127.31
346.397	4207.31
346.625	4232.31
346.853	4190.31
347.08	4106.31
347.308	4155.31
347.535	4289.31
347.763	4377.31
347.99	4191.31
348.218	4233.31
348.445	4379.31
348.673	4204.31
348.9	4141.31
349.128	4114.31
349.355	4002.31
349.583	4029.31
349.81	4030.31
350.037	3948.31
350.265	3971.31
350.492	3963.31
350.72	4040.31
350.947	4055.31
351.174	4162.31
351.402	4211.31
351.629	4099.31
351.856	4098.31
352.083	4258.31
352.311	4236.31
352.538	4271.31
352.765	4200.31
352.992	4139.31
353.22	4103.31
353.447	4024.31
353.674	3985.31
353.901	3882.31
354.128	3888.31
354.355	3841.31
354.583	3891.31
354.81	3901.31
355.037	3877.31
355.264	3889.31
355.491	3849.31
355.718	3761.31
355.945	3885.31
356.172	3837.31
356.399	3830.31
356.626	3911.31
356.853	3849.31
357.08	3831.31
357.307	3833.31
357.534	3902.31
357.761	3867.31
357.988	3887.31
358.215	3862.31
358.441	3883.31
358.668	3911.31
358.895	3946.31
359.122	3950.31
359.349	4079.31
359.576	4168.31
359.802	4478.31
360.029	4695.31
360.256	4657.31
360.483	4403.31
360.709	4187.31
360.936	4172.31
361.163	4115.31
361.39	4227.31
361.616	4227.31
361.843	4108.31
362.07	4101.31
362.296	4258.31
362.523	4193.31
362.749	4176.31
362.976	4087.31
363.203	3976.31
363.429	3949.31
363.656	3962.31
363.882	4023.31
364.109	3935.31
364.335	3930.31
364.562	4037.31
364.788	3954.31
365.015	3992.31
365.241	3954.31
365.468	3999.31
365.694	4074.31
365.92	4054.31
366.147	4004.31
366.373	3985.31
366.599	4016.31
366.826	3920.31
367.052	3914.31
367.278	3990.31
367.505	3944.31
367.731	3984.31
367.957	3985.31
368.184	4032.31
368.41	4164.31
368.636	4192.31
368.862	4193.31
369.089	4123.31
369.315	4065.31
369.541	4093.31
369.767	4125.31
369.993	4151.31
370.219	4099.31
370.445	4161.31
370.672	4136.31
370.898	4161.31
371.124	4161.31
371.35	4241.31
371.576	4156.31
371.802	4176.31
372.028	4152.31
372.254	4261.31
372.48	4259.31
372.706	4321.31
372.932	4383.31
373.158	4346.31
373.384	4246.31
373.61	4209.31
373.835	4349.31
374.061	4254.31
374.287	4461.31
374.513	4433.31
374.739	4641.31
374.965	4703.31
375.191	4675.31
375.416	4603.31
375.642	4406.31
375.868	4440.31
376.094	4379.31
376.319	4302.31
376.545	4317.31
376.771	4267.31
376.997	4215.31
377.222	4262.31
377.448	4246.31
377.674	4211.31
377.899	4146.31
378.125	4180.31
378.35	4187.31
378.576	4147.31
378.802	4191.31
379.027	4140.31
379.253	4192.31
379.478	4189.31
379.704	4244.31
379.929	4233.31
380.155	4204.31
380.38	4250.31
380.606	4328.31
380.831	4265.31
381.057	4264.31
381.282	4291.31
381.507	4259.31
381.733	4355.31
381.958	4337.31
382.184	4382.31
382.409	4482.31
382.634	4440.31
382.86	4485.31
383.085	4507.31
383.31	4555.31
383.535	4713.31
383.761	4697.31
383.986	4845.31
384.211	4887.31
384.436	4922.31
384.662	5018.31
384.887	5088.31
385.112	5033.31
385.337	5154.31
385.562	5079.31
385.787	5165.31
386.013	5159.31
386.238	5233.31
386.463	5223.31
386.688	5153.31
386.913	5051.31
387.138	5066.31
387.363	5074.31
387.588	4976.31
387.813	5058.31
388.038	5041.31
388.263	5142.31
388.488	5142.31
388.713	5012.31
388.938	5029.31
389.163	5062.31
389.387	5050.31
389.612	4887.31
389.837	4945.31
390.062	4922.31
390.287	4980.31
390.512	4945.31
390.736	4985.31
390.961	5103.31
391.186	5193.31
391.411	5321.31
391.636	5457.31
391.86	5595.31
392.085	5697.31
392.31	5561.31
392.534	5444.31
392.759	5396.31
392.984	5283.31
393.208	5237.31
393.433	5375.31
393.658	5295.31
393.882	5248.31
394.107	5320.31
394.331	5274.31
394.556	5295.31
394.78	5384.31
395.005	5391.31
395.229	5375.31
395.454	5595.31
395.678	5679.31
395.903	5717.31
396.127	5737.31
396.352	5500.31
396.576	5367.31
396.801	5384.31
397.025	5514.31
397.249	5585.31
397.474	5681.31
397.698	5632.31
397.922	5827.31
398.147	5883.31
398.371	6021.31
398.595	6127.31
398.82	6334.31
399.044	6897.31
399.268	7680.31
399.492	8715.31
399.717	9223.31
399.941	9105.31
400.165	8415.31
400.389	7809.31
400.613	7063.31
400.837	6638.31
401.062	6474.31
401.286	6351.31
401.51	6333.31
401.734	6314.31
401.958	6471.31
402.182	6562.31
402.406	6754.31
402.63	6763.31
402.854	6807.31
403.078	6948.31
403.302	7048.31
403.526	7179.31
403.75	7216.31
403.974	7267.31
404.198	7202.31
404.422	7359.31
404.645	7369.31
404.869	7217.31
405.093	7472.31
405.317	7741.31
405.541	7644.31
405.765	7263.31
405.988	7153.31
406.212	7325.31
406.436	7490.31
406.66	7629.31
406.883	7579.31
407.107	8099.31
407.331	8485.31
407.555	9049.31
407.778	8852.31
408.002	8062.31
408.226	7673.31
408.449	7606.31
408.673	7545.31
408.896	7582.31
409.12	7793.31
409.344	7308.31
409.567	6940.31
409.791	6935.31
410.014	6847.31
410.238	6792.31
410.461	6847.31
410.685	6873.31
410.908	6954.31
411.132	7235.31
411.355	7232.31
411.578	6821.31
411.802	6588.31
412.025	6637.31
412.249	6898.31
412.472	6891.31
412.695	7064.31
412.919	6704.31
413.142	6499.31
413.365	6354.31
413.589	6402.31
413.812	6300.31
414.035	6124.31
414.258	6230.31
414.482	6257.31
414.705	6343.31
414.928	6234.31
415.151	6314.31
415.374	6199.31
415.597	6172.31
415.821	6089.31
416.044	6177.31
416.267	6135.31
416.49	6021.31
416.713	6093.31
416.936	6097.31
417.159	6201.31
417.382	6164.31
417.605	6248.31
417.828	6465.31
418.051	6546.31
418.274	6295.31
418.497	6263.31
418.72	6297.31
418.943	6250.31
419.166	6762.31
419.389	7099.31
419.611	7005.31
419.834	6808.31
420.057	6683.31
420.28	6579.31
420.503	6318.31
420.726	6324.31
420.948	6455.31
421.171	6876.31
421.394	6865.31
421.617	6416.31
421.839	6375.31
422.062	6428.31
422.285	6546.31
422.507	7265.31
422.73	7762.31
422.953	7134.31
423.175	6765.31
423.398	6794.31
423.621	6789.31
423.843	7093.31
424.066	6986.31
424.288	6920.31
424.511	7190.31
424.733	7615.31
424.956	8039.31
425.178	7526.31
425.401	7744.31
425.623	7512.31
425.846	6674.31
426.068	6475.31
426.291	6392.31
426.513	6371.31
426.735	6445.31
426.958	6959.31
427.18	7701.31
427.402	8852.31
427.625	8959.31
427.847	7637.31
428.069	6956.31
428.292	6313.31
428.514	5979.31
428.736	5847.31
428.958	5787.31
429.181	5664.31
429.403	5686.31
429.625	5827.31
429.847	6150.31
430.069	6691.31
430.292	6236.31
430.514	5639.31
430.736	5648.31
430.958	5647.31
431.18	5485.31
431.402	5564.31
431.624	5526.31
431.846	5609.31
432.068	5639.31
432.29	5640.31
432.512	5636.31
432.734	5640.31
432.956	5624.31
433.178	5692.31
433.4	5763.31
433.622	5545.31
433.844	5645.31
434.066	5612.31
434.287	5767.31
434.509	5977.31
434.731	6260.31
434.953	6375.31
435.175	6426.31
435.397	6627.31
435.618	6463.31
435.84	6817.31
436.062	7667.31
436.284	7547.31
436.505	6406.31
436.727	6093.31
436.949	5889.31
437.17	5787.31
437.392	5663.31
437.614	5807.31
437.835	6247.31
438.057	7205.31
438.278	7734.31
438.5	7649.31
438.721	8480.31
438.943	7329.31
439.165	6260.31
439.386	6049.31
439.608	6105.31
439.829	6246.31
440.05	6708.31
440.272	7007.31
440.493	6378.31
440.715	5991.31
440.936	6047.31
441.158	5950.31
441.379	6174.31
441.6	6460.31
441.822	6677.31
442.043	7145.31
442.264	7839.31
442.486	7602.31
442.707	6830.31
442.928	6703.31
443.149	6863.31
443.371	7027.31
443.592	7587.31
443.813	8508.31
444.034	8409.31
444.255	7302.31
444.476	7108.31
444.698	7319.31
444.919	7371.31
445.14	7199.31
445.361	7127.31
445.582	7267.31
445.803	7967.31
446.024	8559.31
446.245	8108.31
446.466	7235.31
446.687	6312.31
446.908	6009.31
447.129	5671.31
447.35	5519.31
447.571	5570.31
447.792	5406.31
448.013	5543.31
448.234	5739.31
448.455	6330.31
448.675	7667.31
448.896	7882.31
449.117	6481.31
449.338	6659.31
449.559	7930.31
449.779	8200.31
450	6215.31
450.221	5686.31
450.442	5403.31
450.662	5343.31
450.883	5448.31
451.104	5693.31
451.324	5409.31
451.545	5250.31
451.766	5135.31
451.986	4949.31
452.207	4969.31
452.428	4897.31
452.648	4952.31
452.869	5064.31
453.089	5180.31
453.31	5225.31
453.53	4980.31
453.751	4953.31
453.971	5020.31
454.192	5176.31
454.412	4944.31
454.633	4897.31
454.853	4823.31
455.073	4892.31
455.294	5240.31
455.514	5824.31
455.734	5329.31
455.955	4732.31
456.175	4631.31
456.395	4519.31
456.616	4518.31
456.836	4572.31
457.056	4552.31
457.276	4535.31
457.497	4684.31
457.717	4604.31
457.937	4703.31
458.157	4783.31
458.377	4881.31
458.598	5229.31
458.818	5975.31
459.038	6831.31
459.258	6721.31
459.478	5856.31
459.698	5652.31
459.918	5801.31
460.138	5972.31
460.358	6079.31
460.578	6140.31
460.798	6292.31
461.018	6173.31
461.238	6175.31
461.458	6112.31
461.678	6044.31
461.898	6119.31
462.118	6103.31
462.338	6498.31
462.558	6671.31
462.777	6863.31
462.997	7550.31
463.217	8010.31
463.437	7767.31
463.657	7147.31
463.876	6936.31
464.096	7020.31
464.316	7006.31
464.536	7109.31
464.755	6835.31
464.975	6710.31
465.195	7080.31
465.414	7199.31
465.634	6172.31
465.854	5767.31
466.073	5473.31
466.293	5359.31
466.512	5170.31
466.732	5167.31
466.951	5153.31
467.171	5148.31
467.391	5206.31
467.61	5246.31
467.829	5215.31
468.049	5202.31
468.268	5089.31
468.488	4952.31
468.707	4850.31
468.927	4877.31
469.146	4909.31
469.365	4955.31
469.585	4958.31
469.804	5253.31
470.023	5345.31
470.243	5346.31
470.462	5481.31
470.681	5599.31
470.901	5452.31
471.12	5235.31
471.339	5210.31
471.558	5187.31
471.777	5164.31
471.997	5114.31
472.216	5123.31
472.435	5346.31
472.654	5160.31
472.873	4892.31
473.092	4811.31
473.311	4903.31
473.53	4946.31
473.749	5051.31
473.968	5523.31
474.187	6681.31
474.406	6115.31
474.625	5188.31
474.844	4969.31
475.063	4893.31
475.282	4955.31
475.501	5013.31
475.72	5096.31
475.939	5043.31
476.158	5098.31
476.377	5096.31
476.596	5096.31
476.814	5308.31
477.033	5330.31
477.252	5353.31
477.471	5397.31
477.69	5615.31
477.908	5639.31
478.127	5673.31
478.346	5881.31
478.564	5954.31
478.783	5949.31
479.002	6241.31
479.22	6174.31
479.439	6291.31
479.658	6436.31
479.876	6523.31
480.095	6730.31
480.313	7116.31
480.532	6997.31
480.751	6840.31
480.969	6823.31
481.188	7231.31
481.406	7035.31
481.624	6432.31
481.843	6146.31
482.061	5987.31
482.28	5870.31
482.498	5821.31
482.717	5841.31
482.935	5795.31
483.153	5732.31
483.372	5832.31
483.59	5749.31
483.808	5778.31
484.027	5743.31
484.245	5929.31
484.463	5878.31
484.681	5941.31
484.9	6039.31
485.118	6027.31
485.336	6132.31
485.554	6124.31
485.772	6192.31
485.99	6204.31
486.209	6249.31
486.427	6325.31
486.645	6264.31
486.863	6506.31
487.081	6460.31
487.299	6282.31
487.517	6220.31
487.735	6208.31
