Data from Circ_1981_H10_HRD10591_00075.txt Node
Date: Wed Jan 03 12:34:36 EST 2024
User: Yrep
Spectrometer: HR+D1059
Trigger mode: 1
Integration Time (sec): 1.000000E-1
Scans to average: 1
Electric dark correction enabled: true
Nonlinearity correction enabled: false
Boxcar width: 0
XAxis mode: Wavelengths
Number of Pixels in Spectrum: 2048
>>>>>Begin Spectral Data<<<<<
223.165	-12.94
223.4	-12.94
223.635	-12.94
223.869	-23.94
224.104	-25.94
224.338	-12.94
224.573	-17.94
224.808	-9.94
225.042	-6.94
225.277	-8.94
225.511	-2.94
225.746	-6.94
225.98	10.06
226.215	21.06
226.449	21.06
226.683	27.06
226.918	24.06
227.152	26.06
227.387	30.06
227.621	37.06
227.856	36.06
228.09	43.06
228.324	53.06
228.559	59.06
228.793	67.06
229.027	62.06
229.262	72.06
229.496	74.06
229.73	101.06
229.964	92.06
230.199	72.06
230.433	80.06
230.667	88.06
230.901	83.06
231.136	90.06
231.37	72.06
231.604	80.06
231.838	88.06
232.072	83.06
232.306	87.06
232.541	91.06
232.775	78.06
233.009	79.06
233.243	91.06
233.477	72.06
233.711	76.06
233.945	87.06
234.179	77.06
234.413	85.06
234.647	67.06
234.881	76.06
235.115	63.06
235.349	73.06
235.583	75.06
235.817	82.06
236.051	88.06
236.285	85.06
236.519	65.06
236.753	78.06
236.987	78.06
237.221	91.06
237.455	109.06
237.689	87.06
237.922	84.06
238.156	72.06
238.39	60.06
238.624	91.06
238.858	83.06
239.091	74.06
239.325	82.06
239.559	75.06
239.793	77.06
240.027	71.06
240.26	75.06
240.494	83.06
240.728	78.06
240.961	83.06
241.195	81.06
241.429	74.06
241.662	91.06
241.896	76.06
242.13	78.06
242.363	62.06
242.597	74.06
242.83	68.06
243.064	67.06
243.298	74.06
243.531	85.06
243.765	81.06
243.998	75.06
244.232	86.06
244.465	89.06
244.699	84.06
244.932	78.06
245.166	81.06
245.399	84.06
245.633	86.06
245.866	74.06
246.099	79.06
246.333	76.06
246.566	65.06
246.8	68.06
247.033	68.06
247.266	84.06
247.5	72.06
247.733	75.06
247.966	85.06
248.2	73.06
248.433	68.06
248.666	94.06
248.899	76.06
249.133	90.06
249.366	109.06
249.599	81.06
249.832	92.06
250.066	91.06
250.299	81.06
250.532	77.06
250.765	84.06
250.998	81.06
251.231	78.06
251.465	92.06
251.698	68.06
251.931	88.06
252.164	76.06
252.397	82.06
252.63	66.06
252.863	91.06
253.096	70.06
253.329	79.06
253.562	84.06
253.795	87.06
254.028	78.06
254.261	78.06
254.494	78.06
254.727	98.06
254.96	96.06
255.193	87.06
255.426	85.06
255.659	82.06
255.892	88.06
256.124	86.06
256.357	91.06
256.59	91.06
256.823	69.06
257.056	81.06
257.289	92.06
257.521	86.06
257.754	88.06
257.987	87.06
258.22	81.06
258.452	74.06
258.685	71.06
258.918	90.06
259.151	89.06
259.383	98.06
259.616	81.06
259.849	70.06
260.081	89.06
260.314	90.06
260.547	89.06
260.779	82.06
261.012	81.06
261.244	87.06
261.477	77.06
261.71	92.06
261.942	125.06
262.175	150.06
262.407	85.06
262.64	94.06
262.872	87.06
263.105	83.06
263.337	96.06
263.57	102.06
263.802	91.06
264.035	87.06
264.267	86.06
264.499	78.06
264.732	84.06
264.964	84.06
265.197	89.06
265.429	85.06
265.661	86.06
265.894	88.06
266.126	82.06
266.358	86.06
266.591	86.06
266.823	87.06
267.055	73.06
267.287	75.06
267.52	94.06
267.752	78.06
267.984	90.06
268.216	89.06
268.448	80.06
268.681	79.06
268.913	104.06
269.145	98.06
269.377	93.06
269.609	85.06
269.841	89.06
270.073	75.06
270.306	92.06
270.538	93.06
270.77	69.06
271.002	86.06
271.234	94.06
271.466	94.06
271.698	88.06
271.93	90.06
272.162	98.06
272.394	82.06
272.626	93.06
272.858	93.06
273.09	88.06
273.322	73.06
273.553	75.06
273.785	90.06
274.017	76.06
274.249	92.06
274.481	81.06
274.713	85.06
274.945	81.06
275.176	83.06
275.408	88.06
275.64	86.06
275.872	87.06
276.104	89.06
276.335	98.06
276.567	115.06
276.799	113.06
277.031	101.06
277.262	101.06
277.494	95.06
277.726	76.06
277.957	87.06
278.189	97.06
278.421	98.06
278.652	77.06
278.884	85.06
279.115	73.06
279.347	89.06
279.579	77.06
279.81	89.06
280.042	99.06
280.273	99.06
280.505	85.06
280.736	93.06
280.968	83.06
281.199	91.06
281.431	89.06
281.662	85.06
281.894	84.06
282.125	91.06
282.356	122.06
282.588	131.06
282.819	98.06
283.051	92.06
283.282	87.06
283.513	102.06
283.745	77.06
283.976	92.06
284.207	71.06
284.439	96.06
284.67	86.06
284.901	77.06
285.132	87.06
285.364	84.06
285.595	92.06
285.826	84.06
286.057	91.06
286.288	92.06
286.52	106.06
286.751	85.06
286.982	98.06
287.213	77.06
287.444	99.06
287.675	87.06
287.906	96.06
288.138	102.06
288.369	97.06
288.6	103.06
288.831	91.06
289.062	101.06
289.293	83.06
289.524	97.06
289.755	88.06
289.986	89.06
290.217	92.06
290.448	85.06
290.679	88.06
290.91	91.06
291.141	93.06
291.371	97.06
291.602	87.06
291.833	80.06
292.064	102.06
292.295	97.06
292.526	95.06
292.757	89.06
292.987	86.06
293.218	99.06
293.449	98.06
293.68	85.06
293.91	91.06
294.141	92.06
294.372	97.06
294.603	85.06
294.833	82.06
295.064	98.06
295.295	91.06
295.525	102.06
295.756	92.06
295.987	110.06
296.217	142.06
296.448	122.06
296.679	105.06
296.909	86.06
297.14	85.06
297.37	74.06
297.601	83.06
297.831	89.06
298.062	88.06
298.292	88.06
298.523	98.06
298.753	89.06
298.984	91.06
299.214	97.06
299.445	90.06
299.675	95.06
299.905	93.06
300.136	90.06
300.366	94.06
300.597	89.06
300.827	93.06
301.057	102.06
301.288	105.06
301.518	110.06
301.748	79.06
301.979	100.06
302.209	115.06
302.439	94.06
302.669	91.06
302.9	92.06
303.13	98.06
303.36	115.06
303.59	87.06
303.82	104.06
304.051	91.06
304.281	89.06
304.511	97.06
304.741	92.06
304.971	89.06
305.201	100.06
305.431	87.06
305.661	102.06
305.891	90.06
306.121	89.06
306.352	85.06
306.582	114.06
306.812	96.06
307.042	79.06
307.272	85.06
307.502	86.06
307.731	89.06
307.961	92.06
308.191	91.06
308.421	87.06
308.651	93.06
308.881	87.06
309.111	87.06
309.341	85.06
309.571	97.06
309.8	109.06
310.03	112.06
310.26	106.06
310.49	99.06
310.72	104.06
310.949	121.06
311.179	114.06
311.409	92.06
311.639	90.06
311.868	106.06
312.098	86.06
312.328	101.06
312.557	128.06
312.787	114.06
313.017	106.06
313.246	103.06
313.476	89.06
313.706	97.06
313.935	110.06
314.165	109.06
314.394	100.06
314.624	102.06
314.853	93.06
315.083	91.06
315.312	90.06
315.542	86.06
315.771	102.06
316.001	96.06
316.23	99.06
316.46	94.06
316.689	89.06
316.919	92.06
317.148	98.06
317.377	98.06
317.607	88.06
317.836	100.06
318.065	98.06
318.295	92.06
318.524	95.06
318.753	95.06
318.983	93.06
319.212	106.06
319.441	116.06
319.67	111.06
319.9	110.06
320.129	101.06
320.358	112.06
320.587	101.06
320.816	108.06
321.046	107.06
321.275	107.06
321.504	89.06
321.733	93.06
321.962	105.06
322.191	111.06
322.42	118.06
322.649	121.06
322.878	125.06
323.108	134.06
323.337	140.06
323.566	134.06
323.795	170.06
324.024	227.06
324.253	470.06
324.482	1077.06
324.71	2328.06
324.939	3231.06
325.168	1117.06
325.397	305.06
325.626	172.06
325.855	152.06
326.084	130.06
326.313	150.06
326.542	171.06
326.77	268.06
326.999	574.06
327.228	1255.06
327.457	2418.06
327.686	1923.06
327.914	461.06
328.143	213.06
328.372	184.06
328.6	157.06
328.829	142.06
329.058	153.06
329.287	163.06
329.515	122.06
329.744	110.06
329.972	113.06
330.201	126.06
330.43	161.06
330.658	150.06
330.887	181.06
331.115	169.06
331.344	107.06
331.572	100.06
331.801	126.06
332.03	115.06
332.258	93.06
332.486	91.06
332.715	106.06
332.943	105.06
333.172	93.06
333.4	108.06
333.629	107.06
333.857	116.06
334.085	129.06
334.314	131.06
334.542	154.06
334.771	139.06
334.999	117.06
335.227	102.06
335.455	114.06
335.684	111.06
335.912	105.06
336.14	98.06
336.369	101.06
336.597	101.06
336.825	91.06
337.053	111.06
337.281	106.06
337.51	90.06
337.738	87.06
337.966	82.06
338.194	110.06
338.422	100.06
338.65	101.06
338.878	87.06
339.106	95.06
339.334	94.06
339.562	77.06
339.79	84.06
340.018	94.06
340.246	100.06
340.474	105.06
340.702	107.06
340.93	90.06
341.158	88.06
341.386	96.06
341.614	99.06
341.842	103.06
342.07	102.06
342.298	93.06
342.526	86.06
342.754	86.06
342.981	96.06
343.209	82.06
343.437	114.06
343.665	97.06
343.893	84.06
344.12	109.06
344.348	112.06
344.576	100.06
344.804	89.06
345.031	112.06
345.259	94.06
345.487	102.06
345.714	118.06
345.942	96.06
346.17	100.06
346.397	98.06
346.625	90.06
346.853	89.06
347.08	98.06
347.308	100.06
347.535	100.06
347.763	115.06
347.99	99.06
348.218	95.06
348.445	115.06
348.673	103.06
348.9	110.06
349.128	110.06
349.355	91.06
349.583	77.06
349.81	100.06
350.037	85.06
350.265	93.06
350.492	86.06
350.72	94.06
350.947	95.06
351.174	111.06
351.402	124.06
351.629	103.06
351.856	102.06
352.083	116.06
352.311	120.06
352.538	117.06
352.765	127.06
352.992	115.06
353.22	99.06
353.447	114.06
353.674	112.06
353.901	100.06
354.128	103.06
354.355	93.06
354.583	96.06
354.81	101.06
355.037	97.06
355.264	89.06
355.491	84.06
355.718	93.06
355.945	91.06
356.172	92.06
356.399	99.06
356.626	105.06
356.853	101.06
357.08	89.06
357.307	100.06
357.534	97.06
357.761	95.06
357.988	105.06
358.215	95.06
358.441	87.06
358.668	94.06
358.895	85.06
359.122	93.06
359.349	104.06
359.576	96.06
359.802	102.06
360.029	133.06
360.256	146.06
360.483	115.06
360.709	97.06
360.936	90.06
361.163	85.06
361.39	106.06
361.616	105.06
361.843	91.06
362.07	109.06
362.296	96.06
362.523	83.06
362.749	99.06
362.976	91.06
363.203	109.06
363.429	99.06
363.656	94.06
363.882	83.06
364.109	84.06
364.335	97.06
364.562	86.06
364.788	101.06
365.015	91.06
365.241	109.06
365.468	110.06
365.694	112.06
365.92	93.06
366.147	93.06
366.373	81.06
366.599	93.06
366.826	99.06
367.052	92.06
367.278	96.06
367.505	85.06
367.731	93.06
367.957	101.06
368.184	86.06
368.41	86.06
368.636	112.06
368.862	126.06
369.089	109.06
369.315	91.06
369.541	99.06
369.767	99.06
369.993	105.06
370.219	99.06
370.445	85.06
370.672	83.06
370.898	98.06
371.124	87.06
371.35	90.06
371.576	78.06
371.802	93.06
372.028	89.06
372.254	98.06
372.48	88.06
372.706	86.06
372.932	90.06
373.158	94.06
373.384	92.06
373.61	102.06
373.835	89.06
374.061	83.06
374.287	94.06
374.513	103.06
374.739	98.06
374.965	94.06
375.191	91.06
375.416	97.06
375.642	97.06
375.868	82.06
376.094	87.06
376.319	89.06
376.545	90.06
376.771	88.06
376.997	90.06
377.222	102.06
377.448	88.06
377.674	102.06
377.899	103.06
378.125	98.06
378.35	100.06
378.576	88.06
378.802	83.06
379.027	83.06
379.253	98.06
379.478	110.06
379.704	97.06
379.929	103.06
380.155	105.06
380.38	99.06
380.606	94.06
380.831	96.06
381.057	94.06
381.282	96.06
381.507	96.06
381.733	92.06
381.958	98.06
382.184	108.06
382.409	99.06
382.634	115.06
382.86	107.06
383.085	95.06
383.31	105.06
383.535	95.06
383.761	89.06
383.986	110.06
384.211	98.06
384.436	97.06
384.662	95.06
384.887	100.06
385.112	107.06
385.337	113.06
385.562	91.06
385.787	108.06
386.013	90.06
386.238	134.06
386.463	107.06
386.688	109.06
386.913	108.06
387.138	101.06
387.363	102.06
387.588	105.06
387.813	89.06
388.038	103.06
388.263	106.06
388.488	105.06
388.713	106.06
388.938	96.06
389.163	97.06
389.387	101.06
389.612	100.06
389.837	86.06
390.062	107.06
390.287	92.06
390.512	85.06
390.736	72.06
390.961	91.06
391.186	85.06
391.411	107.06
391.636	89.06
391.86	95.06
392.085	86.06
392.31	89.06
392.534	69.06
392.759	89.06
392.984	94.06
393.208	93.06
393.433	86.06
393.658	91.06
393.882	89.06
394.107	76.06
394.331	72.06
394.556	87.06
394.78	90.06
395.005	87.06
395.229	84.06
395.454	86.06
395.678	93.06
395.903	79.06
396.127	88.06
396.352	79.06
396.576	78.06
396.801	79.06
397.025	90.06
397.249	90.06
397.474	85.06
397.698	86.06
397.922	87.06
398.147	88.06
398.371	88.06
398.595	101.06
398.82	90.06
399.044	83.06
399.268	91.06
399.492	83.06
399.717	107.06
399.941	95.06
400.165	93.06
400.389	102.06
400.613	78.06
400.837	82.06
401.062	100.06
401.286	102.06
401.51	87.06
401.734	95.06
401.958	93.06
402.182	113.06
402.406	153.06
402.63	111.06
402.854	107.06
403.078	98.06
403.302	94.06
403.526	82.06
403.75	78.06
403.974	87.06
404.198	91.06
404.422	101.06
404.645	93.06
404.869	105.06
405.093	104.06
405.317	119.06
405.541	113.06
405.765	115.06
405.988	132.06
406.212	173.06
406.436	250.06
406.66	152.06
406.883	117.06
407.107	100.06
407.331	108.06
407.555	118.06
407.778	94.06
408.002	82.06
408.226	90.06
408.449	88.06
408.673	93.06
408.896	110.06
409.12	107.06
409.344	102.06
409.567	76.06
409.791	95.06
410.014	97.06
410.238	102.06
410.461	101.06
410.685	104.06
410.908	106.06
411.132	109.06
411.355	100.06
411.578	76.06
411.802	105.06
412.025	88.06
412.249	91.06
412.472	109.06
412.695	104.06
412.919	100.06
413.142	96.06
413.365	83.06
413.589	85.06
413.812	87.06
414.035	98.06
414.258	101.06
414.482	91.06
414.705	102.06
414.928	98.06
415.151	84.06
415.374	87.06
415.597	91.06
415.821	89.06
416.044	97.06
416.267	100.06
416.49	85.06
416.713	75.06
416.936	99.06
417.159	99.06
417.382	106.06
417.605	77.06
417.828	100.06
418.051	92.06
418.274	81.06
418.497	86.06
418.72	96.06
418.943	81.06
419.166	97.06
419.389	93.06
419.611	89.06
419.834	94.06
420.057	81.06
420.28	88.06
420.503	84.06
420.726	94.06
420.948	77.06
421.171	106.06
421.394	98.06
421.617	96.06
421.839	90.06
422.062	101.06
422.285	87.06
422.507	96.06
422.73	116.06
422.953	109.06
423.175	100.06
423.398	96.06
423.621	87.06
423.843	107.06
424.066	85.06
424.288	93.06
424.511	93.06
424.733	108.06
424.956	123.06
425.178	108.06
425.401	110.06
425.623	107.06
425.846	100.06
426.068	87.06
426.291	97.06
426.513	106.06
426.735	94.06
426.958	109.06
427.18	123.06
427.402	182.06
427.625	229.06
427.847	147.06
428.069	121.06
428.292	89.06
428.514	98.06
428.736	102.06
428.958	85.06
429.181	95.06
429.403	108.06
429.625	89.06
429.847	100.06
430.069	122.06
430.292	94.06
430.514	88.06
430.736	89.06
430.958	76.06
431.18	93.06
431.402	76.06
431.624	94.06
431.846	96.06
432.068	85.06
432.29	77.06
432.512	87.06
432.734	91.06
432.956	99.06
433.178	104.06
433.4	95.06
433.622	92.06
433.844	84.06
434.066	87.06
434.287	89.06
434.509	84.06
434.731	100.06
434.953	81.06
435.175	88.06
435.397	100.06
435.618	99.06
435.84	126.06
436.062	164.06
436.284	154.06
436.505	110.06
436.727	99.06
436.949	97.06
437.17	89.06
437.392	97.06
437.614	116.06
437.835	130.06
438.057	147.06
438.278	123.06
438.5	132.06
438.721	167.06
438.943	129.06
439.165	91.06
439.386	84.06
439.608	92.06
439.829	117.06
440.05	157.06
440.272	185.06
440.493	122.06
440.715	99.06
440.936	97.06
441.158	85.06
441.379	84.06
441.6	90.06
441.822	109.06
442.043	97.06
442.264	117.06
442.486	124.06
442.707	112.06
442.928	126.06
443.149	173.06
443.371	161.06
443.592	127.06
443.813	140.06
444.034	146.06
444.255	106.06
444.476	77.06
444.698	103.06
444.919	84.06
445.14	117.06
445.361	140.06
445.582	152.06
445.803	185.06
446.024	200.06
446.245	188.06
446.466	142.06
446.687	102.06
446.908	109.06
447.129	72.06
447.35	91.06
447.571	103.06
447.792	79.06
448.013	112.06
448.234	112.06
448.455	130.06
448.675	156.06
448.896	149.06
449.117	113.06
449.338	124.06
449.559	177.06
449.779	194.06
450	117.06
450.221	107.06
450.442	92.06
450.662	96.06
450.883	126.06
451.104	124.06
451.324	108.06
451.545	95.06
451.766	94.06
451.986	84.06
452.207	91.06
452.428	105.06
452.648	110.06
452.869	107.06
453.089	112.06
453.31	125.06
453.53	80.06
453.751	94.06
453.971	107.06
454.192	110.06
454.412	105.06
454.633	87.06
454.853	101.06
455.073	104.06
455.294	89.06
455.514	115.06
455.734	97.06
455.955	99.06
456.175	83.06
456.395	85.06
456.616	83.06
456.836	70.06
457.056	91.06
457.276	81.06
457.497	82.06
457.717	108.06
457.937	93.06
458.157	78.06
458.377	85.06
458.598	100.06
458.818	186.06
459.038	207.06
459.258	134.06
459.478	88.06
459.698	104.06
459.918	85.06
460.138	73.06
460.358	95.06
460.578	94.06
460.798	86.06
461.018	83.06
461.238	76.06
461.458	81.06
461.678	79.06
461.898	85.06
462.118	87.06
462.338	91.06
462.558	84.06
462.777	85.06
462.997	68.06
463.217	74.06
463.437	74.06
463.657	94.06
463.876	94.06
464.096	96.06
464.316	91.06
464.536	107.06
464.755	98.06
464.975	118.06
465.195	199.06
465.414	192.06
465.634	92.06
465.854	94.06
466.073	75.06
466.293	90.06
466.512	78.06
466.732	86.06
466.951	89.06
467.171	94.06
467.391	101.06
467.61	118.06
467.829	93.06
468.049	108.06
468.268	105.06
468.488	85.06
468.707	79.06
468.927	89.06
469.146	84.06
469.365	89.06
469.585	92.06
469.804	110.06
470.023	98.06
470.243	102.06
470.462	115.06
470.681	130.06
470.901	106.06
471.12	90.06
471.339	102.06
471.558	82.06
471.777	92.06
471.997	91.06
472.216	121.06
472.435	158.06
472.654	104.06
472.873	91.06
473.092	94.06
473.311	84.06
473.53	96.06
473.749	90.06
473.968	102.06
474.187	123.06
474.406	114.06
474.625	86.06
474.844	100.06
475.063	79.06
475.282	86.06
475.501	86.06
475.72	98.06
475.939	96.06
476.158	86.06
476.377	87.06
476.596	82.06
476.814	92.06
477.033	98.06
477.252	91.06
477.471	82.06
477.69	97.06
477.908	101.06
478.127	106.06
478.346	86.06
478.564	97.06
478.783	107.06
479.002	91.06
479.22	106.06
479.439	116.06
479.658	116.06
479.876	101.06
480.095	96.06
480.313	93.06
480.532	91.06
480.751	95.06
480.969	125.06
481.188	230.06
481.406	173.06
481.624	85.06
481.843	90.06
482.061	91.06
482.28	86.06
482.498	84.06
482.717	94.06
482.935	99.06
483.153	97.06
483.372	82.06
483.59	101.06
483.808	93.06
484.027	85.06
484.245	82.06
484.463	92.06
484.681	94.06
484.9	85.06
485.118	94.06
485.336	98.06
485.554	90.06
485.772	102.06
485.99	91.06
486.209	106.06
486.427	105.06
486.645	119.06
486.863	97.06
487.081	111.06
487.299	108.06
487.517	99.06
487.735	101.06
487.953	92.06
488.171	94.06
488.389	105.06
488.607	107.06
488.825	87.06
489.043	80.06
489.261	91.06
489.479	93.06
489.696	87.06
489.914	83.06
490.132	100.06
490.35	97.06
490.568	84.06
490.786	90.06
491.003	86.06
491.221	79.06
491.439	95.06
491.657	94.06
491.874	94.06
492.092	94.06
492.31	90.06
492.527	84.06
492.745	87.06
492.963	89.06
493.18	97.06
493.398	93.06
493.615	97.06
493.833	103.06
494.05	111.06
494.268	98.06
494.485	89.06
494.703	91.06
494.92	96.06
495.138	90.06
495.355	85.06
495.573	75.06
495.79	95.06
496.008	79.06
496.225	81.06
496.442	92.06
496.66	89.06
496.877	86.06
497.094	94.06
497.312	89.06
497.529	92.06
497.746	83.06
497.963	94.06
498.181	99.06
498.398	99.06
498.615	113.06
498.832	116.06
499.049	100.06
499.267	103.06
499.484	73.06
499.701	104.06
499.918	109.06
500.135	87.06
500.352	80.06
500.569	93.06
500.786	91.06
501.003	103.06
501.22	94.06
501.437	96.06
501.654	106.06
501.871	125.06
502.088	88.06
502.305	91.06
502.522	100.06
502.739	105.06
502.956	98.06
503.172	89.06
503.389	98.06
503.606	108.06
503.823	115.06
504.04	87.06
504.256	82.06
504.473	91.06
504.69	82.06
504.907	105.06
505.123	77.06
505.34	94.06
505.557	93.06
505.773	98.06
505.99	97.06
506.207	103.06
506.423	92.06
506.64	86.06
506.856	102.06
507.073	94.06
507.289	87.06
507.506	101.06
507.722	110.06
507.939	122.06
508.155	106.06
508.372	93.06
508.588	75.06
508.805	90.06
509.021	86.06
509.238	102.06
509.454	117.06
509.67	101.06
509.887	102.06
510.103	126.06
510.319	222.06
510.536	723.06
510.752	2257.06
510.968	618.06
511.184	146.06
511.401	110.06
511.617	101.06
511.833	86.06
512.049	94.06
512.265	78.06
512.481	91.06
512.698	94.06
512.914	96.06
513.13	86.06
513.346	97.06
513.562	103.06
513.778	111.06
