Data from Circ_1981_H10_HRD10591_00099.txt Node
Date: Wed Jan 03 12:34:40 EST 2024
User: Yrep
Spectrometer: HR+D1059
Trigger mode: 1
Integration Time (sec): 1.000000E-1
Scans to average: 1
Electric dark correction enabled: true
Nonlinearity correction enabled: false
Boxcar width: 0
XAxis mode: Wavelengths
Number of Pixels in Spectrum: 2048
>>>>>Begin Spectral Data<<<<<
223.165	-23.25
223.4	-23.25
223.635	-23.25
223.869	-12.25
224.104	-17.25
224.338	-24.25
224.573	-18.25
224.808	-7.25
225.042	-19.25
225.277	-9.25
225.511	3.75
225.746	-0.25
225.98	14.75
226.215	21.75
226.449	11.75
226.683	28.75
226.918	18.75
227.152	31.75
227.387	34.75
227.621	35.75
227.856	36.75
228.09	44.75
228.324	40.75
228.559	62.75
228.793	54.75
229.027	57.75
229.262	59.75
229.496	63.75
229.73	83.75
229.964	79.75
230.199	76.75
230.433	61.75
230.667	85.75
230.901	73.75
231.136	73.75
231.37	86.75
231.604	90.75
231.838	82.75
232.072	68.75
232.306	70.75
232.541	91.75
232.775	60.75
233.009	89.75
233.243	95.75
233.477	87.75
233.711	80.75
233.945	78.75
234.179	79.75
234.413	77.75
234.647	85.75
234.881	78.75
235.115	82.75
235.349	76.75
235.583	77.75
235.817	95.75
236.051	98.75
236.285	72.75
236.519	87.75
236.753	86.75
236.987	90.75
237.221	70.75
237.455	80.75
237.689	79.75
237.922	79.75
238.156	83.75
238.39	76.75
238.624	78.75
238.858	84.75
239.091	72.75
239.325	74.75
239.559	74.75
239.793	81.75
240.027	67.75
240.26	76.75
240.494	80.75
240.728	91.75
240.961	77.75
241.195	73.75
241.429	76.75
241.662	72.75
241.896	67.75
242.13	65.75
242.363	64.75
242.597	73.75
242.83	74.75
243.064	71.75
243.298	82.75
243.531	66.75
243.765	82.75
243.998	68.75
244.232	88.75
244.465	88.75
244.699	70.75
244.932	80.75
245.166	82.75
245.399	75.75
245.633	86.75
245.866	87.75
246.099	79.75
246.333	82.75
246.566	77.75
246.8	71.75
247.033	83.75
247.266	73.75
247.5	86.75
247.733	88.75
247.966	78.75
248.2	82.75
248.433	88.75
248.666	75.75
248.899	76.75
249.133	79.75
249.366	89.75
249.599	82.75
249.832	79.75
250.066	76.75
250.299	69.75
250.532	74.75
250.765	69.75
250.998	77.75
251.231	78.75
251.465	79.75
251.698	77.75
251.931	75.75
252.164	85.75
252.397	76.75
252.63	67.75
252.863	78.75
253.096	78.75
253.329	76.75
253.562	73.75
253.795	83.75
254.028	79.75
254.261	84.75
254.494	71.75
254.727	87.75
254.96	84.75
255.193	79.75
255.426	95.75
255.659	84.75
255.892	83.75
256.124	80.75
256.357	97.75
256.59	76.75
256.823	91.75
257.056	84.75
257.289	78.75
257.521	78.75
257.754	67.75
257.987	84.75
258.22	86.75
258.452	88.75
258.685	85.75
258.918	79.75
259.151	67.75
259.383	76.75
259.616	73.75
259.849	78.75
260.081	78.75
260.314	80.75
260.547	72.75
260.779	87.75
261.012	94.75
261.244	82.75
261.477	86.75
261.71	88.75
261.942	115.75
262.175	122.75
262.407	77.75
262.64	80.75
262.872	91.75
263.105	81.75
263.337	92.75
263.57	83.75
263.802	88.75
264.035	92.75
264.267	86.75
264.499	73.75
264.732	96.75
264.964	83.75
265.197	87.75
265.429	90.75
265.661	94.75
265.894	72.75
266.126	88.75
266.358	76.75
266.591	75.75
266.823	83.75
267.055	68.75
267.287	94.75
267.52	77.75
267.752	87.75
267.984	88.75
268.216	80.75
268.448	75.75
268.681	92.75
268.913	90.75
269.145	88.75
269.377	62.75
269.609	84.75
269.841	90.75
270.073	94.75
270.306	81.75
270.538	85.75
270.77	97.75
271.002	75.75
271.234	83.75
271.466	90.75
271.698	87.75
271.93	86.75
272.162	99.75
272.394	84.75
272.626	83.75
272.858	88.75
273.09	70.75
273.322	79.75
273.553	82.75
273.785	98.75
274.017	97.75
274.249	79.75
274.481	79.75
274.713	95.75
274.945	100.75
275.176	85.75
275.408	79.75
275.64	81.75
275.872	95.75
276.104	89.75
276.335	95.75
276.567	91.75
276.799	105.75
277.031	103.75
277.262	98.75
277.494	76.75
277.726	80.75
277.957	82.75
278.189	94.75
278.421	99.75
278.652	83.75
278.884	85.75
279.115	84.75
279.347	92.75
279.579	83.75
279.81	92.75
280.042	71.75
280.273	80.75
280.505	74.75
280.736	94.75
280.968	85.75
281.199	93.75
281.431	84.75
281.662	90.75
281.894	84.75
282.125	81.75
282.356	112.75
282.588	129.75
282.819	99.75
283.051	106.75
283.282	75.75
283.513	84.75
283.745	92.75
283.976	82.75
284.207	87.75
284.439	85.75
284.67	94.75
284.901	86.75
285.132	78.75
285.364	85.75
285.595	82.75
285.826	83.75
286.057	91.75
286.288	94.75
286.52	91.75
286.751	82.75
286.982	82.75
287.213	72.75
287.444	78.75
287.675	92.75
287.906	88.75
288.138	92.75
288.369	99.75
288.6	91.75
288.831	76.75
289.062	97.75
289.293	92.75
289.524	99.75
289.755	92.75
289.986	82.75
290.217	79.75
290.448	94.75
290.679	94.75
290.91	92.75
291.141	86.75
291.371	72.75
291.602	91.75
291.833	88.75
292.064	87.75
292.295	94.75
292.526	91.75
292.757	78.75
292.987	85.75
293.218	84.75
293.449	84.75
293.68	95.75
293.91	92.75
294.141	87.75
294.372	86.75
294.603	87.75
294.833	83.75
295.064	88.75
295.295	91.75
295.525	89.75
295.756	95.75
295.987	136.75
296.217	128.75
296.448	115.75
296.679	82.75
296.909	98.75
297.14	87.75
297.37	92.75
297.601	102.75
297.831	79.75
298.062	96.75
298.292	91.75
298.523	96.75
298.753	86.75
298.984	88.75
299.214	88.75
299.445	90.75
299.675	79.75
299.905	87.75
300.136	77.75
300.366	82.75
300.597	89.75
300.827	86.75
301.057	96.75
301.288	118.75
301.518	91.75
301.748	89.75
301.979	104.75
302.209	111.75
302.439	85.75
302.669	100.75
302.9	84.75
303.13	92.75
303.36	93.75
303.59	111.75
303.82	101.75
304.051	98.75
304.281	98.75
304.511	91.75
304.741	89.75
304.971	85.75
305.201	80.75
305.431	85.75
305.661	100.75
305.891	88.75
306.121	92.75
306.352	104.75
306.582	105.75
306.812	88.75
307.042	94.75
307.272	96.75
307.502	85.75
307.731	92.75
307.961	79.75
308.191	97.75
308.421	88.75
308.651	104.75
308.881	99.75
309.111	101.75
309.341	83.75
309.571	92.75
309.8	99.75
310.03	84.75
310.26	83.75
310.49	96.75
310.72	91.75
310.949	94.75
311.179	95.75
311.409	88.75
311.639	103.75
311.868	89.75
312.098	82.75
312.328	98.75
312.557	96.75
312.787	111.75
313.017	111.75
313.246	99.75
313.476	90.75
313.706	76.75
313.935	94.75
314.165	95.75
314.394	95.75
314.624	102.75
314.853	101.75
315.083	84.75
315.312	87.75
315.542	94.75
315.771	91.75
316.001	86.75
316.23	102.75
316.46	75.75
316.689	92.75
316.919	98.75
317.148	100.75
317.377	95.75
317.607	84.75
317.836	95.75
318.065	93.75
318.295	102.75
318.524	91.75
318.753	92.75
318.983	78.75
319.212	95.75
319.441	94.75
319.67	120.75
319.9	106.75
320.129	78.75
320.358	88.75
320.587	100.75
320.816	90.75
321.046	96.75
321.275	98.75
321.504	108.75
321.733	93.75
321.962	102.75
322.191	99.75
322.42	110.75
322.649	124.75
322.878	102.75
323.108	130.75
323.337	114.75
323.566	130.75
323.795	155.75
324.024	225.75
324.253	397.75
324.482	880.75
324.71	1855.75
324.939	2498.75
325.168	880.75
325.397	259.75
325.626	152.75
325.855	115.75
326.084	116.75
326.313	135.75
326.542	158.75
326.77	228.75
326.999	474.75
327.228	1019.75
327.457	1924.75
327.686	1526.75
327.914	381.75
328.143	191.75
328.372	170.75
328.6	127.75
328.829	116.75
329.058	136.75
329.287	123.75
329.515	111.75
329.744	103.75
329.972	126.75
330.201	107.75
330.43	126.75
330.658	134.75
330.887	132.75
331.115	126.75
331.344	102.75
331.572	87.75
331.801	90.75
332.03	98.75
332.258	103.75
332.486	95.75
332.715	94.75
332.943	101.75
333.172	98.75
333.4	92.75
333.629	96.75
333.857	123.75
334.085	113.75
334.314	125.75
334.542	140.75
334.771	124.75
334.999	104.75
335.227	107.75
335.455	103.75
335.684	107.75
335.912	109.75
336.14	111.75
336.369	100.75
336.597	108.75
336.825	108.75
337.053	95.75
337.281	101.75
337.51	87.75
337.738	94.75
337.966	90.75
338.194	109.75
338.422	101.75
338.65	99.75
338.878	101.75
339.106	106.75
339.334	85.75
339.562	79.75
339.79	95.75
340.018	78.75
340.246	84.75
340.474	88.75
340.702	93.75
340.93	87.75
341.158	100.75
341.386	101.75
341.614	103.75
341.842	111.75
342.07	108.75
342.298	100.75
342.526	89.75
342.754	90.75
342.981	93.75
343.209	86.75
343.437	103.75
343.665	91.75
343.893	89.75
344.12	88.75
344.348	87.75
344.576	96.75
344.804	86.75
345.031	97.75
345.259	104.75
345.487	84.75
345.714	99.75
345.942	95.75
346.17	82.75
346.397	101.75
346.625	99.75
346.853	89.75
347.08	88.75
347.308	90.75
347.535	99.75
347.763	102.75
347.99	107.75
348.218	99.75
348.445	106.75
348.673	100.75
348.9	93.75
349.128	100.75
349.355	104.75
349.583	96.75
349.81	97.75
350.037	88.75
350.265	96.75
350.492	93.75
350.72	95.75
350.947	104.75
351.174	105.75
351.402	122.75
351.629	112.75
351.856	100.75
352.083	101.75
352.311	102.75
352.538	110.75
352.765	118.75
352.992	115.75
353.22	105.75
353.447	102.75
353.674	95.75
353.901	100.75
354.128	87.75
354.355	96.75
354.583	102.75
354.81	91.75
355.037	109.75
355.264	98.75
355.491	102.75
355.718	91.75
355.945	98.75
356.172	106.75
356.399	91.75
356.626	82.75
356.853	90.75
357.08	79.75
357.307	103.75
357.534	105.75
357.761	98.75
357.988	98.75
358.215	95.75
358.441	98.75
358.668	99.75
358.895	89.75
359.122	108.75
359.349	79.75
359.576	82.75
359.802	103.75
360.029	115.75
360.256	110.75
360.483	104.75
360.709	103.75
360.936	102.75
361.163	99.75
361.39	98.75
361.616	85.75
361.843	96.75
362.07	95.75
362.296	100.75
362.523	88.75
362.749	85.75
362.976	95.75
363.203	96.75
363.429	78.75
363.656	79.75
363.882	88.75
364.109	96.75
364.335	95.75
364.562	94.75
364.788	91.75
365.015	98.75
365.241	88.75
365.468	120.75
365.694	111.75
365.92	93.75
366.147	94.75
366.373	95.75
366.599	88.75
366.826	89.75
367.052	94.75
367.278	90.75
367.505	79.75
367.731	94.75
367.957	91.75
368.184	107.75
368.41	103.75
368.636	112.75
368.862	119.75
369.089	116.75
369.315	94.75
369.541	107.75
369.767	82.75
369.993	86.75
370.219	93.75
370.445	91.75
370.672	92.75
370.898	100.75
371.124	98.75
371.35	92.75
371.576	88.75
371.802	87.75
372.028	88.75
372.254	79.75
372.48	92.75
372.706	87.75
372.932	71.75
373.158	112.75
373.384	101.75
373.61	98.75
373.835	82.75
374.061	97.75
374.287	89.75
374.513	86.75
374.739	76.75
374.965	78.75
375.191	90.75
375.416	102.75
375.642	103.75
375.868	98.75
376.094	101.75
376.319	95.75
376.545	78.75
376.771	98.75
376.997	88.75
377.222	106.75
377.448	94.75
377.674	89.75
377.899	85.75
378.125	101.75
378.35	109.75
378.576	95.75
378.802	88.75
379.027	86.75
379.253	101.75
379.478	100.75
379.704	89.75
379.929	82.75
380.155	95.75
380.38	102.75
380.606	84.75
380.831	87.75
381.057	96.75
381.282	89.75
381.507	89.75
381.733	87.75
381.958	112.75
382.184	109.75
382.409	77.75
382.634	89.75
382.86	98.75
383.085	94.75
383.31	105.75
383.535	93.75
383.761	86.75
383.986	104.75
384.211	102.75
384.436	93.75
384.662	101.75
384.887	77.75
385.112	110.75
385.337	97.75
385.562	102.75
385.787	91.75
386.013	102.75
386.238	110.75
386.463	95.75
386.688	103.75
386.913	93.75
387.138	105.75
387.363	112.75
387.588	101.75
387.813	82.75
388.038	94.75
388.263	94.75
388.488	104.75
388.713	95.75
388.938	90.75
389.163	104.75
389.387	89.75
389.612	96.75
389.837	98.75
390.062	105.75
390.287	94.75
390.512	90.75
390.736	84.75
390.961	103.75
391.186	108.75
391.411	106.75
391.636	112.75
391.86	79.75
392.085	87.75
392.31	82.75
392.534	79.75
392.759	96.75
392.984	87.75
393.208	83.75
393.433	93.75
393.658	96.75
393.882	96.75
394.107	93.75
394.331	95.75
394.556	85.75
394.78	103.75
395.005	73.75
395.229	89.75
395.454	86.75
395.678	69.75
395.903	98.75
396.127	80.75
396.352	82.75
396.576	94.75
396.801	101.75
397.025	92.75
397.249	78.75
397.474	83.75
397.698	88.75
397.922	100.75
398.147	94.75
398.371	102.75
398.595	104.75
398.82	95.75
399.044	98.75
399.268	88.75
399.492	112.75
399.717	107.75
399.941	98.75
400.165	83.75
400.389	105.75
400.613	103.75
400.837	93.75
401.062	84.75
401.286	101.75
401.51	90.75
401.734	101.75
401.958	96.75
402.182	122.75
402.406	156.75
402.63	108.75
402.854	88.75
403.078	86.75
403.302	96.75
403.526	90.75
403.75	83.75
403.974	98.75
404.198	89.75
404.422	72.75
404.645	78.75
404.869	89.75
405.093	100.75
405.317	97.75
405.541	98.75
405.765	113.75
405.988	111.75
406.212	183.75
406.436	212.75
406.66	136.75
406.883	94.75
407.107	86.75
407.331	99.75
407.555	98.75
407.778	92.75
408.002	98.75
408.226	86.75
408.449	104.75
408.673	104.75
408.896	105.75
409.12	105.75
409.344	108.75
409.567	98.75
409.791	88.75
410.014	89.75
410.238	86.75
410.461	98.75
410.685	104.75
410.908	93.75
411.132	97.75
411.355	102.75
411.578	105.75
411.802	78.75
412.025	95.75
412.249	90.75
412.472	87.75
412.695	100.75
412.919	84.75
413.142	85.75
413.365	99.75
413.589	78.75
413.812	91.75
414.035	82.75
414.258	79.75
414.482	90.75
414.705	95.75
414.928	97.75
415.151	103.75
415.374	96.75
415.597	91.75
415.821	78.75
416.044	90.75
416.267	88.75
416.49	89.75
416.713	79.75
416.936	96.75
417.159	81.75
417.382	96.75
417.605	90.75
417.828	94.75
418.051	83.75
418.274	97.75
418.497	94.75
418.72	74.75
418.943	94.75
419.166	91.75
419.389	93.75
419.611	102.75
419.834	95.75
420.057	90.75
420.28	88.75
420.503	87.75
420.726	92.75
420.948	103.75
421.171	93.75
421.394	89.75
421.617	87.75
421.839	92.75
422.062	88.75
422.285	75.75
422.507	98.75
422.73	100.75
422.953	94.75
423.175	88.75
423.398	91.75
423.621	103.75
423.843	78.75
424.066	98.75
424.288	87.75
424.511	101.75
424.733	100.75
424.956	113.75
425.178	101.75
425.401	99.75
425.623	111.75
425.846	84.75
426.068	88.75
426.291	93.75
426.513	88.75
426.735	93.75
426.958	109.75
427.18	89.75
427.402	139.75
427.625	169.75
427.847	123.75
428.069	111.75
428.292	82.75
428.514	86.75
428.736	80.75
428.958	86.75
429.181	96.75
429.403	86.75
429.625	83.75
429.847	89.75
430.069	99.75
430.292	92.75
430.514	91.75
430.736	98.75
430.958	90.75
431.18	103.75
431.402	89.75
431.624	93.75
431.846	86.75
432.068	91.75
432.29	84.75
432.512	88.75
432.734	94.75
432.956	110.75
433.178	101.75
433.4	101.75
433.622	87.75
433.844	91.75
434.066	98.75
434.287	92.75
434.509	83.75
434.731	103.75
434.953	92.75
435.175	90.75
435.397	89.75
435.618	101.75
435.84	102.75
436.062	118.75
436.284	122.75
436.505	92.75
436.727	112.75
436.949	86.75
437.17	93.75
437.392	90.75
437.614	83.75
437.835	102.75
438.057	118.75
438.278	101.75
438.5	105.75
438.721	119.75
438.943	104.75
439.165	94.75
439.386	83.75
439.608	85.75
439.829	101.75
440.05	118.75
440.272	141.75
440.493	116.75
440.715	92.75
440.936	92.75
441.158	88.75
441.379	86.75
441.6	96.75
441.822	86.75
442.043	96.75
442.264	95.75
442.486	102.75
442.707	93.75
442.928	111.75
443.149	129.75
443.371	119.75
443.592	100.75
443.813	106.75
444.034	100.75
444.255	94.75
444.476	89.75
444.698	66.75
444.919	105.75
445.14	130.75
445.361	116.75
445.582	118.75
445.803	131.75
446.024	126.75
446.245	144.75
446.466	115.75
446.687	98.75
446.908	82.75
447.129	80.75
447.35	94.75
447.571	94.75
447.792	83.75
448.013	96.75
448.234	107.75
448.455	90.75
448.675	118.75
448.896	110.75
449.117	102.75
449.338	107.75
449.559	139.75
449.779	135.75
450	98.75
450.221	93.75
450.442	106.75
450.662	87.75
450.883	114.75
451.104	119.75
451.324	97.75
451.545	82.75
451.766	91.75
451.986	100.75
452.207	77.75
452.428	92.75
452.648	96.75
452.869	112.75
453.089	118.75
453.31	103.75
453.53	95.75
453.751	99.75
453.971	103.75
454.192	105.75
454.412	121.75
454.633	83.75
454.853	85.75
455.073	82.75
455.294	89.75
455.514	102.75
455.734	98.75
455.955	92.75
456.175	81.75
456.395	89.75
456.616	85.75
456.836	98.75
457.056	79.75
457.276	98.75
457.497	82.75
457.717	87.75
457.937	94.75
458.157	79.75
458.377	93.75
458.598	94.75
458.818	132.75
459.038	143.75
459.258	106.75
459.478	90.75
459.698	86.75
459.918	79.75
460.138	80.75
460.358	89.75
460.578	99.75
460.798	87.75
461.018	87.75
461.238	79.75
461.458	91.75
461.678	75.75
461.898	90.75
462.118	86.75
462.338	84.75
462.558	77.75
462.777	77.75
462.997	96.75
463.217	81.75
463.437	93.75
463.657	78.75
463.876	91.75
464.096	97.75
464.316	86.75
464.536	86.75
464.755	98.75
464.975	113.75
465.195	159.75
465.414	136.75
465.634	90.75
465.854	80.75
466.073	88.75
466.293	85.75
466.512	92.75
466.732	84.75
466.951	98.75
467.171	87.75
467.391	86.75
467.61	101.75
467.829	107.75
468.049	111.75
468.268	105.75
468.488	89.75
468.707	79.75
468.927	93.75
469.146	90.75
469.365	86.75
469.585	88.75
469.804	86.75
470.023	93.75
470.243	92.75
470.462	88.75
470.681	123.75
470.901	89.75
471.12	86.75
471.339	84.75
471.558	92.75
471.777	94.75
471.997	91.75
472.216	117.75
472.435	132.75
472.654	86.75
472.873	90.75
473.092	79.75
473.311	92.75
473.53	91.75
473.749	86.75
473.968	109.75
474.187	111.75
474.406	90.75
474.625	87.75
474.844	79.75
475.063	86.75
475.282	91.75
475.501	79.75
475.72	89.75
475.939	86.75
476.158	99.75
476.377	100.75
476.596	82.75
476.814	75.75
477.033	91.75
477.252	90.75
477.471	88.75
477.69	79.75
477.908	94.75
478.127	100.75
478.346	70.75
478.564	95.75
478.783	100.75
479.002	98.75
479.22	87.75
479.439	99.75
479.658	112.75
479.876	102.75
480.095	88.75
480.313	94.75
480.532	87.75
480.751	88.75
480.969	112.75
481.188	190.75
481.406	138.75
481.624	89.75
481.843	91.75
482.061	92.75
482.28	90.75
482.498	71.75
482.717	92.75
482.935	95.75
483.153	78.75
483.372	91.75
483.59	102.75
483.808	90.75
484.027	91.75
484.245	82.75
484.463	95.75
484.681	92.75
484.9	94.75
485.118	92.75
485.336	91.75
485.554	101.75
485.772	89.75
485.99	83.75
486.209	101.75
486.427	114.75
486.645	104.75
486.863	122.75
487.081	100.75
487.299	100.75
487.517	90.75
487.735	94.75
487.953	95.75
488.171	90.75
488.389	89.75
488.607	98.75
488.825	90.75
489.043	100.75
489.261	92.75
489.479	91.75
489.696	96.75
489.914	88.75
490.132	84.75
490.35	82.75
490.568	83.75
490.786	84.75
491.003	88.75
491.221	90.75
491.439	96.75
491.657	95.75
491.874	111.75
492.092	79.75
492.31	82.75
492.527	92.75
492.745	109.75
492.963	93.75
493.18	87.75
493.398	95.75
493.615	88.75
493.833	101.75
494.05	91.75
494.268	99.75
494.485	84.75
494.703	97.75
494.92	104.75
495.138	85.75
495.355	98.75
495.573	98.75
495.79	93.75
496.008	94.75
496.225	99.75
496.442	84.75
496.66	87.75
496.877	89.75
497.094	103.75
497.312	95.75
497.529	101.75
497.746	80.75
497.963	82.75
498.181	91.75
498.398	94.75
498.615	121.75
498.832	117.75
499.049	93.75
499.267	88.75
499.484	82.75
499.701	94.75
499.918	97.75
500.135	91.75
500.352	78.75
500.569	92.75
500.786	106.75
501.003	92.75
501.22	83.75
501.437	99.75
501.654	112.75
501.871	108.75
502.088	97.75
502.305	92.75
502.522	93.75
502.739	92.75
502.956	94.75
503.172	77.75
503.389	101.75
503.606	89.75
503.823	96.75
504.04	88.75
504.256	88.75
504.473	74.75
504.69	92.75
504.907	101.75
505.123	109.75
505.34	100.75
505.557	86.75
505.773	99.75
505.99	90.75
506.207	102.75
506.423	75.75
506.64	82.75
506.856	89.75
507.073	96.75
507.289	88.75
507.506	91.75
507.722	117.75
507.939	107.75
508.155	90.75
508.372	91.75
508.588	81.75
508.805	91.75
509.021	110.75
509.238	102.75
509.454	90.75
509.67	91.75
509.887	110.75
510.103	122.75
510.319	214.75
510.536	704.75
510.752	2182.75
510.968	583.75
511.184	146.75
511.401	112.75
511.617	100.75
511.833	91.75
512.049	104.75
512.265	92.75
512.481	86.75
512.698	87.75
512.914	97.75
513.13	98.75
513.346	97.75
513.562	87.75
513.778	97.75
513.994	95.75
514.21	92.75
514.426	109.75
514.642	112.75
514.858	104.75
515.074	163.75
