Data from Circ_1981_H10_HRD10591_00001.txt Node
Date: Wed Jan 03 12:34:21 EST 2024
User: Yrep
Spectrometer: HR+D1059
Trigger mode: 1
Integration Time (sec): 1.000000E-1
Scans to average: 1
Electric dark correction enabled: true
Nonlinearity correction enabled: false
Boxcar width: 0
XAxis mode: Wavelengths
Number of Pixels in Spectrum: 2048
>>>>>Begin Spectral Data<<<<<
223.165	-21.31
223.4	-21.31
223.635	-21.31
223.869	-32.31
224.104	-16.31
224.338	-23.31
224.573	-12.31
224.808	-20.31
225.042	4.69
225.277	-1.31
225.511	-7.31
225.746	5.69
225.98	9.69
226.215	14.69
226.449	7.69
226.683	27.69
226.918	26.69
227.152	37.69
227.387	45.69
227.621	52.69
227.856	42.69
228.09	54.69
228.324	50.69
228.559	61.69
228.793	64.69
229.027	62.69
229.262	77.69
229.496	86.69
229.73	99.69
229.964	94.69
230.199	88.69
230.433	70.69
230.667	89.69
230.901	74.69
231.136	68.69
231.37	72.69
231.604	77.69
231.838	84.69
232.072	80.69
232.306	91.69
232.541	83.69
232.775	84.69
233.009	78.69
233.243	72.69
233.477	79.69
233.711	74.69
233.945	76.69
234.179	83.69
234.413	93.69
234.647	80.69
234.881	77.69
235.115	77.69
235.349	91.69
235.583	88.69
235.817	77.69
236.051	72.69
236.285	67.69
236.519	79.69
236.753	84.69
236.987	81.69
237.221	91.69
237.455	86.69
237.689	79.69
237.922	74.69
238.156	82.69
238.39	67.69
238.624	62.69
238.858	66.69
239.091	75.69
239.325	71.69
239.559	83.69
239.793	74.69
240.027	89.69
240.26	75.69
240.494	85.69
240.728	88.69
240.961	72.69
241.195	68.69
241.429	71.69
241.662	82.69
241.896	82.69
242.13	72.69
242.363	67.69
242.597	82.69
242.83	80.69
243.064	73.69
243.298	78.69
243.531	87.69
243.765	75.69
243.998	71.69
244.232	79.69
244.465	67.69
244.699	92.69
244.932	84.69
245.166	66.69
245.399	78.69
245.633	85.69
245.866	71.69
246.099	75.69
246.333	70.69
246.566	91.69
246.8	71.69
247.033	87.69
247.266	92.69
247.5	88.69
247.733	90.69
247.966	101.69
248.2	74.69
248.433	76.69
248.666	69.69
248.899	82.69
249.133	88.69
249.366	99.69
249.599	94.69
249.832	78.69
250.066	76.69
250.299	69.69
250.532	84.69
250.765	82.69
250.998	92.69
251.231	83.69
251.465	70.69
251.698	92.69
251.931	75.69
252.164	86.69
252.397	83.69
252.63	92.69
252.863	70.69
253.096	73.69
253.329	91.69
253.562	79.69
253.795	97.69
254.028	96.69
254.261	90.69
254.494	46.69
254.727	98.69
254.96	71.69
255.193	82.69
255.426	90.69
255.659	91.69
255.892	93.69
256.124	85.69
256.357	88.69
256.59	92.69
256.823	102.69
257.056	89.69
257.289	92.69
257.521	85.69
257.754	86.69
257.987	79.69
258.22	76.69
258.452	84.69
258.685	78.69
258.918	74.69
259.151	84.69
259.383	91.69
259.616	80.69
259.849	76.69
260.081	87.69
260.314	79.69
260.547	82.69
260.779	78.69
261.012	84.69
261.244	96.69
261.477	104.69
261.71	96.69
261.942	119.69
262.175	122.69
262.407	88.69
262.64	86.69
262.872	78.69
263.105	92.69
263.337	88.69
263.57	85.69
263.802	91.69
264.035	86.69
264.267	82.69
264.499	86.69
264.732	84.69
264.964	72.69
265.197	75.69
265.429	90.69
265.661	94.69
265.894	77.69
266.126	79.69
266.358	75.69
266.591	86.69
266.823	64.69
267.055	82.69
267.287	90.69
267.52	73.69
267.752	88.69
267.984	86.69
268.216	91.69
268.448	87.69
268.681	94.69
268.913	79.69
269.145	77.69
269.377	80.69
269.609	88.69
269.841	92.69
270.073	71.69
270.306	90.69
270.538	101.69
270.77	76.69
271.002	82.69
271.234	91.69
271.466	89.69
271.698	94.69
271.93	82.69
272.162	84.69
272.394	94.69
272.626	74.69
272.858	73.69
273.09	92.69
273.322	92.69
273.553	87.69
273.785	92.69
274.017	63.69
274.249	78.69
274.481	80.69
274.713	87.69
274.945	94.69
275.176	99.69
275.408	89.69
275.64	88.69
275.872	84.69
276.104	83.69
276.335	100.69
276.567	100.69
276.799	106.69
277.031	106.69
277.262	102.69
277.494	106.69
277.726	89.69
277.957	72.69
278.189	79.69
278.421	86.69
278.652	88.69
278.884	83.69
279.115	85.69
279.347	85.69
279.579	87.69
279.81	114.69
280.042	101.69
280.273	84.69
280.505	82.69
280.736	79.69
280.968	79.69
281.199	95.69
281.431	78.69
281.662	104.69
281.894	111.69
282.125	93.69
282.356	125.69
282.588	138.69
282.819	123.69
283.051	94.69
283.282	97.69
283.513	102.69
283.745	101.69
283.976	83.69
284.207	82.69
284.439	85.69
284.67	88.69
284.901	83.69
285.132	98.69
285.364	93.69
285.595	90.69
285.826	83.69
286.057	86.69
286.288	73.69
286.52	84.69
286.751	96.69
286.982	109.69
287.213	83.69
287.444	95.69
287.675	92.69
287.906	96.69
288.138	99.69
288.369	92.69
288.6	83.69
288.831	89.69
289.062	89.69
289.293	97.69
289.524	95.69
289.755	101.69
289.986	89.69
290.217	99.69
290.448	83.69
290.679	91.69
290.91	89.69
291.141	88.69
291.371	101.69
291.602	82.69
291.833	74.69
292.064	86.69
292.295	86.69
292.526	85.69
292.757	102.69
292.987	99.69
293.218	90.69
293.449	102.69
293.68	86.69
293.91	85.69
294.141	98.69
294.372	87.69
294.603	90.69
294.833	98.69
295.064	93.69
295.295	84.69
295.525	86.69
295.756	105.69
295.987	101.69
296.217	147.69
296.448	119.69
296.679	94.69
296.909	103.69
297.14	88.69
297.37	89.69
297.601	84.69
297.831	86.69
298.062	103.69
298.292	100.69
298.523	92.69
298.753	94.69
298.984	92.69
299.214	96.69
299.445	92.69
299.675	90.69
299.905	82.69
300.136	91.69
300.366	95.69
300.597	88.69
300.827	109.69
301.057	104.69
301.288	106.69
301.518	102.69
301.748	76.69
301.979	104.69
302.209	90.69
302.439	91.69
302.669	96.69
302.9	95.69
303.13	94.69
303.36	90.69
303.59	82.69
303.82	108.69
304.051	100.69
304.281	103.69
304.511	82.69
304.741	87.69
304.971	77.69
305.201	90.69
305.431	86.69
305.661	87.69
305.891	91.69
306.121	89.69
306.352	109.69
306.582	104.69
306.812	123.69
307.042	101.69
307.272	99.69
307.502	107.69
307.731	99.69
307.961	98.69
308.191	91.69
308.421	90.69
308.651	87.69
308.881	97.69
309.111	98.69
309.341	103.69
309.571	99.69
309.8	93.69
310.03	101.69
310.26	108.69
310.49	96.69
310.72	92.69
310.949	120.69
311.179	115.69
311.409	96.69
311.639	94.69
311.868	83.69
312.098	93.69
312.328	100.69
312.557	102.69
312.787	110.69
313.017	107.69
313.246	95.69
313.476	107.69
313.706	78.69
313.935	107.69
314.165	102.69
314.394	111.69
314.624	100.69
314.853	91.69
315.083	105.69
315.312	98.69
315.542	93.69
315.771	94.69
316.001	98.69
316.23	91.69
316.46	96.69
316.689	92.69
316.919	95.69
317.148	106.69
317.377	102.69
317.607	95.69
317.836	84.69
318.065	100.69
318.295	107.69
318.524	82.69
318.753	94.69
318.983	93.69
319.212	106.69
319.441	118.69
319.67	110.69
319.9	91.69
320.129	109.69
320.358	97.69
320.587	105.69
320.816	117.69
321.046	100.69
321.275	102.69
321.504	90.69
321.733	95.69
321.962	104.69
322.191	98.69
322.42	99.69
322.649	111.69
322.878	112.69
323.108	117.69
323.337	140.69
323.566	134.69
323.795	164.69
324.024	231.69
324.253	406.69
324.482	882.69
324.71	1817.69
324.939	2417.69
325.168	888.69
325.397	259.69
325.626	138.69
325.855	122.69
326.084	124.69
326.313	133.69
326.542	163.69
326.77	236.69
326.999	482.69
327.228	996.69
327.457	1849.69
327.686	1492.69
327.914	399.69
328.143	213.69
328.372	170.69
328.6	137.69
328.829	138.69
329.058	135.69
329.287	131.69
329.515	114.69
329.744	103.69
329.972	100.69
330.201	135.69
330.43	155.69
330.658	152.69
330.887	171.69
331.115	135.69
331.344	109.69
331.572	109.69
331.801	97.69
332.03	92.69
332.258	101.69
332.486	92.69
332.715	92.69
332.943	91.69
333.172	99.69
333.4	84.69
333.629	108.69
333.857	109.69
334.085	99.69
334.314	102.69
334.542	130.69
334.771	134.69
334.999	110.69
335.227	108.69
335.455	103.69
335.684	98.69
335.912	108.69
336.14	95.69
336.369	98.69
336.597	107.69
336.825	107.69
337.053	99.69
337.281	96.69
337.51	92.69
337.738	108.69
337.966	91.69
338.194	94.69
338.422	106.69
338.65	106.69
338.878	92.69
339.106	99.69
339.334	102.69
339.562	100.69
339.79	96.69
340.018	108.69
340.246	95.69
340.474	101.69
340.702	99.69
340.93	98.69
341.158	91.69
341.386	100.69
341.614	99.69
341.842	112.69
342.07	102.69
342.298	97.69
342.526	95.69
342.754	88.69
342.981	91.69
343.209	99.69
343.437	105.69
343.665	87.69
343.893	93.69
344.12	102.69
344.348	95.69
344.576	85.69
344.804	98.69
345.031	92.69
345.259	96.69
345.487	102.69
345.714	106.69
345.942	91.69
346.17	98.69
346.397	94.69
346.625	104.69
346.853	98.69
347.08	94.69
347.308	93.69
347.535	94.69
347.763	103.69
347.99	88.69
348.218	100.69
348.445	107.69
348.673	103.69
348.9	101.69
349.128	110.69
349.355	79.69
349.583	102.69
349.81	100.69
350.037	90.69
350.265	92.69
350.492	99.69
350.72	105.69
350.947	94.69
351.174	121.69
351.402	122.69
351.629	102.69
351.856	120.69
352.083	103.69
352.311	117.69
352.538	128.69
352.765	118.69
352.992	118.69
353.22	104.69
353.447	102.69
353.674	103.69
353.901	111.69
354.128	83.69
354.355	99.69
354.583	112.69
354.81	100.69
355.037	107.69
355.264	94.69
355.491	87.69
355.718	95.69
355.945	99.69
356.172	82.69
356.399	101.69
356.626	89.69
356.853	99.69
357.08	112.69
357.307	97.69
357.534	102.69
357.761	98.69
357.988	109.69
358.215	113.69
358.441	117.69
358.668	103.69
358.895	110.69
359.122	88.69
359.349	82.69
359.576	102.69
359.802	105.69
360.029	122.69
360.256	113.69
360.483	122.69
360.709	86.69
360.936	78.69
361.163	93.69
361.39	96.69
361.616	92.69
361.843	85.69
362.07	95.69
362.296	103.69
362.523	101.69
362.749	96.69
362.976	96.69
363.203	111.69
363.429	115.69
363.656	95.69
363.882	95.69
364.109	77.69
364.335	87.69
364.562	77.69
364.788	100.69
365.015	95.69
365.241	108.69
365.468	108.69
365.694	106.69
365.92	104.69
366.147	92.69
366.373	98.69
366.599	78.69
366.826	107.69
367.052	88.69
367.278	96.69
367.505	84.69
367.731	93.69
367.957	87.69
368.184	102.69
368.41	108.69
368.636	122.69
368.862	100.69
369.089	106.69
369.315	100.69
369.541	88.69
369.767	95.69
369.993	93.69
370.219	96.69
370.445	87.69
370.672	95.69
370.898	109.69
371.124	98.69
371.35	102.69
371.576	90.69
371.802	91.69
372.028	85.69
372.254	95.69
372.48	95.69
372.706	87.69
372.932	88.69
373.158	88.69
373.384	98.69
373.61	92.69
373.835	90.69
374.061	86.69
374.287	92.69
374.513	91.69
374.739	96.69
374.965	76.69
375.191	84.69
375.416	92.69
375.642	83.69
375.868	108.69
376.094	78.69
376.319	88.69
376.545	86.69
376.771	97.69
376.997	96.69
377.222	93.69
377.448	84.69
377.674	96.69
377.899	99.69
378.125	92.69
378.35	94.69
378.576	92.69
378.802	94.69
379.027	109.69
379.253	116.69
379.478	108.69
379.704	103.69
379.929	92.69
380.155	94.69
380.38	89.69
380.606	94.69
380.831	80.69
381.057	105.69
381.282	87.69
381.507	101.69
381.733	111.69
381.958	98.69
382.184	99.69
382.409	105.69
382.634	109.69
382.86	100.69
383.085	116.69
383.31	103.69
383.535	94.69
383.761	108.69
383.986	111.69
384.211	93.69
384.436	104.69
384.662	109.69
384.887	118.69
385.112	121.69
385.337	110.69
385.562	126.69
385.787	121.69
386.013	118.69
386.238	125.69
386.463	115.69
386.688	121.69
386.913	118.69
387.138	128.69
387.363	115.69
387.588	110.69
387.813	117.69
388.038	123.69
388.263	130.69
388.488	124.69
388.713	105.69
388.938	100.69
389.163	101.69
389.387	94.69
389.612	94.69
389.837	88.69
390.062	85.69
390.287	94.69
390.512	93.69
390.736	110.69
390.961	96.69
391.186	94.69
391.411	96.69
391.636	89.69
391.86	93.69
392.085	70.69
392.31	79.69
392.534	88.69
392.759	92.69
392.984	95.69
393.208	116.69
393.433	148.69
393.658	122.69
393.882	79.69
394.107	91.69
394.331	82.69
394.556	92.69
394.78	90.69
395.005	88.69
395.229	91.69
395.454	86.69
395.678	96.69
395.903	92.69
396.127	76.69
396.352	104.69
396.576	98.69
396.801	101.69
397.025	115.69
397.249	91.69
397.474	94.69
397.698	95.69
397.922	101.69
398.147	89.69
398.371	93.69
398.595	92.69
398.82	80.69
399.044	83.69
399.268	106.69
399.492	92.69
399.717	94.69
399.941	112.69
400.165	94.69
400.389	102.69
400.613	85.69
400.837	84.69
401.062	102.69
401.286	106.69
401.51	95.69
401.734	105.69
401.958	103.69
402.182	120.69
402.406	148.69
402.63	113.69
402.854	103.69
403.078	96.69
403.302	77.69
403.526	87.69
403.75	99.69
403.974	87.69
404.198	93.69
404.422	83.69
404.645	87.69
404.869	95.69
405.093	102.69
405.317	111.69
405.541	121.69
405.765	103.69
405.988	106.69
406.212	173.69
406.436	222.69
406.66	157.69
406.883	103.69
407.107	93.69
407.331	105.69
407.555	116.69
407.778	106.69
408.002	91.69
408.226	94.69
408.449	86.69
408.673	100.69
408.896	81.69
409.12	102.69
409.344	74.69
409.567	95.69
409.791	98.69
410.014	89.69
410.238	95.69
410.461	85.69
410.685	96.69
410.908	102.69
411.132	101.69
411.355	105.69
411.578	83.69
411.802	93.69
412.025	81.69
412.249	94.69
412.472	103.69
412.695	94.69
412.919	93.69
413.142	92.69
413.365	93.69
413.589	89.69
413.812	107.69
414.035	91.69
414.258	92.69
414.482	86.69
414.705	91.69
414.928	102.69
415.151	93.69
415.374	100.69
415.597	85.69
415.821	93.69
416.044	79.69
416.267	85.69
416.49	95.69
416.713	89.69
416.936	86.69
417.159	84.69
417.382	96.69
417.605	93.69
417.828	99.69
418.051	98.69
418.274	86.69
418.497	76.69
418.72	86.69
418.943	92.69
419.166	87.69
419.389	89.69
419.611	92.69
419.834	87.69
420.057	77.69
420.28	77.69
420.503	85.69
420.726	84.69
420.948	94.69
421.171	100.69
421.394	84.69
421.617	94.69
421.839	79.69
422.062	89.69
422.285	99.69
422.507	110.69
422.73	124.69
422.953	107.69
423.175	89.69
423.398	89.69
423.621	98.69
423.843	92.69
424.066	79.69
424.288	70.69
424.511	92.69
424.733	104.69
424.956	109.69
425.178	116.69
425.401	100.69
425.623	91.69
425.846	91.69
426.068	92.69
426.291	104.69
426.513	92.69
426.735	99.69
426.958	99.69
427.18	104.69
427.402	149.69
427.625	180.69
427.847	146.69
428.069	116.69
428.292	83.69
428.514	100.69
428.736	91.69
428.958	82.69
429.181	97.69
429.403	93.69
429.625	82.69
429.847	86.69
430.069	116.69
430.292	92.69
430.514	86.69
430.736	91.69
430.958	78.69
431.18	79.69
431.402	88.69
431.624	88.69
431.846	80.69
432.068	96.69
432.29	85.69
432.512	79.69
432.734	90.69
432.956	102.69
433.178	98.69
433.4	111.69
433.622	86.69
433.844	88.69
434.066	100.69
434.287	99.69
434.509	106.69
434.731	98.69
434.953	86.69
435.175	100.69
435.397	98.69
435.618	102.69
435.84	106.69
436.062	135.69
436.284	128.69
436.505	101.69
436.727	113.69
436.949	90.69
437.17	98.69
437.392	94.69
437.614	95.69
437.835	104.69
438.057	140.69
438.278	127.69
438.5	117.69
438.721	160.69
438.943	93.69
439.165	96.69
439.386	102.69
439.608	99.69
439.829	106.69
440.05	125.69
440.272	162.69
440.493	90.69
440.715	94.69
440.936	94.69
441.158	98.69
441.379	88.69
441.6	106.69
441.822	104.69
442.043	106.69
442.264	122.69
442.486	113.69
442.707	107.69
442.928	111.69
443.149	150.69
443.371	137.69
443.592	125.69
443.813	127.69
444.034	126.69
444.255	95.69
444.476	98.69
444.698	83.69
444.919	94.69
445.14	134.69
445.361	125.69
445.582	131.69
445.803	183.69
446.024	154.69
446.245	164.69
446.466	142.69
446.687	95.69
446.908	90.69
447.129	96.69
447.35	82.69
447.571	88.69
447.792	99.69
448.013	94.69
448.234	113.69
448.455	102.69
448.675	142.69
448.896	139.69
449.117	111.69
449.338	110.69
449.559	155.69
449.779	162.69
450	104.69
450.221	107.69
450.442	110.69
450.662	122.69
450.883	95.69
451.104	102.69
451.324	102.69
451.545	91.69
451.766	103.69
451.986	91.69
452.207	95.69
452.428	96.69
452.648	105.69
452.869	107.69
453.089	116.69
453.31	114.69
453.53	93.69
453.751	92.69
453.971	108.69
454.192	112.69
454.412	90.69
454.633	101.69
454.853	94.69
455.073	70.69
455.294	88.69
455.514	122.69
455.734	96.69
455.955	85.69
456.175	84.69
456.395	76.69
456.616	85.69
456.836	77.69
457.056	89.69
457.276	93.69
457.497	87.69
457.717	82.69
457.937	66.69
458.157	91.69
458.377	88.69
458.598	96.69
458.818	162.69
459.038	182.69
459.258	136.69
459.478	93.69
459.698	82.69
459.918	80.69
460.138	86.69
460.358	71.69
460.578	100.69
460.798	102.69
461.018	91.69
461.238	85.69
461.458	99.69
461.678	101.69
461.898	94.69
462.118	79.69
462.338	92.69
462.558	76.69
462.777	80.69
462.997	84.69
463.217	86.69
463.437	78.69
463.657	92.69
463.876	91.69
464.096	94.69
464.316	85.69
464.536	95.69
464.755	94.69
464.975	113.69
465.195	179.69
465.414	188.69
465.634	99.69
465.854	90.69
466.073	90.69
466.293	77.69
466.512	81.69
466.732	97.69
466.951	86.69
467.171	88.69
467.391	105.69
467.61	111.69
467.829	103.69
468.049	115.69
468.268	90.69
468.488	87.69
468.707	94.69
468.927	84.69
469.146	91.69
469.365	94.69
469.585	84.69
469.804	94.69
470.023	106.69
470.243	86.69
470.462	94.69
470.681	112.69
470.901	86.69
471.12	86.69
471.339	85.69
471.558	85.69
471.777	92.69
471.997	96.69
472.216	110.69
472.435	146.69
472.654	96.69
472.873	90.69
473.092	90.69
473.311	94.69
473.53	86.69
473.749	92.69
473.968	93.69
474.187	112.69
474.406	119.69
474.625	95.69
474.844	86.69
475.063	92.69
475.282	98.69
475.501	102.69
475.72	92.69
475.939	83.69
476.158	95.69
476.377	88.69
476.596	80.69
476.814	104.69
477.033	85.69
477.252	97.69
477.471	87.69
477.69	98.69
477.908	86.69
478.127	93.69
478.346	94.69
478.564	101.69
478.783	93.69
479.002	90.69
479.22	83.69
479.439	99.69
479.658	113.69
479.876	96.69
480.095	86.69
480.313	93.69
480.532	96.69
480.751	106.69
480.969	124.69
481.188	201.69
481.406	173.69
481.624	98.69
481.843	96.69
482.061	92.69
482.28	89.69
482.498	93.69
482.717	86.69
482.935	79.69
483.153	86.69
483.372	90.69
483.59	90.69
483.808	96.69
484.027	97.69
484.245	88.69
484.463	88.69
484.681	106.69
484.9	92.69
485.118	103.69
485.336	90.69
485.554	99.69
485.772	102.69
485.99	100.69
486.209	99.69
486.427	104.69
486.645	101.69
486.863	128.69
487.081	116.69
487.299	95.69
487.517	92.69
487.735	89.69
487.953	84.69
488.171	102.69
488.389	91.69
488.607	94.69
488.825	85.69
489.043	91.69
489.261	89.69
489.479	83.69
489.696	88.69
489.914	96.69
490.132	96.69
490.35	97.69
490.568	99.69
490.786	81.69
491.003	77.69
491.221	91.69
491.439	80.69
491.657	90.69
491.874	106.69
492.092	98.69
492.31	93.69
492.527	91.69
492.745	81.69
492.963	100.69
493.18	109.69
493.398	79.69
493.615	90.69
493.833	93.69
494.05	91.69
494.268	90.69
494.485	96.69
494.703	85.69
494.92	84.69
495.138	92.69
495.355	93.69
495.573	98.69
495.79	100.69
496.008	82.69
496.225	91.69
496.442	79.69
496.66	99.69
496.877	90.69
497.094	86.69
497.312	87.69
497.529	82.69
497.746	95.69
497.963	90.69
498.181	97.69
498.398	99.69
498.615	112.69
498.832	106.69
499.049	86.69
499.267	84.69
499.484	85.69
499.701	90.69
499.918	84.69
500.135	96.69
500.352	97.69
500.569	92.69
500.786	94.69
501.003	95.69
501.22	77.69
501.437	73.69
501.654	90.69
501.871	130.69
502.088	87.69
502.305	90.69
502.522	92.69
502.739	94.69
502.956	105.69
503.172	94.69
503.389	90.69
503.606	98.69
503.823	102.69
504.04	86.69
504.256	90.69
504.473	96.69
504.69	87.69
504.907	101.69
505.123	92.69
505.34	80.69
505.557	86.69
505.773	78.69
505.99	100.69
506.207	86.69
506.423	83.69
506.64	84.69
506.856	90.69
507.073	94.69
507.289	95.69
507.506	92.69
507.722	116.69
507.939	111.69
508.155	97.69
508.372	95.69
508.588	100.69
508.805	87.69
509.021	101.69
509.238	89.69
509.454	98.69
509.67	94.69
509.887	102.69
510.103	126.69
510.319	206.69
510.536	668.69
510.752	2022.69
510.968	589.69
511.184	154.69
511.401	114.69
511.617	103.69
511.833	92.69
512.049	92.69
512.265	87.69
512.481	86.69
512.698	99.69
512.914	99.69
513.13	98.69
513.346	99.69
513.562	94.69
513.778	86.69
513.994	95.69
514.21	104.69
