Data from Circ_1981_H10_HRD10591_00080.txt Node
Date: Wed Jan 03 12:34:37 EST 2024
User: Yrep
Spectrometer: HR+D1059
Trigger mode: 1
Integration Time (sec): 1.000000E-1
Scans to average: 1
Electric dark correction enabled: true
Nonlinearity correction enabled: false
Boxcar width: 0
XAxis mode: Wavelengths
Number of Pixels in Spectrum: 2048
>>>>>Begin Spectral Data<<<<<
223.165	-2.81
223.4	-2.81
223.635	-2.81
223.869	-28.81
224.104	-16.81
224.338	-17.81
224.573	3.19
224.808	-12.81
225.042	-12.81
225.277	-14.81
225.511	-6.81
225.746	4.19
225.98	4.19
226.215	14.19
226.449	23.19
226.683	13.19
226.918	27.19
227.152	24.19
227.387	27.19
227.621	28.19
227.856	39.19
228.09	41.19
228.324	39.19
228.559	54.19
228.793	64.19
229.027	59.19
229.262	62.19
229.496	66.19
229.73	78.19
229.964	91.19
230.199	83.19
230.433	68.19
230.667	87.19
230.901	73.19
231.136	87.19
231.37	85.19
231.604	69.19
231.838	87.19
232.072	83.19
232.306	71.19
232.541	79.19
232.775	85.19
233.009	74.19
233.243	67.19
233.477	68.19
233.711	81.19
233.945	64.19
234.179	77.19
234.413	89.19
234.647	92.19
234.881	73.19
235.115	77.19
235.349	81.19
235.583	79.19
235.817	83.19
236.051	69.19
236.285	63.19
236.519	89.19
236.753	86.19
236.987	79.19
237.221	83.19
237.455	83.19
237.689	79.19
237.922	68.19
238.156	86.19
238.39	77.19
238.624	71.19
238.858	83.19
239.091	76.19
239.325	72.19
239.559	81.19
239.793	71.19
240.027	68.19
240.26	94.19
240.494	91.19
240.728	65.19
240.961	64.19
241.195	89.19
241.429	77.19
241.662	81.19
241.896	64.19
242.13	74.19
242.363	92.19
242.597	66.19
242.83	81.19
243.064	58.19
243.298	69.19
243.531	68.19
243.765	71.19
243.998	82.19
244.232	81.19
244.465	79.19
244.699	79.19
244.932	83.19
245.166	85.19
245.399	74.19
245.633	77.19
245.866	76.19
246.099	72.19
246.333	74.19
246.566	66.19
246.8	65.19
247.033	79.19
247.266	77.19
247.5	89.19
247.733	81.19
247.966	79.19
248.2	70.19
248.433	74.19
248.666	77.19
248.899	79.19
249.133	74.19
249.366	103.19
249.599	93.19
249.832	88.19
250.066	84.19
250.299	73.19
250.532	76.19
250.765	79.19
250.998	75.19
251.231	75.19
251.465	74.19
251.698	74.19
251.931	82.19
252.164	72.19
252.397	97.19
252.63	82.19
252.863	77.19
253.096	80.19
253.329	74.19
253.562	66.19
253.795	73.19
254.028	62.19
254.261	78.19
254.494	77.19
254.727	86.19
254.96	86.19
255.193	74.19
255.426	75.19
255.659	71.19
255.892	91.19
256.124	80.19
256.357	77.19
256.59	78.19
256.823	96.19
257.056	95.19
257.289	82.19
257.521	83.19
257.754	78.19
257.987	86.19
258.22	86.19
258.452	83.19
258.685	82.19
258.918	77.19
259.151	70.19
259.383	74.19
259.616	81.19
259.849	83.19
260.081	74.19
260.314	92.19
260.547	73.19
260.779	84.19
261.012	70.19
261.244	77.19
261.477	89.19
261.71	107.19
261.942	118.19
262.175	129.19
262.407	96.19
262.64	86.19
262.872	79.19
263.105	74.19
263.337	83.19
263.57	88.19
263.802	68.19
264.035	74.19
264.267	71.19
264.499	80.19
264.732	69.19
264.964	84.19
265.197	83.19
265.429	95.19
265.661	81.19
265.894	83.19
266.126	90.19
266.358	75.19
266.591	79.19
266.823	81.19
267.055	74.19
267.287	96.19
267.52	74.19
267.752	72.19
267.984	71.19
268.216	85.19
268.448	79.19
268.681	80.19
268.913	91.19
269.145	79.19
269.377	74.19
269.609	77.19
269.841	77.19
270.073	79.19
270.306	91.19
270.538	83.19
270.77	91.19
271.002	76.19
271.234	102.19
271.466	93.19
271.698	88.19
271.93	72.19
272.162	94.19
272.394	86.19
272.626	81.19
272.858	85.19
273.09	72.19
273.322	100.19
273.553	72.19
273.785	87.19
274.017	69.19
274.249	79.19
274.481	83.19
274.713	75.19
274.945	87.19
275.176	86.19
275.408	78.19
275.64	80.19
275.872	81.19
276.104	77.19
276.335	88.19
276.567	94.19
276.799	117.19
277.031	96.19
277.262	85.19
277.494	89.19
277.726	86.19
277.957	83.19
278.189	89.19
278.421	93.19
278.652	85.19
278.884	72.19
279.115	72.19
279.347	94.19
279.579	79.19
279.81	68.19
280.042	86.19
280.273	94.19
280.505	95.19
280.736	83.19
280.968	81.19
281.199	71.19
281.431	79.19
281.662	83.19
281.894	80.19
282.125	95.19
282.356	126.19
282.588	162.19
282.819	127.19
283.051	97.19
283.282	88.19
283.513	83.19
283.745	83.19
283.976	80.19
284.207	100.19
284.439	77.19
284.67	95.19
284.901	98.19
285.132	82.19
285.364	93.19
285.595	86.19
285.826	74.19
286.057	81.19
286.288	88.19
286.52	90.19
286.751	72.19
286.982	93.19
287.213	79.19
287.444	76.19
287.675	88.19
287.906	86.19
288.138	95.19
288.369	93.19
288.6	86.19
288.831	95.19
289.062	82.19
289.293	100.19
289.524	73.19
289.755	87.19
289.986	87.19
290.217	91.19
290.448	80.19
290.679	79.19
290.91	96.19
291.141	88.19
291.371	84.19
291.602	97.19
291.833	85.19
292.064	92.19
292.295	80.19
292.526	81.19
292.757	91.19
292.987	83.19
293.218	92.19
293.449	89.19
293.68	89.19
293.91	87.19
294.141	86.19
294.372	94.19
294.603	83.19
294.833	88.19
295.064	80.19
295.295	73.19
295.525	92.19
295.756	96.19
295.987	118.19
296.217	154.19
296.448	126.19
296.679	84.19
296.909	99.19
297.14	83.19
297.37	88.19
297.601	87.19
297.831	81.19
298.062	91.19
298.292	89.19
298.523	84.19
298.753	93.19
298.984	89.19
299.214	74.19
299.445	86.19
299.675	89.19
299.905	103.19
300.136	81.19
300.366	87.19
300.597	83.19
300.827	85.19
301.057	101.19
301.288	106.19
301.518	105.19
301.748	96.19
301.979	105.19
302.209	97.19
302.439	72.19
302.669	86.19
302.9	83.19
303.13	86.19
303.36	81.19
303.59	107.19
303.82	104.19
304.051	93.19
304.281	80.19
304.511	88.19
304.741	66.19
304.971	73.19
305.201	82.19
305.431	90.19
305.661	97.19
305.891	97.19
306.121	95.19
306.352	106.19
306.582	102.19
306.812	91.19
307.042	81.19
307.272	98.19
307.502	89.19
307.731	95.19
307.961	85.19
308.191	101.19
308.421	86.19
308.651	74.19
308.881	97.19
309.111	95.19
309.341	98.19
309.571	77.19
309.8	81.19
310.03	112.19
310.26	111.19
310.49	97.19
310.72	123.19
310.949	123.19
311.179	111.19
311.409	95.19
311.639	107.19
311.868	98.19
312.098	89.19
312.328	102.19
312.557	103.19
312.787	109.19
313.017	97.19
313.246	105.19
313.476	103.19
313.706	96.19
313.935	94.19
314.165	101.19
314.394	115.19
314.624	96.19
314.853	99.19
315.083	86.19
315.312	73.19
315.542	90.19
315.771	74.19
316.001	85.19
316.23	79.19
316.46	95.19
316.689	81.19
316.919	91.19
317.148	103.19
317.377	90.19
317.607	119.19
317.836	101.19
318.065	87.19
318.295	97.19
318.524	93.19
318.753	78.19
318.983	98.19
319.212	93.19
319.441	114.19
319.67	107.19
319.9	89.19
320.129	78.19
320.358	98.19
320.587	96.19
320.816	101.19
321.046	105.19
321.275	97.19
321.504	109.19
321.733	94.19
321.962	111.19
322.191	108.19
322.42	113.19
322.649	125.19
322.878	113.19
323.108	116.19
323.337	142.19
323.566	139.19
323.795	160.19
324.024	226.19
324.253	453.19
324.482	951.19
324.71	2029.19
324.939	2703.19
325.168	999.19
325.397	278.19
325.626	155.19
325.855	131.19
326.084	125.19
326.313	133.19
326.542	167.19
326.77	269.19
326.999	480.19
327.228	1050.19
327.457	1955.19
327.686	1547.19
327.914	418.19
328.143	236.19
328.372	183.19
328.6	157.19
328.829	138.19
329.058	163.19
329.287	164.19
329.515	123.19
329.744	89.19
329.972	107.19
330.201	133.19
330.43	155.19
330.658	157.19
330.887	193.19
331.115	147.19
331.344	104.19
331.572	103.19
331.801	118.19
332.03	118.19
332.258	107.19
332.486	87.19
332.715	98.19
332.943	95.19
333.172	113.19
333.4	106.19
333.629	104.19
333.857	99.19
334.085	100.19
334.314	129.19
334.542	147.19
334.771	137.19
334.999	109.19
335.227	101.19
335.455	118.19
335.684	95.19
335.912	96.19
336.14	93.19
336.369	87.19
336.597	113.19
336.825	109.19
337.053	80.19
337.281	82.19
337.51	97.19
337.738	97.19
337.966	93.19
338.194	100.19
338.422	98.19
338.65	72.19
338.878	94.19
339.106	91.19
339.334	91.19
339.562	82.19
339.79	89.19
340.018	102.19
340.246	105.19
340.474	94.19
340.702	98.19
340.93	75.19
341.158	90.19
341.386	92.19
341.614	100.19
341.842	81.19
342.07	97.19
342.298	92.19
342.526	100.19
342.754	94.19
342.981	90.19
343.209	78.19
343.437	98.19
343.665	93.19
343.893	97.19
344.12	80.19
344.348	92.19
344.576	93.19
344.804	87.19
345.031	107.19
345.259	115.19
345.487	93.19
345.714	96.19
345.942	82.19
346.17	85.19
346.397	83.19
346.625	79.19
346.853	90.19
347.08	85.19
347.308	90.19
347.535	96.19
347.763	109.19
347.99	100.19
348.218	122.19
348.445	105.19
348.673	94.19
348.9	110.19
349.128	82.19
349.355	81.19
349.583	93.19
349.81	78.19
350.037	86.19
350.265	93.19
350.492	90.19
350.72	92.19
350.947	110.19
351.174	120.19
351.402	110.19
351.629	97.19
351.856	91.19
352.083	97.19
352.311	104.19
352.538	100.19
352.765	113.19
352.992	118.19
353.22	96.19
353.447	103.19
353.674	92.19
353.901	101.19
354.128	101.19
354.355	104.19
354.583	95.19
354.81	93.19
355.037	91.19
355.264	103.19
355.491	95.19
355.718	97.19
355.945	83.19
356.172	93.19
356.399	97.19
356.626	85.19
356.853	79.19
357.08	89.19
357.307	75.19
357.534	92.19
357.761	98.19
357.988	106.19
358.215	74.19
358.441	90.19
358.668	83.19
358.895	92.19
359.122	86.19
359.349	86.19
359.576	100.19
359.802	116.19
360.029	129.19
360.256	125.19
360.483	111.19
360.709	85.19
360.936	93.19
361.163	94.19
361.39	103.19
361.616	95.19
361.843	89.19
362.07	109.19
362.296	91.19
362.523	91.19
362.749	90.19
362.976	83.19
363.203	89.19
363.429	83.19
363.656	94.19
363.882	88.19
364.109	91.19
364.335	78.19
364.562	89.19
364.788	90.19
365.015	93.19
365.241	101.19
365.468	107.19
365.694	94.19
365.92	110.19
366.147	94.19
366.373	87.19
366.599	89.19
366.826	82.19
367.052	85.19
367.278	99.19
367.505	83.19
367.731	86.19
367.957	86.19
368.184	95.19
368.41	85.19
368.636	110.19
368.862	118.19
369.089	117.19
369.315	90.19
369.541	78.19
369.767	98.19
369.993	92.19
370.219	95.19
370.445	68.19
370.672	93.19
370.898	88.19
371.124	80.19
371.35	74.19
371.576	65.19
371.802	81.19
372.028	94.19
372.254	89.19
372.48	87.19
372.706	88.19
372.932	85.19
373.158	73.19
373.384	87.19
373.61	93.19
373.835	89.19
374.061	83.19
374.287	99.19
374.513	93.19
374.739	77.19
374.965	85.19
375.191	75.19
375.416	74.19
375.642	76.19
375.868	85.19
376.094	85.19
376.319	84.19
376.545	83.19
376.771	84.19
376.997	78.19
377.222	96.19
377.448	82.19
377.674	84.19
377.899	83.19
378.125	97.19
378.35	87.19
378.576	104.19
378.802	87.19
379.027	91.19
379.253	86.19
379.478	82.19
379.704	65.19
379.929	93.19
380.155	83.19
380.38	103.19
380.606	97.19
380.831	95.19
381.057	102.19
381.282	107.19
381.507	84.19
381.733	97.19
381.958	88.19
382.184	70.19
382.409	99.19
382.634	87.19
382.86	97.19
383.085	93.19
383.31	102.19
383.535	93.19
383.761	84.19
383.986	81.19
384.211	90.19
384.436	96.19
384.662	91.19
384.887	97.19
385.112	100.19
385.337	84.19
385.562	96.19
385.787	82.19
386.013	117.19
386.238	99.19
386.463	101.19
386.688	103.19
386.913	102.19
387.138	96.19
387.363	100.19
387.588	96.19
387.813	89.19
388.038	93.19
388.263	95.19
388.488	103.19
388.713	94.19
388.938	90.19
389.163	106.19
389.387	77.19
389.612	78.19
389.837	90.19
390.062	82.19
390.287	81.19
390.512	86.19
390.736	86.19
390.961	86.19
391.186	90.19
391.411	82.19
391.636	84.19
391.86	95.19
392.085	94.19
392.31	84.19
392.534	86.19
392.759	80.19
392.984	70.19
393.208	79.19
393.433	79.19
393.658	81.19
393.882	77.19
394.107	80.19
394.331	70.19
394.556	85.19
394.78	89.19
395.005	78.19
395.229	81.19
395.454	94.19
395.678	84.19
395.903	92.19
396.127	90.19
396.352	89.19
396.576	78.19
396.801	79.19
397.025	74.19
397.249	108.19
397.474	93.19
397.698	83.19
397.922	86.19
398.147	85.19
398.371	98.19
398.595	86.19
398.82	70.19
399.044	78.19
399.268	74.19
399.492	80.19
399.717	90.19
399.941	100.19
400.165	94.19
400.389	85.19
400.613	83.19
400.837	73.19
401.062	90.19
401.286	83.19
401.51	86.19
401.734	96.19
401.958	107.19
402.182	142.19
402.406	170.19
402.63	130.19
402.854	85.19
403.078	85.19
403.302	82.19
403.526	98.19
403.75	84.19
403.974	85.19
404.198	77.19
404.422	79.19
404.645	89.19
404.869	89.19
405.093	89.19
405.317	101.19
405.541	88.19
405.765	107.19
405.988	121.19
406.212	185.19
406.436	276.19
406.66	181.19
406.883	111.19
407.107	91.19
407.331	98.19
407.555	108.19
407.778	97.19
408.002	85.19
408.226	92.19
408.449	106.19
408.673	75.19
408.896	94.19
409.12	93.19
409.344	88.19
409.567	90.19
409.791	94.19
410.014	99.19
410.238	83.19
410.461	78.19
410.685	88.19
410.908	85.19
411.132	115.19
411.355	95.19
411.578	102.19
411.802	77.19
412.025	84.19
412.249	85.19
412.472	84.19
412.695	97.19
412.919	93.19
413.142	94.19
413.365	82.19
413.589	103.19
413.812	74.19
414.035	77.19
414.258	94.19
414.482	87.19
414.705	85.19
414.928	90.19
415.151	82.19
415.374	102.19
415.597	79.19
415.821	83.19
416.044	89.19
416.267	78.19
416.49	82.19
416.713	82.19
416.936	84.19
417.159	87.19
417.382	90.19
417.605	79.19
417.828	91.19
418.051	94.19
418.274	87.19
418.497	80.19
418.72	78.19
418.943	83.19
419.166	80.19
419.389	83.19
419.611	79.19
419.834	91.19
420.057	81.19
420.28	91.19
420.503	88.19
420.726	85.19
420.948	82.19
421.171	96.19
421.394	87.19
421.617	86.19
421.839	86.19
422.062	81.19
422.285	89.19
422.507	93.19
422.73	108.19
422.953	94.19
423.175	81.19
423.398	79.19
423.621	83.19
423.843	83.19
424.066	85.19
424.288	93.19
424.511	80.19
424.733	112.19
424.956	115.19
425.178	121.19
425.401	100.19
425.623	112.19
425.846	100.19
426.068	91.19
426.291	67.19
426.513	78.19
426.735	108.19
426.958	89.19
427.18	125.19
427.402	143.19
427.625	223.19
427.847	153.19
428.069	111.19
428.292	93.19
428.514	85.19
428.736	74.19
428.958	92.19
429.181	92.19
429.403	92.19
429.625	97.19
429.847	104.19
430.069	117.19
430.292	90.19
430.514	82.19
430.736	73.19
430.958	69.19
431.18	85.19
431.402	77.19
431.624	83.19
431.846	83.19
432.068	69.19
432.29	82.19
432.512	88.19
432.734	94.19
432.956	65.19
433.178	91.19
433.4	96.19
433.622	90.19
433.844	102.19
434.066	104.19
434.287	104.19
434.509	87.19
434.731	84.19
434.953	85.19
435.175	101.19
435.397	82.19
435.618	93.19
435.84	97.19
436.062	117.19
436.284	127.19
436.505	112.19
436.727	95.19
436.949	95.19
437.17	88.19
437.392	82.19
437.614	66.19
437.835	120.19
438.057	141.19
438.278	137.19
438.5	107.19
438.721	153.19
438.943	104.19
439.165	85.19
439.386	96.19
439.608	95.19
439.829	100.19
440.05	138.19
440.272	167.19
440.493	104.19
440.715	83.19
440.936	84.19
441.158	74.19
441.379	98.19
441.6	95.19
441.822	99.19
442.043	90.19
442.264	105.19
442.486	108.19
442.707	111.19
442.928	102.19
443.149	167.19
443.371	167.19
443.592	134.19
443.813	126.19
444.034	118.19
444.255	82.19
444.476	96.19
444.698	83.19
444.919	72.19
445.14	138.19
445.361	122.19
445.582	138.19
445.803	170.19
446.024	163.19
446.245	165.19
446.466	121.19
446.687	95.19
446.908	83.19
447.129	91.19
447.35	85.19
447.571	90.19
447.792	94.19
448.013	99.19
448.234	103.19
448.455	114.19
448.675	112.19
448.896	132.19
449.117	102.19
449.338	107.19
449.559	145.19
449.779	157.19
450	92.19
450.221	82.19
450.442	77.19
450.662	90.19
450.883	129.19
451.104	131.19
451.324	107.19
451.545	81.19
451.766	93.19
451.986	77.19
452.207	86.19
452.428	87.19
452.648	89.19
452.869	116.19
453.089	119.19
453.31	143.19
453.53	89.19
453.751	86.19
453.971	116.19
454.192	125.19
454.412	87.19
454.633	80.19
454.853	80.19
455.073	86.19
455.294	80.19
455.514	112.19
455.734	103.19
455.955	90.19
456.175	77.19
456.395	85.19
456.616	95.19
456.836	82.19
457.056	73.19
457.276	79.19
457.497	80.19
457.717	79.19
457.937	89.19
458.157	78.19
458.377	101.19
458.598	129.19
458.818	185.19
459.038	214.19
459.258	141.19
459.478	94.19
459.698	89.19
459.918	83.19
460.138	71.19
460.358	75.19
460.578	79.19
460.798	87.19
461.018	90.19
461.238	83.19
461.458	69.19
461.678	71.19
461.898	83.19
462.118	80.19
462.338	88.19
462.558	80.19
462.777	82.19
462.997	89.19
463.217	85.19
463.437	76.19
463.657	78.19
463.876	86.19
464.096	85.19
464.316	86.19
464.536	101.19
464.755	94.19
464.975	110.19
465.195	214.19
465.414	234.19
465.634	102.19
465.854	87.19
466.073	86.19
466.293	74.19
466.512	84.19
466.732	88.19
466.951	91.19
467.171	87.19
467.391	88.19
467.61	110.19
467.829	115.19
468.049	93.19
468.268	90.19
468.488	88.19
468.707	88.19
468.927	85.19
469.146	69.19
469.365	71.19
469.585	77.19
469.804	91.19
470.023	97.19
470.243	91.19
470.462	99.19
470.681	132.19
470.901	94.19
471.12	86.19
471.339	85.19
471.558	91.19
471.777	85.19
471.997	97.19
472.216	107.19
472.435	152.19
472.654	89.19
472.873	94.19
473.092	90.19
473.311	86.19
473.53	78.19
473.749	83.19
473.968	102.19
474.187	130.19
474.406	109.19
474.625	90.19
474.844	90.19
475.063	97.19
475.282	81.19
475.501	86.19
475.72	84.19
475.939	88.19
476.158	84.19
476.377	74.19
476.596	67.19
476.814	93.19
477.033	85.19
477.252	88.19
477.471	82.19
477.69	74.19
477.908	79.19
478.127	86.19
478.346	82.19
478.564	103.19
478.783	102.19
479.002	90.19
479.22	86.19
479.439	102.19
479.658	107.19
479.876	98.19
480.095	90.19
480.313	83.19
480.532	110.19
480.751	89.19
480.969	113.19
481.188	231.19
481.406	173.19
481.624	97.19
481.843	78.19
482.061	80.19
482.28	85.19
482.498	91.19
482.717	77.19
482.935	93.19
483.153	96.19
483.372	84.19
483.59	88.19
483.808	83.19
484.027	97.19
484.245	82.19
484.463	90.19
484.681	91.19
484.9	86.19
485.118	102.19
485.336	106.19
485.554	91.19
485.772	90.19
485.99	108.19
486.209	101.19
486.427	99.19
486.645	116.19
486.863	115.19
487.081	105.19
487.299	89.19
487.517	103.19
487.735	84.19
487.953	100.19
488.171	77.19
488.389	89.19
488.607	103.19
488.825	80.19
489.043	77.19
489.261	96.19
489.479	82.19
489.696	96.19
489.914	89.19
490.132	83.19
490.35	90.19
490.568	95.19
490.786	74.19
491.003	101.19
491.221	98.19
491.439	94.19
491.657	98.19
491.874	91.19
492.092	87.19
492.31	90.19
492.527	80.19
492.745	87.19
492.963	84.19
493.18	83.19
493.398	103.19
493.615	94.19
493.833	97.19
494.05	80.19
494.268	95.19
494.485	89.19
494.703	67.19
494.92	97.19
495.138	92.19
495.355	89.19
495.573	80.19
495.79	90.19
496.008	81.19
496.225	81.19
496.442	90.19
496.66	96.19
496.877	95.19
497.094	93.19
497.312	95.19
497.529	86.19
497.746	85.19
497.963	85.19
498.181	94.19
498.398	94.19
498.615	101.19
498.832	103.19
499.049	90.19
499.267	79.19
499.484	87.19
499.701	89.19
499.918	83.19
500.135	85.19
500.352	102.19
500.569	75.19
500.786	95.19
501.003	81.19
501.22	86.19
501.437	95.19
501.654	92.19
501.871	127.19
502.088	94.19
502.305	98.19
502.522	85.19
502.739	85.19
502.956	82.19
503.172	93.19
503.389	102.19
503.606	111.19
503.823	101.19
504.04	104.19
504.256	96.19
504.473	74.19
504.69	86.19
504.907	94.19
505.123	97.19
505.34	91.19
505.557	89.19
505.773	83.19
505.99	86.19
506.207	92.19
506.423	90.19
506.64	81.19
506.856	101.19
507.073	97.19
507.289	87.19
507.506	103.19
507.722	116.19
507.939	135.19
508.155	99.19
508.372	87.19
508.588	96.19
508.805	83.19
509.021	91.19
509.238	93.19
509.454	96.19
509.67	102.19
509.887	102.19
510.103	147.19
510.319	237.19
510.536	876.19
510.752	2946.19
510.968	795.19
511.184	182.19
511.401	121.19
511.617	94.19
511.833	83.19
512.049	88.19
512.265	97.19
512.481	101.19
512.698	94.19
512.914	94.19
513.13	106.19
513.346	92.19
513.562	71.19
513.778	92.19
513.994	118.19
514.21	115.19
514.426	132.19
514.642	167.19
514.858	129.19
515.074	211.19
515.29	611.19
515.506	2180.19
515.721	761.19
