Data from Circ_1981_H10_HRD10591_00016.txt Node
Date: Wed Jan 03 12:34:24 EST 2024
User: Yrep
Spectrometer: HR+D1059
Trigger mode: 1
Integration Time (sec): 1.000000E-1
Scans to average: 1
Electric dark correction enabled: true
Nonlinearity correction enabled: false
Boxcar width: 0
XAxis mode: Wavelengths
Number of Pixels in Spectrum: 2048
>>>>>Begin Spectral Data<<<<<
223.165	-20.69
223.4	-20.69
223.635	-20.69
223.869	-17.69
224.104	-5.69
224.338	-21.69
224.573	-4.69
224.808	-9.69
225.042	-15.69
225.277	-15.69
225.511	-9.69
225.746	2.31
225.98	15.31
226.215	19.31
226.449	11.31
226.683	21.31
226.918	15.31
227.152	36.31
227.387	35.31
227.621	41.31
227.856	55.31
228.09	51.31
228.324	64.31
228.559	59.31
228.793	41.31
229.027	57.31
229.262	72.31
229.496	73.31
229.73	75.31
229.964	75.31
230.199	71.31
230.433	86.31
230.667	84.31
230.901	76.31
231.136	77.31
231.37	76.31
231.604	80.31
231.838	76.31
232.072	92.31
232.306	74.31
232.541	74.31
232.775	88.31
233.009	70.31
233.243	71.31
233.477	86.31
233.711	81.31
233.945	89.31
234.179	79.31
234.413	86.31
234.647	75.31
234.881	72.31
235.115	82.31
235.349	83.31
235.583	83.31
235.817	74.31
236.051	85.31
236.285	81.31
236.519	77.31
236.753	73.31
236.987	80.31
237.221	87.31
237.455	77.31
237.689	79.31
237.922	80.31
238.156	72.31
238.39	81.31
238.624	84.31
238.858	76.31
239.091	83.31
239.325	73.31
239.559	79.31
239.793	91.31
240.027	73.31
240.26	69.31
240.494	67.31
240.728	81.31
240.961	66.31
241.195	76.31
241.429	67.31
241.662	74.31
241.896	66.31
242.13	69.31
242.363	63.31
242.597	82.31
242.83	88.31
243.064	75.31
243.298	70.31
243.531	71.31
243.765	61.31
243.998	77.31
244.232	81.31
244.465	93.31
244.699	93.31
244.932	82.31
245.166	53.31
245.399	68.31
245.633	83.31
245.866	68.31
246.099	67.31
246.333	67.31
246.566	77.31
246.8	76.31
247.033	85.31
247.266	80.31
247.5	76.31
247.733	86.31
247.966	100.31
248.2	77.31
248.433	80.31
248.666	81.31
248.899	79.31
249.133	90.31
249.366	96.31
249.599	101.31
249.832	82.31
250.066	84.31
250.299	89.31
250.532	94.31
250.765	79.31
250.998	84.31
251.231	86.31
251.465	79.31
251.698	82.31
251.931	72.31
252.164	67.31
252.397	66.31
252.63	84.31
252.863	63.31
253.096	69.31
253.329	89.31
253.562	73.31
253.795	65.31
254.028	90.31
254.261	78.31
254.494	82.31
254.727	73.31
254.96	99.31
255.193	75.31
255.426	81.31
255.659	66.31
255.892	74.31
256.124	85.31
256.357	79.31
256.59	82.31
256.823	79.31
257.056	83.31
257.289	87.31
257.521	84.31
257.754	80.31
257.987	81.31
258.22	79.31
258.452	89.31
258.685	86.31
258.918	90.31
259.151	75.31
259.383	83.31
259.616	87.31
259.849	73.31
260.081	85.31
260.314	89.31
260.547	79.31
260.779	85.31
261.012	96.31
261.244	96.31
261.477	78.31
261.71	98.31
261.942	120.31
262.175	128.31
262.407	80.31
262.64	83.31
262.872	85.31
263.105	70.31
263.337	89.31
263.57	85.31
263.802	92.31
264.035	84.31
264.267	82.31
264.499	75.31
264.732	92.31
264.964	91.31
265.197	93.31
265.429	83.31
265.661	100.31
265.894	79.31
266.126	83.31
266.358	86.31
266.591	90.31
266.823	87.31
267.055	75.31
267.287	98.31
267.52	75.31
267.752	83.31
267.984	75.31
268.216	76.31
268.448	87.31
268.681	82.31
268.913	96.31
269.145	90.31
269.377	79.31
269.609	81.31
269.841	90.31
270.073	93.31
270.306	87.31
270.538	82.31
270.77	95.31
271.002	76.31
271.234	81.31
271.466	76.31
271.698	87.31
271.93	83.31
272.162	88.31
272.394	85.31
272.626	99.31
272.858	97.31
273.09	90.31
273.322	90.31
273.553	86.31
273.785	80.31
274.017	75.31
274.249	71.31
274.481	96.31
274.713	89.31
274.945	86.31
275.176	93.31
275.408	100.31
275.64	94.31
275.872	94.31
276.104	77.31
276.335	95.31
276.567	98.31
276.799	110.31
277.031	106.31
277.262	101.31
277.494	96.31
277.726	75.31
277.957	71.31
278.189	81.31
278.421	87.31
278.652	88.31
278.884	86.31
279.115	67.31
279.347	85.31
279.579	91.31
279.81	88.31
280.042	95.31
280.273	93.31
280.505	93.31
280.736	91.31
280.968	83.31
281.199	102.31
281.431	81.31
281.662	88.31
281.894	94.31
282.125	100.31
282.356	122.31
282.588	159.31
282.819	116.31
283.051	84.31
283.282	88.31
283.513	96.31
283.745	98.31
283.976	84.31
284.207	75.31
284.439	97.31
284.67	83.31
284.901	92.31
285.132	86.31
285.364	88.31
285.595	81.31
285.826	86.31
286.057	95.31
286.288	74.31
286.52	83.31
286.751	79.31
286.982	73.31
287.213	72.31
287.444	88.31
287.675	89.31
287.906	88.31
288.138	90.31
288.369	76.31
288.6	89.31
288.831	81.31
289.062	89.31
289.293	86.31
289.524	88.31
289.755	92.31
289.986	80.31
290.217	91.31
290.448	100.31
290.679	78.31
290.91	73.31
291.141	85.31
291.371	95.31
291.602	81.31
291.833	80.31
292.064	84.31
292.295	77.31
292.526	85.31
292.757	101.31
292.987	108.31
293.218	83.31
293.449	91.31
293.68	90.31
293.91	91.31
294.141	103.31
294.372	91.31
294.603	98.31
294.833	87.31
295.064	92.31
295.295	88.31
295.525	98.31
295.756	104.31
295.987	108.31
296.217	143.31
296.448	135.31
296.679	107.31
296.909	94.31
297.14	87.31
297.37	92.31
297.601	86.31
297.831	83.31
298.062	88.31
298.292	88.31
298.523	88.31
298.753	87.31
298.984	73.31
299.214	85.31
299.445	98.31
299.675	104.31
299.905	93.31
300.136	85.31
300.366	77.31
300.597	81.31
300.827	104.31
301.057	114.31
301.288	117.31
301.518	87.31
301.748	100.31
301.979	108.31
302.209	83.31
302.439	77.31
302.669	79.31
302.9	98.31
303.13	96.31
303.36	94.31
303.59	94.31
303.82	108.31
304.051	101.31
304.281	74.31
304.511	104.31
304.741	76.31
304.971	79.31
305.201	85.31
305.431	87.31
305.661	98.31
305.891	74.31
306.121	92.31
306.352	101.31
306.582	108.31
306.812	90.31
307.042	81.31
307.272	96.31
307.502	84.31
307.731	85.31
307.961	76.31
308.191	71.31
308.421	89.31
308.651	93.31
308.881	80.31
309.111	59.31
309.341	88.31
309.571	85.31
309.8	93.31
310.03	96.31
310.26	116.31
310.49	105.31
310.72	101.31
310.949	106.31
311.179	99.31
311.409	102.31
311.639	82.31
311.868	95.31
312.098	95.31
312.328	109.31
312.557	104.31
312.787	93.31
313.017	102.31
313.246	88.31
313.476	95.31
313.706	98.31
313.935	95.31
314.165	113.31
314.394	109.31
314.624	99.31
314.853	94.31
315.083	107.31
315.312	107.31
315.542	73.31
315.771	115.31
316.001	89.31
316.23	94.31
316.46	79.31
316.689	92.31
316.919	100.31
317.148	103.31
317.377	93.31
317.607	94.31
317.836	95.31
318.065	101.31
318.295	80.31
318.524	97.31
318.753	75.31
318.983	89.31
319.212	90.31
319.441	106.31
319.67	114.31
319.9	105.31
320.129	96.31
320.358	102.31
320.587	104.31
320.816	94.31
321.046	87.31
321.275	91.31
321.504	100.31
321.733	97.31
321.962	105.31
322.191	98.31
322.42	108.31
322.649	116.31
322.878	130.31
323.108	118.31
323.337	127.31
323.566	140.31
323.795	175.31
324.024	223.31
324.253	481.31
324.482	1004.31
324.71	2116.31
324.939	2853.31
325.168	1021.31
325.397	307.31
325.626	172.31
325.855	130.31
326.084	136.31
326.313	146.31
326.542	171.31
326.77	267.31
326.999	506.31
327.228	1075.31
327.457	2068.31
327.686	1720.31
327.914	442.31
328.143	240.31
328.372	184.31
328.6	135.31
328.829	146.31
329.058	145.31
329.287	137.31
329.515	121.31
329.744	114.31
329.972	116.31
330.201	126.31
330.43	155.31
330.658	139.31
330.887	170.31
331.115	158.31
331.344	106.31
331.572	101.31
331.801	112.31
332.03	106.31
332.258	107.31
332.486	95.31
332.715	83.31
332.943	80.31
333.172	88.31
333.4	90.31
333.629	118.31
333.857	109.31
334.085	122.31
334.314	127.31
334.542	147.31
334.771	145.31
334.999	109.31
335.227	94.31
335.455	95.31
335.684	88.31
335.912	95.31
336.14	90.31
336.369	104.31
336.597	97.31
336.825	106.31
337.053	86.31
337.281	85.31
337.51	85.31
337.738	83.31
337.966	106.31
338.194	101.31
338.422	107.31
338.65	94.31
338.878	99.31
339.106	91.31
339.334	79.31
339.562	88.31
339.79	90.31
340.018	83.31
340.246	96.31
340.474	97.31
340.702	91.31
340.93	89.31
341.158	88.31
341.386	86.31
341.614	101.31
341.842	107.31
342.07	88.31
342.298	100.31
342.526	97.31
342.754	87.31
342.981	81.31
343.209	91.31
343.437	94.31
343.665	85.31
343.893	93.31
344.12	87.31
344.348	81.31
344.576	99.31
344.804	82.31
345.031	111.31
345.259	107.31
345.487	86.31
345.714	104.31
345.942	89.31
346.17	91.31
346.397	100.31
346.625	97.31
346.853	100.31
347.08	79.31
347.308	87.31
347.535	102.31
347.763	107.31
347.99	113.31
348.218	100.31
348.445	103.31
348.673	112.31
348.9	97.31
349.128	97.31
349.355	96.31
349.583	83.31
349.81	101.31
350.037	105.31
350.265	99.31
350.492	90.31
350.72	91.31
350.947	106.31
351.174	101.31
351.402	109.31
351.629	112.31
351.856	90.31
352.083	103.31
352.311	111.31
352.538	124.31
352.765	125.31
352.992	125.31
353.22	99.31
353.447	94.31
353.674	81.31
353.901	98.31
354.128	92.31
354.355	96.31
354.583	99.31
354.81	89.31
355.037	89.31
355.264	102.31
355.491	101.31
355.718	86.31
355.945	92.31
356.172	75.31
356.399	91.31
356.626	102.31
356.853	93.31
357.08	99.31
357.307	84.31
357.534	94.31
357.761	94.31
357.988	96.31
358.215	91.31
358.441	108.31
358.668	97.31
358.895	99.31
359.122	102.31
359.349	99.31
359.576	99.31
359.802	91.31
360.029	129.31
360.256	110.31
360.483	104.31
360.709	83.31
360.936	93.31
361.163	99.31
361.39	97.31
361.616	106.31
361.843	98.31
362.07	104.31
362.296	93.31
362.523	94.31
362.749	103.31
362.976	92.31
363.203	82.31
363.429	73.31
363.656	100.31
363.882	95.31
364.109	95.31
364.335	75.31
364.562	83.31
364.788	85.31
365.015	91.31
365.241	114.31
365.468	105.31
365.694	105.31
365.92	124.31
366.147	96.31
366.373	86.31
366.599	76.31
366.826	88.31
367.052	91.31
367.278	95.31
367.505	95.31
367.731	96.31
367.957	78.31
368.184	107.31
368.41	96.31
368.636	113.31
368.862	120.31
369.089	103.31
369.315	105.31
369.541	84.31
369.767	93.31
369.993	95.31
370.219	91.31
370.445	83.31
370.672	91.31
370.898	76.31
371.124	85.31
371.35	75.31
371.576	89.31
371.802	98.31
372.028	85.31
372.254	96.31
372.48	89.31
372.706	88.31
372.932	98.31
373.158	85.31
373.384	89.31
373.61	97.31
373.835	91.31
374.061	88.31
374.287	95.31
374.513	83.31
374.739	99.31
374.965	82.31
375.191	105.31
375.416	74.31
375.642	85.31
375.868	87.31
376.094	90.31
376.319	90.31
376.545	106.31
376.771	89.31
376.997	87.31
377.222	85.31
377.448	74.31
377.674	91.31
377.899	80.31
378.125	88.31
378.35	97.31
378.576	88.31
378.802	95.31
379.027	84.31
379.253	102.31
379.478	84.31
379.704	85.31
379.929	94.31
380.155	98.31
380.38	91.31
380.606	109.31
380.831	101.31
381.057	107.31
381.282	90.31
381.507	89.31
381.733	96.31
381.958	97.31
382.184	100.31
382.409	99.31
382.634	104.31
382.86	94.31
383.085	96.31
383.31	91.31
383.535	93.31
383.761	112.31
383.986	100.31
384.211	104.31
384.436	98.31
384.662	86.31
384.887	98.31
385.112	95.31
385.337	108.31
385.562	106.31
385.787	117.31
386.013	105.31
386.238	130.31
386.463	120.31
386.688	114.31
386.913	95.31
387.138	106.31
387.363	99.31
387.588	84.31
387.813	99.31
388.038	101.31
388.263	112.31
388.488	106.31
388.713	111.31
388.938	94.31
389.163	93.31
389.387	100.31
389.612	91.31
389.837	114.31
390.062	84.31
390.287	89.31
390.512	84.31
390.736	89.31
390.961	86.31
391.186	75.31
391.411	83.31
391.636	97.31
391.86	89.31
392.085	104.31
392.31	90.31
392.534	85.31
392.759	87.31
392.984	89.31
393.208	83.31
393.433	114.31
393.658	116.31
393.882	106.31
394.107	99.31
394.331	86.31
394.556	83.31
394.78	82.31
395.005	67.31
395.229	75.31
395.454	69.31
395.678	85.31
395.903	94.31
396.127	96.31
396.352	87.31
396.576	92.31
396.801	103.31
397.025	108.31
397.249	82.31
397.474	74.31
397.698	85.31
397.922	85.31
398.147	80.31
398.371	84.31
398.595	93.31
398.82	79.31
399.044	71.31
399.268	90.31
399.492	77.31
399.717	85.31
399.941	97.31
400.165	83.31
400.389	80.31
400.613	81.31
400.837	82.31
401.062	73.31
401.286	82.31
401.51	93.31
401.734	87.31
401.958	91.31
402.182	129.31
402.406	177.31
402.63	144.31
402.854	97.31
403.078	85.31
403.302	79.31
403.526	78.31
403.75	89.31
403.974	90.31
404.198	84.31
404.422	72.31
404.645	106.31
404.869	84.31
405.093	105.31
405.317	96.31
405.541	104.31
405.765	111.31
405.988	118.31
406.212	198.31
406.436	281.31
406.66	195.31
406.883	123.31
407.107	97.31
407.331	105.31
407.555	106.31
407.778	92.31
408.002	105.31
408.226	99.31
408.449	81.31
408.673	75.31
408.896	85.31
409.12	94.31
409.344	90.31
409.567	91.31
409.791	91.31
410.014	82.31
410.238	81.31
410.461	71.31
410.685	93.31
410.908	74.31
411.132	102.31
411.355	82.31
411.578	83.31
411.802	75.31
412.025	79.31
412.249	109.31
412.472	98.31
412.695	85.31
412.919	85.31
413.142	97.31
413.365	86.31
413.589	87.31
413.812	95.31
414.035	92.31
414.258	85.31
414.482	91.31
414.705	87.31
414.928	87.31
415.151	96.31
415.374	87.31
415.597	91.31
415.821	82.31
416.044	79.31
416.267	89.31
416.49	91.31
416.713	66.31
416.936	79.31
417.159	96.31
417.382	77.31
417.605	92.31
417.828	93.31
418.051	85.31
418.274	72.31
418.497	100.31
418.72	72.31
418.943	83.31
419.166	92.31
419.389	107.31
419.611	79.31
419.834	91.31
420.057	88.31
420.28	79.31
420.503	85.31
420.726	92.31
420.948	91.31
421.171	97.31
421.394	73.31
421.617	96.31
421.839	93.31
422.062	83.31
422.285	86.31
422.507	95.31
422.73	116.31
422.953	93.31
423.175	81.31
423.398	74.31
423.621	83.31
423.843	71.31
424.066	84.31
424.288	72.31
424.511	87.31
424.733	90.31
424.956	104.31
425.178	106.31
425.401	115.31
425.623	91.31
425.846	91.31
426.068	83.31
426.291	85.31
426.513	88.31
426.735	99.31
426.958	86.31
427.18	107.31
427.402	152.31
427.625	223.31
427.847	159.31
428.069	103.31
428.292	81.31
428.514	84.31
428.736	81.31
428.958	82.31
429.181	88.31
429.403	83.31
429.625	90.31
429.847	101.31
430.069	93.31
430.292	100.31
430.514	83.31
430.736	88.31
430.958	79.31
431.18	82.31
431.402	81.31
431.624	88.31
431.846	98.31
432.068	92.31
432.29	82.31
432.512	88.31
432.734	83.31
432.956	103.31
433.178	97.31
433.4	100.31
433.622	93.31
433.844	93.31
434.066	89.31
434.287	86.31
434.509	81.31
434.731	85.31
434.953	89.31
435.175	88.31
435.397	77.31
435.618	88.31
435.84	105.31
436.062	109.31
436.284	118.31
436.505	89.31
436.727	95.31
436.949	91.31
437.17	88.31
437.392	87.31
437.614	105.31
437.835	112.31
438.057	136.31
438.278	107.31
438.5	105.31
438.721	128.31
438.943	108.31
439.165	89.31
439.386	93.31
439.608	96.31
439.829	96.31
440.05	117.31
440.272	160.31
440.493	107.31
440.715	103.31
440.936	95.31
441.158	84.31
441.379	89.31
441.6	103.31
441.822	84.31
442.043	108.31
442.264	95.31
442.486	93.31
442.707	83.31
442.928	114.31
443.149	164.31
443.371	152.31
443.592	109.31
443.813	110.31
444.034	109.31
444.255	94.31
444.476	90.31
444.698	81.31
444.919	87.31
445.14	122.31
445.361	133.31
445.582	140.31
445.803	163.31
446.024	145.31
446.245	153.31
446.466	118.31
446.687	83.31
446.908	81.31
447.129	97.31
447.35	94.31
447.571	91.31
447.792	90.31
448.013	109.31
448.234	112.31
448.455	116.31
448.675	109.31
448.896	114.31
449.117	100.31
449.338	99.31
449.559	129.31
449.779	143.31
450	101.31
450.221	87.31
450.442	93.31
450.662	96.31
450.883	119.31
451.104	126.31
451.324	116.31
451.545	87.31
451.766	96.31
451.986	73.31
452.207	81.31
452.428	102.31
452.648	113.31
452.869	119.31
453.089	129.31
453.31	146.31
453.53	99.31
453.751	102.31
453.971	114.31
454.192	115.31
454.412	91.31
454.633	91.31
454.853	97.31
455.073	98.31
455.294	100.31
455.514	103.31
455.734	83.31
455.955	67.31
456.175	83.31
456.395	85.31
456.616	92.31
456.836	79.31
457.056	79.31
457.276	90.31
457.497	87.31
457.717	97.31
457.937	99.31
458.157	87.31
458.377	98.31
458.598	128.31
458.818	183.31
459.038	193.31
459.258	136.31
459.478	99.31
459.698	71.31
459.918	90.31
460.138	91.31
460.358	85.31
460.578	88.31
460.798	99.31
461.018	75.31
461.238	93.31
461.458	88.31
461.678	81.31
461.898	86.31
462.118	83.31
462.338	80.31
462.558	76.31
462.777	85.31
462.997	91.31
463.217	85.31
463.437	82.31
463.657	79.31
463.876	86.31
464.096	86.31
464.316	80.31
464.536	89.31
464.755	93.31
464.975	116.31
465.195	217.31
465.414	197.31
465.634	99.31
465.854	91.31
466.073	96.31
466.293	87.31
466.512	87.31
466.732	82.31
466.951	84.31
467.171	80.31
467.391	108.31
467.61	113.31
467.829	101.31
468.049	99.31
468.268	116.31
468.488	93.31
468.707	102.31
468.927	85.31
469.146	91.31
469.365	92.31
469.585	94.31
469.804	95.31
470.023	108.31
470.243	91.31
470.462	99.31
470.681	124.31
470.901	87.31
471.12	92.31
471.339	77.31
471.558	76.31
471.777	90.31
471.997	89.31
472.216	128.31
472.435	179.31
472.654	103.31
472.873	102.31
473.092	101.31
473.311	98.31
473.53	83.31
473.749	100.31
473.968	100.31
474.187	109.31
474.406	103.31
474.625	96.31
474.844	89.31
475.063	86.31
475.282	97.31
475.501	84.31
475.72	86.31
475.939	90.31
476.158	97.31
476.377	86.31
476.596	87.31
476.814	109.31
477.033	93.31
477.252	81.31
477.471	79.31
477.69	92.31
477.908	88.31
478.127	85.31
478.346	95.31
478.564	99.31
478.783	94.31
479.002	80.31
479.22	88.31
479.439	116.31
479.658	118.31
479.876	101.31
480.095	88.31
480.313	99.31
480.532	103.31
480.751	92.31
480.969	115.31
481.188	243.31
481.406	174.31
481.624	103.31
481.843	103.31
482.061	86.31
482.28	84.31
482.498	95.31
482.717	97.31
482.935	90.31
483.153	96.31
483.372	86.31
483.59	87.31
483.808	80.31
484.027	92.31
484.245	111.31
484.463	88.31
484.681	95.31
484.9	68.31
485.118	85.31
485.336	83.31
485.554	100.31
485.772	107.31
485.99	114.31
486.209	89.31
486.427	119.31
486.645	129.31
486.863	106.31
487.081	111.31
487.299	95.31
487.517	88.31
487.735	79.31
487.953	101.31
488.171	99.31
488.389	92.31
488.607	96.31
488.825	78.31
489.043	70.31
489.261	85.31
489.479	93.31
489.696	98.31
489.914	91.31
490.132	91.31
490.35	102.31
490.568	100.31
490.786	98.31
491.003	98.31
491.221	90.31
491.439	93.31
491.657	90.31
491.874	98.31
492.092	105.31
492.31	101.31
492.527	84.31
492.745	103.31
492.963	99.31
493.18	96.31
493.398	95.31
493.615	103.31
493.833	85.31
494.05	84.31
494.268	88.31
494.485	88.31
494.703	79.31
494.92	83.31
495.138	85.31
495.355	92.31
495.573	89.31
495.79	94.31
496.008	104.31
496.225	83.31
496.442	88.31
496.66	85.31
496.877	101.31
497.094	82.31
497.312	96.31
497.529	91.31
497.746	100.31
497.963	76.31
498.181	102.31
498.398	90.31
498.615	100.31
498.832	98.31
499.049	96.31
499.267	95.31
499.484	93.31
499.701	87.31
499.918	89.31
500.135	88.31
500.352	106.31
500.569	81.31
500.786	92.31
501.003	85.31
501.22	88.31
501.437	97.31
501.654	95.31
501.871	116.31
502.088	92.31
502.305	85.31
502.522	89.31
502.739	85.31
502.956	81.31
503.172	104.31
503.389	92.31
503.606	108.31
503.823	110.31
504.04	92.31
504.256	80.31
504.473	89.31
504.69	86.31
504.907	103.31
505.123	106.31
505.34	83.31
505.557	74.31
505.773	106.31
505.99	77.31
506.207	105.31
506.423	80.31
506.64	85.31
506.856	99.31
507.073	101.31
507.289	103.31
507.506	108.31
507.722	121.31
507.939	123.31
508.155	107.31
508.372	102.31
508.588	95.31
508.805	110.31
509.021	99.31
509.238	104.31
509.454	95.31
509.67	95.31
509.887	109.31
510.103	147.31
510.319	211.31
510.536	849.31
510.752	2771.31
510.968	735.31
511.184	163.31
511.401	119.31
511.617	107.31
511.833	101.31
512.049	86.31
512.265	90.31
512.481	97.31
512.698	88.31
512.914	87.31
513.13	111.31
513.346	83.31
513.562	101.31
513.778	88.31
513.994	89.31
514.21	115.31
514.426	128.31
514.642	167.31
514.858	147.31
