Data from Circ_1981_H10_HRD10591_00048.txt Node
Date: Wed Jan 03 12:34:30 EST 2024
User: Yrep
Spectrometer: HR+D1059
Trigger mode: 1
Integration Time (sec): 1.000000E-1
Scans to average: 1
Electric dark correction enabled: true
Nonlinearity correction enabled: false
Boxcar width: 0
XAxis mode: Wavelengths
Number of Pixels in Spectrum: 2048
>>>>>Begin Spectral Data<<<<<
223.165	-21.81
223.4	-21.81
223.635	-21.81
223.869	-16.81
224.104	-13.81
224.338	-12.81
224.573	-17.81
224.808	-15.81
225.042	8.19
225.277	-2.81
225.511	-14.81
225.746	3.19
225.98	8.19
226.215	11.19
226.449	19.19
226.683	16.19
226.918	24.19
227.152	26.19
227.387	23.19
227.621	54.19
227.856	44.19
228.09	48.19
228.324	48.19
228.559	59.19
228.793	53.19
229.027	71.19
229.262	72.19
229.496	74.19
229.73	97.19
229.964	86.19
230.199	79.19
230.433	82.19
230.667	68.19
230.901	67.19
231.136	91.19
231.37	74.19
231.604	71.19
231.838	73.19
232.072	75.19
232.306	82.19
232.541	82.19
232.775	92.19
233.009	72.19
233.243	75.19
233.477	84.19
233.711	89.19
233.945	93.19
234.179	84.19
234.413	81.19
234.647	80.19
234.881	80.19
235.115	74.19
235.349	80.19
235.583	76.19
235.817	74.19
236.051	75.19
236.285	72.19
236.519	77.19
236.753	76.19
236.987	88.19
237.221	90.19
237.455	91.19
237.689	75.19
237.922	75.19
238.156	82.19
238.39	94.19
238.624	69.19
238.858	80.19
239.091	62.19
239.325	83.19
239.559	88.19
239.793	67.19
240.027	66.19
240.26	75.19
240.494	69.19
240.728	87.19
240.961	77.19
241.195	80.19
241.429	67.19
241.662	84.19
241.896	69.19
242.13	56.19
242.363	67.19
242.597	65.19
242.83	90.19
243.064	54.19
243.298	68.19
243.531	71.19
243.765	75.19
243.998	68.19
244.232	68.19
244.465	81.19
244.699	56.19
244.932	78.19
245.166	82.19
245.399	71.19
245.633	66.19
245.866	69.19
246.099	63.19
246.333	83.19
246.566	68.19
246.8	68.19
247.033	59.19
247.266	80.19
247.5	86.19
247.733	82.19
247.966	78.19
248.2	85.19
248.433	79.19
248.666	78.19
248.899	80.19
249.133	83.19
249.366	99.19
249.599	103.19
249.832	82.19
250.066	84.19
250.299	84.19
250.532	84.19
250.765	87.19
250.998	70.19
251.231	81.19
251.465	85.19
251.698	86.19
251.931	72.19
252.164	80.19
252.397	77.19
252.63	70.19
252.863	90.19
253.096	78.19
253.329	68.19
253.562	71.19
253.795	69.19
254.028	71.19
254.261	69.19
254.494	74.19
254.727	74.19
254.96	85.19
255.193	76.19
255.426	91.19
255.659	82.19
255.892	92.19
256.124	87.19
256.357	82.19
256.59	83.19
256.823	81.19
257.056	87.19
257.289	89.19
257.521	91.19
257.754	75.19
257.987	87.19
258.22	82.19
258.452	91.19
258.685	76.19
258.918	87.19
259.151	77.19
259.383	78.19
259.616	79.19
259.849	84.19
260.081	86.19
260.314	85.19
260.547	99.19
260.779	94.19
261.012	82.19
261.244	83.19
261.477	80.19
261.71	111.19
261.942	119.19
262.175	135.19
262.407	103.19
262.64	67.19
262.872	88.19
263.105	82.19
263.337	89.19
263.57	94.19
263.802	81.19
264.035	74.19
264.267	71.19
264.499	82.19
264.732	78.19
264.964	71.19
265.197	81.19
265.429	78.19
265.661	78.19
265.894	70.19
266.126	72.19
266.358	101.19
266.591	86.19
266.823	77.19
267.055	76.19
267.287	74.19
267.52	76.19
267.752	76.19
267.984	90.19
268.216	89.19
268.448	94.19
268.681	100.19
268.913	84.19
269.145	97.19
269.377	87.19
269.609	87.19
269.841	71.19
270.073	85.19
270.306	84.19
270.538	85.19
270.77	81.19
271.002	93.19
271.234	79.19
271.466	82.19
271.698	87.19
271.93	90.19
272.162	83.19
272.394	88.19
272.626	88.19
272.858	88.19
273.09	85.19
273.322	83.19
273.553	81.19
273.785	89.19
274.017	96.19
274.249	88.19
274.481	78.19
274.713	71.19
274.945	76.19
275.176	98.19
275.408	86.19
275.64	87.19
275.872	82.19
276.104	88.19
276.335	100.19
276.567	105.19
276.799	126.19
277.031	116.19
277.262	94.19
277.494	91.19
277.726	84.19
277.957	101.19
278.189	77.19
278.421	91.19
278.652	76.19
278.884	88.19
279.115	82.19
279.347	76.19
279.579	75.19
279.81	84.19
280.042	71.19
280.273	90.19
280.505	90.19
280.736	88.19
280.968	87.19
281.199	89.19
281.431	78.19
281.662	93.19
281.894	88.19
282.125	94.19
282.356	132.19
282.588	157.19
282.819	133.19
283.051	100.19
283.282	82.19
283.513	87.19
283.745	90.19
283.976	98.19
284.207	82.19
284.439	98.19
284.67	79.19
284.901	81.19
285.132	81.19
285.364	68.19
285.595	81.19
285.826	84.19
286.057	97.19
286.288	84.19
286.52	86.19
286.751	87.19
286.982	85.19
287.213	87.19
287.444	85.19
287.675	90.19
287.906	86.19
288.138	73.19
288.369	92.19
288.6	86.19
288.831	88.19
289.062	80.19
289.293	86.19
289.524	83.19
289.755	82.19
289.986	89.19
290.217	105.19
290.448	87.19
290.679	73.19
290.91	81.19
291.141	92.19
291.371	85.19
291.602	97.19
291.833	99.19
292.064	82.19
292.295	95.19
292.526	84.19
292.757	89.19
292.987	83.19
293.218	94.19
293.449	78.19
293.68	78.19
293.91	98.19
294.141	98.19
294.372	86.19
294.603	94.19
294.833	79.19
295.064	79.19
295.295	92.19
295.525	90.19
295.756	94.19
295.987	108.19
296.217	166.19
296.448	131.19
296.679	84.19
296.909	99.19
297.14	98.19
297.37	88.19
297.601	107.19
297.831	99.19
298.062	98.19
298.292	100.19
298.523	97.19
298.753	99.19
298.984	88.19
299.214	82.19
299.445	101.19
299.675	100.19
299.905	97.19
300.136	83.19
300.366	94.19
300.597	80.19
300.827	113.19
301.057	99.19
301.288	107.19
301.518	91.19
301.748	95.19
301.979	107.19
302.209	94.19
302.439	95.19
302.669	80.19
302.9	100.19
303.13	89.19
303.36	99.19
303.59	107.19
303.82	99.19
304.051	84.19
304.281	110.19
304.511	90.19
304.741	82.19
304.971	83.19
305.201	89.19
305.431	82.19
305.661	82.19
305.891	87.19
306.121	98.19
306.352	103.19
306.582	107.19
306.812	94.19
307.042	88.19
307.272	78.19
307.502	95.19
307.731	89.19
307.961	88.19
308.191	88.19
308.421	98.19
308.651	88.19
308.881	91.19
309.111	91.19
309.341	93.19
309.571	92.19
309.8	100.19
310.03	95.19
310.26	98.19
310.49	102.19
310.72	107.19
310.949	124.19
311.179	115.19
311.409	94.19
311.639	73.19
311.868	99.19
312.098	104.19
312.328	109.19
312.557	128.19
312.787	112.19
313.017	112.19
313.246	111.19
313.476	103.19
313.706	93.19
313.935	94.19
314.165	111.19
314.394	110.19
314.624	99.19
314.853	104.19
315.083	101.19
315.312	94.19
315.542	86.19
315.771	68.19
316.001	105.19
316.23	104.19
316.46	106.19
316.689	70.19
316.919	92.19
317.148	93.19
317.377	102.19
317.607	91.19
317.836	90.19
318.065	87.19
318.295	88.19
318.524	86.19
318.753	78.19
318.983	82.19
319.212	110.19
319.441	102.19
319.67	99.19
319.9	85.19
320.129	90.19
320.358	83.19
320.587	86.19
320.816	94.19
321.046	103.19
321.275	88.19
321.504	96.19
321.733	90.19
321.962	112.19
322.191	99.19
322.42	108.19
322.649	121.19
322.878	105.19
323.108	131.19
323.337	140.19
323.566	143.19
323.795	172.19
324.024	230.19
324.253	423.19
324.482	966.19
324.71	1978.19
324.939	2641.19
325.168	996.19
325.397	269.19
325.626	143.19
325.855	133.19
326.084	147.19
326.313	138.19
326.542	154.19
326.77	241.19
326.999	483.19
327.228	1012.19
327.457	1896.19
327.686	1490.19
327.914	435.19
328.143	232.19
328.372	196.19
328.6	140.19
328.829	135.19
329.058	139.19
329.287	155.19
329.515	134.19
329.744	103.19
329.972	117.19
330.201	126.19
330.43	170.19
330.658	172.19
330.887	189.19
331.115	158.19
331.344	97.19
331.572	115.19
331.801	119.19
332.03	115.19
332.258	92.19
332.486	95.19
332.715	96.19
332.943	94.19
333.172	108.19
333.4	106.19
333.629	107.19
333.857	115.19
334.085	135.19
334.314	114.19
334.542	152.19
334.771	162.19
334.999	118.19
335.227	110.19
335.455	114.19
335.684	98.19
335.912	88.19
336.14	96.19
336.369	106.19
336.597	99.19
336.825	110.19
337.053	96.19
337.281	98.19
337.51	91.19
337.738	86.19
337.966	107.19
338.194	116.19
338.422	94.19
338.65	97.19
338.878	100.19
339.106	82.19
339.334	71.19
339.562	87.19
339.79	99.19
340.018	94.19
340.246	93.19
340.474	99.19
340.702	87.19
340.93	94.19
341.158	99.19
341.386	110.19
341.614	105.19
341.842	101.19
342.07	105.19
342.298	89.19
342.526	88.19
342.754	96.19
342.981	90.19
343.209	83.19
343.437	85.19
343.665	93.19
343.893	88.19
344.12	84.19
344.348	85.19
344.576	91.19
344.804	83.19
345.031	99.19
345.259	102.19
345.487	106.19
345.714	95.19
345.942	98.19
346.17	103.19
346.397	95.19
346.625	98.19
346.853	100.19
347.08	100.19
347.308	100.19
347.535	91.19
347.763	119.19
347.99	90.19
348.218	116.19
348.445	116.19
348.673	115.19
348.9	106.19
349.128	111.19
349.355	94.19
349.583	94.19
349.81	89.19
350.037	94.19
350.265	103.19
350.492	109.19
350.72	92.19
350.947	126.19
351.174	132.19
351.402	126.19
351.629	112.19
351.856	98.19
352.083	111.19
352.311	107.19
352.538	105.19
352.765	112.19
352.992	118.19
353.22	115.19
353.447	109.19
353.674	100.19
353.901	90.19
354.128	96.19
354.355	99.19
354.583	103.19
354.81	98.19
355.037	105.19
355.264	94.19
355.491	101.19
355.718	83.19
355.945	86.19
356.172	101.19
356.399	84.19
356.626	99.19
356.853	100.19
357.08	86.19
357.307	76.19
357.534	88.19
357.761	94.19
357.988	94.19
358.215	103.19
358.441	89.19
358.668	92.19
358.895	91.19
359.122	106.19
359.349	97.19
359.576	94.19
359.802	100.19
360.029	135.19
360.256	133.19
360.483	98.19
360.709	92.19
360.936	95.19
361.163	99.19
361.39	98.19
361.616	111.19
361.843	90.19
362.07	100.19
362.296	102.19
362.523	81.19
362.749	82.19
362.976	103.19
363.203	105.19
363.429	97.19
363.656	111.19
363.882	102.19
364.109	69.19
364.335	89.19
364.562	91.19
364.788	95.19
365.015	95.19
365.241	108.19
365.468	111.19
365.694	106.19
365.92	92.19
366.147	96.19
366.373	81.19
366.599	92.19
366.826	86.19
367.052	92.19
367.278	94.19
367.505	97.19
367.731	92.19
367.957	93.19
368.184	86.19
368.41	106.19
368.636	108.19
368.862	137.19
369.089	112.19
369.315	101.19
369.541	102.19
369.767	97.19
369.993	99.19
370.219	96.19
370.445	89.19
370.672	72.19
370.898	90.19
371.124	100.19
371.35	83.19
371.576	74.19
371.802	87.19
372.028	94.19
372.254	90.19
372.48	102.19
372.706	87.19
372.932	96.19
373.158	80.19
373.384	73.19
373.61	103.19
373.835	91.19
374.061	89.19
374.287	83.19
374.513	90.19
374.739	75.19
374.965	89.19
375.191	80.19
375.416	90.19
375.642	87.19
375.868	80.19
376.094	85.19
376.319	89.19
376.545	103.19
376.771	90.19
376.997	100.19
377.222	88.19
377.448	91.19
377.674	83.19
377.899	76.19
378.125	82.19
378.35	91.19
378.576	92.19
378.802	104.19
379.027	96.19
379.253	84.19
379.478	98.19
379.704	94.19
379.929	95.19
380.155	96.19
380.38	91.19
380.606	92.19
380.831	97.19
381.057	92.19
381.282	85.19
381.507	106.19
381.733	94.19
381.958	78.19
382.184	111.19
382.409	96.19
382.634	102.19
382.86	94.19
383.085	102.19
383.31	80.19
383.535	94.19
383.761	101.19
383.986	90.19
384.211	102.19
384.436	89.19
384.662	96.19
384.887	96.19
385.112	93.19
385.337	115.19
385.562	96.19
385.787	107.19
386.013	105.19
386.238	108.19
386.463	95.19
386.688	96.19
386.913	106.19
387.138	109.19
387.363	97.19
387.588	97.19
387.813	107.19
388.038	102.19
388.263	108.19
388.488	107.19
388.713	103.19
388.938	107.19
389.163	95.19
389.387	92.19
389.612	93.19
389.837	98.19
390.062	87.19
390.287	85.19
390.512	84.19
390.736	76.19
390.961	88.19
391.186	91.19
391.411	93.19
391.636	76.19
391.86	94.19
392.085	84.19
392.31	88.19
392.534	98.19
392.759	83.19
392.984	80.19
393.208	91.19
393.433	91.19
393.658	91.19
393.882	89.19
394.107	78.19
394.331	70.19
394.556	72.19
394.78	91.19
395.005	85.19
395.229	91.19
395.454	76.19
395.678	74.19
395.903	99.19
396.127	100.19
396.352	96.19
396.576	75.19
396.801	87.19
397.025	85.19
397.249	100.19
397.474	92.19
397.698	70.19
397.922	82.19
398.147	90.19
398.371	78.19
398.595	86.19
398.82	75.19
399.044	80.19
399.268	93.19
399.492	86.19
399.717	85.19
399.941	83.19
400.165	90.19
400.389	91.19
400.613	92.19
400.837	88.19
401.062	74.19
401.286	98.19
401.51	86.19
401.734	94.19
401.958	106.19
402.182	144.19
402.406	178.19
402.63	122.19
402.854	98.19
403.078	97.19
403.302	75.19
403.526	84.19
403.75	90.19
403.974	84.19
404.198	90.19
404.422	92.19
404.645	95.19
404.869	86.19
405.093	86.19
405.317	84.19
405.541	88.19
405.765	94.19
405.988	120.19
406.212	198.19
406.436	300.19
406.66	188.19
406.883	112.19
407.107	101.19
407.331	106.19
407.555	107.19
407.778	99.19
408.002	92.19
408.226	88.19
408.449	74.19
408.673	90.19
408.896	91.19
409.12	105.19
409.344	65.19
409.567	86.19
409.791	102.19
410.014	86.19
410.238	94.19
410.461	95.19
410.685	82.19
410.908	98.19
411.132	115.19
411.355	94.19
411.578	90.19
411.802	87.19
412.025	81.19
412.249	97.19
412.472	89.19
412.695	92.19
412.919	86.19
413.142	84.19
413.365	89.19
413.589	99.19
413.812	86.19
414.035	90.19
414.258	85.19
414.482	81.19
414.705	82.19
414.928	95.19
415.151	89.19
415.374	93.19
415.597	90.19
415.821	90.19
416.044	89.19
416.267	95.19
416.49	89.19
416.713	96.19
416.936	96.19
417.159	93.19
417.382	92.19
417.605	91.19
417.828	95.19
418.051	105.19
418.274	97.19
418.497	72.19
418.72	95.19
418.943	76.19
419.166	83.19
419.389	88.19
419.611	93.19
419.834	88.19
420.057	90.19
420.28	73.19
420.503	78.19
420.726	82.19
420.948	92.19
421.171	90.19
421.394	88.19
421.617	71.19
421.839	88.19
422.062	84.19
422.285	95.19
422.507	94.19
422.73	107.19
422.953	85.19
423.175	88.19
423.398	87.19
423.621	79.19
423.843	96.19
424.066	89.19
424.288	90.19
424.511	92.19
424.733	96.19
424.956	129.19
425.178	110.19
425.401	110.19
425.623	112.19
425.846	94.19
426.068	85.19
426.291	86.19
426.513	89.19
426.735	92.19
426.958	100.19
427.18	124.19
427.402	173.19
427.625	210.19
427.847	164.19
428.069	123.19
428.292	102.19
428.514	84.19
428.736	82.19
428.958	88.19
429.181	87.19
429.403	84.19
429.625	90.19
429.847	104.19
430.069	115.19
430.292	98.19
430.514	80.19
430.736	81.19
430.958	92.19
431.18	94.19
431.402	92.19
431.624	90.19
431.846	95.19
432.068	102.19
432.29	99.19
432.512	88.19
432.734	84.19
432.956	90.19
433.178	86.19
433.4	87.19
433.622	88.19
433.844	88.19
434.066	94.19
434.287	90.19
434.509	98.19
434.731	80.19
434.953	88.19
435.175	97.19
435.397	98.19
435.618	98.19
435.84	114.19
436.062	125.19
436.284	134.19
436.505	103.19
436.727	97.19
436.949	94.19
437.17	89.19
437.392	72.19
437.614	92.19
437.835	110.19
438.057	154.19
438.278	107.19
438.5	105.19
438.721	131.19
438.943	107.19
439.165	96.19
439.386	81.19
439.608	84.19
439.829	114.19
440.05	139.19
440.272	177.19
440.493	113.19
440.715	96.19
440.936	91.19
441.158	94.19
441.379	87.19
441.6	88.19
441.822	102.19
442.043	94.19
442.264	112.19
442.486	101.19
442.707	94.19
442.928	112.19
443.149	155.19
443.371	163.19
443.592	122.19
443.813	124.19
444.034	119.19
444.255	96.19
444.476	100.19
444.698	96.19
444.919	81.19
445.14	117.19
445.361	120.19
445.582	132.19
445.803	166.19
446.024	180.19
446.245	158.19
446.466	118.19
446.687	71.19
446.908	80.19
447.129	90.19
447.35	91.19
447.571	88.19
447.792	95.19
448.013	105.19
448.234	115.19
448.455	114.19
448.675	130.19
448.896	124.19
449.117	108.19
449.338	108.19
449.559	159.19
449.779	160.19
450	116.19
450.221	86.19
450.442	84.19
450.662	106.19
450.883	114.19
451.104	118.19
451.324	105.19
451.545	86.19
451.766	78.19
451.986	83.19
452.207	84.19
452.428	91.19
452.648	101.19
452.869	119.19
453.089	108.19
453.31	129.19
453.53	102.19
453.751	94.19
453.971	97.19
454.192	127.19
454.412	105.19
454.633	75.19
454.853	73.19
455.073	90.19
455.294	74.19
455.514	94.19
455.734	99.19
455.955	75.19
456.175	78.19
456.395	67.19
456.616	85.19
456.836	75.19
457.056	95.19
457.276	81.19
457.497	80.19
457.717	89.19
457.937	86.19
458.157	89.19
458.377	109.19
458.598	121.19
458.818	184.19
459.038	213.19
459.258	139.19
459.478	100.19
459.698	86.19
459.918	88.19
460.138	71.19
460.358	74.19
460.578	79.19
460.798	97.19
461.018	93.19
461.238	93.19
461.458	87.19
461.678	77.19
461.898	86.19
462.118	85.19
462.338	84.19
462.558	87.19
462.777	88.19
462.997	82.19
463.217	90.19
463.437	97.19
463.657	84.19
463.876	98.19
464.096	93.19
464.316	108.19
464.536	95.19
464.755	98.19
464.975	121.19
465.195	214.19
465.414	223.19
465.634	105.19
465.854	91.19
466.073	76.19
466.293	77.19
466.512	81.19
466.732	84.19
466.951	78.19
467.171	82.19
467.391	99.19
467.61	119.19
467.829	97.19
468.049	93.19
468.268	111.19
468.488	90.19
468.707	66.19
468.927	72.19
469.146	94.19
469.365	86.19
469.585	94.19
469.804	90.19
470.023	99.19
470.243	86.19
470.462	112.19
470.681	109.19
470.901	94.19
471.12	85.19
471.339	87.19
471.558	99.19
471.777	101.19
471.997	97.19
472.216	121.19
472.435	172.19
472.654	102.19
472.873	103.19
473.092	90.19
473.311	79.19
473.53	85.19
473.749	98.19
473.968	106.19
474.187	126.19
474.406	112.19
474.625	96.19
474.844	93.19
475.063	91.19
475.282	87.19
475.501	91.19
475.72	86.19
475.939	78.19
476.158	76.19
476.377	74.19
476.596	96.19
476.814	92.19
477.033	97.19
477.252	90.19
477.471	80.19
477.69	76.19
477.908	83.19
478.127	89.19
478.346	88.19
478.564	79.19
478.783	105.19
479.002	102.19
479.22	98.19
479.439	99.19
479.658	103.19
479.876	121.19
480.095	88.19
480.313	97.19
480.532	84.19
480.751	97.19
480.969	113.19
481.188	243.19
481.406	191.19
481.624	104.19
481.843	98.19
482.061	90.19
482.28	93.19
482.498	98.19
482.717	90.19
482.935	86.19
483.153	79.19
483.372	95.19
483.59	82.19
483.808	76.19
484.027	74.19
484.245	104.19
484.463	103.19
484.681	93.19
484.9	88.19
485.118	98.19
485.336	89.19
485.554	89.19
485.772	102.19
485.99	102.19
486.209	115.19
486.427	104.19
486.645	109.19
486.863	128.19
487.081	104.19
487.299	96.19
487.517	93.19
487.735	94.19
487.953	99.19
488.171	94.19
488.389	109.19
488.607	113.19
488.825	91.19
489.043	95.19
489.261	91.19
489.479	81.19
489.696	84.19
489.914	98.19
490.132	96.19
490.35	81.19
490.568	83.19
490.786	82.19
491.003	80.19
491.221	88.19
491.439	96.19
491.657	87.19
491.874	80.19
492.092	97.19
492.31	94.19
492.527	81.19
492.745	100.19
492.963	74.19
493.18	84.19
493.398	88.19
493.615	94.19
493.833	91.19
494.05	88.19
494.268	65.19
494.485	86.19
494.703	78.19
494.92	88.19
495.138	83.19
495.355	87.19
495.573	97.19
495.79	83.19
496.008	95.19
496.225	88.19
496.442	90.19
496.66	91.19
496.877	85.19
497.094	101.19
497.312	101.19
497.529	106.19
497.746	100.19
497.963	92.19
498.181	90.19
498.398	87.19
498.615	117.19
498.832	115.19
499.049	100.19
499.267	78.19
499.484	91.19
499.701	79.19
499.918	76.19
500.135	94.19
500.352	85.19
500.569	102.19
500.786	91.19
501.003	93.19
501.22	91.19
501.437	90.19
501.654	94.19
501.871	115.19
502.088	93.19
502.305	93.19
502.522	85.19
502.739	87.19
502.956	84.19
503.172	98.19
503.389	102.19
503.606	111.19
503.823	101.19
504.04	86.19
504.256	83.19
504.473	95.19
504.69	92.19
504.907	90.19
505.123	76.19
505.34	104.19
505.557	86.19
505.773	92.19
505.99	98.19
506.207	102.19
506.423	96.19
506.64	83.19
506.856	106.19
507.073	80.19
507.289	106.19
507.506	98.19
507.722	119.19
507.939	108.19
508.155	96.19
508.372	83.19
508.588	95.19
508.805	90.19
509.021	83.19
509.238	90.19
509.454	90.19
509.67	106.19
509.887	125.19
510.103	148.19
510.319	215.19
510.536	805.19
510.752	2874.19
510.968	759.19
511.184	173.19
511.401	119.19
511.617	96.19
511.833	104.19
512.049	103.19
512.265	95.19
512.481	101.19
512.698	98.19
512.914	97.19
513.13	98.19
513.346	101.19
513.562	98.19
513.778	89.19
513.994	107.19
514.21	107.19
514.426	139.19
514.642	183.19
514.858	150.19
