Data from Circ_1981_H10_HRD10591_00087.txt Node
Date: Wed Jan 03 12:34:38 EST 2024
User: Yrep
Spectrometer: HR+D1059
Trigger mode: 1
Integration Time (sec): 1.000000E-1
Scans to average: 1
Electric dark correction enabled: true
Nonlinearity correction enabled: false
Boxcar width: 0
XAxis mode: Wavelengths
Number of Pixels in Spectrum: 2048
>>>>>Begin Spectral Data<<<<<
223.165	-15.75
223.4	-15.75
223.635	-15.75
223.869	-26.75
224.104	-20.75
224.338	-8.75
224.573	-9.75
224.808	-13.75
225.042	-7.75
225.277	2.25
225.511	-8.75
225.746	-4.75
225.98	13.25
226.215	8.25
226.449	17.25
226.683	23.25
226.918	30.25
227.152	22.25
227.387	34.25
227.621	33.25
227.856	27.25
228.09	41.25
228.324	43.25
228.559	52.25
228.793	70.25
229.027	39.25
229.262	70.25
229.496	84.25
229.73	102.25
229.964	101.25
230.199	81.25
230.433	59.25
230.667	74.25
230.901	76.25
231.136	62.25
231.37	68.25
231.604	76.25
231.838	68.25
232.072	82.25
232.306	69.25
232.541	83.25
232.775	86.25
233.009	92.25
233.243	87.25
233.477	86.25
233.711	83.25
233.945	76.25
234.179	77.25
234.413	87.25
234.647	71.25
234.881	70.25
235.115	83.25
235.349	68.25
235.583	85.25
235.817	60.25
236.051	73.25
236.285	68.25
236.519	73.25
236.753	75.25
236.987	90.25
237.221	91.25
237.455	95.25
237.689	79.25
237.922	63.25
238.156	88.25
238.39	79.25
238.624	87.25
238.858	68.25
239.091	73.25
239.325	90.25
239.559	83.25
239.793	75.25
240.027	75.25
240.26	84.25
240.494	79.25
240.728	88.25
240.961	73.25
241.195	87.25
241.429	79.25
241.662	66.25
241.896	76.25
242.13	85.25
242.363	76.25
242.597	76.25
242.83	81.25
243.064	76.25
243.298	68.25
243.531	76.25
243.765	75.25
243.998	79.25
244.232	72.25
244.465	70.25
244.699	65.25
244.932	89.25
245.166	76.25
245.399	71.25
245.633	79.25
245.866	63.25
246.099	79.25
246.333	81.25
246.566	75.25
246.8	79.25
247.033	85.25
247.266	73.25
247.5	71.25
247.733	74.25
247.966	90.25
248.2	84.25
248.433	88.25
248.666	67.25
248.899	80.25
249.133	76.25
249.366	101.25
249.599	102.25
249.832	83.25
250.066	81.25
250.299	81.25
250.532	82.25
250.765	89.25
250.998	90.25
251.231	77.25
251.465	84.25
251.698	93.25
251.931	83.25
252.164	79.25
252.397	90.25
252.63	80.25
252.863	91.25
253.096	73.25
253.329	79.25
253.562	72.25
253.795	90.25
254.028	71.25
254.261	73.25
254.494	79.25
254.727	81.25
254.96	80.25
255.193	81.25
255.426	87.25
255.659	80.25
255.892	79.25
256.124	76.25
256.357	83.25
256.59	77.25
256.823	81.25
257.056	82.25
257.289	79.25
257.521	83.25
257.754	86.25
257.987	82.25
258.22	88.25
258.452	73.25
258.685	65.25
258.918	79.25
259.151	92.25
259.383	77.25
259.616	87.25
259.849	65.25
260.081	69.25
260.314	74.25
260.547	90.25
260.779	77.25
261.012	80.25
261.244	91.25
261.477	98.25
261.71	113.25
261.942	127.25
262.175	143.25
262.407	83.25
262.64	79.25
262.872	90.25
263.105	89.25
263.337	81.25
263.57	89.25
263.802	92.25
264.035	85.25
264.267	82.25
264.499	77.25
264.732	90.25
264.964	74.25
265.197	96.25
265.429	89.25
265.661	85.25
265.894	107.25
266.126	79.25
266.358	73.25
266.591	83.25
266.823	83.25
267.055	80.25
267.287	87.25
267.52	79.25
267.752	92.25
267.984	76.25
268.216	81.25
268.448	79.25
268.681	90.25
268.913	97.25
269.145	80.25
269.377	100.25
269.609	85.25
269.841	87.25
270.073	82.25
270.306	96.25
270.538	73.25
270.77	92.25
271.002	88.25
271.234	83.25
271.466	85.25
271.698	88.25
271.93	98.25
272.162	85.25
272.394	86.25
272.626	95.25
272.858	84.25
273.09	84.25
273.322	75.25
273.553	88.25
273.785	84.25
274.017	80.25
274.249	73.25
274.481	89.25
274.713	89.25
274.945	101.25
275.176	100.25
275.408	102.25
275.64	89.25
275.872	74.25
276.104	79.25
276.335	83.25
276.567	97.25
276.799	119.25
277.031	119.25
277.262	103.25
277.494	96.25
277.726	74.25
277.957	97.25
278.189	90.25
278.421	76.25
278.652	89.25
278.884	87.25
279.115	95.25
279.347	79.25
279.579	88.25
279.81	80.25
280.042	92.25
280.273	81.25
280.505	76.25
280.736	75.25
280.968	81.25
281.199	76.25
281.431	89.25
281.662	81.25
281.894	84.25
282.125	88.25
282.356	133.25
282.588	172.25
282.819	127.25
283.051	95.25
283.282	84.25
283.513	84.25
283.745	79.25
283.976	79.25
284.207	74.25
284.439	88.25
284.67	75.25
284.901	81.25
285.132	80.25
285.364	95.25
285.595	86.25
285.826	72.25
286.057	92.25
286.288	91.25
286.52	92.25
286.751	79.25
286.982	75.25
287.213	75.25
287.444	82.25
287.675	81.25
287.906	98.25
288.138	87.25
288.369	82.25
288.6	84.25
288.831	82.25
289.062	88.25
289.293	91.25
289.524	95.25
289.755	95.25
289.986	88.25
290.217	90.25
290.448	82.25
290.679	87.25
290.91	87.25
291.141	79.25
291.371	97.25
291.602	81.25
291.833	84.25
292.064	91.25
292.295	88.25
292.526	85.25
292.757	83.25
292.987	92.25
293.218	77.25
293.449	85.25
293.68	87.25
293.91	93.25
294.141	92.25
294.372	95.25
294.603	106.25
294.833	73.25
295.064	79.25
295.295	91.25
295.525	89.25
295.756	88.25
295.987	145.25
296.217	167.25
296.448	140.25
296.679	109.25
296.909	94.25
297.14	83.25
297.37	85.25
297.601	100.25
297.831	90.25
298.062	91.25
298.292	98.25
298.523	84.25
298.753	82.25
298.984	94.25
299.214	93.25
299.445	100.25
299.675	97.25
299.905	100.25
300.136	102.25
300.366	108.25
300.597	91.25
300.827	95.25
301.057	101.25
301.288	109.25
301.518	99.25
301.748	83.25
301.979	107.25
302.209	84.25
302.439	97.25
302.669	81.25
302.9	81.25
303.13	91.25
303.36	95.25
303.59	99.25
303.82	107.25
304.051	105.25
304.281	82.25
304.511	99.25
304.741	85.25
304.971	85.25
305.201	90.25
305.431	74.25
305.661	79.25
305.891	97.25
306.121	90.25
306.352	105.25
306.582	107.25
306.812	113.25
307.042	82.25
307.272	93.25
307.502	81.25
307.731	92.25
307.961	95.25
308.191	87.25
308.421	90.25
308.651	89.25
308.881	104.25
309.111	81.25
309.341	100.25
309.571	90.25
309.8	99.25
310.03	101.25
310.26	107.25
310.49	100.25
310.72	112.25
310.949	107.25
311.179	115.25
311.409	101.25
311.639	100.25
311.868	112.25
312.098	102.25
312.328	104.25
312.557	108.25
312.787	116.25
313.017	118.25
313.246	91.25
313.476	106.25
313.706	100.25
313.935	99.25
314.165	99.25
314.394	110.25
314.624	108.25
314.853	101.25
315.083	85.25
315.312	89.25
315.542	99.25
315.771	78.25
316.001	92.25
316.23	83.25
316.46	92.25
316.689	88.25
316.919	99.25
317.148	103.25
317.377	84.25
317.607	96.25
317.836	104.25
318.065	91.25
318.295	77.25
318.524	89.25
318.753	94.25
318.983	99.25
319.212	107.25
319.441	100.25
319.67	113.25
319.9	95.25
320.129	102.25
320.358	99.25
320.587	97.25
320.816	96.25
321.046	99.25
321.275	93.25
321.504	88.25
321.733	94.25
321.962	97.25
322.191	102.25
322.42	104.25
322.649	122.25
322.878	122.25
323.108	129.25
323.337	156.25
323.566	157.25
323.795	194.25
324.024	243.25
324.253	515.25
324.482	1095.25
324.71	2350.25
324.939	3096.25
325.168	1120.25
325.397	324.25
325.626	188.25
325.855	141.25
326.084	164.25
326.313	149.25
326.542	174.25
326.77	271.25
326.999	551.25
327.228	1185.25
327.457	2256.25
327.686	1785.25
327.914	474.25
328.143	249.25
328.372	192.25
328.6	164.25
328.829	147.25
329.058	176.25
329.287	159.25
329.515	134.25
329.744	109.25
329.972	123.25
330.201	150.25
330.43	169.25
330.658	175.25
330.887	229.25
331.115	177.25
331.344	106.25
331.572	109.25
331.801	116.25
332.03	110.25
332.258	92.25
332.486	100.25
332.715	94.25
332.943	103.25
333.172	101.25
333.4	123.25
333.629	111.25
333.857	130.25
334.085	116.25
334.314	127.25
334.542	155.25
334.771	163.25
334.999	110.25
335.227	96.25
335.455	102.25
335.684	107.25
335.912	97.25
336.14	91.25
336.369	99.25
336.597	112.25
336.825	113.25
337.053	87.25
337.281	90.25
337.51	94.25
337.738	95.25
337.966	99.25
338.194	111.25
338.422	118.25
338.65	97.25
338.878	87.25
339.106	86.25
339.334	85.25
339.562	95.25
339.79	99.25
340.018	86.25
340.246	94.25
340.474	92.25
340.702	101.25
340.93	91.25
341.158	106.25
341.386	95.25
341.614	101.25
341.842	107.25
342.07	88.25
342.298	93.25
342.526	91.25
342.754	77.25
342.981	88.25
343.209	84.25
343.437	109.25
343.665	79.25
343.893	101.25
344.12	90.25
344.348	110.25
344.576	96.25
344.804	100.25
345.031	95.25
345.259	119.25
345.487	94.25
345.714	97.25
345.942	91.25
346.17	97.25
346.397	107.25
346.625	97.25
346.853	96.25
347.08	71.25
347.308	99.25
347.535	112.25
347.763	116.25
347.99	106.25
348.218	119.25
348.445	119.25
348.673	107.25
348.9	113.25
349.128	112.25
349.355	102.25
349.583	111.25
349.81	98.25
350.037	98.25
350.265	96.25
350.492	108.25
350.72	103.25
350.947	104.25
351.174	111.25
351.402	112.25
351.629	102.25
351.856	114.25
352.083	102.25
352.311	116.25
352.538	121.25
352.765	117.25
352.992	119.25
353.22	121.25
353.447	114.25
353.674	108.25
353.901	95.25
354.128	97.25
354.355	100.25
354.583	98.25
354.81	96.25
355.037	101.25
355.264	88.25
355.491	81.25
355.718	89.25
355.945	89.25
356.172	91.25
356.399	91.25
356.626	95.25
356.853	100.25
357.08	98.25
357.307	88.25
357.534	96.25
357.761	90.25
357.988	110.25
358.215	95.25
358.441	97.25
358.668	90.25
358.895	91.25
359.122	99.25
359.349	92.25
359.576	101.25
359.802	117.25
360.029	146.25
360.256	161.25
360.483	132.25
360.709	92.25
360.936	98.25
361.163	101.25
361.39	87.25
361.616	109.25
361.843	104.25
362.07	121.25
362.296	110.25
362.523	98.25
362.749	110.25
362.976	101.25
363.203	91.25
363.429	95.25
363.656	79.25
363.882	96.25
364.109	88.25
364.335	88.25
364.562	91.25
364.788	108.25
365.015	96.25
365.241	106.25
365.468	115.25
365.694	123.25
365.92	97.25
366.147	82.25
366.373	90.25
366.599	81.25
366.826	90.25
367.052	93.25
367.278	93.25
367.505	92.25
367.731	96.25
367.957	89.25
368.184	98.25
368.41	98.25
368.636	118.25
368.862	122.25
369.089	121.25
369.315	97.25
369.541	115.25
369.767	98.25
369.993	95.25
370.219	108.25
370.445	90.25
370.672	74.25
370.898	102.25
371.124	104.25
371.35	93.25
371.576	95.25
371.802	90.25
372.028	87.25
372.254	111.25
372.48	95.25
372.706	106.25
372.932	97.25
373.158	92.25
373.384	76.25
373.61	96.25
373.835	81.25
374.061	88.25
374.287	89.25
374.513	89.25
374.739	89.25
374.965	80.25
375.191	96.25
375.416	89.25
375.642	81.25
375.868	84.25
376.094	88.25
376.319	92.25
376.545	90.25
376.771	81.25
376.997	86.25
377.222	96.25
377.448	76.25
377.674	90.25
377.899	79.25
378.125	77.25
378.35	82.25
378.576	79.25
378.802	86.25
379.027	87.25
379.253	96.25
379.478	102.25
379.704	87.25
379.929	97.25
380.155	83.25
380.38	93.25
380.606	103.25
380.831	98.25
381.057	102.25
381.282	86.25
381.507	87.25
381.733	85.25
381.958	103.25
382.184	107.25
382.409	98.25
382.634	108.25
382.86	89.25
383.085	90.25
383.31	99.25
383.535	97.25
383.761	103.25
383.986	83.25
384.211	82.25
384.436	84.25
384.662	93.25
384.887	87.25
385.112	97.25
385.337	81.25
385.562	86.25
385.787	89.25
386.013	111.25
386.238	115.25
386.463	98.25
386.688	101.25
386.913	103.25
387.138	118.25
387.363	91.25
387.588	95.25
387.813	98.25
388.038	101.25
388.263	82.25
388.488	88.25
388.713	90.25
388.938	93.25
389.163	106.25
389.387	90.25
389.612	91.25
389.837	87.25
390.062	89.25
390.287	103.25
390.512	88.25
390.736	101.25
390.961	95.25
391.186	97.25
391.411	77.25
391.636	85.25
391.86	71.25
392.085	88.25
392.31	80.25
392.534	84.25
392.759	92.25
392.984	90.25
393.208	83.25
393.433	98.25
393.658	83.25
393.882	66.25
394.107	94.25
394.331	88.25
394.556	94.25
394.78	91.25
395.005	89.25
395.229	67.25
395.454	84.25
395.678	83.25
395.903	86.25
396.127	105.25
396.352	91.25
396.576	80.25
396.801	103.25
397.025	85.25
397.249	81.25
397.474	87.25
397.698	91.25
397.922	83.25
398.147	97.25
398.371	83.25
398.595	80.25
398.82	84.25
399.044	76.25
399.268	74.25
399.492	90.25
399.717	104.25
399.941	106.25
400.165	82.25
400.389	108.25
400.613	84.25
400.837	91.25
401.062	100.25
401.286	89.25
401.51	93.25
401.734	101.25
401.958	100.25
402.182	131.25
402.406	199.25
402.63	154.25
402.854	103.25
403.078	79.25
403.302	82.25
403.526	89.25
403.75	79.25
403.974	85.25
404.198	82.25
404.422	98.25
404.645	92.25
404.869	88.25
405.093	91.25
405.317	117.25
405.541	114.25
405.765	109.25
405.988	136.25
406.212	191.25
406.436	320.25
406.66	201.25
406.883	121.25
407.107	94.25
407.331	99.25
407.555	114.25
407.778	106.25
408.002	87.25
408.226	97.25
408.449	89.25
408.673	70.25
408.896	99.25
409.12	109.25
409.344	91.25
409.567	85.25
409.791	74.25
410.014	84.25
410.238	81.25
410.461	84.25
410.685	103.25
410.908	93.25
411.132	112.25
411.355	115.25
411.578	94.25
411.802	91.25
412.025	90.25
412.249	90.25
412.472	98.25
412.695	112.25
412.919	101.25
413.142	92.25
413.365	101.25
413.589	85.25
413.812	98.25
414.035	73.25
414.258	81.25
414.482	91.25
414.705	101.25
414.928	88.25
415.151	90.25
415.374	84.25
415.597	76.25
415.821	93.25
416.044	95.25
416.267	80.25
416.49	87.25
416.713	92.25
416.936	92.25
417.159	91.25
417.382	87.25
417.605	91.25
417.828	102.25
418.051	103.25
418.274	96.25
418.497	84.25
418.72	95.25
418.943	76.25
419.166	88.25
419.389	84.25
419.611	89.25
419.834	108.25
420.057	92.25
420.28	76.25
420.503	94.25
420.726	89.25
420.948	95.25
421.171	105.25
421.394	80.25
421.617	78.25
421.839	80.25
422.062	96.25
422.285	99.25
422.507	98.25
422.73	109.25
422.953	83.25
423.175	93.25
423.398	75.25
423.621	87.25
423.843	84.25
424.066	87.25
424.288	85.25
424.511	97.25
424.733	124.25
424.956	120.25
425.178	114.25
425.401	131.25
425.623	123.25
425.846	94.25
426.068	98.25
426.291	95.25
426.513	100.25
426.735	90.25
426.958	108.25
427.18	122.25
427.402	193.25
427.625	254.25
427.847	185.25
428.069	138.25
428.292	92.25
428.514	95.25
428.736	107.25
428.958	69.25
429.181	86.25
429.403	80.25
429.625	89.25
429.847	79.25
430.069	119.25
430.292	104.25
430.514	100.25
430.736	100.25
430.958	90.25
431.18	87.25
431.402	85.25
431.624	76.25
431.846	79.25
432.068	100.25
432.29	89.25
432.512	91.25
432.734	81.25
432.956	98.25
433.178	101.25
433.4	112.25
433.622	88.25
433.844	91.25
434.066	89.25
434.287	89.25
434.509	73.25
434.731	87.25
434.953	89.25
435.175	85.25
435.397	90.25
435.618	93.25
435.84	120.25
436.062	172.25
436.284	134.25
436.505	111.25
436.727	113.25
436.949	86.25
437.17	80.25
437.392	97.25
437.614	104.25
437.835	118.25
438.057	144.25
438.278	146.25
438.5	121.25
438.721	167.25
438.943	109.25
439.165	88.25
439.386	91.25
439.608	97.25
439.829	94.25
440.05	138.25
440.272	200.25
440.493	117.25
440.715	91.25
440.936	100.25
441.158	82.25
441.379	108.25
441.6	114.25
441.822	113.25
442.043	129.25
442.264	122.25
442.486	136.25
442.707	113.25
442.928	135.25
443.149	191.25
443.371	178.25
443.592	136.25
443.813	136.25
444.034	129.25
444.255	99.25
444.476	79.25
444.698	108.25
444.919	95.25
445.14	129.25
445.361	144.25
445.582	143.25
445.803	215.25
446.024	194.25
446.245	170.25
446.466	129.25
446.687	86.25
446.908	85.25
447.129	89.25
447.35	93.25
447.571	92.25
447.792	90.25
448.013	115.25
448.234	103.25
448.455	99.25
448.675	136.25
448.896	150.25
449.117	101.25
449.338	117.25
449.559	164.25
449.779	169.25
450	107.25
450.221	88.25
450.442	64.25
450.662	106.25
450.883	121.25
451.104	149.25
451.324	112.25
451.545	75.25
451.766	84.25
451.986	73.25
452.207	76.25
452.428	98.25
452.648	99.25
452.869	121.25
453.089	140.25
453.31	146.25
453.53	111.25
453.751	93.25
453.971	134.25
454.192	138.25
454.412	91.25
454.633	76.25
454.853	77.25
455.073	95.25
455.294	88.25
455.514	119.25
455.734	98.25
455.955	89.25
456.175	91.25
456.395	86.25
456.616	86.25
456.836	81.25
457.056	87.25
457.276	87.25
457.497	88.25
457.717	85.25
457.937	91.25
458.157	93.25
458.377	108.25
458.598	130.25
458.818	239.25
459.038	253.25
459.258	163.25
459.478	107.25
459.698	89.25
459.918	96.25
460.138	93.25
460.358	86.25
460.578	81.25
460.798	98.25
461.018	93.25
461.238	96.25
461.458	87.25
461.678	109.25
461.898	95.25
462.118	88.25
462.338	90.25
462.558	84.25
462.777	84.25
462.997	89.25
463.217	89.25
463.437	94.25
463.657	89.25
463.876	88.25
464.096	86.25
464.316	92.25
464.536	95.25
464.755	105.25
464.975	130.25
465.195	251.25
465.414	245.25
465.634	108.25
465.854	79.25
466.073	75.25
466.293	92.25
466.512	76.25
466.732	90.25
466.951	81.25
467.171	89.25
467.391	96.25
467.61	117.25
467.829	115.25
468.049	113.25
468.268	108.25
468.488	89.25
468.707	97.25
468.927	83.25
469.146	72.25
469.365	85.25
469.585	95.25
469.804	105.25
470.023	109.25
470.243	98.25
470.462	116.25
470.681	145.25
470.901	111.25
471.12	95.25
471.339	90.25
471.558	86.25
471.777	77.25
471.997	87.25
472.216	122.25
472.435	171.25
472.654	107.25
472.873	81.25
473.092	88.25
473.311	73.25
473.53	86.25
473.749	80.25
473.968	98.25
474.187	122.25
474.406	106.25
474.625	89.25
474.844	81.25
475.063	98.25
475.282	86.25
475.501	88.25
475.72	77.25
475.939	96.25
476.158	91.25
476.377	86.25
476.596	83.25
476.814	107.25
477.033	101.25
477.252	95.25
477.471	88.25
477.69	88.25
477.908	104.25
478.127	91.25
478.346	102.25
478.564	100.25
478.783	104.25
479.002	107.25
479.22	86.25
479.439	124.25
479.658	115.25
479.876	103.25
480.095	99.25
480.313	100.25
480.532	109.25
480.751	95.25
480.969	126.25
481.188	260.25
481.406	192.25
481.624	104.25
481.843	93.25
482.061	100.25
482.28	87.25
482.498	66.25
482.717	86.25
482.935	101.25
483.153	81.25
483.372	94.25
483.59	104.25
483.808	81.25
484.027	83.25
484.245	102.25
484.463	89.25
484.681	86.25
484.9	88.25
485.118	86.25
485.336	83.25
485.554	85.25
485.772	95.25
485.99	104.25
486.209	91.25
486.427	101.25
486.645	131.25
486.863	129.25
487.081	121.25
487.299	107.25
487.517	108.25
487.735	92.25
487.953	106.25
488.171	89.25
488.389	94.25
488.607	103.25
488.825	98.25
489.043	92.25
489.261	89.25
489.479	104.25
489.696	100.25
489.914	75.25
490.132	84.25
490.35	83.25
490.568	100.25
490.786	86.25
491.003	99.25
491.221	84.25
491.439	80.25
491.657	93.25
491.874	101.25
492.092	94.25
492.31	93.25
492.527	81.25
492.745	92.25
492.963	83.25
493.18	106.25
493.398	85.25
493.615	98.25
493.833	105.25
494.05	92.25
494.268	81.25
494.485	74.25
494.703	96.25
494.92	102.25
495.138	87.25
495.355	96.25
495.573	97.25
495.79	94.25
496.008	107.25
496.225	71.25
496.442	81.25
496.66	91.25
496.877	77.25
497.094	103.25
497.312	104.25
497.529	111.25
497.746	113.25
497.963	103.25
498.181	104.25
498.398	95.25
498.615	114.25
498.832	103.25
499.049	77.25
499.267	91.25
499.484	88.25
499.701	73.25
499.918	91.25
500.135	83.25
500.352	88.25
500.569	87.25
500.786	83.25
501.003	102.25
501.22	79.25
501.437	93.25
501.654	103.25
501.871	121.25
502.088	99.25
502.305	95.25
502.522	85.25
502.739	90.25
502.956	92.25
503.172	92.25
503.389	87.25
503.606	109.25
503.823	101.25
504.04	89.25
504.256	89.25
504.473	85.25
504.69	96.25
504.907	87.25
505.123	95.25
505.34	95.25
505.557	96.25
505.773	95.25
505.99	84.25
506.207	99.25
506.423	87.25
506.64	84.25
506.856	94.25
507.073	105.25
507.289	95.25
507.506	104.25
507.722	139.25
507.939	127.25
508.155	89.25
508.372	99.25
508.588	100.25
508.805	95.25
509.021	96.25
509.238	114.25
509.454	90.25
509.67	103.25
509.887	121.25
510.103	143.25
510.319	248.25
510.536	942.25
510.752	3260.25
510.968	852.25
511.184	169.25
511.401	125.25
511.617	105.25
511.833	92.25
512.049	96.25
512.265	84.25
512.481	88.25
512.698	103.25
512.914	104.25
513.13	98.25
513.346	101.25
513.562	103.25
513.778	97.25
513.994	84.25
514.21	103.25
