Data from Circ_1981_H10_HRD10591_00083.txt Node
Date: Wed Jan 03 12:34:37 EST 2024
User: Yrep
Spectrometer: HR+D1059
Trigger mode: 1
Integration Time (sec): 1.000000E-1
Scans to average: 1
Electric dark correction enabled: true
Nonlinearity correction enabled: false
Boxcar width: 0
XAxis mode: Wavelengths
Number of Pixels in Spectrum: 2048
>>>>>Begin Spectral Data<<<<<
223.165	-19.5
223.4	-19.5
223.635	-19.5
223.869	-17.5
224.104	-14.5
224.338	1.5
224.573	-8.5
224.808	-10.5
225.042	-14.5
225.277	-9.5
225.511	-4.5
225.746	-4.5
225.98	13.5
226.215	12.5
226.449	13.5
226.683	11.5
226.918	25.5
227.152	25.5
227.387	32.5
227.621	47.5
227.856	57.5
228.09	46.5
228.324	48.5
228.559	54.5
228.793	56.5
229.027	58.5
229.262	57.5
229.496	72.5
229.73	84.5
229.964	103.5
230.199	68.5
230.433	75.5
230.667	92.5
230.901	84.5
231.136	83.5
231.37	82.5
231.604	75.5
231.838	92.5
232.072	83.5
232.306	90.5
232.541	82.5
232.775	96.5
233.009	93.5
233.243	73.5
233.477	73.5
233.711	69.5
233.945	82.5
234.179	76.5
234.413	81.5
234.647	74.5
234.881	69.5
235.115	66.5
235.349	77.5
235.583	68.5
235.817	72.5
236.051	92.5
236.285	80.5
236.519	93.5
236.753	88.5
236.987	81.5
237.221	86.5
237.455	102.5
237.689	84.5
237.922	74.5
238.156	81.5
238.39	77.5
238.624	77.5
238.858	70.5
239.091	71.5
239.325	77.5
239.559	87.5
239.793	78.5
240.027	66.5
240.26	65.5
240.494	77.5
240.728	79.5
240.961	84.5
241.195	86.5
241.429	85.5
241.662	83.5
241.896	84.5
242.13	72.5
242.363	77.5
242.597	75.5
242.83	71.5
243.064	69.5
243.298	62.5
243.531	80.5
243.765	71.5
243.998	78.5
244.232	83.5
244.465	88.5
244.699	89.5
244.932	77.5
245.166	80.5
245.399	77.5
245.633	85.5
245.866	95.5
246.099	76.5
246.333	72.5
246.566	83.5
246.8	72.5
247.033	65.5
247.266	86.5
247.5	82.5
247.733	84.5
247.966	75.5
248.2	83.5
248.433	70.5
248.666	84.5
248.899	82.5
249.133	84.5
249.366	100.5
249.599	89.5
249.832	82.5
250.066	82.5
250.299	73.5
250.532	80.5
250.765	74.5
250.998	91.5
251.231	69.5
251.465	69.5
251.698	87.5
251.931	84.5
252.164	91.5
252.397	65.5
252.63	75.5
252.863	77.5
253.096	89.5
253.329	76.5
253.562	77.5
253.795	86.5
254.028	72.5
254.261	84.5
254.494	72.5
254.727	81.5
254.96	88.5
255.193	89.5
255.426	77.5
255.659	84.5
255.892	88.5
256.124	78.5
256.357	83.5
256.59	86.5
256.823	73.5
257.056	78.5
257.289	78.5
257.521	82.5
257.754	67.5
257.987	86.5
258.22	71.5
258.452	76.5
258.685	82.5
258.918	89.5
259.151	94.5
259.383	85.5
259.616	78.5
259.849	84.5
260.081	72.5
260.314	80.5
260.547	93.5
260.779	82.5
261.012	89.5
261.244	70.5
261.477	92.5
261.71	98.5
261.942	111.5
262.175	132.5
262.407	92.5
262.64	78.5
262.872	88.5
263.105	96.5
263.337	77.5
263.57	77.5
263.802	88.5
264.035	88.5
264.267	84.5
264.499	93.5
264.732	92.5
264.964	77.5
265.197	74.5
265.429	70.5
265.661	97.5
265.894	90.5
266.126	83.5
266.358	82.5
266.591	90.5
266.823	70.5
267.055	100.5
267.287	81.5
267.52	73.5
267.752	86.5
267.984	100.5
268.216	84.5
268.448	86.5
268.681	98.5
268.913	86.5
269.145	80.5
269.377	85.5
269.609	88.5
269.841	84.5
270.073	82.5
270.306	84.5
270.538	75.5
270.77	89.5
271.002	80.5
271.234	78.5
271.466	98.5
271.698	89.5
271.93	96.5
272.162	85.5
272.394	99.5
272.626	88.5
272.858	73.5
273.09	79.5
273.322	85.5
273.553	92.5
273.785	87.5
274.017	96.5
274.249	81.5
274.481	80.5
274.713	88.5
274.945	102.5
275.176	92.5
275.408	95.5
275.64	78.5
275.872	82.5
276.104	85.5
276.335	92.5
276.567	114.5
276.799	100.5
277.031	100.5
277.262	98.5
277.494	82.5
277.726	97.5
277.957	82.5
278.189	82.5
278.421	88.5
278.652	77.5
278.884	78.5
279.115	97.5
279.347	86.5
279.579	85.5
279.81	91.5
280.042	70.5
280.273	93.5
280.505	100.5
280.736	90.5
280.968	84.5
281.199	82.5
281.431	87.5
281.662	98.5
281.894	105.5
282.125	103.5
282.356	129.5
282.588	152.5
282.819	123.5
283.051	104.5
283.282	95.5
283.513	89.5
283.745	93.5
283.976	92.5
284.207	83.5
284.439	97.5
284.67	82.5
284.901	87.5
285.132	94.5
285.364	92.5
285.595	87.5
285.826	82.5
286.057	96.5
286.288	83.5
286.52	82.5
286.751	86.5
286.982	90.5
287.213	85.5
287.444	96.5
287.675	86.5
287.906	94.5
288.138	94.5
288.369	92.5
288.6	101.5
288.831	97.5
289.062	94.5
289.293	82.5
289.524	88.5
289.755	90.5
289.986	71.5
290.217	87.5
290.448	93.5
290.679	90.5
290.91	84.5
291.141	87.5
291.371	98.5
291.602	88.5
291.833	73.5
292.064	92.5
292.295	84.5
292.526	88.5
292.757	85.5
292.987	94.5
293.218	98.5
293.449	93.5
293.68	85.5
293.91	102.5
294.141	93.5
294.372	84.5
294.603	103.5
294.833	81.5
295.064	100.5
295.295	88.5
295.525	91.5
295.756	109.5
295.987	126.5
296.217	147.5
296.448	130.5
296.679	108.5
296.909	92.5
297.14	98.5
297.37	91.5
297.601	72.5
297.831	87.5
298.062	84.5
298.292	80.5
298.523	97.5
298.753	92.5
298.984	82.5
299.214	105.5
299.445	94.5
299.675	98.5
299.905	107.5
300.136	98.5
300.366	89.5
300.597	97.5
300.827	93.5
301.057	78.5
301.288	99.5
301.518	106.5
301.748	91.5
301.979	95.5
302.209	92.5
302.439	80.5
302.669	88.5
302.9	90.5
303.13	103.5
303.36	85.5
303.59	110.5
303.82	117.5
304.051	109.5
304.281	86.5
304.511	92.5
304.741	77.5
304.971	97.5
305.201	93.5
305.431	92.5
305.661	94.5
305.891	86.5
306.121	95.5
306.352	101.5
306.582	123.5
306.812	93.5
307.042	99.5
307.272	101.5
307.502	92.5
307.731	121.5
307.961	99.5
308.191	88.5
308.421	100.5
308.651	97.5
308.881	100.5
309.111	109.5
309.341	113.5
309.571	115.5
309.8	96.5
310.03	96.5
310.26	96.5
310.49	103.5
310.72	101.5
310.949	119.5
311.179	114.5
311.409	97.5
311.639	103.5
311.868	114.5
312.098	107.5
312.328	121.5
312.557	103.5
312.787	120.5
313.017	116.5
313.246	102.5
313.476	92.5
313.706	92.5
313.935	101.5
314.165	97.5
314.394	103.5
314.624	100.5
314.853	99.5
315.083	102.5
315.312	102.5
315.542	93.5
315.771	82.5
316.001	95.5
316.23	87.5
316.46	96.5
316.689	83.5
316.919	100.5
317.148	85.5
317.377	100.5
317.607	106.5
317.836	107.5
318.065	100.5
318.295	88.5
318.524	92.5
318.753	94.5
318.983	87.5
319.212	97.5
319.441	109.5
319.67	104.5
319.9	97.5
320.129	96.5
320.358	98.5
320.587	94.5
320.816	114.5
321.046	105.5
321.275	100.5
321.504	87.5
321.733	98.5
321.962	104.5
322.191	112.5
322.42	119.5
322.649	123.5
322.878	106.5
323.108	128.5
323.337	118.5
323.566	144.5
323.795	164.5
324.024	223.5
324.253	438.5
324.482	923.5
324.71	1824.5
324.939	2473.5
325.168	896.5
325.397	252.5
325.626	158.5
325.855	132.5
326.084	126.5
326.313	139.5
326.542	158.5
326.77	222.5
326.999	471.5
327.228	957.5
327.457	1772.5
327.686	1383.5
327.914	398.5
328.143	206.5
328.372	185.5
328.6	146.5
328.829	132.5
329.058	146.5
329.287	160.5
329.515	113.5
329.744	112.5
329.972	128.5
330.201	128.5
330.43	158.5
330.658	171.5
330.887	164.5
331.115	141.5
331.344	118.5
331.572	123.5
331.801	119.5
332.03	121.5
332.258	111.5
332.486	104.5
332.715	89.5
332.943	101.5
333.172	91.5
333.4	107.5
333.629	108.5
333.857	113.5
334.085	130.5
334.314	129.5
334.542	151.5
334.771	148.5
334.999	120.5
335.227	121.5
335.455	109.5
335.684	98.5
335.912	107.5
336.14	101.5
336.369	104.5
336.597	99.5
336.825	111.5
337.053	92.5
337.281	88.5
337.51	96.5
337.738	106.5
337.966	85.5
338.194	105.5
338.422	98.5
338.65	106.5
338.878	113.5
339.106	98.5
339.334	77.5
339.562	86.5
339.79	88.5
340.018	88.5
340.246	109.5
340.474	103.5
340.702	104.5
340.93	93.5
341.158	101.5
341.386	100.5
341.614	96.5
341.842	115.5
342.07	107.5
342.298	100.5
342.526	90.5
342.754	102.5
342.981	82.5
343.209	77.5
343.437	93.5
343.665	90.5
343.893	97.5
344.12	99.5
344.348	103.5
344.576	97.5
344.804	93.5
345.031	110.5
345.259	112.5
345.487	116.5
345.714	98.5
345.942	102.5
346.17	78.5
346.397	92.5
346.625	111.5
346.853	101.5
347.08	93.5
347.308	104.5
347.535	96.5
347.763	105.5
347.99	91.5
348.218	108.5
348.445	125.5
348.673	99.5
348.9	105.5
349.128	98.5
349.355	94.5
349.583	89.5
349.81	96.5
350.037	99.5
350.265	92.5
350.492	98.5
350.72	102.5
350.947	104.5
351.174	105.5
351.402	119.5
351.629	108.5
351.856	106.5
352.083	108.5
352.311	113.5
352.538	108.5
352.765	120.5
352.992	109.5
353.22	117.5
353.447	109.5
353.674	93.5
353.901	105.5
354.128	101.5
354.355	78.5
354.583	108.5
354.81	100.5
355.037	94.5
355.264	89.5
355.491	93.5
355.718	93.5
355.945	89.5
356.172	101.5
356.399	104.5
356.626	99.5
356.853	82.5
357.08	91.5
357.307	89.5
357.534	93.5
357.761	85.5
357.988	102.5
358.215	107.5
358.441	90.5
358.668	88.5
358.895	95.5
359.122	84.5
359.349	89.5
359.576	86.5
359.802	109.5
360.029	129.5
360.256	129.5
360.483	108.5
360.709	89.5
360.936	99.5
361.163	92.5
361.39	106.5
361.616	90.5
361.843	105.5
362.07	99.5
362.296	109.5
362.523	100.5
362.749	104.5
362.976	100.5
363.203	93.5
363.429	89.5
363.656	95.5
363.882	92.5
364.109	83.5
364.335	92.5
364.562	86.5
364.788	85.5
365.015	87.5
365.241	115.5
365.468	102.5
365.694	114.5
365.92	114.5
366.147	113.5
366.373	104.5
366.599	88.5
366.826	83.5
367.052	96.5
367.278	103.5
367.505	98.5
367.731	91.5
367.957	98.5
368.184	104.5
368.41	112.5
368.636	109.5
368.862	127.5
369.089	113.5
369.315	105.5
369.541	102.5
369.767	93.5
369.993	96.5
370.219	108.5
370.445	86.5
370.672	103.5
370.898	85.5
371.124	78.5
371.35	87.5
371.576	81.5
371.802	92.5
372.028	86.5
372.254	90.5
372.48	88.5
372.706	92.5
372.932	86.5
373.158	102.5
373.384	103.5
373.61	80.5
373.835	87.5
374.061	84.5
374.287	102.5
374.513	100.5
374.739	91.5
374.965	97.5
375.191	96.5
375.416	86.5
375.642	93.5
375.868	100.5
376.094	90.5
376.319	98.5
376.545	90.5
376.771	90.5
376.997	96.5
377.222	77.5
377.448	106.5
377.674	96.5
377.899	93.5
378.125	86.5
378.35	95.5
378.576	92.5
378.802	90.5
379.027	83.5
379.253	90.5
379.478	90.5
379.704	91.5
379.929	100.5
380.155	91.5
380.38	90.5
380.606	93.5
380.831	98.5
381.057	95.5
381.282	96.5
381.507	97.5
381.733	97.5
381.958	109.5
382.184	106.5
382.409	98.5
382.634	107.5
382.86	99.5
383.085	95.5
383.31	97.5
383.535	105.5
383.761	99.5
383.986	89.5
384.211	92.5
384.436	85.5
384.662	112.5
384.887	98.5
385.112	102.5
385.337	107.5
385.562	98.5
385.787	96.5
386.013	107.5
386.238	119.5
386.463	108.5
386.688	103.5
386.913	89.5
387.138	105.5
387.363	103.5
387.588	92.5
387.813	93.5
388.038	101.5
388.263	107.5
388.488	104.5
388.713	100.5
388.938	79.5
389.163	92.5
389.387	87.5
389.612	95.5
389.837	99.5
390.062	87.5
390.287	96.5
390.512	104.5
390.736	78.5
390.961	86.5
391.186	85.5
391.411	96.5
391.636	92.5
391.86	77.5
392.085	82.5
392.31	84.5
392.534	86.5
392.759	96.5
392.984	90.5
393.208	84.5
393.433	83.5
393.658	96.5
393.882	93.5
394.107	80.5
394.331	75.5
394.556	83.5
394.78	90.5
395.005	96.5
395.229	105.5
395.454	92.5
395.678	89.5
395.903	94.5
396.127	86.5
396.352	84.5
396.576	84.5
396.801	81.5
397.025	87.5
397.249	95.5
397.474	93.5
397.698	84.5
397.922	85.5
398.147	91.5
398.371	91.5
398.595	93.5
398.82	77.5
399.044	77.5
399.268	84.5
399.492	86.5
399.717	100.5
399.941	98.5
400.165	101.5
400.389	97.5
400.613	85.5
400.837	90.5
401.062	71.5
401.286	87.5
401.51	83.5
401.734	104.5
401.958	97.5
402.182	133.5
402.406	186.5
402.63	139.5
402.854	101.5
403.078	88.5
403.302	90.5
403.526	89.5
403.75	83.5
403.974	86.5
404.198	89.5
404.422	84.5
404.645	88.5
404.869	107.5
405.093	80.5
405.317	115.5
405.541	111.5
405.765	105.5
405.988	129.5
406.212	187.5
406.436	301.5
406.66	178.5
406.883	132.5
407.107	98.5
407.331	97.5
407.555	108.5
407.778	99.5
408.002	103.5
408.226	88.5
408.449	88.5
408.673	92.5
408.896	104.5
409.12	88.5
409.344	86.5
409.567	86.5
409.791	84.5
410.014	80.5
410.238	76.5
410.461	90.5
410.685	96.5
410.908	97.5
411.132	97.5
411.355	100.5
411.578	109.5
411.802	92.5
412.025	88.5
412.249	91.5
412.472	87.5
412.695	101.5
412.919	97.5
413.142	73.5
413.365	87.5
413.589	85.5
413.812	96.5
414.035	90.5
414.258	86.5
414.482	96.5
414.705	98.5
414.928	100.5
415.151	88.5
415.374	81.5
415.597	90.5
415.821	75.5
416.044	92.5
416.267	96.5
416.49	86.5
416.713	98.5
416.936	92.5
417.159	86.5
417.382	89.5
417.605	84.5
417.828	91.5
418.051	97.5
418.274	97.5
418.497	85.5
418.72	93.5
418.943	84.5
419.166	80.5
419.389	80.5
419.611	93.5
419.834	79.5
420.057	92.5
420.28	86.5
420.503	91.5
420.726	89.5
420.948	101.5
421.171	106.5
421.394	108.5
421.617	87.5
421.839	86.5
422.062	72.5
422.285	93.5
422.507	94.5
422.73	101.5
422.953	84.5
423.175	84.5
423.398	93.5
423.621	88.5
423.843	88.5
424.066	95.5
424.288	88.5
424.511	84.5
424.733	97.5
424.956	106.5
425.178	102.5
425.401	108.5
425.623	109.5
425.846	85.5
426.068	98.5
426.291	98.5
426.513	91.5
426.735	88.5
426.958	107.5
427.18	116.5
427.402	150.5
427.625	198.5
427.847	158.5
428.069	117.5
428.292	82.5
428.514	84.5
428.736	93.5
428.958	86.5
429.181	80.5
429.403	94.5
429.625	103.5
429.847	88.5
430.069	108.5
430.292	101.5
430.514	72.5
430.736	84.5
430.958	86.5
431.18	82.5
431.402	86.5
431.624	76.5
431.846	94.5
432.068	85.5
432.29	88.5
432.512	89.5
432.734	88.5
432.956	81.5
433.178	103.5
433.4	91.5
433.622	83.5
433.844	94.5
434.066	93.5
434.287	94.5
434.509	86.5
434.731	96.5
434.953	85.5
435.175	78.5
435.397	96.5
435.618	85.5
435.84	115.5
436.062	118.5
436.284	117.5
436.505	105.5
436.727	102.5
436.949	114.5
437.17	90.5
437.392	93.5
437.614	88.5
437.835	128.5
438.057	149.5
438.278	124.5
438.5	115.5
438.721	133.5
438.943	102.5
439.165	99.5
439.386	105.5
439.608	87.5
439.829	102.5
440.05	130.5
440.272	170.5
440.493	114.5
440.715	90.5
440.936	84.5
441.158	84.5
441.379	80.5
441.6	106.5
441.822	107.5
442.043	92.5
442.264	108.5
442.486	110.5
442.707	93.5
442.928	109.5
443.149	140.5
443.371	146.5
443.592	116.5
443.813	111.5
444.034	113.5
444.255	99.5
444.476	78.5
444.698	98.5
444.919	84.5
445.14	136.5
445.361	121.5
445.582	132.5
445.803	153.5
446.024	150.5
446.245	165.5
446.466	108.5
446.687	92.5
446.908	87.5
447.129	70.5
447.35	96.5
447.571	101.5
447.792	91.5
448.013	100.5
448.234	98.5
448.455	98.5
448.675	112.5
448.896	126.5
449.117	110.5
449.338	108.5
449.559	139.5
449.779	148.5
450	99.5
450.221	94.5
450.442	96.5
450.662	100.5
450.883	109.5
451.104	111.5
451.324	106.5
451.545	104.5
451.766	85.5
451.986	92.5
452.207	93.5
452.428	99.5
452.648	104.5
452.869	118.5
453.089	118.5
453.31	134.5
453.53	101.5
453.751	96.5
453.971	119.5
454.192	137.5
454.412	104.5
454.633	84.5
454.853	99.5
455.073	72.5
455.294	93.5
455.514	105.5
455.734	94.5
455.955	90.5
456.175	84.5
456.395	82.5
456.616	98.5
456.836	77.5
457.056	82.5
457.276	91.5
457.497	82.5
457.717	90.5
457.937	96.5
458.157	98.5
458.377	86.5
458.598	114.5
458.818	186.5
459.038	198.5
459.258	147.5
459.478	93.5
459.698	84.5
459.918	95.5
460.138	85.5
460.358	85.5
460.578	92.5
460.798	89.5
461.018	89.5
461.238	88.5
461.458	86.5
461.678	86.5
461.898	87.5
462.118	94.5
462.338	81.5
462.558	87.5
462.777	86.5
462.997	80.5
463.217	77.5
463.437	80.5
463.657	77.5
463.876	84.5
464.096	76.5
464.316	83.5
464.536	92.5
464.755	100.5
464.975	120.5
465.195	199.5
465.414	229.5
465.634	115.5
465.854	88.5
466.073	89.5
466.293	86.5
466.512	85.5
466.732	89.5
466.951	86.5
467.171	84.5
467.391	90.5
467.61	117.5
467.829	96.5
468.049	100.5
468.268	104.5
468.488	93.5
468.707	86.5
468.927	88.5
469.146	82.5
469.365	72.5
469.585	90.5
469.804	94.5
470.023	91.5
470.243	92.5
470.462	101.5
470.681	121.5
470.901	73.5
471.12	102.5
471.339	82.5
471.558	62.5
471.777	90.5
471.997	87.5
472.216	96.5
472.435	163.5
472.654	100.5
472.873	87.5
473.092	84.5
473.311	94.5
473.53	88.5
473.749	98.5
473.968	95.5
474.187	109.5
474.406	112.5
474.625	78.5
474.844	88.5
475.063	75.5
475.282	92.5
475.501	82.5
475.72	87.5
475.939	80.5
476.158	77.5
476.377	99.5
476.596	70.5
476.814	98.5
477.033	114.5
477.252	94.5
477.471	89.5
477.69	83.5
477.908	75.5
478.127	81.5
478.346	97.5
478.564	76.5
478.783	82.5
479.002	96.5
479.22	93.5
479.439	109.5
479.658	102.5
479.876	106.5
480.095	92.5
480.313	97.5
480.532	86.5
480.751	79.5
480.969	123.5
481.188	229.5
481.406	162.5
481.624	93.5
481.843	101.5
482.061	69.5
482.28	87.5
482.498	100.5
482.717	90.5
482.935	90.5
483.153	83.5
483.372	84.5
483.59	96.5
483.808	84.5
484.027	81.5
484.245	82.5
484.463	90.5
484.681	101.5
484.9	82.5
485.118	83.5
485.336	91.5
485.554	91.5
485.772	92.5
485.99	104.5
486.209	109.5
486.427	106.5
486.645	118.5
486.863	109.5
487.081	97.5
487.299	107.5
487.517	98.5
487.735	89.5
487.953	88.5
488.171	92.5
488.389	83.5
488.607	97.5
488.825	90.5
489.043	86.5
489.261	96.5
489.479	89.5
489.696	100.5
489.914	98.5
490.132	97.5
490.35	88.5
490.568	95.5
490.786	108.5
491.003	102.5
491.221	88.5
491.439	84.5
491.657	105.5
491.874	80.5
492.092	88.5
492.31	97.5
492.527	94.5
492.745	91.5
492.963	89.5
493.18	77.5
493.398	98.5
493.615	96.5
493.833	86.5
494.05	98.5
494.268	93.5
494.485	79.5
494.703	87.5
494.92	75.5
495.138	90.5
495.355	90.5
495.573	91.5
495.79	101.5
496.008	108.5
496.225	91.5
496.442	88.5
496.66	102.5
496.877	75.5
497.094	94.5
497.312	101.5
497.529	91.5
497.746	96.5
497.963	93.5
498.181	90.5
498.398	88.5
498.615	109.5
498.832	110.5
499.049	88.5
499.267	91.5
499.484	97.5
499.701	72.5
499.918	86.5
500.135	102.5
500.352	93.5
500.569	93.5
500.786	101.5
501.003	95.5
501.22	94.5
501.437	89.5
501.654	77.5
501.871	113.5
502.088	93.5
502.305	90.5
502.522	96.5
502.739	83.5
502.956	82.5
503.172	102.5
503.389	101.5
503.606	111.5
503.823	107.5
504.04	98.5
504.256	84.5
504.473	85.5
504.69	92.5
504.907	86.5
505.123	82.5
505.34	84.5
505.557	88.5
505.773	100.5
505.99	78.5
506.207	98.5
506.423	81.5
506.64	92.5
506.856	86.5
507.073	90.5
507.289	98.5
507.506	98.5
507.722	131.5
507.939	121.5
508.155	95.5
508.372	90.5
508.588	90.5
508.805	106.5
509.021	93.5
509.238	110.5
509.454	102.5
509.67	106.5
509.887	110.5
510.103	140.5
510.319	227.5
510.536	865.5
510.752	3048.5
510.968	798.5
511.184	168.5
511.401	127.5
511.617	90.5
511.833	95.5
512.049	96.5
512.265	93.5
512.481	89.5
512.698	99.5
512.914	86.5
513.13	82.5
513.346	96.5
513.562	100.5
513.778	96.5
513.994	100.5
514.21	104.5
514.426	125.5
514.642	170.5
514.858	144.5
515.074	201.5
515.29	596.5
515.506	2125.5
515.721	723.5
515.937	184.5
516.153	124.5
516.369	100.5
516.585	107.5
516.801	103.5
517.016	101.5
517.232	96.5
517.448	99.5
517.664	77.5
517.879	80.5
518.095	92.5
518.311	101.5
518.527	97.5
518.742	110.5
518.958	92.5
519.173	101.5
519.389	100.5
519.605	85.5
519.82	88.5
520.036	114.5
520.251	133.5
520.467	146.5
520.682	116.5
520.898	121.5
521.113	133.5
521.329	156.5
521.544	265.5
521.76	764.5
521.975	3542.5
522.19	2087.5
522.406	430.5
522.621	146.5
522.836	97.5
523.052	100.5
523.267	92.5
523.482	99.5
523.698	107.5
523.913	126.5
524.128	110.5
524.343	94.5
524.559	94.5
524.774	99.5
524.989	108.5
525.204	115.5
525.419	94.5
525.634	93.5
525.849	91.5
526.064	71.5
526.28	106.5
526.495	93.5
526.71	91.5
526.925	93.5
527.14	84.5
527.355	85.5
527.57	107.5
527.785	93.5
527.999	86.5
528.214	94.5
528.429	114.5
528.644	94.5
528.859	101.5
529.074	104.5
529.289	148.5
529.503	244.5
529.718	115.5
529.933	97.5
530.148	99.5
530.363	92.5
530.577	106.5
530.792	94.5
531.007	88.5
531.221	88.5
531.436	91.5
531.651	97.5
531.865	93.5
532.08	85.5
532.295	99.5
532.509	81.5
532.724	97.5
532.938	86.5
533.153	84.5
533.367	93.5
533.582	94.5
