Data from Circ_1981_H10_HRD10591_00052.txt Node
Date: Wed Jan 03 12:34:31 EST 2024
User: Yrep
Spectrometer: HR+D1059
Trigger mode: 1
Integration Time (sec): 1.000000E-1
Scans to average: 1
Electric dark correction enabled: true
Nonlinearity correction enabled: false
Boxcar width: 0
XAxis mode: Wavelengths
Number of Pixels in Spectrum: 2048
>>>>>Begin Spectral Data<<<<<
223.165	-21.44
223.4	-21.44
223.635	-21.44
223.869	-19.44
224.104	-20.44
224.338	-24.44
224.573	-10.44
224.808	-7.44
225.042	-14.44
225.277	6.56
225.511	-0.44
225.746	-3.44
225.98	8.56
226.215	3.56
226.449	17.56
226.683	8.56
226.918	26.56
227.152	50.56
227.387	46.56
227.621	36.56
227.856	35.56
228.09	46.56
228.324	51.56
228.559	56.56
228.793	64.56
229.027	70.56
229.262	57.56
229.496	80.56
229.73	88.56
229.964	93.56
230.199	81.56
230.433	73.56
230.667	80.56
230.901	76.56
231.136	69.56
231.37	72.56
231.604	82.56
231.838	86.56
232.072	85.56
232.306	82.56
232.541	77.56
232.775	77.56
233.009	85.56
233.243	81.56
233.477	80.56
233.711	83.56
233.945	82.56
234.179	78.56
234.413	86.56
234.647	76.56
234.881	61.56
235.115	74.56
235.349	70.56
235.583	76.56
235.817	81.56
236.051	71.56
236.285	77.56
236.519	89.56
236.753	83.56
236.987	76.56
237.221	92.56
237.455	68.56
237.689	80.56
237.922	82.56
238.156	81.56
238.39	66.56
238.624	75.56
238.858	87.56
239.091	97.56
239.325	69.56
239.559	85.56
239.793	87.56
240.027	81.56
240.26	77.56
240.494	88.56
240.728	59.56
240.961	64.56
241.195	86.56
241.429	76.56
241.662	72.56
241.896	87.56
242.13	86.56
242.363	73.56
242.597	75.56
242.83	84.56
243.064	82.56
243.298	73.56
243.531	73.56
243.765	74.56
243.998	78.56
244.232	76.56
244.465	77.56
244.699	75.56
244.932	77.56
245.166	76.56
245.399	84.56
245.633	72.56
245.866	81.56
246.099	82.56
246.333	72.56
246.566	73.56
246.8	77.56
247.033	73.56
247.266	74.56
247.5	77.56
247.733	75.56
247.966	70.56
248.2	86.56
248.433	73.56
248.666	91.56
248.899	86.56
249.133	82.56
249.366	113.56
249.599	96.56
249.832	98.56
250.066	78.56
250.299	83.56
250.532	68.56
250.765	72.56
250.998	81.56
251.231	76.56
251.465	89.56
251.698	75.56
251.931	69.56
252.164	87.56
252.397	84.56
252.63	82.56
252.863	96.56
253.096	91.56
253.329	76.56
253.562	97.56
253.795	80.56
254.028	74.56
254.261	79.56
254.494	68.56
254.727	61.56
254.96	66.56
255.193	76.56
255.426	84.56
255.659	74.56
255.892	84.56
256.124	87.56
256.357	107.56
256.59	83.56
256.823	86.56
257.056	82.56
257.289	80.56
257.521	76.56
257.754	88.56
257.987	83.56
258.22	90.56
258.452	72.56
258.685	88.56
258.918	85.56
259.151	88.56
259.383	80.56
259.616	76.56
259.849	74.56
260.081	94.56
260.314	91.56
260.547	82.56
260.779	82.56
261.012	80.56
261.244	71.56
261.477	96.56
261.71	100.56
261.942	131.56
262.175	122.56
262.407	95.56
262.64	69.56
262.872	92.56
263.105	80.56
263.337	80.56
263.57	87.56
263.802	84.56
264.035	78.56
264.267	87.56
264.499	70.56
264.732	68.56
264.964	88.56
265.197	82.56
265.429	91.56
265.661	82.56
265.894	91.56
266.126	93.56
266.358	84.56
266.591	80.56
266.823	89.56
267.055	86.56
267.287	77.56
267.52	84.56
267.752	85.56
267.984	77.56
268.216	94.56
268.448	75.56
268.681	90.56
268.913	77.56
269.145	64.56
269.377	76.56
269.609	77.56
269.841	83.56
270.073	88.56
270.306	78.56
270.538	83.56
270.77	84.56
271.002	89.56
271.234	76.56
271.466	83.56
271.698	84.56
271.93	92.56
272.162	82.56
272.394	89.56
272.626	73.56
272.858	73.56
273.09	61.56
273.322	84.56
273.553	93.56
273.785	84.56
274.017	77.56
274.249	74.56
274.481	85.56
274.713	93.56
274.945	88.56
275.176	84.56
275.408	85.56
275.64	93.56
275.872	91.56
276.104	94.56
276.335	92.56
276.567	102.56
276.799	131.56
277.031	113.56
277.262	93.56
277.494	89.56
277.726	92.56
277.957	84.56
278.189	80.56
278.421	69.56
278.652	93.56
278.884	95.56
279.115	94.56
279.347	90.56
279.579	94.56
279.81	89.56
280.042	88.56
280.273	77.56
280.505	79.56
280.736	88.56
280.968	91.56
281.199	109.56
281.431	82.56
281.662	106.56
281.894	93.56
282.125	101.56
282.356	128.56
282.588	163.56
282.819	126.56
283.051	94.56
283.282	90.56
283.513	74.56
283.745	93.56
283.976	92.56
284.207	82.56
284.439	86.56
284.67	84.56
284.901	99.56
285.132	83.56
285.364	84.56
285.595	68.56
285.826	75.56
286.057	95.56
286.288	82.56
286.52	86.56
286.751	69.56
286.982	92.56
287.213	89.56
287.444	72.56
287.675	102.56
287.906	88.56
288.138	92.56
288.369	81.56
288.6	94.56
288.831	84.56
289.062	97.56
289.293	101.56
289.524	94.56
289.755	95.56
289.986	93.56
290.217	84.56
290.448	96.56
290.679	84.56
290.91	87.56
291.141	101.56
291.371	89.56
291.602	83.56
291.833	83.56
292.064	84.56
292.295	87.56
292.526	72.56
292.757	80.56
292.987	99.56
293.218	89.56
293.449	91.56
293.68	92.56
293.91	84.56
294.141	76.56
294.372	90.56
294.603	89.56
294.833	82.56
295.064	92.56
295.295	84.56
295.525	81.56
295.756	109.56
295.987	113.56
296.217	165.56
296.448	146.56
296.679	100.56
296.909	80.56
297.14	92.56
297.37	101.56
297.601	91.56
297.831	78.56
298.062	88.56
298.292	79.56
298.523	85.56
298.753	106.56
298.984	84.56
299.214	82.56
299.445	79.56
299.675	83.56
299.905	93.56
300.136	100.56
300.366	99.56
300.597	86.56
300.827	104.56
301.057	103.56
301.288	97.56
301.518	93.56
301.748	92.56
301.979	107.56
302.209	85.56
302.439	96.56
302.669	99.56
302.9	98.56
303.13	88.56
303.36	82.56
303.59	114.56
303.82	110.56
304.051	93.56
304.281	88.56
304.511	92.56
304.741	101.56
304.971	88.56
305.201	84.56
305.431	101.56
305.661	80.56
305.891	92.56
306.121	81.56
306.352	98.56
306.582	91.56
306.812	92.56
307.042	98.56
307.272	105.56
307.502	94.56
307.731	100.56
307.961	78.56
308.191	92.56
308.421	97.56
308.651	81.56
308.881	93.56
309.111	111.56
309.341	91.56
309.571	97.56
309.8	94.56
310.03	102.56
310.26	108.56
310.49	108.56
310.72	97.56
310.949	103.56
311.179	91.56
311.409	84.56
311.639	91.56
311.868	99.56
312.098	98.56
312.328	89.56
312.557	105.56
312.787	116.56
313.017	111.56
313.246	94.56
313.476	101.56
313.706	85.56
313.935	92.56
314.165	110.56
314.394	117.56
314.624	109.56
314.853	96.56
315.083	82.56
315.312	102.56
315.542	104.56
315.771	84.56
316.001	104.56
316.23	91.56
316.46	90.56
316.689	97.56
316.919	112.56
317.148	104.56
317.377	103.56
317.607	103.56
317.836	87.56
318.065	102.56
318.295	87.56
318.524	100.56
318.753	101.56
318.983	100.56
319.212	99.56
319.441	115.56
319.67	117.56
319.9	93.56
320.129	68.56
320.358	88.56
320.587	81.56
320.816	103.56
321.046	100.56
321.275	87.56
321.504	104.56
321.733	99.56
321.962	85.56
322.191	94.56
322.42	122.56
322.649	113.56
322.878	109.56
323.108	116.56
323.337	118.56
323.566	140.56
323.795	161.56
324.024	220.56
324.253	440.56
324.482	930.56
324.71	1970.56
324.939	2656.56
325.168	972.56
325.397	279.56
325.626	166.56
325.855	144.56
326.084	124.56
326.313	126.56
326.542	171.56
326.77	248.56
326.999	493.56
327.228	1028.56
327.457	1895.56
327.686	1552.56
327.914	417.56
328.143	241.56
328.372	187.56
328.6	154.56
328.829	131.56
329.058	160.56
329.287	166.56
329.515	131.56
329.744	112.56
329.972	114.56
330.201	126.56
330.43	154.56
330.658	160.56
330.887	188.56
331.115	143.56
331.344	109.56
331.572	100.56
331.801	109.56
332.03	114.56
332.258	112.56
332.486	84.56
332.715	91.56
332.943	97.56
333.172	97.56
333.4	106.56
333.629	119.56
333.857	127.56
334.085	132.56
334.314	125.56
334.542	145.56
334.771	145.56
334.999	112.56
335.227	96.56
335.455	92.56
335.684	84.56
335.912	97.56
336.14	105.56
336.369	94.56
336.597	103.56
336.825	94.56
337.053	95.56
337.281	90.56
337.51	91.56
337.738	98.56
337.966	92.56
338.194	104.56
338.422	110.56
338.65	92.56
338.878	85.56
339.106	110.56
339.334	92.56
339.562	90.56
339.79	90.56
340.018	97.56
340.246	104.56
340.474	100.56
340.702	103.56
340.93	91.56
341.158	82.56
341.386	88.56
341.614	110.56
341.842	107.56
342.07	93.56
342.298	85.56
342.526	98.56
342.754	89.56
342.981	99.56
343.209	84.56
343.437	108.56
343.665	91.56
343.893	86.56
344.12	96.56
344.348	96.56
344.576	85.56
344.804	97.56
345.031	93.56
345.259	94.56
345.487	111.56
345.714	102.56
345.942	102.56
346.17	92.56
346.397	94.56
346.625	86.56
346.853	97.56
347.08	100.56
347.308	95.56
347.535	83.56
347.763	114.56
347.99	103.56
348.218	104.56
348.445	95.56
348.673	102.56
348.9	95.56
349.128	96.56
349.355	93.56
349.583	100.56
349.81	89.56
350.037	83.56
350.265	106.56
350.492	86.56
350.72	96.56
350.947	119.56
351.174	109.56
351.402	120.56
351.629	119.56
351.856	107.56
352.083	115.56
352.311	96.56
352.538	104.56
352.765	119.56
352.992	121.56
353.22	101.56
353.447	112.56
353.674	101.56
353.901	97.56
354.128	91.56
354.355	97.56
354.583	95.56
354.81	100.56
355.037	88.56
355.264	100.56
355.491	88.56
355.718	90.56
355.945	89.56
356.172	110.56
356.399	97.56
356.626	103.56
356.853	88.56
357.08	99.56
357.307	96.56
357.534	102.56
357.761	103.56
357.988	106.56
358.215	97.56
358.441	88.56
358.668	80.56
358.895	80.56
359.122	95.56
359.349	95.56
359.576	101.56
359.802	116.56
360.029	129.56
360.256	130.56
360.483	120.56
360.709	99.56
360.936	100.56
361.163	110.56
361.39	109.56
361.616	106.56
361.843	85.56
362.07	93.56
362.296	113.56
362.523	94.56
362.749	89.56
362.976	85.56
363.203	85.56
363.429	94.56
363.656	104.56
363.882	94.56
364.109	86.56
364.335	86.56
364.562	92.56
364.788	106.56
365.015	92.56
365.241	110.56
365.468	107.56
365.694	135.56
365.92	105.56
366.147	91.56
366.373	82.56
366.599	80.56
366.826	96.56
367.052	104.56
367.278	85.56
367.505	94.56
367.731	93.56
367.957	97.56
368.184	101.56
368.41	106.56
368.636	122.56
368.862	120.56
369.089	116.56
369.315	95.56
369.541	106.56
369.767	97.56
369.993	81.56
370.219	101.56
370.445	102.56
370.672	86.56
370.898	113.56
371.124	97.56
371.35	94.56
371.576	84.56
371.802	85.56
372.028	93.56
372.254	92.56
372.48	80.56
372.706	86.56
372.932	86.56
373.158	88.56
373.384	100.56
373.61	87.56
373.835	100.56
374.061	81.56
374.287	92.56
374.513	87.56
374.739	87.56
374.965	99.56
375.191	86.56
375.416	87.56
375.642	98.56
375.868	90.56
376.094	90.56
376.319	90.56
376.545	81.56
376.771	91.56
376.997	87.56
377.222	99.56
377.448	94.56
377.674	92.56
377.899	97.56
378.125	100.56
378.35	95.56
378.576	106.56
378.802	98.56
379.027	78.56
379.253	91.56
379.478	93.56
379.704	73.56
379.929	74.56
380.155	95.56
380.38	104.56
380.606	86.56
380.831	84.56
381.057	94.56
381.282	105.56
381.507	100.56
381.733	104.56
381.958	86.56
382.184	100.56
382.409	84.56
382.634	107.56
382.86	82.56
383.085	86.56
383.31	93.56
383.535	94.56
383.761	93.56
383.986	103.56
384.211	86.56
384.436	100.56
384.662	88.56
384.887	93.56
385.112	107.56
385.337	99.56
385.562	104.56
385.787	92.56
386.013	101.56
386.238	108.56
386.463	100.56
386.688	114.56
386.913	94.56
387.138	102.56
387.363	127.56
387.588	92.56
387.813	99.56
388.038	97.56
388.263	107.56
388.488	99.56
388.713	98.56
388.938	98.56
389.163	109.56
389.387	108.56
389.612	88.56
389.837	89.56
390.062	88.56
390.287	86.56
390.512	92.56
390.736	101.56
390.961	96.56
391.186	92.56
391.411	86.56
391.636	84.56
391.86	77.56
392.085	77.56
392.31	74.56
392.534	87.56
392.759	84.56
392.984	92.56
393.208	94.56
393.433	113.56
393.658	98.56
393.882	85.56
394.107	97.56
394.331	75.56
394.556	76.56
394.78	90.56
395.005	92.56
395.229	91.56
395.454	99.56
395.678	95.56
395.903	102.56
396.127	88.56
396.352	73.56
396.576	92.56
396.801	91.56
397.025	91.56
397.249	83.56
397.474	91.56
397.698	82.56
397.922	84.56
398.147	83.56
398.371	95.56
398.595	83.56
398.82	84.56
399.044	98.56
399.268	84.56
399.492	76.56
399.717	83.56
399.941	87.56
400.165	86.56
400.389	101.56
400.613	79.56
400.837	90.56
401.062	86.56
401.286	92.56
401.51	97.56
401.734	82.56
401.958	96.56
402.182	130.56
402.406	185.56
402.63	146.56
402.854	100.56
403.078	98.56
403.302	100.56
403.526	100.56
403.75	87.56
403.974	88.56
404.198	90.56
404.422	88.56
404.645	102.56
404.869	107.56
405.093	109.56
405.317	106.56
405.541	99.56
405.765	106.56
405.988	122.56
406.212	205.56
406.436	290.56
406.66	178.56
406.883	116.56
407.107	97.56
407.331	105.56
407.555	107.56
407.778	117.56
408.002	80.56
408.226	83.56
408.449	90.56
408.673	88.56
408.896	99.56
409.12	87.56
409.344	98.56
409.567	99.56
409.791	71.56
410.014	94.56
410.238	91.56
410.461	102.56
410.685	89.56
410.908	100.56
411.132	100.56
411.355	109.56
411.578	89.56
411.802	86.56
412.025	91.56
412.249	64.56
412.472	93.56
412.695	116.56
412.919	92.56
413.142	84.56
413.365	88.56
413.589	93.56
413.812	87.56
414.035	90.56
414.258	93.56
414.482	83.56
414.705	82.56
414.928	84.56
415.151	85.56
415.374	89.56
415.597	91.56
415.821	96.56
416.044	84.56
416.267	90.56
416.49	80.56
416.713	88.56
416.936	96.56
417.159	98.56
417.382	83.56
417.605	76.56
417.828	84.56
418.051	95.56
418.274	90.56
418.497	92.56
418.72	93.56
418.943	91.56
419.166	88.56
419.389	82.56
419.611	96.56
419.834	91.56
420.057	105.56
420.28	90.56
420.503	77.56
420.726	91.56
420.948	89.56
421.171	97.56
421.394	98.56
421.617	92.56
421.839	82.56
422.062	102.56
422.285	91.56
422.507	96.56
422.73	115.56
422.953	88.56
423.175	86.56
423.398	91.56
423.621	96.56
423.843	74.56
424.066	85.56
424.288	92.56
424.511	103.56
424.733	100.56
424.956	108.56
425.178	117.56
425.401	98.56
425.623	93.56
425.846	92.56
426.068	86.56
426.291	95.56
426.513	93.56
426.735	83.56
426.958	89.56
427.18	124.56
427.402	172.56
427.625	216.56
427.847	157.56
428.069	114.56
428.292	98.56
428.514	91.56
428.736	84.56
428.958	89.56
429.181	89.56
429.403	83.56
429.625	91.56
429.847	74.56
430.069	118.56
430.292	94.56
430.514	73.56
430.736	81.56
430.958	83.56
431.18	92.56
431.402	78.56
431.624	84.56
431.846	91.56
432.068	83.56
432.29	82.56
432.512	105.56
432.734	90.56
432.956	95.56
433.178	110.56
433.4	105.56
433.622	88.56
433.844	84.56
434.066	82.56
434.287	98.56
434.509	90.56
434.731	90.56
434.953	100.56
435.175	86.56
435.397	73.56
435.618	93.56
435.84	114.56
436.062	138.56
436.284	118.56
436.505	104.56
436.727	89.56
436.949	74.56
437.17	82.56
437.392	84.56
437.614	92.56
437.835	116.56
438.057	139.56
438.278	119.56
438.5	101.56
438.721	136.56
438.943	105.56
439.165	78.56
439.386	96.56
439.608	84.56
439.829	114.56
440.05	136.56
440.272	163.56
440.493	106.56
440.715	90.56
440.936	84.56
441.158	93.56
441.379	92.56
441.6	97.56
441.822	104.56
442.043	99.56
442.264	123.56
442.486	112.56
442.707	91.56
442.928	116.56
443.149	161.56
443.371	154.56
443.592	133.56
443.813	120.56
444.034	113.56
444.255	106.56
444.476	84.56
444.698	96.56
444.919	94.56
445.14	133.56
445.361	122.56
445.582	139.56
445.803	169.56
446.024	162.56
446.245	166.56
446.466	121.56
446.687	83.56
446.908	89.56
447.129	99.56
447.35	83.56
447.571	90.56
447.792	94.56
448.013	98.56
448.234	101.56
448.455	100.56
448.675	121.56
448.896	140.56
449.117	88.56
449.338	121.56
449.559	141.56
449.779	150.56
450	96.56
450.221	101.56
450.442	96.56
450.662	102.56
450.883	113.56
451.104	119.56
451.324	93.56
451.545	84.56
451.766	71.56
451.986	90.56
452.207	91.56
452.428	88.56
452.648	103.56
452.869	121.56
453.089	133.56
453.31	110.56
453.53	99.56
453.751	96.56
453.971	115.56
454.192	124.56
454.412	99.56
454.633	82.56
454.853	88.56
455.073	89.56
455.294	98.56
455.514	112.56
455.734	92.56
455.955	83.56
456.175	76.56
456.395	94.56
456.616	92.56
456.836	97.56
457.056	89.56
457.276	75.56
457.497	92.56
457.717	83.56
457.937	93.56
458.157	85.56
458.377	96.56
458.598	125.56
458.818	187.56
459.038	218.56
459.258	125.56
459.478	84.56
459.698	80.56
459.918	90.56
460.138	82.56
460.358	87.56
460.578	84.56
460.798	101.56
461.018	83.56
461.238	87.56
461.458	84.56
461.678	83.56
461.898	94.56
462.118	83.56
462.338	82.56
462.558	83.56
462.777	82.56
462.997	93.56
463.217	69.56
463.437	92.56
463.657	94.56
463.876	82.56
464.096	104.56
464.316	103.56
464.536	93.56
464.755	101.56
464.975	105.56
465.195	208.56
465.414	208.56
465.634	104.56
465.854	83.56
466.073	96.56
466.293	91.56
466.512	72.56
466.732	87.56
466.951	84.56
467.171	96.56
467.391	97.56
467.61	120.56
467.829	99.56
468.049	99.56
468.268	107.56
468.488	85.56
468.707	79.56
468.927	76.56
469.146	80.56
469.365	93.56
469.585	96.56
469.804	106.56
470.023	95.56
470.243	86.56
470.462	106.56
470.681	107.56
470.901	73.56
471.12	87.56
471.339	97.56
471.558	85.56
471.777	81.56
471.997	94.56
472.216	126.56
472.435	153.56
472.654	94.56
472.873	76.56
473.092	88.56
473.311	83.56
473.53	87.56
473.749	85.56
473.968	92.56
474.187	123.56
474.406	114.56
474.625	81.56
474.844	94.56
475.063	85.56
475.282	101.56
475.501	98.56
475.72	92.56
475.939	80.56
476.158	75.56
476.377	100.56
476.596	75.56
476.814	92.56
477.033	91.56
477.252	98.56
477.471	94.56
477.69	78.56
477.908	77.56
478.127	86.56
478.346	93.56
478.564	90.56
478.783	95.56
479.002	100.56
479.22	97.56
479.439	100.56
479.658	94.56
479.876	86.56
480.095	92.56
480.313	98.56
480.532	73.56
480.751	100.56
480.969	118.56
481.188	222.56
481.406	171.56
481.624	99.56
481.843	103.56
482.061	85.56
482.28	84.56
482.498	77.56
482.717	86.56
482.935	99.56
483.153	76.56
483.372	78.56
483.59	103.56
483.808	88.56
484.027	103.56
484.245	105.56
484.463	93.56
484.681	88.56
484.9	84.56
485.118	92.56
485.336	105.56
485.554	102.56
485.772	96.56
485.99	98.56
486.209	98.56
486.427	102.56
486.645	101.56
486.863	100.56
487.081	94.56
487.299	81.56
487.517	76.56
487.735	96.56
487.953	82.56
488.171	84.56
488.389	91.56
488.607	109.56
488.825	105.56
489.043	104.56
489.261	82.56
489.479	98.56
489.696	86.56
489.914	89.56
490.132	98.56
490.35	93.56
490.568	95.56
490.786	75.56
491.003	90.56
491.221	96.56
491.439	98.56
491.657	101.56
491.874	90.56
492.092	98.56
492.31	87.56
492.527	97.56
492.745	90.56
492.963	94.56
493.18	100.56
493.398	91.56
493.615	85.56
493.833	93.56
494.05	93.56
494.268	81.56
494.485	100.56
494.703	91.56
494.92	100.56
495.138	90.56
495.355	80.56
495.573	89.56
495.79	78.56
496.008	82.56
496.225	74.56
496.442	92.56
496.66	84.56
496.877	85.56
497.094	104.56
497.312	96.56
497.529	105.56
497.746	73.56
497.963	85.56
498.181	105.56
498.398	104.56
498.615	114.56
498.832	118.56
499.049	92.56
499.267	86.56
499.484	86.56
499.701	90.56
499.918	93.56
500.135	92.56
500.352	85.56
500.569	94.56
500.786	85.56
501.003	77.56
501.22	92.56
501.437	91.56
501.654	97.56
501.871	108.56
502.088	100.56
502.305	100.56
502.522	82.56
502.739	89.56
502.956	85.56
503.172	90.56
503.389	90.56
503.606	110.56
503.823	99.56
504.04	84.56
504.256	93.56
504.473	87.56
504.69	73.56
504.907	105.56
505.123	90.56
505.34	85.56
505.557	88.56
505.773	94.56
505.99	93.56
506.207	90.56
506.423	87.56
506.64	88.56
506.856	98.56
507.073	90.56
507.289	91.56
507.506	98.56
507.722	134.56
507.939	129.56
508.155	96.56
508.372	97.56
508.588	88.56
508.805	93.56
509.021	93.56
509.238	104.56
509.454	91.56
509.67	106.56
509.887	116.56
510.103	142.56
510.319	226.56
510.536	870.56
510.752	2908.56
510.968	774.56
511.184	156.56
511.401	125.56
511.617	102.56
511.833	83.56
512.049	97.56
512.265	96.56
512.481	93.56
512.698	77.56
512.914	89.56
513.13	84.56
513.346	100.56
513.562	105.56
513.778	91.56
513.994	99.56
514.21	117.56
514.426	130.56
514.642	155.56
514.858	136.56
