Data from Circ_1981_H10_HRD10591_00042.txt Node
Date: Wed Jan 03 12:34:29 EST 2024
User: Yrep
Spectrometer: HR+D1059
Trigger mode: 1
Integration Time (sec): 1.000000E-1
Scans to average: 1
Electric dark correction enabled: true
Nonlinearity correction enabled: false
Boxcar width: 0
XAxis mode: Wavelengths
Number of Pixels in Spectrum: 2048
>>>>>Begin Spectral Data<<<<<
223.165	-15.44
223.4	-15.44
223.635	-15.44
223.869	-19.44
224.104	-26.44
224.338	-29.44
224.573	-19.44
224.808	-28.44
225.042	-8.44
225.277	-2.44
225.511	-5.44
225.746	13.56
225.98	15.56
226.215	26.56
226.449	18.56
226.683	21.56
226.918	27.56
227.152	31.56
227.387	44.56
227.621	47.56
227.856	43.56
228.09	47.56
228.324	45.56
228.559	52.56
228.793	54.56
229.027	45.56
229.262	70.56
229.496	93.56
229.73	88.56
229.964	85.56
230.199	77.56
230.433	84.56
230.667	83.56
230.901	68.56
231.136	92.56
231.37	87.56
231.604	69.56
231.838	79.56
232.072	90.56
232.306	89.56
232.541	96.56
232.775	83.56
233.009	76.56
233.243	77.56
233.477	71.56
233.711	79.56
233.945	95.56
234.179	87.56
234.413	75.56
234.647	85.56
234.881	69.56
235.115	77.56
235.349	79.56
235.583	63.56
235.817	91.56
236.051	78.56
236.285	94.56
236.519	82.56
236.753	83.56
236.987	84.56
237.221	86.56
237.455	95.56
237.689	91.56
237.922	76.56
238.156	85.56
238.39	79.56
238.624	68.56
238.858	69.56
239.091	84.56
239.325	74.56
239.559	95.56
239.793	78.56
240.027	97.56
240.26	95.56
240.494	70.56
240.728	87.56
240.961	82.56
241.195	78.56
241.429	89.56
241.662	94.56
241.896	90.56
242.13	71.56
242.363	82.56
242.597	88.56
242.83	79.56
243.064	86.56
243.298	74.56
243.531	84.56
243.765	66.56
243.998	86.56
244.232	86.56
244.465	84.56
244.699	75.56
244.932	69.56
245.166	76.56
245.399	74.56
245.633	82.56
245.866	78.56
246.099	70.56
246.333	92.56
246.566	77.56
246.8	83.56
247.033	77.56
247.266	80.56
247.5	92.56
247.733	83.56
247.966	82.56
248.2	95.56
248.433	94.56
248.666	82.56
248.899	84.56
249.133	90.56
249.366	98.56
249.599	93.56
249.832	89.56
250.066	84.56
250.299	67.56
250.532	100.56
250.765	84.56
250.998	85.56
251.231	86.56
251.465	77.56
251.698	74.56
251.931	75.56
252.164	80.56
252.397	77.56
252.63	78.56
252.863	82.56
253.096	73.56
253.329	89.56
253.562	76.56
253.795	76.56
254.028	91.56
254.261	77.56
254.494	79.56
254.727	82.56
254.96	74.56
255.193	82.56
255.426	75.56
255.659	70.56
255.892	98.56
256.124	91.56
256.357	87.56
256.59	93.56
256.823	75.56
257.056	91.56
257.289	83.56
257.521	93.56
257.754	70.56
257.987	89.56
258.22	83.56
258.452	82.56
258.685	80.56
258.918	95.56
259.151	80.56
259.383	86.56
259.616	71.56
259.849	82.56
260.081	70.56
260.314	81.56
260.547	85.56
260.779	88.56
261.012	87.56
261.244	85.56
261.477	83.56
261.71	90.56
261.942	112.56
262.175	117.56
262.407	91.56
262.64	88.56
262.872	82.56
263.105	92.56
263.337	84.56
263.57	87.56
263.802	88.56
264.035	82.56
264.267	84.56
264.499	67.56
264.732	82.56
264.964	74.56
265.197	77.56
265.429	95.56
265.661	72.56
265.894	86.56
266.126	91.56
266.358	88.56
266.591	92.56
266.823	103.56
267.055	88.56
267.287	96.56
267.52	90.56
267.752	93.56
267.984	102.56
268.216	80.56
268.448	84.56
268.681	90.56
268.913	86.56
269.145	88.56
269.377	92.56
269.609	92.56
269.841	88.56
270.073	86.56
270.306	95.56
270.538	90.56
270.77	82.56
271.002	93.56
271.234	92.56
271.466	79.56
271.698	87.56
271.93	84.56
272.162	88.56
272.394	86.56
272.626	80.56
272.858	98.56
273.09	90.56
273.322	89.56
273.553	71.56
273.785	77.56
274.017	96.56
274.249	88.56
274.481	95.56
274.713	89.56
274.945	84.56
275.176	94.56
275.408	86.56
275.64	87.56
275.872	101.56
276.104	92.56
276.335	91.56
276.567	97.56
276.799	99.56
277.031	100.56
277.262	90.56
277.494	107.56
277.726	85.56
277.957	93.56
278.189	70.56
278.421	102.56
278.652	84.56
278.884	90.56
279.115	93.56
279.347	91.56
279.579	98.56
279.81	78.56
280.042	96.56
280.273	88.56
280.505	87.56
280.736	89.56
280.968	74.56
281.199	91.56
281.431	92.56
281.662	99.56
281.894	86.56
282.125	103.56
282.356	127.56
282.588	156.56
282.819	124.56
283.051	89.56
283.282	86.56
283.513	104.56
283.745	84.56
283.976	79.56
284.207	76.56
284.439	83.56
284.67	89.56
284.901	94.56
285.132	73.56
285.364	70.56
285.595	95.56
285.826	83.56
286.057	111.56
286.288	92.56
286.52	78.56
286.751	88.56
286.982	88.56
287.213	81.56
287.444	74.56
287.675	88.56
287.906	86.56
288.138	92.56
288.369	104.56
288.6	82.56
288.831	95.56
289.062	85.56
289.293	98.56
289.524	98.56
289.755	96.56
289.986	84.56
290.217	92.56
290.448	86.56
290.679	84.56
290.91	78.56
291.141	84.56
291.371	98.56
291.602	75.56
291.833	90.56
292.064	86.56
292.295	88.56
292.526	92.56
292.757	101.56
292.987	93.56
293.218	89.56
293.449	87.56
293.68	96.56
293.91	96.56
294.141	86.56
294.372	63.56
294.603	93.56
294.833	87.56
295.064	87.56
295.295	96.56
295.525	93.56
295.756	89.56
295.987	111.56
296.217	138.56
296.448	125.56
296.679	89.56
296.909	98.56
297.14	90.56
297.37	88.56
297.601	100.56
297.831	81.56
298.062	88.56
298.292	98.56
298.523	111.56
298.753	93.56
298.984	88.56
299.214	85.56
299.445	70.56
299.675	92.56
299.905	104.56
300.136	98.56
300.366	103.56
300.597	101.56
300.827	104.56
301.057	106.56
301.288	111.56
301.518	83.56
301.748	96.56
301.979	102.56
302.209	91.56
302.439	96.56
302.669	92.56
302.9	91.56
303.13	100.56
303.36	93.56
303.59	115.56
303.82	116.56
304.051	92.56
304.281	87.56
304.511	78.56
304.741	71.56
304.971	95.56
305.201	87.56
305.431	84.56
305.661	94.56
305.891	103.56
306.121	98.56
306.352	113.56
306.582	109.56
306.812	93.56
307.042	96.56
307.272	86.56
307.502	95.56
307.731	99.56
307.961	78.56
308.191	103.56
308.421	94.56
308.651	82.56
308.881	90.56
309.111	87.56
309.341	84.56
309.571	95.56
309.8	105.56
310.03	99.56
310.26	105.56
310.49	97.56
310.72	94.56
310.949	106.56
311.179	109.56
311.409	108.56
311.639	100.56
311.868	105.56
312.098	101.56
312.328	86.56
312.557	101.56
312.787	123.56
313.017	103.56
313.246	100.56
313.476	95.56
313.706	103.56
313.935	96.56
314.165	104.56
314.394	110.56
314.624	92.56
314.853	102.56
315.083	106.56
315.312	90.56
315.542	98.56
315.771	85.56
316.001	99.56
316.23	84.56
316.46	86.56
316.689	102.56
316.919	93.56
317.148	107.56
317.377	103.56
317.607	101.56
317.836	104.56
318.065	110.56
318.295	98.56
318.524	90.56
318.753	94.56
318.983	98.56
319.212	109.56
319.441	106.56
319.67	104.56
319.9	103.56
320.129	98.56
320.358	100.56
320.587	102.56
320.816	88.56
321.046	106.56
321.275	100.56
321.504	101.56
321.733	100.56
321.962	93.56
322.191	100.56
322.42	109.56
322.649	128.56
322.878	122.56
323.108	119.56
323.337	133.56
323.566	147.56
323.795	169.56
324.024	241.56
324.253	419.56
324.482	963.56
324.71	1972.56
324.939	2692.56
325.168	956.56
325.397	279.56
325.626	148.56
325.855	135.56
326.084	132.56
326.313	139.56
326.542	158.56
326.77	247.56
326.999	518.56
327.228	1054.56
327.457	2037.56
327.686	1606.56
327.914	420.56
328.143	218.56
328.372	159.56
328.6	151.56
328.829	135.56
329.058	143.56
329.287	149.56
329.515	127.56
329.744	107.56
329.972	120.56
330.201	132.56
330.43	168.56
330.658	166.56
330.887	172.56
331.115	140.56
331.344	112.56
331.572	110.56
331.801	100.56
332.03	117.56
332.258	108.56
332.486	103.56
332.715	97.56
332.943	96.56
333.172	111.56
333.4	108.56
333.629	109.56
333.857	123.56
334.085	120.56
334.314	122.56
334.542	146.56
334.771	146.56
334.999	115.56
335.227	92.56
335.455	99.56
335.684	108.56
335.912	106.56
336.14	110.56
336.369	100.56
336.597	115.56
336.825	113.56
337.053	94.56
337.281	95.56
337.51	93.56
337.738	98.56
337.966	96.56
338.194	106.56
338.422	104.56
338.65	93.56
338.878	112.56
339.106	90.56
339.334	96.56
339.562	103.56
339.79	105.56
340.018	95.56
340.246	103.56
340.474	100.56
340.702	108.56
340.93	89.56
341.158	101.56
341.386	94.56
341.614	102.56
341.842	101.56
342.07	100.56
342.298	107.56
342.526	81.56
342.754	90.56
342.981	92.56
343.209	98.56
343.437	112.56
343.665	82.56
343.893	90.56
344.12	88.56
344.348	95.56
344.576	87.56
344.804	87.56
345.031	100.56
345.259	109.56
345.487	95.56
345.714	94.56
345.942	99.56
346.17	92.56
346.397	94.56
346.625	97.56
346.853	96.56
347.08	102.56
347.308	103.56
347.535	106.56
347.763	97.56
347.99	110.56
348.218	108.56
348.445	104.56
348.673	111.56
348.9	99.56
349.128	95.56
349.355	82.56
349.583	90.56
349.81	91.56
350.037	95.56
350.265	95.56
350.492	102.56
350.72	92.56
350.947	103.56
351.174	111.56
351.402	101.56
351.629	93.56
351.856	103.56
352.083	102.56
352.311	115.56
352.538	116.56
352.765	108.56
352.992	127.56
353.22	115.56
353.447	102.56
353.674	106.56
353.901	93.56
354.128	92.56
354.355	110.56
354.583	108.56
354.81	99.56
355.037	101.56
355.264	108.56
355.491	81.56
355.718	97.56
355.945	91.56
356.172	102.56
356.399	108.56
356.626	100.56
356.853	76.56
357.08	95.56
357.307	94.56
357.534	90.56
357.761	108.56
357.988	79.56
358.215	107.56
358.441	98.56
358.668	89.56
358.895	102.56
359.122	106.56
359.349	95.56
359.576	100.56
359.802	114.56
360.029	118.56
360.256	127.56
360.483	122.56
360.709	103.56
360.936	101.56
361.163	107.56
361.39	90.56
361.616	89.56
361.843	92.56
362.07	86.56
362.296	92.56
362.523	105.56
362.749	94.56
362.976	82.56
363.203	86.56
363.429	80.56
363.656	95.56
363.882	82.56
364.109	98.56
364.335	102.56
364.562	90.56
364.788	100.56
365.015	89.56
365.241	100.56
365.468	104.56
365.694	109.56
365.92	103.56
366.147	83.56
366.373	108.56
366.599	83.56
366.826	92.56
367.052	85.56
367.278	105.56
367.505	98.56
367.731	96.56
367.957	88.56
368.184	102.56
368.41	107.56
368.636	111.56
368.862	116.56
369.089	99.56
369.315	88.56
369.541	92.56
369.767	96.56
369.993	94.56
370.219	101.56
370.445	78.56
370.672	84.56
370.898	88.56
371.124	86.56
371.35	73.56
371.576	96.56
371.802	102.56
372.028	98.56
372.254	102.56
372.48	90.56
372.706	99.56
372.932	90.56
373.158	98.56
373.384	95.56
373.61	99.56
373.835	103.56
374.061	77.56
374.287	99.56
374.513	86.56
374.739	93.56
374.965	97.56
375.191	77.56
375.416	91.56
375.642	92.56
375.868	117.56
376.094	71.56
376.319	86.56
376.545	103.56
376.771	92.56
376.997	84.56
377.222	90.56
377.448	95.56
377.674	97.56
377.899	85.56
378.125	83.56
378.35	100.56
378.576	100.56
378.802	99.56
379.027	114.56
379.253	86.56
379.478	90.56
379.704	89.56
379.929	103.56
380.155	85.56
380.38	93.56
380.606	101.56
380.831	95.56
381.057	90.56
381.282	94.56
381.507	104.56
381.733	95.56
381.958	94.56
382.184	94.56
382.409	90.56
382.634	107.56
382.86	98.56
383.085	106.56
383.31	105.56
383.535	103.56
383.761	110.56
383.986	94.56
384.211	94.56
384.436	97.56
384.662	92.56
384.887	105.56
385.112	101.56
385.337	88.56
385.562	105.56
385.787	109.56
386.013	127.56
386.238	111.56
386.463	111.56
386.688	109.56
386.913	104.56
387.138	88.56
387.363	88.56
387.588	114.56
387.813	112.56
388.038	104.56
388.263	109.56
388.488	102.56
388.713	93.56
388.938	102.56
389.163	112.56
389.387	104.56
389.612	89.56
389.837	88.56
390.062	93.56
390.287	98.56
390.512	101.56
390.736	78.56
390.961	74.56
391.186	80.56
391.411	93.56
391.636	100.56
391.86	90.56
392.085	80.56
392.31	87.56
392.534	103.56
392.759	88.56
392.984	102.56
393.208	87.56
393.433	88.56
393.658	98.56
393.882	85.56
394.107	78.56
394.331	91.56
394.556	100.56
394.78	102.56
395.005	88.56
395.229	82.56
395.454	71.56
395.678	83.56
395.903	74.56
396.127	79.56
396.352	88.56
396.576	93.56
396.801	99.56
397.025	94.56
397.249	99.56
397.474	92.56
397.698	100.56
397.922	88.56
398.147	95.56
398.371	92.56
398.595	92.56
398.82	86.56
399.044	95.56
399.268	84.56
399.492	75.56
399.717	86.56
399.941	107.56
400.165	99.56
400.389	94.56
400.613	95.56
400.837	105.56
401.062	94.56
401.286	95.56
401.51	94.56
401.734	70.56
401.958	100.56
402.182	130.56
402.406	160.56
402.63	129.56
402.854	98.56
403.078	91.56
403.302	96.56
403.526	108.56
403.75	85.56
403.974	87.56
404.198	74.56
404.422	94.56
404.645	79.56
404.869	83.56
405.093	100.56
405.317	100.56
405.541	108.56
405.765	91.56
405.988	120.56
406.212	172.56
406.436	254.56
406.66	163.56
406.883	110.56
407.107	98.56
407.331	102.56
407.555	118.56
407.778	98.56
408.002	77.56
408.226	86.56
408.449	97.56
408.673	90.56
408.896	94.56
409.12	103.56
409.344	95.56
409.567	90.56
409.791	96.56
410.014	103.56
410.238	83.56
410.461	90.56
410.685	106.56
410.908	104.56
411.132	116.56
411.355	111.56
411.578	99.56
411.802	94.56
412.025	71.56
412.249	106.56
412.472	101.56
412.695	87.56
412.919	91.56
413.142	92.56
413.365	75.56
413.589	94.56
413.812	90.56
414.035	89.56
414.258	98.56
414.482	84.56
414.705	84.56
414.928	92.56
415.151	100.56
415.374	94.56
415.597	88.56
415.821	84.56
416.044	95.56
416.267	90.56
416.49	100.56
416.713	74.56
416.936	98.56
417.159	88.56
417.382	90.56
417.605	96.56
417.828	109.56
418.051	89.56
418.274	92.56
418.497	87.56
418.72	75.56
418.943	96.56
419.166	86.56
419.389	90.56
419.611	78.56
419.834	80.56
420.057	91.56
420.28	88.56
420.503	91.56
420.726	80.56
420.948	95.56
421.171	99.56
421.394	110.56
421.617	90.56
421.839	88.56
422.062	78.56
422.285	90.56
422.507	98.56
422.73	108.56
422.953	101.56
423.175	82.56
423.398	82.56
423.621	77.56
423.843	104.56
424.066	93.56
424.288	82.56
424.511	98.56
424.733	94.56
424.956	123.56
425.178	113.56
425.401	112.56
425.623	96.56
425.846	95.56
426.068	93.56
426.291	94.56
426.513	86.56
426.735	92.56
426.958	99.56
427.18	114.56
427.402	161.56
427.625	178.56
427.847	157.56
428.069	126.56
428.292	86.56
428.514	87.56
428.736	76.56
428.958	92.56
429.181	90.56
429.403	95.56
429.625	91.56
429.847	94.56
430.069	109.56
430.292	91.56
430.514	95.56
430.736	90.56
430.958	91.56
431.18	77.56
431.402	98.56
431.624	87.56
431.846	92.56
432.068	95.56
432.29	94.56
432.512	79.56
432.734	102.56
432.956	90.56
433.178	100.56
433.4	120.56
433.622	99.56
433.844	90.56
434.066	104.56
434.287	78.56
434.509	97.56
434.731	102.56
434.953	83.56
435.175	84.56
435.397	90.56
435.618	89.56
435.84	122.56
436.062	130.56
436.284	126.56
436.505	111.56
436.727	98.56
436.949	84.56
437.17	99.56
437.392	90.56
437.614	98.56
437.835	103.56
438.057	147.56
438.278	118.56
438.5	127.56
438.721	150.56
438.943	112.56
439.165	90.56
439.386	89.56
439.608	79.56
439.829	106.56
440.05	130.56
440.272	179.56
440.493	110.56
440.715	86.56
440.936	83.56
441.158	91.56
441.379	70.56
441.6	95.56
441.822	95.56
442.043	112.56
442.264	112.56
442.486	114.56
442.707	94.56
442.928	102.56
443.149	150.56
443.371	134.56
443.592	113.56
443.813	124.56
444.034	125.56
444.255	99.56
444.476	101.56
444.698	91.56
444.919	92.56
445.14	114.56
445.361	116.56
445.582	133.56
445.803	183.56
446.024	163.56
446.245	155.56
446.466	115.56
446.687	78.56
446.908	94.56
447.129	83.56
447.35	92.56
447.571	90.56
447.792	102.56
448.013	100.56
448.234	122.56
448.455	116.56
448.675	138.56
448.896	127.56
449.117	103.56
449.338	94.56
449.559	148.56
449.779	156.56
450	98.56
450.221	104.56
450.442	93.56
450.662	110.56
450.883	114.56
451.104	119.56
451.324	90.56
451.545	94.56
451.766	82.56
451.986	98.56
452.207	76.56
452.428	96.56
452.648	94.56
452.869	122.56
453.089	118.56
453.31	119.56
453.53	111.56
453.751	89.56
453.971	111.56
454.192	123.56
454.412	90.56
454.633	90.56
454.853	87.56
455.073	93.56
455.294	106.56
455.514	127.56
455.734	88.56
455.955	80.56
456.175	84.56
456.395	73.56
456.616	79.56
456.836	84.56
457.056	92.56
457.276	92.56
457.497	91.56
457.717	86.56
457.937	88.56
458.157	95.56
458.377	92.56
458.598	120.56
458.818	175.56
459.038	192.56
459.258	146.56
459.478	85.56
459.698	99.56
459.918	79.56
460.138	79.56
460.358	90.56
460.578	100.56
460.798	100.56
461.018	93.56
461.238	87.56
461.458	92.56
461.678	79.56
461.898	101.56
462.118	82.56
462.338	74.56
462.558	84.56
462.777	74.56
462.997	90.56
463.217	96.56
463.437	83.56
463.657	79.56
463.876	96.56
464.096	91.56
464.316	100.56
464.536	91.56
464.755	102.56
464.975	111.56
465.195	185.56
465.414	196.56
465.634	112.56
465.854	83.56
466.073	91.56
466.293	86.56
466.512	92.56
466.732	97.56
466.951	102.56
467.171	98.56
467.391	98.56
467.61	101.56
467.829	99.56
468.049	91.56
468.268	87.56
468.488	87.56
468.707	82.56
468.927	74.56
469.146	75.56
469.365	92.56
469.585	90.56
469.804	99.56
470.023	95.56
470.243	99.56
470.462	100.56
470.681	123.56
470.901	96.56
471.12	92.56
471.339	94.56
471.558	97.56
471.777	83.56
471.997	87.56
472.216	105.56
472.435	160.56
472.654	108.56
472.873	90.56
473.092	87.56
473.311	91.56
473.53	70.56
473.749	80.56
473.968	90.56
474.187	120.56
474.406	127.56
474.625	86.56
474.844	94.56
475.063	87.56
475.282	85.56
475.501	90.56
475.72	89.56
475.939	91.56
476.158	81.56
476.377	92.56
476.596	90.56
476.814	101.56
477.033	92.56
477.252	88.56
477.471	83.56
477.69	92.56
477.908	90.56
478.127	88.56
478.346	87.56
478.564	98.56
478.783	86.56
479.002	93.56
479.22	91.56
479.439	118.56
479.658	111.56
479.876	100.56
480.095	92.56
480.313	98.56
480.532	96.56
480.751	92.56
480.969	111.56
481.188	193.56
481.406	152.56
481.624	108.56
481.843	101.56
482.061	100.56
482.28	87.56
482.498	99.56
482.717	98.56
482.935	93.56
483.153	88.56
483.372	85.56
483.59	82.56
483.808	82.56
484.027	86.56
484.245	95.56
484.463	78.56
484.681	90.56
484.9	86.56
485.118	104.56
485.336	95.56
485.554	101.56
485.772	82.56
485.99	110.56
486.209	94.56
486.427	107.56
486.645	112.56
486.863	107.56
487.081	100.56
487.299	100.56
487.517	106.56
487.735	99.56
487.953	88.56
488.171	95.56
488.389	100.56
488.607	91.56
488.825	85.56
489.043	92.56
489.261	96.56
489.479	90.56
489.696	88.56
489.914	94.56
490.132	89.56
490.35	97.56
490.568	105.56
490.786	92.56
491.003	95.56
491.221	95.56
491.439	93.56
491.657	87.56
491.874	100.56
492.092	95.56
492.31	107.56
492.527	84.56
492.745	94.56
492.963	91.56
493.18	89.56
493.398	99.56
493.615	90.56
493.833	100.56
494.05	93.56
494.268	75.56
494.485	86.56
494.703	93.56
494.92	99.56
495.138	85.56
495.355	92.56
495.573	95.56
495.79	92.56
496.008	100.56
496.225	72.56
496.442	94.56
496.66	96.56
496.877	96.56
497.094	86.56
497.312	105.56
497.529	84.56
497.746	96.56
497.963	81.56
498.181	91.56
498.398	104.56
498.615	102.56
498.832	101.56
499.049	97.56
499.267	89.56
499.484	90.56
499.701	88.56
499.918	85.56
500.135	88.56
500.352	95.56
500.569	84.56
500.786	97.56
501.003	95.56
501.22	89.56
501.437	92.56
501.654	95.56
501.871	119.56
502.088	85.56
502.305	101.56
502.522	77.56
502.739	83.56
502.956	94.56
503.172	96.56
503.389	99.56
503.606	123.56
503.823	107.56
504.04	100.56
504.256	98.56
504.473	87.56
504.69	88.56
504.907	90.56
505.123	98.56
505.34	87.56
505.557	92.56
505.773	95.56
505.99	75.56
506.207	86.56
506.423	85.56
506.64	97.56
506.856	86.56
507.073	84.56
507.289	91.56
507.506	93.56
507.722	106.56
507.939	131.56
508.155	102.56
508.372	103.56
508.588	93.56
508.805	85.56
509.021	104.56
509.238	95.56
509.454	87.56
509.67	106.56
509.887	114.56
510.103	135.56
510.319	195.56
510.536	729.56
510.752	2413.56
510.968	657.56
511.184	161.56
511.401	119.56
511.617	100.56
511.833	90.56
512.049	87.56
512.265	90.56
512.481	101.56
512.698	85.56
512.914	93.56
513.13	93.56
513.346	90.56
513.562	94.56
513.778	88.56
513.994	108.56
514.21	109.56
