Data from Circ_1981_H10_HRD10591_00006.txt Node
Date: Wed Jan 03 12:34:22 EST 2024
User: Yrep
Spectrometer: HR+D1059
Trigger mode: 1
Integration Time (sec): 1.000000E-1
Scans to average: 1
Electric dark correction enabled: true
Nonlinearity correction enabled: false
Boxcar width: 0
XAxis mode: Wavelengths
Number of Pixels in Spectrum: 2048
>>>>>Begin Spectral Data<<<<<
223.165	-20.12
223.4	-20.12
223.635	-20.12
223.869	-14.12
224.104	-18.12
224.338	-11.12
224.573	-16.12
224.808	-5.12
225.042	-21.12
225.277	4.88
225.511	-4.12
225.746	4.88
225.98	-7.12
226.215	11.88
226.449	7.88
226.683	15.88
226.918	27.88
227.152	43.88
227.387	32.88
227.621	33.88
227.856	45.88
228.09	46.88
228.324	33.88
228.559	49.88
228.793	63.88
229.027	65.88
229.262	70.88
229.496	67.88
229.73	94.88
229.964	80.88
230.199	72.88
230.433	71.88
230.667	101.88
230.901	87.88
231.136	74.88
231.37	75.88
231.604	64.88
231.838	88.88
232.072	71.88
232.306	81.88
232.541	80.88
232.775	71.88
233.009	81.88
233.243	92.88
233.477	79.88
233.711	80.88
233.945	69.88
234.179	75.88
234.413	86.88
234.647	65.88
234.881	76.88
235.115	74.88
235.349	79.88
235.583	87.88
235.817	80.88
236.051	71.88
236.285	83.88
236.519	83.88
236.753	74.88
236.987	91.88
237.221	83.88
237.455	86.88
237.689	72.88
237.922	72.88
238.156	78.88
238.39	65.88
238.624	78.88
238.858	68.88
239.091	71.88
239.325	82.88
239.559	80.88
239.793	79.88
240.027	59.88
240.26	72.88
240.494	68.88
240.728	60.88
240.961	76.88
241.195	87.88
241.429	81.88
241.662	68.88
241.896	70.88
242.13	78.88
242.363	80.88
242.597	73.88
242.83	79.88
243.064	85.88
243.298	83.88
243.531	86.88
243.765	76.88
243.998	68.88
244.232	59.88
244.465	63.88
244.699	74.88
244.932	98.88
245.166	95.88
245.399	71.88
245.633	90.88
245.866	76.88
246.099	70.88
246.333	74.88
246.566	71.88
246.8	69.88
247.033	71.88
247.266	79.88
247.5	71.88
247.733	71.88
247.966	86.88
248.2	85.88
248.433	61.88
248.666	65.88
248.899	69.88
249.133	87.88
249.366	98.88
249.599	97.88
249.832	90.88
250.066	96.88
250.299	71.88
250.532	65.88
250.765	69.88
250.998	74.88
251.231	79.88
251.465	87.88
251.698	73.88
251.931	74.88
252.164	88.88
252.397	76.88
252.63	75.88
252.863	74.88
253.096	87.88
253.329	84.88
253.562	87.88
253.795	81.88
254.028	83.88
254.261	77.88
254.494	85.88
254.727	71.88
254.96	81.88
255.193	83.88
255.426	76.88
255.659	81.88
255.892	84.88
256.124	82.88
256.357	83.88
256.59	71.88
256.823	75.88
257.056	85.88
257.289	89.88
257.521	77.88
257.754	84.88
257.987	79.88
258.22	94.88
258.452	93.88
258.685	83.88
258.918	67.88
259.151	74.88
259.383	78.88
259.616	69.88
259.849	83.88
260.081	100.88
260.314	68.88
260.547	99.88
260.779	84.88
261.012	91.88
261.244	70.88
261.477	91.88
261.71	99.88
261.942	115.88
262.175	133.88
262.407	111.88
262.64	75.88
262.872	86.88
263.105	75.88
263.337	79.88
263.57	79.88
263.802	85.88
264.035	82.88
264.267	72.88
264.499	71.88
264.732	87.88
264.964	76.88
265.197	83.88
265.429	88.88
265.661	87.88
265.894	85.88
266.126	74.88
266.358	90.88
266.591	83.88
266.823	79.88
267.055	73.88
267.287	92.88
267.52	89.88
267.752	76.88
267.984	84.88
268.216	81.88
268.448	99.88
268.681	93.88
268.913	91.88
269.145	79.88
269.377	70.88
269.609	79.88
269.841	75.88
270.073	75.88
270.306	81.88
270.538	87.88
270.77	84.88
271.002	72.88
271.234	82.88
271.466	93.88
271.698	81.88
271.93	71.88
272.162	100.88
272.394	87.88
272.626	88.88
272.858	88.88
273.09	87.88
273.322	92.88
273.553	76.88
273.785	79.88
274.017	86.88
274.249	82.88
274.481	92.88
274.713	90.88
274.945	89.88
275.176	93.88
275.408	71.88
275.64	95.88
275.872	64.88
276.104	105.88
276.335	88.88
276.567	99.88
276.799	125.88
277.031	103.88
277.262	88.88
277.494	83.88
277.726	78.88
277.957	79.88
278.189	71.88
278.421	86.88
278.652	73.88
278.884	91.88
279.115	87.88
279.347	85.88
279.579	79.88
279.81	90.88
280.042	102.88
280.273	75.88
280.505	85.88
280.736	73.88
280.968	81.88
281.199	83.88
281.431	90.88
281.662	99.88
281.894	89.88
282.125	99.88
282.356	112.88
282.588	146.88
282.819	102.88
283.051	93.88
283.282	84.88
283.513	89.88
283.745	75.88
283.976	91.88
284.207	83.88
284.439	91.88
284.67	89.88
284.901	91.88
285.132	84.88
285.364	90.88
285.595	72.88
285.826	83.88
286.057	85.88
286.288	89.88
286.52	89.88
286.751	85.88
286.982	90.88
287.213	91.88
287.444	76.88
287.675	77.88
287.906	96.88
288.138	95.88
288.369	92.88
288.6	100.88
288.831	93.88
289.062	81.88
289.293	93.88
289.524	88.88
289.755	87.88
289.986	85.88
290.217	82.88
290.448	93.88
290.679	90.88
290.91	95.88
291.141	95.88
291.371	113.88
291.602	91.88
291.833	93.88
292.064	94.88
292.295	74.88
292.526	66.88
292.757	77.88
292.987	79.88
293.218	75.88
293.449	94.88
293.68	97.88
293.91	89.88
294.141	91.88
294.372	78.88
294.603	79.88
294.833	81.88
295.064	80.88
295.295	80.88
295.525	91.88
295.756	85.88
295.987	104.88
296.217	164.88
296.448	123.88
296.679	87.88
296.909	86.88
297.14	85.88
297.37	87.88
297.601	100.88
297.831	93.88
298.062	96.88
298.292	86.88
298.523	85.88
298.753	78.88
298.984	98.88
299.214	97.88
299.445	87.88
299.675	86.88
299.905	101.88
300.136	91.88
300.366	75.88
300.597	94.88
300.827	81.88
301.057	103.88
301.288	111.88
301.518	95.88
301.748	97.88
301.979	115.88
302.209	101.88
302.439	92.88
302.669	93.88
302.9	86.88
303.13	90.88
303.36	83.88
303.59	108.88
303.82	104.88
304.051	93.88
304.281	99.88
304.511	100.88
304.741	75.88
304.971	106.88
305.201	86.88
305.431	92.88
305.661	102.88
305.891	87.88
306.121	101.88
306.352	113.88
306.582	103.88
306.812	86.88
307.042	90.88
307.272	102.88
307.502	97.88
307.731	107.88
307.961	81.88
308.191	97.88
308.421	81.88
308.651	103.88
308.881	81.88
309.111	106.88
309.341	102.88
309.571	98.88
309.8	94.88
310.03	95.88
310.26	96.88
310.49	102.88
310.72	113.88
310.949	109.88
311.179	112.88
311.409	92.88
311.639	91.88
311.868	105.88
312.098	71.88
312.328	100.88
312.557	101.88
312.787	112.88
313.017	108.88
313.246	101.88
313.476	97.88
313.706	79.88
313.935	96.88
314.165	105.88
314.394	98.88
314.624	100.88
314.853	81.88
315.083	101.88
315.312	85.88
315.542	88.88
315.771	88.88
316.001	107.88
316.23	85.88
316.46	94.88
316.689	88.88
316.919	90.88
317.148	97.88
317.377	116.88
317.607	98.88
317.836	92.88
318.065	98.88
318.295	89.88
318.524	89.88
318.753	87.88
318.983	106.88
319.212	101.88
319.441	132.88
319.67	106.88
319.9	95.88
320.129	102.88
320.358	84.88
320.587	88.88
320.816	91.88
321.046	97.88
321.275	101.88
321.504	104.88
321.733	99.88
321.962	91.88
322.191	103.88
322.42	105.88
322.649	122.88
322.878	114.88
323.108	117.88
323.337	123.88
323.566	152.88
323.795	165.88
324.024	241.88
324.253	481.88
324.482	1007.88
324.71	2057.88
324.939	2795.88
325.168	1009.88
325.397	283.88
325.626	167.88
325.855	152.88
326.084	122.88
326.313	140.88
326.542	151.88
326.77	253.88
326.999	533.88
327.228	1108.88
327.457	2096.88
327.686	1639.88
327.914	440.88
328.143	211.88
328.372	155.88
328.6	149.88
328.829	145.88
329.058	157.88
329.287	138.88
329.515	116.88
329.744	99.88
329.972	122.88
330.201	128.88
330.43	161.88
330.658	150.88
330.887	159.88
331.115	157.88
331.344	111.88
331.572	99.88
331.801	122.88
332.03	110.88
332.258	87.88
332.486	104.88
332.715	105.88
332.943	84.88
333.172	93.88
333.4	88.88
333.629	98.88
333.857	117.88
334.085	108.88
334.314	124.88
334.542	142.88
334.771	135.88
334.999	105.88
335.227	99.88
335.455	96.88
335.684	91.88
335.912	91.88
336.14	93.88
336.369	97.88
336.597	95.88
336.825	102.88
337.053	97.88
337.281	85.88
337.51	100.88
337.738	92.88
337.966	103.88
338.194	95.88
338.422	93.88
338.65	97.88
338.878	99.88
339.106	94.88
339.334	87.88
339.562	87.88
339.79	99.88
340.018	83.88
340.246	85.88
340.474	107.88
340.702	87.88
340.93	109.88
341.158	100.88
341.386	94.88
341.614	89.88
341.842	92.88
342.07	85.88
342.298	96.88
342.526	93.88
342.754	95.88
342.981	85.88
343.209	92.88
343.437	85.88
343.665	94.88
343.893	85.88
344.12	95.88
344.348	93.88
344.576	75.88
344.804	105.88
345.031	101.88
345.259	98.88
345.487	104.88
345.714	98.88
345.942	87.88
346.17	88.88
346.397	71.88
346.625	109.88
346.853	83.88
347.08	109.88
347.308	96.88
347.535	109.88
347.763	107.88
347.99	94.88
348.218	97.88
348.445	100.88
348.673	112.88
348.9	101.88
349.128	87.88
349.355	96.88
349.583	81.88
349.81	99.88
350.037	95.88
350.265	100.88
350.492	92.88
350.72	96.88
350.947	101.88
351.174	111.88
351.402	108.88
351.629	106.88
351.856	94.88
352.083	115.88
352.311	122.88
352.538	125.88
352.765	107.88
352.992	117.88
353.22	112.88
353.447	115.88
353.674	95.88
353.901	114.88
354.128	104.88
354.355	101.88
354.583	99.88
354.81	109.88
355.037	106.88
355.264	104.88
355.491	100.88
355.718	84.88
355.945	92.88
356.172	89.88
356.399	80.88
356.626	97.88
356.853	76.88
357.08	83.88
357.307	104.88
357.534	94.88
357.761	85.88
357.988	86.88
358.215	101.88
358.441	69.88
358.668	105.88
358.895	119.88
359.122	92.88
359.349	106.88
359.576	108.88
359.802	114.88
360.029	120.88
360.256	122.88
360.483	109.88
360.709	84.88
360.936	92.88
361.163	100.88
361.39	91.88
361.616	90.88
361.843	100.88
362.07	87.88
362.296	87.88
362.523	110.88
362.749	89.88
362.976	98.88
363.203	88.88
363.429	92.88
363.656	110.88
363.882	95.88
364.109	89.88
364.335	102.88
364.562	91.88
364.788	99.88
365.015	99.88
365.241	107.88
365.468	114.88
365.694	117.88
365.92	106.88
366.147	95.88
366.373	91.88
366.599	72.88
366.826	89.88
367.052	79.88
367.278	76.88
367.505	88.88
367.731	105.88
367.957	91.88
368.184	93.88
368.41	98.88
368.636	114.88
368.862	138.88
369.089	108.88
369.315	101.88
369.541	95.88
369.767	90.88
369.993	85.88
370.219	87.88
370.445	79.88
370.672	84.88
370.898	76.88
371.124	69.88
371.35	107.88
371.576	89.88
371.802	86.88
372.028	72.88
372.254	89.88
372.48	90.88
372.706	83.88
372.932	75.88
373.158	95.88
373.384	97.88
373.61	94.88
373.835	96.88
374.061	94.88
374.287	100.88
374.513	94.88
374.739	84.88
374.965	106.88
375.191	88.88
375.416	88.88
375.642	95.88
375.868	111.88
376.094	102.88
376.319	96.88
376.545	95.88
376.771	98.88
376.997	91.88
377.222	101.88
377.448	92.88
377.674	81.88
377.899	83.88
378.125	85.88
378.35	76.88
378.576	87.88
378.802	99.88
379.027	87.88
379.253	90.88
379.478	88.88
379.704	85.88
379.929	87.88
380.155	99.88
380.38	106.88
380.606	92.88
380.831	90.88
381.057	99.88
381.282	103.88
381.507	96.88
381.733	100.88
381.958	108.88
382.184	95.88
382.409	87.88
382.634	107.88
382.86	92.88
383.085	95.88
383.31	111.88
383.535	112.88
383.761	90.88
383.986	101.88
384.211	107.88
384.436	119.88
384.662	101.88
384.887	106.88
385.112	100.88
385.337	110.88
385.562	108.88
385.787	135.88
386.013	108.88
386.238	119.88
386.463	101.88
386.688	116.88
386.913	113.88
387.138	113.88
387.363	118.88
387.588	105.88
387.813	115.88
388.038	115.88
388.263	116.88
388.488	121.88
388.713	89.88
388.938	90.88
389.163	93.88
389.387	107.88
389.612	100.88
389.837	84.88
390.062	89.88
390.287	95.88
390.512	81.88
390.736	91.88
390.961	103.88
391.186	84.88
391.411	99.88
391.636	95.88
391.86	89.88
392.085	85.88
392.31	88.88
392.534	87.88
392.759	91.88
392.984	99.88
393.208	98.88
393.433	116.88
393.658	115.88
393.882	84.88
394.107	89.88
394.331	92.88
394.556	90.88
394.78	88.88
395.005	95.88
395.229	94.88
395.454	88.88
395.678	74.88
395.903	91.88
396.127	101.88
396.352	99.88
396.576	86.88
396.801	98.88
397.025	109.88
397.249	103.88
397.474	89.88
397.698	80.88
397.922	77.88
398.147	75.88
398.371	76.88
398.595	83.88
398.82	75.88
399.044	91.88
399.268	72.88
399.492	71.88
399.717	90.88
399.941	85.88
400.165	94.88
400.389	83.88
400.613	93.88
400.837	83.88
401.062	79.88
401.286	99.88
401.51	83.88
401.734	92.88
401.958	96.88
402.182	137.88
402.406	168.88
402.63	138.88
402.854	89.88
403.078	90.88
403.302	77.88
403.526	85.88
403.75	82.88
403.974	94.88
404.198	83.88
404.422	106.88
404.645	86.88
404.869	92.88
405.093	113.88
405.317	104.88
405.541	96.88
405.765	106.88
405.988	111.88
406.212	183.88
406.436	266.88
406.66	168.88
406.883	111.88
407.107	107.88
407.331	107.88
407.555	105.88
407.778	100.88
408.002	90.88
408.226	92.88
408.449	90.88
408.673	93.88
408.896	97.88
409.12	100.88
409.344	87.88
409.567	83.88
409.791	83.88
410.014	87.88
410.238	85.88
410.461	81.88
410.685	99.88
410.908	88.88
411.132	105.88
411.355	90.88
411.578	89.88
411.802	91.88
412.025	77.88
412.249	91.88
412.472	87.88
412.695	97.88
412.919	89.88
413.142	97.88
413.365	95.88
413.589	81.88
413.812	80.88
414.035	84.88
414.258	90.88
414.482	83.88
414.705	92.88
414.928	100.88
415.151	92.88
415.374	105.88
415.597	108.88
415.821	99.88
416.044	84.88
416.267	81.88
416.49	96.88
416.713	84.88
416.936	93.88
417.159	94.88
417.382	85.88
417.605	77.88
417.828	106.88
418.051	95.88
418.274	92.88
418.497	87.88
418.72	92.88
418.943	81.88
419.166	96.88
419.389	93.88
419.611	92.88
419.834	84.88
420.057	82.88
420.28	73.88
420.503	90.88
420.726	100.88
420.948	96.88
421.171	95.88
421.394	91.88
421.617	77.88
421.839	77.88
422.062	113.88
422.285	102.88
422.507	91.88
422.73	132.88
422.953	111.88
423.175	111.88
423.398	101.88
423.621	104.88
423.843	75.88
424.066	91.88
424.288	89.88
424.511	95.88
424.733	91.88
424.956	104.88
425.178	101.88
425.401	92.88
425.623	112.88
425.846	91.88
426.068	100.88
426.291	91.88
426.513	85.88
426.735	97.88
426.958	100.88
427.18	96.88
427.402	159.88
427.625	206.88
427.847	157.88
428.069	113.88
428.292	99.88
428.514	98.88
428.736	97.88
428.958	84.88
429.181	91.88
429.403	68.88
429.625	85.88
429.847	103.88
430.069	98.88
430.292	95.88
430.514	87.88
430.736	81.88
430.958	89.88
431.18	72.88
431.402	80.88
431.624	87.88
431.846	90.88
432.068	84.88
432.29	90.88
432.512	102.88
432.734	92.88
432.956	85.88
433.178	100.88
433.4	108.88
433.622	84.88
433.844	95.88
434.066	87.88
434.287	86.88
434.509	93.88
434.731	96.88
434.953	83.88
435.175	86.88
435.397	84.88
435.618	83.88
435.84	106.88
436.062	147.88
436.284	134.88
436.505	109.88
436.727	99.88
436.949	107.88
437.17	96.88
437.392	90.88
437.614	93.88
437.835	113.88
438.057	132.88
438.278	143.88
438.5	115.88
438.721	144.88
438.943	110.88
439.165	93.88
439.386	89.88
439.608	83.88
439.829	103.88
440.05	128.88
440.272	170.88
440.493	99.88
440.715	82.88
440.936	79.88
441.158	83.88
441.379	92.88
441.6	93.88
441.822	98.88
442.043	90.88
442.264	114.88
442.486	106.88
442.707	97.88
442.928	128.88
443.149	151.88
443.371	121.88
443.592	119.88
443.813	131.88
444.034	110.88
444.255	84.88
444.476	96.88
444.698	83.88
444.919	89.88
445.14	137.88
445.361	128.88
445.582	123.88
445.803	165.88
446.024	152.88
446.245	157.88
446.466	115.88
446.687	102.88
446.908	99.88
447.129	91.88
447.35	80.88
447.571	88.88
447.792	84.88
448.013	104.88
448.234	97.88
448.455	113.88
448.675	138.88
448.896	151.88
449.117	112.88
449.338	117.88
449.559	137.88
449.779	168.88
450	90.88
450.221	85.88
450.442	91.88
450.662	105.88
450.883	114.88
451.104	113.88
451.324	88.88
451.545	99.88
451.766	91.88
451.986	89.88
452.207	89.88
452.428	91.88
452.648	101.88
452.869	118.88
453.089	113.88
453.31	124.88
453.53	92.88
453.751	100.88
453.971	113.88
454.192	108.88
454.412	90.88
454.633	96.88
454.853	72.88
455.073	75.88
455.294	99.88
455.514	103.88
455.734	92.88
455.955	82.88
456.175	103.88
456.395	88.88
456.616	89.88
456.836	87.88
457.056	95.88
457.276	79.88
457.497	74.88
457.717	95.88
457.937	81.88
458.157	91.88
458.377	97.88
458.598	119.88
458.818	170.88
459.038	202.88
459.258	138.88
459.478	97.88
459.698	74.88
459.918	81.88
460.138	95.88
460.358	94.88
460.578	84.88
460.798	76.88
461.018	87.88
461.238	74.88
461.458	78.88
461.678	77.88
461.898	85.88
462.118	71.88
462.338	79.88
462.558	99.88
462.777	75.88
462.997	89.88
463.217	81.88
463.437	86.88
463.657	76.88
463.876	98.88
464.096	95.88
464.316	86.88
464.536	95.88
464.755	91.88
464.975	106.88
465.195	199.88
465.414	179.88
465.634	116.88
465.854	84.88
466.073	82.88
466.293	81.88
466.512	85.88
466.732	106.88
466.951	103.88
467.171	89.88
467.391	76.88
467.61	98.88
467.829	97.88
468.049	85.88
468.268	112.88
468.488	74.88
468.707	86.88
468.927	92.88
469.146	83.88
469.365	86.88
469.585	92.88
469.804	80.88
470.023	96.88
470.243	99.88
470.462	104.88
470.681	114.88
470.901	73.88
471.12	98.88
471.339	91.88
471.558	93.88
471.777	94.88
471.997	110.88
472.216	106.88
472.435	157.88
472.654	102.88
472.873	82.88
473.092	86.88
473.311	90.88
473.53	87.88
473.749	92.88
473.968	91.88
474.187	120.88
474.406	89.88
474.625	72.88
474.844	85.88
475.063	67.88
475.282	88.88
475.501	87.88
475.72	91.88
475.939	89.88
476.158	100.88
476.377	90.88
476.596	79.88
476.814	102.88
477.033	104.88
477.252	89.88
477.471	81.88
477.69	95.88
477.908	73.88
478.127	77.88
478.346	94.88
478.564	74.88
478.783	93.88
479.002	88.88
479.22	99.88
479.439	112.88
479.658	104.88
479.876	106.88
480.095	97.88
480.313	92.88
480.532	92.88
480.751	96.88
480.969	109.88
481.188	234.88
481.406	176.88
481.624	103.88
481.843	85.88
482.061	89.88
482.28	92.88
482.498	84.88
482.717	91.88
482.935	98.88
483.153	90.88
483.372	82.88
483.59	73.88
483.808	91.88
484.027	86.88
484.245	93.88
484.463	90.88
484.681	95.88
484.9	91.88
485.118	78.88
485.336	95.88
485.554	91.88
485.772	98.88
485.99	92.88
486.209	116.88
486.427	100.88
486.645	114.88
486.863	115.88
487.081	107.88
487.299	105.88
487.517	95.88
487.735	72.88
487.953	91.88
488.171	91.88
488.389	88.88
488.607	102.88
488.825	97.88
489.043	96.88
489.261	95.88
489.479	91.88
489.696	90.88
489.914	88.88
490.132	95.88
490.35	91.88
490.568	82.88
490.786	91.88
491.003	95.88
491.221	92.88
491.439	82.88
491.657	86.88
491.874	85.88
492.092	91.88
492.31	78.88
492.527	88.88
492.745	79.88
492.963	87.88
493.18	76.88
493.398	89.88
493.615	90.88
493.833	88.88
494.05	86.88
494.268	76.88
494.485	96.88
494.703	81.88
494.92	112.88
495.138	89.88
495.355	87.88
495.573	83.88
495.79	77.88
496.008	84.88
496.225	90.88
496.442	96.88
496.66	97.88
496.877	98.88
497.094	87.88
497.312	83.88
497.529	73.88
497.746	101.88
497.963	90.88
498.181	84.88
498.398	95.88
498.615	116.88
498.832	107.88
499.049	94.88
499.267	88.88
499.484	90.88
499.701	83.88
499.918	95.88
500.135	82.88
500.352	79.88
500.569	86.88
500.786	97.88
501.003	93.88
501.22	85.88
501.437	99.88
501.654	90.88
501.871	107.88
502.088	96.88
502.305	91.88
502.522	83.88
502.739	81.88
502.956	75.88
503.172	91.88
503.389	98.88
503.606	116.88
503.823	101.88
504.04	83.88
504.256	89.88
504.473	87.88
504.69	84.88
504.907	95.88
505.123	99.88
505.34	80.88
505.557	95.88
505.773	90.88
505.99	97.88
506.207	81.88
506.423	93.88
506.64	97.88
506.856	90.88
507.073	89.88
507.289	86.88
507.506	88.88
507.722	107.88
507.939	124.88
508.155	92.88
508.372	92.88
508.588	108.88
508.805	108.88
509.021	89.88
509.238	95.88
509.454	93.88
509.67	91.88
509.887	113.88
510.103	126.88
510.319	213.88
510.536	795.88
510.752	2509.88
510.968	675.88
511.184	147.88
511.401	117.88
511.617	102.88
511.833	90.88
512.049	95.88
512.265	83.88
512.481	92.88
512.698	94.88
512.914	107.88
513.13	98.88
513.346	101.88
513.562	79.88
513.778	88.88
513.994	103.88
514.21	99.88
514.426	131.88
514.642	151.88
514.858	130.88
