Data from Circ_1981_H10_HRD10591_00086.txt Node
Date: Wed Jan 03 12:34:38 EST 2024
User: Yrep
Spectrometer: HR+D1059
Trigger mode: 1
Integration Time (sec): 1.000000E-1
Scans to average: 1
Electric dark correction enabled: true
Nonlinearity correction enabled: false
Boxcar width: 0
XAxis mode: Wavelengths
Number of Pixels in Spectrum: 2048
>>>>>Begin Spectral Data<<<<<
223.165	-13.75
223.4	-13.75
223.635	-13.75
223.869	-32.75
224.104	-10.75
224.338	-13.75
224.573	-20.75
224.808	-20.75
225.042	-4.75
225.277	-1.75
225.511	9.25
225.746	-17.75
225.98	3.25
226.215	18.25
226.449	22.25
226.683	26.25
226.918	21.25
227.152	36.25
227.387	31.25
227.621	35.25
227.856	28.25
228.09	28.25
228.324	48.25
228.559	39.25
228.793	49.25
229.027	59.25
229.262	53.25
229.496	55.25
229.73	81.25
229.964	86.25
230.199	63.25
230.433	62.25
230.667	79.25
230.901	78.25
231.136	79.25
231.37	66.25
231.604	86.25
231.838	69.25
232.072	91.25
232.306	71.25
232.541	67.25
232.775	96.25
233.009	78.25
233.243	77.25
233.477	63.25
233.711	68.25
233.945	78.25
234.179	75.25
234.413	65.25
234.647	77.25
234.881	83.25
235.115	74.25
235.349	82.25
235.583	61.25
235.817	66.25
236.051	78.25
236.285	69.25
236.519	80.25
236.753	59.25
236.987	70.25
237.221	95.25
237.455	97.25
237.689	59.25
237.922	75.25
238.156	55.25
238.39	77.25
238.624	63.25
238.858	89.25
239.091	75.25
239.325	77.25
239.559	64.25
239.793	73.25
240.027	86.25
240.26	83.25
240.494	69.25
240.728	77.25
240.961	72.25
241.195	77.25
241.429	66.25
241.662	69.25
241.896	68.25
242.13	63.25
242.363	81.25
242.597	84.25
242.83	80.25
243.064	70.25
243.298	61.25
243.531	66.25
243.765	86.25
243.998	66.25
244.232	85.25
244.465	82.25
244.699	79.25
244.932	71.25
245.166	70.25
245.399	76.25
245.633	79.25
245.866	77.25
246.099	67.25
246.333	75.25
246.566	82.25
246.8	60.25
247.033	69.25
247.266	68.25
247.5	67.25
247.733	75.25
247.966	77.25
248.2	69.25
248.433	64.25
248.666	78.25
248.899	74.25
249.133	72.25
249.366	81.25
249.599	82.25
249.832	58.25
250.066	63.25
250.299	66.25
250.532	73.25
250.765	78.25
250.998	83.25
251.231	65.25
251.465	69.25
251.698	63.25
251.931	69.25
252.164	84.25
252.397	71.25
252.63	76.25
252.863	75.25
253.096	84.25
253.329	77.25
253.562	69.25
253.795	79.25
254.028	84.25
254.261	78.25
254.494	83.25
254.727	69.25
254.96	69.25
255.193	75.25
255.426	71.25
255.659	83.25
255.892	72.25
256.124	62.25
256.357	80.25
256.59	80.25
256.823	86.25
257.056	64.25
257.289	83.25
257.521	83.25
257.754	70.25
257.987	94.25
258.22	72.25
258.452	81.25
258.685	70.25
258.918	83.25
259.151	79.25
259.383	85.25
259.616	80.25
259.849	101.25
260.081	72.25
260.314	80.25
260.547	63.25
260.779	62.25
261.012	80.25
261.244	89.25
261.477	83.25
261.71	93.25
261.942	89.25
262.175	109.25
262.407	93.25
262.64	79.25
262.872	73.25
263.105	94.25
263.337	99.25
263.57	85.25
263.802	75.25
264.035	76.25
264.267	78.25
264.499	65.25
264.732	71.25
264.964	77.25
265.197	78.25
265.429	79.25
265.661	85.25
265.894	70.25
266.126	75.25
266.358	78.25
266.591	81.25
266.823	80.25
267.055	78.25
267.287	64.25
267.52	75.25
267.752	84.25
267.984	69.25
268.216	79.25
268.448	84.25
268.681	74.25
268.913	86.25
269.145	66.25
269.377	71.25
269.609	65.25
269.841	80.25
270.073	79.25
270.306	80.25
270.538	88.25
270.77	71.25
271.002	88.25
271.234	82.25
271.466	79.25
271.698	81.25
271.93	76.25
272.162	87.25
272.394	88.25
272.626	88.25
272.858	77.25
273.09	83.25
273.322	72.25
273.553	77.25
273.785	87.25
274.017	87.25
274.249	76.25
274.481	80.25
274.713	72.25
274.945	79.25
275.176	83.25
275.408	94.25
275.64	69.25
275.872	85.25
276.104	86.25
276.335	91.25
276.567	89.25
276.799	99.25
277.031	100.25
277.262	83.25
277.494	84.25
277.726	76.25
277.957	87.25
278.189	77.25
278.421	84.25
278.652	78.25
278.884	85.25
279.115	82.25
279.347	66.25
279.579	94.25
279.81	88.25
280.042	95.25
280.273	77.25
280.505	87.25
280.736	89.25
280.968	87.25
281.199	84.25
281.431	95.25
281.662	84.25
281.894	93.25
282.125	92.25
282.356	105.25
282.588	132.25
282.819	108.25
283.051	79.25
283.282	80.25
283.513	80.25
283.745	80.25
283.976	76.25
284.207	86.25
284.439	78.25
284.67	83.25
284.901	85.25
285.132	75.25
285.364	84.25
285.595	77.25
285.826	81.25
286.057	87.25
286.288	81.25
286.52	91.25
286.751	71.25
286.982	55.25
287.213	75.25
287.444	88.25
287.675	72.25
287.906	88.25
288.138	93.25
288.369	86.25
288.6	83.25
288.831	81.25
289.062	67.25
289.293	101.25
289.524	88.25
289.755	84.25
289.986	81.25
290.217	67.25
290.448	77.25
290.679	71.25
290.91	77.25
291.141	71.25
291.371	69.25
291.602	88.25
291.833	84.25
292.064	86.25
292.295	78.25
292.526	92.25
292.757	94.25
292.987	81.25
293.218	72.25
293.449	81.25
293.68	79.25
293.91	91.25
294.141	82.25
294.372	79.25
294.603	64.25
294.833	91.25
295.064	85.25
295.295	80.25
295.525	76.25
295.756	88.25
295.987	104.25
296.217	114.25
296.448	117.25
296.679	91.25
296.909	85.25
297.14	65.25
297.37	73.25
297.601	86.25
297.831	83.25
298.062	63.25
298.292	74.25
298.523	87.25
298.753	83.25
298.984	77.25
299.214	72.25
299.445	62.25
299.675	81.25
299.905	95.25
300.136	83.25
300.366	94.25
300.597	88.25
300.827	92.25
301.057	94.25
301.288	96.25
301.518	86.25
301.748	90.25
301.979	90.25
302.209	80.25
302.439	87.25
302.669	95.25
302.9	87.25
303.13	77.25
303.36	76.25
303.59	96.25
303.82	107.25
304.051	88.25
304.281	92.25
304.511	82.25
304.741	86.25
304.971	77.25
305.201	89.25
305.431	83.25
305.661	84.25
305.891	85.25
306.121	86.25
306.352	86.25
306.582	90.25
306.812	81.25
307.042	95.25
307.272	81.25
307.502	82.25
307.731	84.25
307.961	94.25
308.191	79.25
308.421	90.25
308.651	83.25
308.881	93.25
309.111	88.25
309.341	93.25
309.571	70.25
309.8	81.25
310.03	87.25
310.26	91.25
310.49	85.25
310.72	88.25
310.949	100.25
311.179	82.25
311.409	93.25
311.639	96.25
311.868	100.25
312.098	84.25
312.328	85.25
312.557	97.25
312.787	100.25
313.017	105.25
313.246	84.25
313.476	77.25
313.706	68.25
313.935	87.25
314.165	91.25
314.394	82.25
314.624	85.25
314.853	96.25
315.083	83.25
315.312	95.25
315.542	96.25
315.771	79.25
316.001	83.25
316.23	91.25
316.46	89.25
316.689	92.25
316.919	92.25
317.148	92.25
317.377	103.25
317.607	87.25
317.836	88.25
318.065	88.25
318.295	84.25
318.524	96.25
318.753	93.25
318.983	91.25
319.212	91.25
319.441	107.25
319.67	122.25
319.9	89.25
320.129	88.25
320.358	82.25
320.587	80.25
320.816	89.25
321.046	87.25
321.275	99.25
321.504	92.25
321.733	94.25
321.962	93.25
322.191	81.25
322.42	103.25
322.649	107.25
322.878	113.25
323.108	111.25
323.337	121.25
323.566	128.25
323.795	153.25
324.024	211.25
324.253	389.25
324.482	887.25
324.71	1837.25
324.939	2501.25
325.168	931.25
325.397	254.25
325.626	154.25
325.855	132.25
326.084	125.25
326.313	127.25
326.542	137.25
326.77	224.25
326.999	473.25
327.228	991.25
327.457	1857.25
327.686	1503.25
327.914	388.25
328.143	179.25
328.372	152.25
328.6	133.25
328.829	113.25
329.058	133.25
329.287	133.25
329.515	108.25
329.744	89.25
329.972	96.25
330.201	115.25
330.43	124.25
330.658	150.25
330.887	171.25
331.115	111.25
331.344	93.25
331.572	96.25
331.801	92.25
332.03	88.25
332.258	96.25
332.486	83.25
332.715	104.25
332.943	91.25
333.172	102.25
333.4	73.25
333.629	101.25
333.857	112.25
334.085	101.25
334.314	103.25
334.542	137.25
334.771	141.25
334.999	109.25
335.227	89.25
335.455	79.25
335.684	84.25
335.912	82.25
336.14	99.25
336.369	106.25
336.597	81.25
336.825	73.25
337.053	91.25
337.281	91.25
337.51	85.25
337.738	89.25
337.966	99.25
338.194	83.25
338.422	83.25
338.65	76.25
338.878	91.25
339.106	83.25
339.334	99.25
339.562	77.25
339.79	78.25
340.018	77.25
340.246	84.25
340.474	101.25
340.702	83.25
340.93	80.25
341.158	79.25
341.386	86.25
341.614	92.25
341.842	81.25
342.07	67.25
342.298	77.25
342.526	69.25
342.754	79.25
342.981	83.25
343.209	102.25
343.437	88.25
343.665	92.25
343.893	90.25
344.12	94.25
344.348	83.25
344.576	83.25
344.804	83.25
345.031	110.25
345.259	83.25
345.487	87.25
345.714	85.25
345.942	80.25
346.17	84.25
346.397	99.25
346.625	93.25
346.853	77.25
347.08	93.25
347.308	87.25
347.535	93.25
347.763	97.25
347.99	89.25
348.218	91.25
348.445	116.25
348.673	88.25
348.9	103.25
349.128	93.25
349.355	80.25
349.583	94.25
349.81	90.25
350.037	87.25
350.265	86.25
350.492	84.25
350.72	94.25
350.947	90.25
351.174	102.25
351.402	109.25
351.629	88.25
351.856	78.25
352.083	69.25
352.311	98.25
352.538	96.25
352.765	87.25
352.992	107.25
353.22	113.25
353.447	93.25
353.674	75.25
353.901	83.25
354.128	72.25
354.355	101.25
354.583	95.25
354.81	99.25
355.037	96.25
355.264	83.25
355.491	91.25
355.718	100.25
355.945	87.25
356.172	91.25
356.399	77.25
356.626	97.25
356.853	99.25
357.08	87.25
357.307	99.25
357.534	81.25
357.761	86.25
357.988	97.25
358.215	78.25
358.441	88.25
358.668	90.25
358.895	80.25
359.122	83.25
359.349	84.25
359.576	86.25
359.802	105.25
360.029	111.25
360.256	109.25
360.483	90.25
360.709	75.25
360.936	83.25
361.163	80.25
361.39	96.25
361.616	83.25
361.843	87.25
362.07	75.25
362.296	84.25
362.523	94.25
362.749	80.25
362.976	83.25
363.203	91.25
363.429	98.25
363.656	93.25
363.882	86.25
364.109	83.25
364.335	85.25
364.562	81.25
364.788	80.25
365.015	92.25
365.241	99.25
365.468	101.25
365.694	108.25
365.92	80.25
366.147	85.25
366.373	87.25
366.599	69.25
366.826	86.25
367.052	84.25
367.278	85.25
367.505	84.25
367.731	80.25
367.957	71.25
368.184	87.25
368.41	77.25
368.636	119.25
368.862	104.25
369.089	100.25
369.315	80.25
369.541	88.25
369.767	84.25
369.993	87.25
370.219	87.25
370.445	78.25
370.672	75.25
370.898	74.25
371.124	93.25
371.35	89.25
371.576	81.25
371.802	93.25
372.028	79.25
372.254	63.25
372.48	84.25
372.706	76.25
372.932	72.25
373.158	91.25
373.384	83.25
373.61	84.25
373.835	84.25
374.061	69.25
374.287	79.25
374.513	77.25
374.739	90.25
374.965	82.25
375.191	106.25
375.416	94.25
375.642	76.25
375.868	90.25
376.094	76.25
376.319	84.25
376.545	84.25
376.771	87.25
376.997	93.25
377.222	83.25
377.448	85.25
377.674	100.25
377.899	67.25
378.125	85.25
378.35	92.25
378.576	89.25
378.802	85.25
379.027	90.25
379.253	91.25
379.478	89.25
379.704	84.25
379.929	76.25
380.155	88.25
380.38	89.25
380.606	88.25
380.831	86.25
381.057	98.25
381.282	91.25
381.507	75.25
381.733	85.25
381.958	71.25
382.184	85.25
382.409	94.25
382.634	99.25
382.86	80.25
383.085	95.25
383.31	96.25
383.535	91.25
383.761	86.25
383.986	81.25
384.211	81.25
384.436	97.25
384.662	85.25
384.887	88.25
385.112	91.25
385.337	97.25
385.562	103.25
385.787	88.25
386.013	95.25
386.238	119.25
386.463	96.25
386.688	100.25
386.913	99.25
387.138	99.25
387.363	94.25
387.588	89.25
387.813	81.25
388.038	79.25
388.263	108.25
388.488	91.25
388.713	99.25
388.938	92.25
389.163	86.25
389.387	82.25
389.612	98.25
389.837	70.25
390.062	85.25
390.287	83.25
390.512	78.25
390.736	97.25
390.961	71.25
391.186	80.25
391.411	91.25
391.636	85.25
391.86	69.25
392.085	72.25
392.31	82.25
392.534	66.25
392.759	84.25
392.984	75.25
393.208	76.25
393.433	86.25
393.658	83.25
393.882	80.25
394.107	73.25
394.331	76.25
394.556	97.25
394.78	68.25
395.005	75.25
395.229	91.25
395.454	69.25
395.678	86.25
395.903	84.25
396.127	81.25
396.352	83.25
396.576	86.25
396.801	89.25
397.025	97.25
397.249	79.25
397.474	82.25
397.698	84.25
397.922	82.25
398.147	89.25
398.371	77.25
398.595	90.25
398.82	70.25
399.044	84.25
399.268	83.25
399.492	81.25
399.717	85.25
399.941	96.25
400.165	96.25
400.389	96.25
400.613	96.25
400.837	81.25
401.062	77.25
401.286	78.25
401.51	70.25
401.734	83.25
401.958	94.25
402.182	112.25
402.406	147.25
402.63	111.25
402.854	83.25
403.078	89.25
403.302	76.25
403.526	71.25
403.75	83.25
403.974	87.25
404.198	78.25
404.422	81.25
404.645	77.25
404.869	92.25
405.093	89.25
405.317	93.25
405.541	98.25
405.765	106.25
405.988	123.25
406.212	156.25
406.436	215.25
406.66	155.25
406.883	83.25
407.107	98.25
407.331	101.25
407.555	96.25
407.778	104.25
408.002	104.25
408.226	84.25
408.449	88.25
408.673	81.25
408.896	84.25
409.12	96.25
409.344	86.25
409.567	85.25
409.791	83.25
410.014	88.25
410.238	94.25
410.461	84.25
410.685	96.25
410.908	92.25
411.132	102.25
411.355	84.25
411.578	81.25
411.802	85.25
412.025	90.25
412.249	89.25
412.472	85.25
412.695	102.25
412.919	85.25
413.142	86.25
413.365	78.25
413.589	82.25
413.812	91.25
414.035	90.25
414.258	80.25
414.482	98.25
414.705	85.25
414.928	86.25
415.151	87.25
415.374	104.25
415.597	79.25
415.821	87.25
416.044	91.25
416.267	92.25
416.49	79.25
416.713	87.25
416.936	71.25
417.159	86.25
417.382	83.25
417.605	85.25
417.828	95.25
418.051	87.25
418.274	96.25
418.497	83.25
418.72	83.25
418.943	82.25
419.166	86.25
419.389	87.25
419.611	89.25
419.834	70.25
420.057	80.25
420.28	77.25
420.503	71.25
420.726	84.25
420.948	89.25
421.171	97.25
421.394	93.25
421.617	80.25
421.839	81.25
422.062	84.25
422.285	86.25
422.507	89.25
422.73	97.25
422.953	72.25
423.175	83.25
423.398	74.25
423.621	76.25
423.843	72.25
424.066	85.25
424.288	93.25
424.511	101.25
424.733	99.25
424.956	101.25
425.178	96.25
425.401	98.25
425.623	80.25
425.846	84.25
426.068	98.25
426.291	83.25
426.513	100.25
426.735	95.25
426.958	85.25
427.18	115.25
427.402	148.25
427.625	168.25
427.847	143.25
428.069	130.25
428.292	98.25
428.514	86.25
428.736	78.25
428.958	91.25
429.181	85.25
429.403	96.25
429.625	83.25
429.847	89.25
430.069	104.25
430.292	86.25
430.514	91.25
430.736	87.25
430.958	73.25
431.18	70.25
431.402	96.25
431.624	81.25
431.846	84.25
432.068	91.25
432.29	68.25
432.512	87.25
432.734	92.25
432.956	77.25
433.178	84.25
433.4	84.25
433.622	76.25
433.844	85.25
434.066	102.25
434.287	91.25
434.509	79.25
434.731	83.25
434.953	68.25
435.175	79.25
435.397	83.25
435.618	89.25
435.84	108.25
436.062	126.25
436.284	123.25
436.505	104.25
436.727	103.25
436.949	95.25
437.17	76.25
437.392	83.25
437.614	84.25
437.835	109.25
438.057	119.25
438.278	100.25
438.5	97.25
438.721	116.25
438.943	105.25
439.165	83.25
439.386	73.25
439.608	77.25
439.829	86.25
440.05	123.25
440.272	156.25
440.493	104.25
440.715	80.25
440.936	71.25
441.158	93.25
441.379	73.25
441.6	88.25
441.822	91.25
442.043	82.25
442.264	103.25
442.486	95.25
442.707	99.25
442.928	101.25
443.149	130.25
443.371	136.25
443.592	123.25
443.813	127.25
444.034	112.25
444.255	86.25
444.476	72.25
444.698	81.25
444.919	91.25
445.14	108.25
445.361	117.25
445.582	117.25
445.803	160.25
446.024	156.25
446.245	148.25
446.466	111.25
446.687	91.25
446.908	91.25
447.129	100.25
447.35	71.25
447.571	90.25
447.792	97.25
448.013	116.25
448.234	96.25
448.455	89.25
448.675	113.25
448.896	119.25
449.117	94.25
449.338	106.25
449.559	141.25
449.779	156.25
450	93.25
450.221	89.25
450.442	76.25
450.662	94.25
450.883	108.25
451.104	100.25
451.324	83.25
451.545	86.25
451.766	85.25
451.986	93.25
452.207	86.25
452.428	73.25
452.648	89.25
452.869	118.25
453.089	118.25
453.31	118.25
453.53	89.25
453.751	86.25
453.971	84.25
454.192	108.25
454.412	87.25
454.633	79.25
454.853	87.25
455.073	80.25
455.294	90.25
455.514	96.25
455.734	88.25
455.955	98.25
456.175	80.25
456.395	73.25
456.616	77.25
456.836	76.25
457.056	73.25
457.276	83.25
457.497	79.25
457.717	83.25
457.937	72.25
458.157	92.25
458.377	85.25
458.598	91.25
458.818	155.25
459.038	177.25
459.258	121.25
459.478	68.25
459.698	70.25
459.918	83.25
460.138	84.25
460.358	80.25
460.578	85.25
460.798	87.25
461.018	94.25
461.238	68.25
461.458	64.25
461.678	83.25
461.898	90.25
462.118	83.25
462.338	75.25
462.558	72.25
462.777	84.25
462.997	81.25
463.217	75.25
463.437	75.25
463.657	75.25
463.876	75.25
464.096	82.25
464.316	83.25
464.536	84.25
464.755	88.25
464.975	101.25
465.195	180.25
465.414	163.25
465.634	92.25
465.854	97.25
466.073	83.25
466.293	85.25
466.512	73.25
466.732	75.25
466.951	85.25
467.171	73.25
467.391	81.25
467.61	88.25
467.829	94.25
468.049	93.25
468.268	95.25
468.488	72.25
468.707	87.25
468.927	74.25
469.146	72.25
469.365	81.25
469.585	101.25
469.804	114.25
470.023	85.25
470.243	79.25
470.462	109.25
470.681	101.25
470.901	92.25
471.12	67.25
471.339	76.25
471.558	89.25
471.777	100.25
471.997	90.25
472.216	105.25
472.435	141.25
472.654	115.25
472.873	95.25
473.092	77.25
473.311	76.25
473.53	69.25
473.749	78.25
473.968	97.25
474.187	108.25
474.406	85.25
474.625	76.25
474.844	93.25
475.063	78.25
475.282	82.25
475.501	89.25
475.72	92.25
475.939	78.25
476.158	72.25
476.377	72.25
476.596	92.25
476.814	80.25
477.033	100.25
477.252	86.25
477.471	84.25
477.69	65.25
477.908	79.25
478.127	87.25
478.346	67.25
478.564	82.25
478.783	83.25
479.002	77.25
479.22	80.25
479.439	93.25
479.658	94.25
479.876	82.25
480.095	93.25
480.313	89.25
480.532	83.25
480.751	92.25
480.969	112.25
481.188	183.25
481.406	149.25
481.624	91.25
481.843	84.25
482.061	94.25
482.28	95.25
482.498	86.25
482.717	73.25
482.935	66.25
483.153	86.25
483.372	79.25
483.59	79.25
483.808	81.25
484.027	89.25
484.245	88.25
484.463	97.25
484.681	79.25
484.9	99.25
485.118	91.25
485.336	110.25
485.554	85.25
485.772	95.25
485.99	102.25
486.209	104.25
486.427	94.25
486.645	97.25
486.863	105.25
487.081	97.25
487.299	98.25
487.517	92.25
487.735	81.25
487.953	79.25
488.171	76.25
488.389	81.25
488.607	85.25
488.825	88.25
489.043	74.25
489.261	87.25
489.479	83.25
489.696	75.25
489.914	80.25
490.132	81.25
490.35	81.25
490.568	86.25
490.786	78.25
491.003	85.25
491.221	86.25
491.439	79.25
491.657	83.25
491.874	90.25
492.092	100.25
492.31	97.25
492.527	73.25
492.745	85.25
492.963	75.25
493.18	76.25
493.398	80.25
493.615	77.25
493.833	94.25
494.05	76.25
494.268	85.25
494.485	84.25
494.703	91.25
494.92	85.25
495.138	87.25
495.355	82.25
495.573	86.25
495.79	80.25
496.008	79.25
496.225	75.25
496.442	76.25
496.66	92.25
496.877	89.25
497.094	85.25
497.312	91.25
497.529	80.25
497.746	84.25
497.963	94.25
498.181	102.25
498.398	98.25
498.615	116.25
498.832	92.25
499.049	88.25
499.267	89.25
499.484	78.25
499.701	81.25
499.918	81.25
500.135	83.25
500.352	85.25
500.569	76.25
500.786	93.25
501.003	88.25
501.22	69.25
501.437	100.25
501.654	87.25
501.871	100.25
502.088	89.25
502.305	75.25
502.522	92.25
502.739	89.25
502.956	67.25
503.172	95.25
503.389	103.25
503.606	92.25
503.823	86.25
504.04	91.25
504.256	75.25
504.473	80.25
504.69	75.25
504.907	82.25
505.123	94.25
505.34	82.25
505.557	90.25
505.773	83.25
505.99	83.25
506.207	100.25
506.423	88.25
506.64	86.25
506.856	74.25
507.073	82.25
507.289	81.25
507.506	102.25
507.722	101.25
507.939	120.25
508.155	86.25
508.372	81.25
508.588	90.25
508.805	82.25
509.021	76.25
509.238	99.25
509.454	93.25
509.67	87.25
509.887	92.25
510.103	119.25
510.319	172.25
510.536	651.25
510.752	2199.25
510.968	603.25
511.184	148.25
511.401	107.25
511.617	95.25
511.833	87.25
512.049	80.25
512.265	74.25
512.481	97.25
512.698	96.25
512.914	94.25
513.13	96.25
513.346	95.25
513.562	90.25
513.778	101.25
513.994	99.25
514.21	104.25
514.426	114.25
514.642	138.25
514.858	115.25
515.074	155.25
515.29	456.25
515.506	1506.25
515.721	553.25
515.937	161.25
516.153	106.25
516.369	101.25
516.585	101.25
516.801	73.25
517.016	95.25
