Data from Circ_1981_H10_HRD10591_00069.txt Node
Date: Wed Jan 03 12:34:34 EST 2024
User: Yrep
Spectrometer: HR+D1059
Trigger mode: 1
Integration Time (sec): 1.000000E-1
Scans to average: 1
Electric dark correction enabled: true
Nonlinearity correction enabled: false
Boxcar width: 0
XAxis mode: Wavelengths
Number of Pixels in Spectrum: 2048
>>>>>Begin Spectral Data<<<<<
223.165	-21.25
223.4	-21.25
223.635	-21.25
223.869	-16.25
224.104	-11.25
224.338	-10.25
224.573	-15.25
224.808	-16.25
225.042	-14.25
225.277	7.75
225.511	-10.25
225.746	-8.25
225.98	7.75
226.215	16.75
226.449	16.75
226.683	16.75
226.918	22.75
227.152	34.75
227.387	29.75
227.621	38.75
227.856	33.75
228.09	38.75
228.324	37.75
228.559	56.75
228.793	61.75
229.027	49.75
229.262	60.75
229.496	69.75
229.73	96.75
229.964	91.75
230.199	64.75
230.433	56.75
230.667	80.75
230.901	74.75
231.136	66.75
231.37	69.75
231.604	83.75
231.838	81.75
232.072	82.75
232.306	82.75
232.541	70.75
232.775	77.75
233.009	86.75
233.243	79.75
233.477	81.75
233.711	82.75
233.945	75.75
234.179	76.75
234.413	86.75
234.647	75.75
234.881	72.75
235.115	60.75
235.349	70.75
235.583	67.75
235.817	77.75
236.051	68.75
236.285	85.75
236.519	74.75
236.753	65.75
236.987	70.75
237.221	69.75
237.455	81.75
237.689	69.75
237.922	58.75
238.156	65.75
238.39	74.75
238.624	77.75
238.858	77.75
239.091	81.75
239.325	84.75
239.559	83.75
239.793	78.75
240.027	71.75
240.26	84.75
240.494	78.75
240.728	71.75
240.961	58.75
241.195	87.75
241.429	65.75
241.662	86.75
241.896	67.75
242.13	69.75
242.363	71.75
242.597	83.75
242.83	81.75
243.064	78.75
243.298	82.75
243.531	72.75
243.765	71.75
243.998	81.75
244.232	80.75
244.465	77.75
244.699	86.75
244.932	66.75
245.166	89.75
245.399	77.75
245.633	77.75
245.866	65.75
246.099	67.75
246.333	69.75
246.566	85.75
246.8	74.75
247.033	69.75
247.266	68.75
247.5	73.75
247.733	81.75
247.966	83.75
248.2	71.75
248.433	71.75
248.666	77.75
248.899	90.75
249.133	110.75
249.366	107.75
249.599	90.75
249.832	78.75
250.066	71.75
250.299	83.75
250.532	87.75
250.765	73.75
250.998	89.75
251.231	70.75
251.465	71.75
251.698	64.75
251.931	74.75
252.164	89.75
252.397	73.75
252.63	70.75
252.863	82.75
253.096	77.75
253.329	77.75
253.562	78.75
253.795	89.75
254.028	89.75
254.261	72.75
254.494	51.75
254.727	87.75
254.96	73.75
255.193	65.75
255.426	66.75
255.659	74.75
255.892	70.75
256.124	81.75
256.357	86.75
256.59	74.75
256.823	73.75
257.056	71.75
257.289	83.75
257.521	86.75
257.754	80.75
257.987	84.75
258.22	75.75
258.452	74.75
258.685	92.75
258.918	95.75
259.151	68.75
259.383	84.75
259.616	81.75
259.849	70.75
260.081	85.75
260.314	75.75
260.547	86.75
260.779	93.75
261.012	94.75
261.244	79.75
261.477	80.75
261.71	97.75
261.942	121.75
262.175	129.75
262.407	90.75
262.64	96.75
262.872	82.75
263.105	80.75
263.337	75.75
263.57	77.75
263.802	74.75
264.035	66.75
264.267	82.75
264.499	82.75
264.732	88.75
264.964	71.75
265.197	81.75
265.429	75.75
265.661	70.75
265.894	85.75
266.126	82.75
266.358	73.75
266.591	87.75
266.823	85.75
267.055	81.75
267.287	85.75
267.52	87.75
267.752	78.75
267.984	77.75
268.216	59.75
268.448	68.75
268.681	78.75
268.913	84.75
269.145	84.75
269.377	94.75
269.609	82.75
269.841	89.75
270.073	85.75
270.306	74.75
270.538	92.75
270.77	89.75
271.002	91.75
271.234	96.75
271.466	81.75
271.698	89.75
271.93	80.75
272.162	73.75
272.394	89.75
272.626	88.75
272.858	91.75
273.09	73.75
273.322	64.75
273.553	79.75
273.785	81.75
274.017	81.75
274.249	82.75
274.481	90.75
274.713	95.75
274.945	92.75
275.176	90.75
275.408	94.75
275.64	94.75
275.872	96.75
276.104	89.75
276.335	79.75
276.567	98.75
276.799	112.75
277.031	112.75
277.262	103.75
277.494	77.75
277.726	71.75
277.957	88.75
278.189	74.75
278.421	89.75
278.652	79.75
278.884	90.75
279.115	79.75
279.347	88.75
279.579	79.75
279.81	70.75
280.042	79.75
280.273	89.75
280.505	106.75
280.736	83.75
280.968	70.75
281.199	87.75
281.431	89.75
281.662	93.75
281.894	95.75
282.125	93.75
282.356	112.75
282.588	158.75
282.819	105.75
283.051	80.75
283.282	90.75
283.513	83.75
283.745	106.75
283.976	83.75
284.207	67.75
284.439	81.75
284.67	73.75
284.901	70.75
285.132	73.75
285.364	88.75
285.595	88.75
285.826	88.75
286.057	106.75
286.288	78.75
286.52	77.75
286.751	81.75
286.982	96.75
287.213	74.75
287.444	83.75
287.675	103.75
287.906	90.75
288.138	87.75
288.369	94.75
288.6	100.75
288.831	82.75
289.062	82.75
289.293	87.75
289.524	85.75
289.755	83.75
289.986	87.75
290.217	89.75
290.448	97.75
290.679	70.75
290.91	80.75
291.141	85.75
291.371	94.75
291.602	90.75
291.833	83.75
292.064	81.75
292.295	80.75
292.526	94.75
292.757	83.75
292.987	72.75
293.218	78.75
293.449	73.75
293.68	81.75
293.91	101.75
294.141	85.75
294.372	94.75
294.603	100.75
294.833	98.75
295.064	79.75
295.295	91.75
295.525	97.75
295.756	107.75
295.987	107.75
296.217	142.75
296.448	128.75
296.679	88.75
296.909	103.75
297.14	72.75
297.37	83.75
297.601	94.75
297.831	78.75
298.062	89.75
298.292	93.75
298.523	93.75
298.753	104.75
298.984	85.75
299.214	99.75
299.445	72.75
299.675	95.75
299.905	89.75
300.136	99.75
300.366	91.75
300.597	83.75
300.827	90.75
301.057	100.75
301.288	109.75
301.518	91.75
301.748	83.75
301.979	97.75
302.209	88.75
302.439	88.75
302.669	103.75
302.9	107.75
303.13	102.75
303.36	100.75
303.59	92.75
303.82	104.75
304.051	95.75
304.281	102.75
304.511	83.75
304.741	72.75
304.971	79.75
305.201	75.75
305.431	86.75
305.661	86.75
305.891	79.75
306.121	83.75
306.352	98.75
306.582	91.75
306.812	95.75
307.042	102.75
307.272	97.75
307.502	91.75
307.731	92.75
307.961	91.75
308.191	96.75
308.421	82.75
308.651	84.75
308.881	96.75
309.111	94.75
309.341	85.75
309.571	85.75
309.8	100.75
310.03	101.75
310.26	102.75
310.49	90.75
310.72	85.75
310.949	97.75
311.179	106.75
311.409	82.75
311.639	95.75
311.868	98.75
312.098	104.75
312.328	83.75
312.557	104.75
312.787	109.75
313.017	94.75
313.246	91.75
313.476	74.75
313.706	90.75
313.935	114.75
314.165	94.75
314.394	114.75
314.624	106.75
314.853	98.75
315.083	89.75
315.312	104.75
315.542	91.75
315.771	79.75
316.001	98.75
316.23	78.75
316.46	87.75
316.689	81.75
316.919	88.75
317.148	93.75
317.377	90.75
317.607	96.75
317.836	74.75
318.065	84.75
318.295	89.75
318.524	96.75
318.753	85.75
318.983	81.75
319.212	87.75
319.441	102.75
319.67	110.75
319.9	94.75
320.129	90.75
320.358	93.75
320.587	97.75
320.816	96.75
321.046	111.75
321.275	98.75
321.504	85.75
321.733	102.75
321.962	95.75
322.191	104.75
322.42	102.75
322.649	115.75
322.878	118.75
323.108	108.75
323.337	129.75
323.566	137.75
323.795	154.75
324.024	210.75
324.253	399.75
324.482	838.75
324.71	1765.75
324.939	2349.75
325.168	867.75
325.397	253.75
325.626	138.75
325.855	130.75
326.084	118.75
326.313	134.75
326.542	151.75
326.77	234.75
326.999	449.75
327.228	888.75
327.457	1661.75
327.686	1311.75
327.914	363.75
328.143	218.75
328.372	177.75
328.6	129.75
328.829	125.75
329.058	130.75
329.287	139.75
329.515	101.75
329.744	105.75
329.972	98.75
330.201	122.75
330.43	149.75
330.658	152.75
330.887	175.75
331.115	141.75
331.344	100.75
331.572	106.75
331.801	115.75
332.03	106.75
332.258	91.75
332.486	86.75
332.715	94.75
332.943	114.75
333.172	93.75
333.4	94.75
333.629	102.75
333.857	98.75
334.085	120.75
334.314	125.75
334.542	135.75
334.771	161.75
334.999	121.75
335.227	105.75
335.455	104.75
335.684	98.75
335.912	84.75
336.14	105.75
336.369	97.75
336.597	93.75
336.825	107.75
337.053	93.75
337.281	88.75
337.51	103.75
337.738	94.75
337.966	84.75
338.194	94.75
338.422	90.75
338.65	89.75
338.878	106.75
339.106	103.75
339.334	93.75
339.562	98.75
339.79	94.75
340.018	84.75
340.246	88.75
340.474	99.75
340.702	103.75
340.93	98.75
341.158	95.75
341.386	102.75
341.614	111.75
341.842	99.75
342.07	104.75
342.298	73.75
342.526	95.75
342.754	89.75
342.981	87.75
343.209	77.75
343.437	105.75
343.665	83.75
343.893	84.75
344.12	97.75
344.348	89.75
344.576	88.75
344.804	85.75
345.031	79.75
345.259	102.75
345.487	111.75
345.714	89.75
345.942	93.75
346.17	94.75
346.397	84.75
346.625	88.75
346.853	76.75
347.08	79.75
347.308	94.75
347.535	104.75
347.763	97.75
347.99	103.75
348.218	120.75
348.445	114.75
348.673	100.75
348.9	99.75
349.128	91.75
349.355	95.75
349.583	87.75
349.81	91.75
350.037	99.75
350.265	89.75
350.492	110.75
350.72	97.75
350.947	106.75
351.174	116.75
351.402	117.75
351.629	110.75
351.856	99.75
352.083	97.75
352.311	105.75
352.538	122.75
352.765	119.75
352.992	117.75
353.22	96.75
353.447	102.75
353.674	101.75
353.901	105.75
354.128	82.75
354.355	94.75
354.583	90.75
354.81	100.75
355.037	104.75
355.264	82.75
355.491	101.75
355.718	96.75
355.945	102.75
356.172	84.75
356.399	90.75
356.626	93.75
356.853	95.75
357.08	86.75
357.307	84.75
357.534	82.75
357.761	70.75
357.988	99.75
358.215	103.75
358.441	89.75
358.668	77.75
358.895	82.75
359.122	94.75
359.349	92.75
359.576	82.75
359.802	97.75
360.029	136.75
360.256	111.75
360.483	105.75
360.709	97.75
360.936	93.75
361.163	99.75
361.39	89.75
361.616	96.75
361.843	89.75
362.07	105.75
362.296	95.75
362.523	104.75
362.749	98.75
362.976	81.75
363.203	73.75
363.429	73.75
363.656	83.75
363.882	79.75
364.109	95.75
364.335	88.75
364.562	89.75
364.788	88.75
365.015	98.75
365.241	93.75
365.468	97.75
365.694	115.75
365.92	91.75
366.147	99.75
366.373	89.75
366.599	93.75
366.826	96.75
367.052	95.75
367.278	89.75
367.505	90.75
367.731	89.75
367.957	96.75
368.184	88.75
368.41	103.75
368.636	125.75
368.862	124.75
369.089	107.75
369.315	91.75
369.541	88.75
369.767	90.75
369.993	84.75
370.219	89.75
370.445	92.75
370.672	88.75
370.898	77.75
371.124	107.75
371.35	94.75
371.576	80.75
371.802	90.75
372.028	93.75
372.254	81.75
372.48	79.75
372.706	94.75
372.932	81.75
373.158	79.75
373.384	92.75
373.61	105.75
373.835	86.75
374.061	93.75
374.287	91.75
374.513	86.75
374.739	87.75
374.965	86.75
375.191	95.75
375.416	86.75
375.642	84.75
375.868	79.75
376.094	81.75
376.319	86.75
376.545	77.75
376.771	87.75
376.997	90.75
377.222	86.75
377.448	93.75
377.674	110.75
377.899	83.75
378.125	88.75
378.35	89.75
378.576	95.75
378.802	92.75
379.027	93.75
379.253	104.75
379.478	96.75
379.704	83.75
379.929	81.75
380.155	80.75
380.38	85.75
380.606	84.75
380.831	89.75
381.057	101.75
381.282	94.75
381.507	98.75
381.733	91.75
381.958	84.75
382.184	92.75
382.409	81.75
382.634	93.75
382.86	100.75
383.085	85.75
383.31	90.75
383.535	94.75
383.761	87.75
383.986	93.75
384.211	96.75
384.436	97.75
384.662	88.75
384.887	94.75
385.112	102.75
385.337	94.75
385.562	97.75
385.787	99.75
386.013	104.75
386.238	120.75
386.463	93.75
386.688	80.75
386.913	99.75
387.138	99.75
387.363	90.75
387.588	99.75
387.813	101.75
388.038	113.75
388.263	115.75
388.488	93.75
388.713	78.75
388.938	97.75
389.163	92.75
389.387	89.75
389.612	92.75
389.837	83.75
390.062	79.75
390.287	91.75
390.512	89.75
390.736	92.75
390.961	83.75
391.186	84.75
391.411	68.75
391.636	91.75
391.86	78.75
392.085	82.75
392.31	83.75
392.534	84.75
392.759	81.75
392.984	87.75
393.208	97.75
393.433	96.75
393.658	92.75
393.882	80.75
394.107	89.75
394.331	68.75
394.556	84.75
394.78	91.75
395.005	89.75
395.229	89.75
395.454	77.75
395.678	85.75
395.903	97.75
396.127	77.75
396.352	89.75
396.576	82.75
396.801	83.75
397.025	85.75
397.249	98.75
397.474	86.75
397.698	88.75
397.922	89.75
398.147	79.75
398.371	82.75
398.595	92.75
398.82	81.75
399.044	69.75
399.268	104.75
399.492	87.75
399.717	78.75
399.941	90.75
400.165	94.75
400.389	84.75
400.613	88.75
400.837	101.75
401.062	74.75
401.286	95.75
401.51	87.75
401.734	104.75
401.958	89.75
402.182	144.75
402.406	167.75
402.63	127.75
402.854	97.75
403.078	74.75
403.302	96.75
403.526	89.75
403.75	90.75
403.974	89.75
404.198	84.75
404.422	89.75
404.645	88.75
404.869	80.75
405.093	91.75
405.317	87.75
405.541	97.75
405.765	97.75
405.988	106.75
406.212	193.75
406.436	278.75
406.66	180.75
406.883	111.75
407.107	79.75
407.331	101.75
407.555	99.75
407.778	99.75
408.002	85.75
408.226	80.75
408.449	83.75
408.673	91.75
408.896	107.75
409.12	77.75
409.344	79.75
409.567	79.75
409.791	77.75
410.014	99.75
410.238	81.75
410.461	88.75
410.685	86.75
410.908	96.75
411.132	94.75
411.355	107.75
411.578	92.75
411.802	80.75
412.025	87.75
412.249	94.75
412.472	107.75
412.695	93.75
412.919	101.75
413.142	90.75
413.365	73.75
413.589	71.75
413.812	75.75
414.035	97.75
414.258	84.75
414.482	89.75
414.705	89.75
414.928	82.75
415.151	74.75
415.374	89.75
415.597	73.75
415.821	89.75
416.044	93.75
416.267	79.75
416.49	82.75
416.713	89.75
416.936	85.75
417.159	75.75
417.382	79.75
417.605	90.75
417.828	94.75
418.051	85.75
418.274	91.75
418.497	77.75
418.72	87.75
418.943	89.75
419.166	87.75
419.389	80.75
419.611	79.75
419.834	75.75
420.057	83.75
420.28	92.75
420.503	111.75
420.726	88.75
420.948	101.75
421.171	88.75
421.394	95.75
421.617	87.75
421.839	98.75
422.062	79.75
422.285	105.75
422.507	93.75
422.73	97.75
422.953	88.75
423.175	79.75
423.398	81.75
423.621	84.75
423.843	85.75
424.066	85.75
424.288	94.75
424.511	88.75
424.733	96.75
424.956	103.75
425.178	99.75
425.401	98.75
425.623	96.75
425.846	99.75
426.068	103.75
426.291	96.75
426.513	75.75
426.735	89.75
426.958	97.75
427.18	106.75
427.402	138.75
427.625	201.75
427.847	151.75
428.069	112.75
428.292	79.75
428.514	84.75
428.736	86.75
428.958	79.75
429.181	77.75
429.403	90.75
429.625	87.75
429.847	91.75
430.069	106.75
430.292	97.75
430.514	68.75
430.736	81.75
430.958	83.75
431.18	84.75
431.402	69.75
431.624	91.75
431.846	93.75
432.068	88.75
432.29	90.75
432.512	95.75
432.734	74.75
432.956	83.75
433.178	85.75
433.4	80.75
433.622	93.75
433.844	97.75
434.066	81.75
434.287	103.75
434.509	86.75
434.731	86.75
434.953	75.75
435.175	94.75
435.397	95.75
435.618	89.75
435.84	97.75
436.062	128.75
436.284	126.75
436.505	104.75
436.727	104.75
436.949	89.75
437.17	83.75
437.392	90.75
437.614	96.75
437.835	115.75
438.057	127.75
438.278	128.75
438.5	94.75
438.721	129.75
438.943	111.75
439.165	83.75
439.386	79.75
439.608	92.75
439.829	113.75
440.05	132.75
440.272	167.75
440.493	100.75
440.715	91.75
440.936	88.75
441.158	69.75
441.379	94.75
441.6	98.75
441.822	93.75
442.043	99.75
442.264	123.75
442.486	108.75
442.707	85.75
442.928	107.75
443.149	166.75
443.371	150.75
443.592	111.75
443.813	121.75
444.034	107.75
444.255	91.75
444.476	91.75
444.698	73.75
444.919	82.75
445.14	125.75
445.361	118.75
445.582	106.75
445.803	152.75
446.024	149.75
446.245	146.75
446.466	115.75
446.687	93.75
446.908	68.75
447.129	71.75
447.35	87.75
447.571	87.75
447.792	101.75
448.013	119.75
448.234	113.75
448.455	123.75
448.675	121.75
448.896	116.75
449.117	109.75
449.338	85.75
449.559	130.75
449.779	127.75
450	88.75
450.221	83.75
450.442	89.75
450.662	108.75
450.883	118.75
451.104	121.75
451.324	112.75
451.545	87.75
451.766	85.75
451.986	71.75
452.207	102.75
452.428	84.75
452.648	99.75
452.869	118.75
453.089	132.75
453.31	125.75
453.53	88.75
453.751	98.75
453.971	91.75
454.192	113.75
454.412	89.75
454.633	89.75
454.853	87.75
455.073	97.75
455.294	74.75
455.514	105.75
455.734	97.75
455.955	87.75
456.175	81.75
456.395	95.75
456.616	94.75
456.836	83.75
457.056	87.75
457.276	102.75
457.497	81.75
457.717	83.75
457.937	80.75
458.157	89.75
458.377	89.75
458.598	101.75
458.818	176.75
459.038	218.75
459.258	132.75
459.478	90.75
459.698	101.75
459.918	89.75
460.138	85.75
460.358	80.75
460.578	85.75
460.798	88.75
461.018	106.75
461.238	104.75
461.458	81.75
461.678	78.75
461.898	86.75
462.118	83.75
462.338	89.75
462.558	94.75
462.777	96.75
462.997	77.75
463.217	79.75
463.437	82.75
463.657	82.75
463.876	80.75
464.096	77.75
464.316	91.75
464.536	95.75
464.755	88.75
464.975	118.75
465.195	190.75
465.414	202.75
465.634	122.75
465.854	87.75
466.073	86.75
466.293	83.75
466.512	88.75
466.732	83.75
466.951	87.75
467.171	96.75
467.391	90.75
467.61	107.75
467.829	119.75
468.049	105.75
468.268	93.75
468.488	93.75
468.707	83.75
468.927	90.75
469.146	87.75
469.365	73.75
469.585	81.75
469.804	103.75
470.023	99.75
470.243	92.75
470.462	84.75
470.681	117.75
470.901	84.75
471.12	82.75
471.339	91.75
471.558	97.75
471.777	84.75
471.997	93.75
472.216	110.75
472.435	154.75
472.654	94.75
472.873	86.75
473.092	76.75
473.311	93.75
473.53	91.75
473.749	74.75
473.968	88.75
474.187	113.75
474.406	91.75
474.625	83.75
474.844	98.75
475.063	87.75
475.282	83.75
475.501	93.75
475.72	84.75
475.939	79.75
476.158	77.75
476.377	94.75
476.596	74.75
476.814	95.75
477.033	90.75
477.252	89.75
477.471	77.75
477.69	85.75
477.908	96.75
478.127	75.75
478.346	80.75
478.564	77.75
478.783	89.75
479.002	87.75
479.22	86.75
479.439	98.75
479.658	103.75
479.876	105.75
480.095	90.75
480.313	94.75
480.532	86.75
480.751	85.75
480.969	130.75
481.188	221.75
481.406	157.75
481.624	94.75
481.843	80.75
482.061	73.75
482.28	82.75
482.498	86.75
482.717	86.75
482.935	80.75
483.153	87.75
483.372	79.75
483.59	98.75
483.808	87.75
484.027	81.75
484.245	91.75
484.463	87.75
484.681	96.75
484.9	95.75
485.118	90.75
485.336	73.75
485.554	88.75
485.772	95.75
485.99	103.75
486.209	97.75
486.427	83.75
486.645	113.75
486.863	119.75
487.081	107.75
487.299	89.75
487.517	103.75
487.735	96.75
487.953	100.75
488.171	91.75
488.389	98.75
488.607	90.75
488.825	82.75
489.043	83.75
489.261	74.75
489.479	79.75
489.696	86.75
489.914	93.75
490.132	88.75
490.35	88.75
490.568	83.75
490.786	78.75
491.003	85.75
491.221	75.75
491.439	89.75
491.657	94.75
491.874	69.75
492.092	86.75
492.31	84.75
492.527	79.75
492.745	93.75
492.963	83.75
493.18	81.75
493.398	93.75
493.615	92.75
493.833	89.75
494.05	90.75
494.268	95.75
494.485	74.75
494.703	80.75
494.92	91.75
495.138	89.75
495.355	83.75
495.573	93.75
495.79	81.75
496.008	71.75
496.225	101.75
496.442	77.75
496.66	81.75
496.877	99.75
497.094	93.75
497.312	86.75
497.529	81.75
497.746	89.75
497.963	104.75
498.181	105.75
498.398	89.75
498.615	104.75
498.832	94.75
499.049	88.75
499.267	94.75
499.484	92.75
499.701	84.75
499.918	81.75
500.135	84.75
500.352	81.75
500.569	85.75
500.786	91.75
501.003	79.75
501.22	80.75
501.437	79.75
501.654	94.75
501.871	112.75
502.088	99.75
502.305	84.75
502.522	74.75
502.739	90.75
502.956	90.75
503.172	90.75
503.389	100.75
503.606	93.75
503.823	104.75
504.04	88.75
504.256	85.75
504.473	84.75
504.69	71.75
504.907	90.75
505.123	81.75
505.34	89.75
505.557	95.75
505.773	90.75
505.99	90.75
506.207	96.75
506.423	90.75
506.64	89.75
506.856	103.75
507.073	87.75
507.289	83.75
507.506	110.75
507.722	133.75
507.939	125.75
508.155	103.75
508.372	82.75
508.588	92.75
508.805	98.75
509.021	90.75
509.238	86.75
509.454	102.75
509.67	107.75
509.887	108.75
510.103	137.75
510.319	231.75
510.536	829.75
510.752	2870.75
510.968	756.75
511.184	161.75
511.401	115.75
511.617	99.75
511.833	91.75
512.049	98.75
512.265	93.75
512.481	105.75
512.698	97.75
512.914	112.75
513.13	96.75
513.346	87.75
513.562	83.75
513.778	91.75
513.994	90.75
514.21	98.75
514.426	116.75
514.642	155.75
514.858	136.75
515.074	171.75
515.29	555.75
515.506	2082.75
515.721	738.75
515.937	181.75
