Data from Circ_1981_H10_HRD10591_00040.txt Node
Date: Wed Jan 03 12:34:29 EST 2024
User: Yrep
Spectrometer: HR+D1059
Trigger mode: 1
Integration Time (sec): 1.000000E-1
Scans to average: 1
Electric dark correction enabled: true
Nonlinearity correction enabled: false
Boxcar width: 0
XAxis mode: Wavelengths
Number of Pixels in Spectrum: 2048
>>>>>Begin Spectral Data<<<<<
223.165	-18.5
223.4	-18.5
223.635	-18.5
223.869	-19.5
224.104	-20.5
224.338	-14.5
224.573	-22.5
224.808	-18.5
225.042	-10.5
225.277	0.5
225.511	-9.5
225.746	8.5
225.98	6.5
226.215	19.5
226.449	15.5
226.683	25.5
226.918	25.5
227.152	32.5
227.387	35.5
227.621	33.5
227.856	41.5
228.09	51.5
228.324	47.5
228.559	55.5
228.793	52.5
229.027	63.5
229.262	71.5
229.496	83.5
229.73	87.5
229.964	103.5
230.199	86.5
230.433	77.5
230.667	78.5
230.901	69.5
231.136	74.5
231.37	84.5
231.604	77.5
231.838	90.5
232.072	93.5
232.306	84.5
232.541	93.5
232.775	77.5
233.009	77.5
233.243	69.5
233.477	83.5
233.711	81.5
233.945	95.5
234.179	85.5
234.413	83.5
234.647	87.5
234.881	94.5
235.115	83.5
235.349	91.5
235.583	87.5
235.817	88.5
236.051	82.5
236.285	96.5
236.519	80.5
236.753	73.5
236.987	79.5
237.221	95.5
237.455	91.5
237.689	86.5
237.922	83.5
238.156	87.5
238.39	89.5
238.624	91.5
238.858	94.5
239.091	90.5
239.325	88.5
239.559	80.5
239.793	80.5
240.027	92.5
240.26	94.5
240.494	83.5
240.728	99.5
240.961	70.5
241.195	66.5
241.429	59.5
241.662	74.5
241.896	66.5
242.13	88.5
242.363	81.5
242.597	67.5
242.83	87.5
243.064	82.5
243.298	80.5
243.531	72.5
243.765	76.5
243.998	73.5
244.232	92.5
244.465	85.5
244.699	96.5
244.932	72.5
245.166	77.5
245.399	90.5
245.633	79.5
245.866	93.5
246.099	80.5
246.333	83.5
246.566	75.5
246.8	79.5
247.033	74.5
247.266	65.5
247.5	69.5
247.733	79.5
247.966	73.5
248.2	75.5
248.433	84.5
248.666	80.5
248.899	96.5
249.133	100.5
249.366	105.5
249.599	86.5
249.832	88.5
250.066	82.5
250.299	81.5
250.532	76.5
250.765	85.5
250.998	88.5
251.231	89.5
251.465	72.5
251.698	85.5
251.931	83.5
252.164	80.5
252.397	85.5
252.63	84.5
252.863	87.5
253.096	91.5
253.329	79.5
253.562	83.5
253.795	100.5
254.028	85.5
254.261	78.5
254.494	85.5
254.727	98.5
254.96	88.5
255.193	69.5
255.426	75.5
255.659	83.5
255.892	97.5
256.124	93.5
256.357	84.5
256.59	87.5
256.823	94.5
257.056	81.5
257.289	71.5
257.521	91.5
257.754	101.5
257.987	93.5
258.22	86.5
258.452	85.5
258.685	82.5
258.918	80.5
259.151	89.5
259.383	83.5
259.616	78.5
259.849	79.5
260.081	83.5
260.314	88.5
260.547	97.5
260.779	86.5
261.012	91.5
261.244	96.5
261.477	91.5
261.71	102.5
261.942	131.5
262.175	131.5
262.407	92.5
262.64	93.5
262.872	95.5
263.105	85.5
263.337	87.5
263.57	83.5
263.802	80.5
264.035	80.5
264.267	91.5
264.499	81.5
264.732	80.5
264.964	93.5
265.197	91.5
265.429	89.5
265.661	79.5
265.894	76.5
266.126	88.5
266.358	85.5
266.591	75.5
266.823	103.5
267.055	87.5
267.287	96.5
267.52	91.5
267.752	85.5
267.984	87.5
268.216	76.5
268.448	96.5
268.681	87.5
268.913	92.5
269.145	93.5
269.377	85.5
269.609	91.5
269.841	93.5
270.073	75.5
270.306	90.5
270.538	89.5
270.77	87.5
271.002	91.5
271.234	89.5
271.466	89.5
271.698	85.5
271.93	92.5
272.162	83.5
272.394	85.5
272.626	100.5
272.858	83.5
273.09	101.5
273.322	97.5
273.553	90.5
273.785	84.5
274.017	84.5
274.249	81.5
274.481	91.5
274.713	78.5
274.945	93.5
275.176	93.5
275.408	96.5
275.64	85.5
275.872	89.5
276.104	88.5
276.335	76.5
276.567	106.5
276.799	93.5
277.031	102.5
277.262	108.5
277.494	98.5
277.726	92.5
277.957	94.5
278.189	87.5
278.421	89.5
278.652	94.5
278.884	88.5
279.115	80.5
279.347	85.5
279.579	85.5
279.81	87.5
280.042	87.5
280.273	85.5
280.505	77.5
280.736	87.5
280.968	95.5
281.199	97.5
281.431	89.5
281.662	94.5
281.894	87.5
282.125	111.5
282.356	141.5
282.588	162.5
282.819	119.5
283.051	99.5
283.282	91.5
283.513	92.5
283.745	95.5
283.976	90.5
284.207	94.5
284.439	99.5
284.67	91.5
284.901	102.5
285.132	97.5
285.364	82.5
285.595	102.5
285.826	85.5
286.057	102.5
286.288	94.5
286.52	84.5
286.751	96.5
286.982	86.5
287.213	100.5
287.444	97.5
287.675	69.5
287.906	105.5
288.138	85.5
288.369	95.5
288.6	105.5
288.831	97.5
289.062	91.5
289.293	91.5
289.524	90.5
289.755	91.5
289.986	86.5
290.217	92.5
290.448	90.5
290.679	85.5
290.91	82.5
291.141	77.5
291.371	92.5
291.602	92.5
291.833	87.5
292.064	97.5
292.295	86.5
292.526	87.5
292.757	98.5
292.987	92.5
293.218	91.5
293.449	95.5
293.68	85.5
293.91	94.5
294.141	94.5
294.372	105.5
294.603	83.5
294.833	96.5
295.064	91.5
295.295	75.5
295.525	90.5
295.756	114.5
295.987	122.5
296.217	155.5
296.448	127.5
296.679	92.5
296.909	96.5
297.14	96.5
297.37	86.5
297.601	84.5
297.831	107.5
298.062	100.5
298.292	85.5
298.523	101.5
298.753	94.5
298.984	87.5
299.214	64.5
299.445	89.5
299.675	100.5
299.905	99.5
300.136	91.5
300.366	103.5
300.597	103.5
300.827	97.5
301.057	101.5
301.288	127.5
301.518	92.5
301.748	94.5
301.979	110.5
302.209	93.5
302.439	74.5
302.669	98.5
302.9	85.5
303.13	75.5
303.36	94.5
303.59	92.5
303.82	120.5
304.051	104.5
304.281	96.5
304.511	88.5
304.741	93.5
304.971	92.5
305.201	85.5
305.431	87.5
305.661	96.5
305.891	97.5
306.121	84.5
306.352	113.5
306.582	102.5
306.812	86.5
307.042	107.5
307.272	90.5
307.502	112.5
307.731	91.5
307.961	81.5
308.191	106.5
308.421	101.5
308.651	84.5
308.881	110.5
309.111	112.5
309.341	111.5
309.571	97.5
309.8	119.5
310.03	112.5
310.26	112.5
310.49	96.5
310.72	109.5
310.949	126.5
311.179	122.5
311.409	91.5
311.639	110.5
311.868	103.5
312.098	96.5
312.328	109.5
312.557	110.5
312.787	128.5
313.017	117.5
313.246	101.5
313.476	100.5
313.706	101.5
313.935	104.5
314.165	105.5
314.394	124.5
314.624	96.5
314.853	95.5
315.083	109.5
315.312	90.5
315.542	83.5
315.771	106.5
316.001	95.5
316.23	80.5
316.46	91.5
316.689	83.5
316.919	90.5
317.148	100.5
317.377	103.5
317.607	111.5
317.836	106.5
318.065	99.5
318.295	105.5
318.524	93.5
318.753	91.5
318.983	108.5
319.212	108.5
319.441	112.5
319.67	112.5
319.9	104.5
320.129	100.5
320.358	99.5
320.587	97.5
320.816	103.5
321.046	103.5
321.275	97.5
321.504	107.5
321.733	105.5
321.962	121.5
322.191	112.5
322.42	114.5
322.649	129.5
322.878	127.5
323.108	115.5
323.337	132.5
323.566	169.5
323.795	177.5
324.024	225.5
324.253	420.5
324.482	923.5
324.71	1901.5
324.939	2575.5
325.168	944.5
325.397	263.5
325.626	170.5
325.855	142.5
326.084	127.5
326.313	138.5
326.542	156.5
326.77	256.5
326.999	483.5
327.228	989.5
327.457	1832.5
327.686	1485.5
327.914	401.5
328.143	237.5
328.372	199.5
328.6	156.5
328.829	148.5
329.058	173.5
329.287	169.5
329.515	119.5
329.744	118.5
329.972	120.5
330.201	146.5
330.43	173.5
330.658	177.5
330.887	203.5
331.115	157.5
331.344	114.5
331.572	101.5
331.801	125.5
332.03	109.5
332.258	116.5
332.486	99.5
332.715	101.5
332.943	90.5
333.172	105.5
333.4	97.5
333.629	124.5
333.857	116.5
334.085	128.5
334.314	131.5
334.542	155.5
334.771	160.5
334.999	104.5
335.227	98.5
335.455	106.5
335.684	107.5
335.912	104.5
336.14	100.5
336.369	98.5
336.597	108.5
336.825	113.5
337.053	116.5
337.281	103.5
337.51	90.5
337.738	99.5
337.966	107.5
338.194	118.5
338.422	107.5
338.65	120.5
338.878	97.5
339.106	102.5
339.334	100.5
339.562	99.5
339.79	84.5
340.018	97.5
340.246	101.5
340.474	107.5
340.702	86.5
340.93	97.5
341.158	102.5
341.386	90.5
341.614	99.5
341.842	101.5
342.07	91.5
342.298	100.5
342.526	99.5
342.754	96.5
342.981	97.5
343.209	95.5
343.437	119.5
343.665	87.5
343.893	91.5
344.12	106.5
344.348	91.5
344.576	89.5
344.804	95.5
345.031	109.5
345.259	105.5
345.487	104.5
345.714	98.5
345.942	106.5
346.17	97.5
346.397	116.5
346.625	99.5
346.853	102.5
347.08	98.5
347.308	104.5
347.535	107.5
347.763	97.5
347.99	110.5
348.218	113.5
348.445	135.5
348.673	110.5
348.9	100.5
349.128	96.5
349.355	104.5
349.583	99.5
349.81	93.5
350.037	103.5
350.265	86.5
350.492	92.5
350.72	101.5
350.947	114.5
351.174	136.5
351.402	111.5
351.629	117.5
351.856	119.5
352.083	100.5
352.311	125.5
352.538	132.5
352.765	120.5
352.992	109.5
353.22	124.5
353.447	115.5
353.674	104.5
353.901	83.5
354.128	94.5
354.355	106.5
354.583	103.5
354.81	90.5
355.037	95.5
355.264	94.5
355.491	104.5
355.718	90.5
355.945	89.5
356.172	103.5
356.399	101.5
356.626	88.5
356.853	101.5
357.08	95.5
357.307	100.5
357.534	77.5
357.761	107.5
357.988	89.5
358.215	90.5
358.441	95.5
358.668	81.5
358.895	86.5
359.122	93.5
359.349	105.5
359.576	115.5
359.802	107.5
360.029	135.5
360.256	145.5
360.483	117.5
360.709	103.5
360.936	105.5
361.163	116.5
361.39	112.5
361.616	110.5
361.843	100.5
362.07	117.5
362.296	122.5
362.523	93.5
362.749	85.5
362.976	112.5
363.203	86.5
363.429	109.5
363.656	101.5
363.882	96.5
364.109	85.5
364.335	103.5
364.562	98.5
364.788	99.5
365.015	107.5
365.241	102.5
365.468	117.5
365.694	112.5
365.92	103.5
366.147	91.5
366.373	78.5
366.599	89.5
366.826	94.5
367.052	101.5
367.278	104.5
367.505	103.5
367.731	103.5
367.957	109.5
368.184	107.5
368.41	112.5
368.636	123.5
368.862	121.5
369.089	110.5
369.315	85.5
369.541	93.5
369.767	96.5
369.993	104.5
370.219	103.5
370.445	109.5
370.672	82.5
370.898	93.5
371.124	102.5
371.35	95.5
371.576	98.5
371.802	100.5
372.028	95.5
372.254	89.5
372.48	107.5
372.706	96.5
372.932	79.5
373.158	95.5
373.384	91.5
373.61	99.5
373.835	93.5
374.061	94.5
374.287	106.5
374.513	110.5
374.739	96.5
374.965	94.5
375.191	95.5
375.416	83.5
375.642	92.5
375.868	100.5
376.094	89.5
376.319	88.5
376.545	102.5
376.771	83.5
376.997	92.5
377.222	108.5
377.448	91.5
377.674	91.5
377.899	91.5
378.125	94.5
378.35	107.5
378.576	85.5
378.802	95.5
379.027	86.5
379.253	98.5
379.478	97.5
379.704	93.5
379.929	94.5
380.155	97.5
380.38	93.5
380.606	100.5
380.831	95.5
381.057	103.5
381.282	100.5
381.507	97.5
381.733	95.5
381.958	86.5
382.184	91.5
382.409	102.5
382.634	106.5
382.86	108.5
383.085	111.5
383.31	115.5
383.535	111.5
383.761	101.5
383.986	98.5
384.211	93.5
384.436	97.5
384.662	104.5
384.887	111.5
385.112	121.5
385.337	109.5
385.562	94.5
385.787	100.5
386.013	123.5
386.238	122.5
386.463	104.5
386.688	130.5
386.913	88.5
387.138	97.5
387.363	85.5
387.588	100.5
387.813	101.5
388.038	111.5
388.263	108.5
388.488	116.5
388.713	96.5
388.938	109.5
389.163	90.5
389.387	97.5
389.612	85.5
389.837	77.5
390.062	95.5
390.287	86.5
390.512	80.5
390.736	77.5
390.961	97.5
391.186	92.5
391.411	105.5
391.636	88.5
391.86	89.5
392.085	85.5
392.31	88.5
392.534	84.5
392.759	81.5
392.984	93.5
393.208	105.5
393.433	119.5
393.658	110.5
393.882	89.5
394.107	91.5
394.331	78.5
394.556	97.5
394.78	81.5
395.005	90.5
395.229	63.5
395.454	84.5
395.678	89.5
395.903	97.5
396.127	83.5
396.352	105.5
396.576	97.5
396.801	95.5
397.025	97.5
397.249	97.5
397.474	94.5
397.698	108.5
397.922	85.5
398.147	87.5
398.371	94.5
398.595	100.5
398.82	87.5
399.044	80.5
399.268	89.5
399.492	92.5
399.717	99.5
399.941	85.5
400.165	110.5
400.389	100.5
400.613	104.5
400.837	85.5
401.062	94.5
401.286	96.5
401.51	98.5
401.734	111.5
401.958	111.5
402.182	139.5
402.406	183.5
402.63	154.5
402.854	105.5
403.078	99.5
403.302	84.5
403.526	100.5
403.75	91.5
403.974	97.5
404.198	88.5
404.422	85.5
404.645	94.5
404.869	81.5
405.093	105.5
405.317	111.5
405.541	109.5
405.765	111.5
405.988	129.5
406.212	202.5
406.436	291.5
406.66	182.5
406.883	120.5
407.107	108.5
407.331	117.5
407.555	95.5
407.778	105.5
408.002	99.5
408.226	78.5
408.449	82.5
408.673	89.5
408.896	90.5
409.12	115.5
409.344	102.5
409.567	101.5
409.791	95.5
410.014	90.5
410.238	99.5
410.461	80.5
410.685	101.5
410.908	105.5
411.132	107.5
411.355	105.5
411.578	102.5
411.802	101.5
412.025	98.5
412.249	101.5
412.472	122.5
412.695	100.5
412.919	98.5
413.142	102.5
413.365	91.5
413.589	90.5
413.812	91.5
414.035	102.5
414.258	81.5
414.482	88.5
414.705	76.5
414.928	91.5
415.151	90.5
415.374	96.5
415.597	92.5
415.821	85.5
416.044	104.5
416.267	93.5
416.49	89.5
416.713	79.5
416.936	72.5
417.159	81.5
417.382	104.5
417.605	117.5
417.828	91.5
418.051	107.5
418.274	89.5
418.497	98.5
418.72	85.5
418.943	87.5
419.166	83.5
419.389	87.5
419.611	88.5
419.834	85.5
420.057	92.5
420.28	93.5
420.503	95.5
420.726	76.5
420.948	87.5
421.171	87.5
421.394	97.5
421.617	87.5
421.839	87.5
422.062	93.5
422.285	99.5
422.507	111.5
422.73	125.5
422.953	94.5
423.175	87.5
423.398	84.5
423.621	96.5
423.843	95.5
424.066	90.5
424.288	104.5
424.511	110.5
424.733	109.5
424.956	103.5
425.178	109.5
425.401	115.5
425.623	111.5
425.846	98.5
426.068	99.5
426.291	78.5
426.513	97.5
426.735	90.5
426.958	107.5
427.18	132.5
427.402	157.5
427.625	223.5
427.847	169.5
428.069	131.5
428.292	108.5
428.514	95.5
428.736	93.5
428.958	86.5
429.181	89.5
429.403	84.5
429.625	89.5
429.847	93.5
430.069	114.5
430.292	87.5
430.514	93.5
430.736	95.5
430.958	96.5
431.18	95.5
431.402	88.5
431.624	86.5
431.846	86.5
432.068	76.5
432.29	78.5
432.512	77.5
432.734	81.5
432.956	109.5
433.178	92.5
433.4	122.5
433.622	92.5
433.844	92.5
434.066	95.5
434.287	99.5
434.509	80.5
434.731	94.5
434.953	96.5
435.175	93.5
435.397	94.5
435.618	104.5
435.84	113.5
436.062	128.5
436.284	133.5
436.505	100.5
436.727	112.5
436.949	105.5
437.17	75.5
437.392	95.5
437.614	99.5
437.835	122.5
438.057	150.5
438.278	129.5
438.5	107.5
438.721	155.5
438.943	113.5
439.165	76.5
439.386	91.5
439.608	92.5
439.829	98.5
440.05	131.5
440.272	174.5
440.493	108.5
440.715	95.5
440.936	97.5
441.158	84.5
441.379	93.5
441.6	116.5
441.822	95.5
442.043	110.5
442.264	123.5
442.486	102.5
442.707	88.5
442.928	114.5
443.149	166.5
443.371	188.5
443.592	123.5
443.813	139.5
444.034	123.5
444.255	109.5
444.476	95.5
444.698	87.5
444.919	93.5
445.14	131.5
445.361	137.5
445.582	138.5
445.803	191.5
446.024	172.5
446.245	157.5
446.466	120.5
446.687	103.5
446.908	84.5
447.129	95.5
447.35	91.5
447.571	87.5
447.792	92.5
448.013	102.5
448.234	117.5
448.455	104.5
448.675	121.5
448.896	138.5
449.117	101.5
449.338	124.5
449.559	166.5
449.779	156.5
450	98.5
450.221	94.5
450.442	95.5
450.662	92.5
450.883	126.5
451.104	132.5
451.324	93.5
451.545	93.5
451.766	96.5
451.986	91.5
452.207	88.5
452.428	100.5
452.648	101.5
452.869	134.5
453.089	131.5
453.31	137.5
453.53	104.5
453.751	103.5
453.971	107.5
454.192	126.5
454.412	110.5
454.633	89.5
454.853	93.5
455.073	84.5
455.294	99.5
455.514	108.5
455.734	94.5
455.955	84.5
456.175	75.5
456.395	91.5
456.616	86.5
456.836	104.5
457.056	99.5
457.276	75.5
457.497	74.5
457.717	67.5
457.937	69.5
458.157	88.5
458.377	98.5
458.598	132.5
458.818	193.5
459.038	225.5
459.258	139.5
459.478	100.5
459.698	83.5
459.918	85.5
460.138	79.5
460.358	80.5
460.578	97.5
460.798	99.5
461.018	87.5
461.238	91.5
461.458	83.5
461.678	79.5
461.898	88.5
462.118	101.5
462.338	93.5
462.558	89.5
462.777	71.5
462.997	96.5
463.217	87.5
463.437	102.5
463.657	86.5
463.876	98.5
464.096	111.5
464.316	99.5
464.536	104.5
464.755	90.5
464.975	131.5
465.195	230.5
465.414	213.5
465.634	107.5
465.854	99.5
466.073	89.5
466.293	97.5
466.512	93.5
466.732	91.5
466.951	87.5
467.171	100.5
467.391	95.5
467.61	121.5
467.829	103.5
468.049	114.5
468.268	108.5
468.488	93.5
468.707	78.5
468.927	87.5
469.146	84.5
469.365	80.5
469.585	102.5
469.804	99.5
470.023	104.5
470.243	80.5
470.462	98.5
470.681	130.5
470.901	81.5
471.12	83.5
471.339	85.5
471.558	96.5
471.777	98.5
471.997	94.5
472.216	115.5
472.435	165.5
472.654	122.5
472.873	93.5
473.092	99.5
473.311	91.5
473.53	83.5
473.749	88.5
473.968	100.5
474.187	135.5
474.406	116.5
474.625	88.5
474.844	93.5
475.063	103.5
475.282	87.5
475.501	96.5
475.72	76.5
475.939	92.5
476.158	83.5
476.377	97.5
476.596	91.5
476.814	91.5
477.033	112.5
477.252	94.5
477.471	92.5
477.69	80.5
477.908	82.5
478.127	95.5
478.346	91.5
478.564	101.5
478.783	97.5
479.002	88.5
479.22	112.5
479.439	117.5
479.658	98.5
479.876	107.5
480.095	111.5
480.313	93.5
480.532	89.5
480.751	111.5
480.969	124.5
481.188	237.5
481.406	183.5
481.624	96.5
481.843	96.5
482.061	88.5
482.28	85.5
482.498	89.5
482.717	75.5
482.935	89.5
483.153	86.5
483.372	102.5
483.59	85.5
483.808	103.5
484.027	100.5
484.245	93.5
484.463	96.5
484.681	94.5
484.9	88.5
485.118	72.5
485.336	93.5
485.554	99.5
485.772	106.5
485.99	113.5
486.209	103.5
486.427	101.5
486.645	112.5
486.863	105.5
487.081	123.5
487.299	92.5
487.517	105.5
487.735	91.5
487.953	80.5
488.171	87.5
488.389	80.5
488.607	81.5
488.825	81.5
489.043	88.5
489.261	85.5
489.479	89.5
489.696	91.5
489.914	91.5
490.132	100.5
490.35	91.5
490.568	103.5
490.786	101.5
491.003	92.5
491.221	84.5
491.439	89.5
491.657	97.5
491.874	103.5
492.092	101.5
492.31	100.5
492.527	79.5
492.745	99.5
492.963	87.5
493.18	100.5
493.398	87.5
493.615	95.5
493.833	93.5
494.05	106.5
494.268	89.5
494.485	102.5
494.703	95.5
494.92	95.5
495.138	93.5
495.355	97.5
495.573	87.5
495.79	78.5
496.008	99.5
496.225	71.5
496.442	75.5
496.66	85.5
496.877	85.5
497.094	97.5
497.312	77.5
497.529	86.5
497.746	96.5
497.963	120.5
498.181	91.5
498.398	109.5
498.615	115.5
498.832	106.5
499.049	93.5
499.267	93.5
499.484	86.5
499.701	107.5
499.918	85.5
500.135	95.5
500.352	76.5
500.569	97.5
500.786	94.5
501.003	93.5
501.22	102.5
501.437	91.5
501.654	93.5
501.871	125.5
502.088	96.5
502.305	101.5
502.522	100.5
502.739	85.5
502.956	92.5
503.172	91.5
503.389	82.5
503.606	119.5
503.823	101.5
504.04	89.5
504.256	86.5
504.473	85.5
504.69	98.5
504.907	103.5
505.123	86.5
505.34	96.5
505.557	101.5
505.773	86.5
505.99	95.5
506.207	87.5
506.423	96.5
506.64	100.5
506.856	89.5
507.073	100.5
507.289	90.5
507.506	92.5
507.722	130.5
507.939	137.5
508.155	96.5
508.372	97.5
508.588	104.5
508.805	90.5
509.021	90.5
509.238	101.5
509.454	103.5
509.67	96.5
509.887	119.5
510.103	131.5
510.319	228.5
510.536	821.5
510.752	2773.5
510.968	737.5
511.184	173.5
511.401	126.5
511.617	110.5
511.833	115.5
512.049	98.5
512.265	89.5
512.481	103.5
512.698	97.5
512.914	100.5
513.13	89.5
513.346	98.5
513.562	101.5
513.778	97.5
513.994	95.5
514.21	109.5
514.426	135.5
514.642	167.5
514.858	151.5
515.074	213.5
515.29	618.5
515.506	2100.5
515.721	741.5
515.937	200.5
516.153	127.5
516.369	111.5
516.585	101.5
516.801	84.5
517.016	97.5
517.232	105.5
517.448	83.5
517.664	97.5
517.879	95.5
518.095	92.5
518.311	90.5
518.527	99.5
518.742	91.5
518.958	103.5
519.173	101.5
519.389	101.5
519.605	104.5
519.82	96.5
520.036	117.5
520.251	144.5
520.467	122.5
520.682	119.5
520.898	104.5
521.113	120.5
521.329	178.5
521.544	289.5
521.76	779.5
521.975	3514.5
522.19	2091.5
522.406	447.5
522.621	158.5
522.836	125.5
523.052	112.5
523.267	108.5
523.482	92.5
523.698	105.5
523.913	148.5
524.128	122.5
524.343	96.5
524.559	103.5
524.774	89.5
524.989	92.5
525.204	95.5
525.419	105.5
525.634	104.5
525.849	96.5
526.064	103.5
526.28	105.5
526.495	103.5
526.71	96.5
526.925	87.5
527.14	94.5
527.355	99.5
527.57	91.5
527.785	95.5
527.999	105.5
528.214	101.5
528.429	94.5
528.644	102.5
528.859	103.5
529.074	99.5
529.289	138.5
529.503	252.5
529.718	119.5
529.933	87.5
530.148	95.5
530.363	105.5
530.577	95.5
530.792	98.5
531.007	70.5
531.221	84.5
531.436	89.5
531.651	100.5
531.865	103.5
532.08	95.5
532.295	87.5
