Data from Circ_1981_H10_HRD10591_00072.txt Node
Date: Wed Jan 03 12:34:35 EST 2024
User: Yrep
Spectrometer: HR+D1059
Trigger mode: 1
Integration Time (sec): 1.000000E-1
Scans to average: 1
Electric dark correction enabled: true
Nonlinearity correction enabled: false
Boxcar width: 0
XAxis mode: Wavelengths
Number of Pixels in Spectrum: 2048
>>>>>Begin Spectral Data<<<<<
223.165	-21.94
223.4	-21.94
223.635	-21.94
223.869	-21.94
224.104	-10.94
224.338	-10.94
224.573	-17.94
224.808	-16.94
225.042	-8.94
225.277	-16.94
225.511	-3.94
225.746	-2.94
225.98	12.06
226.215	5.06
226.449	23.06
226.683	22.06
226.918	28.06
227.152	43.06
227.387	34.06
227.621	41.06
227.856	37.06
228.09	57.06
228.324	56.06
228.559	53.06
228.793	58.06
229.027	62.06
229.262	67.06
229.496	69.06
229.73	102.06
229.964	87.06
230.199	88.06
230.433	72.06
230.667	67.06
230.901	66.06
231.136	86.06
231.37	73.06
231.604	76.06
231.838	93.06
232.072	70.06
232.306	89.06
232.541	75.06
232.775	78.06
233.009	90.06
233.243	78.06
233.477	84.06
233.711	83.06
233.945	77.06
234.179	77.06
234.413	91.06
234.647	83.06
234.881	77.06
235.115	81.06
235.349	81.06
235.583	86.06
235.817	87.06
236.051	71.06
236.285	81.06
236.519	83.06
236.753	67.06
236.987	83.06
237.221	91.06
237.455	96.06
237.689	87.06
237.922	83.06
238.156	67.06
238.39	67.06
238.624	79.06
238.858	94.06
239.091	90.06
239.325	80.06
239.559	76.06
239.793	91.06
240.027	90.06
240.26	87.06
240.494	90.06
240.728	70.06
240.961	73.06
241.195	75.06
241.429	78.06
241.662	88.06
241.896	67.06
242.13	84.06
242.363	73.06
242.597	69.06
242.83	83.06
243.064	85.06
243.298	76.06
243.531	60.06
243.765	69.06
243.998	81.06
244.232	73.06
244.465	74.06
244.699	92.06
244.932	65.06
245.166	65.06
245.399	77.06
245.633	79.06
245.866	70.06
246.099	71.06
246.333	83.06
246.566	88.06
246.8	66.06
247.033	75.06
247.266	79.06
247.5	78.06
247.733	79.06
247.966	72.06
248.2	77.06
248.433	90.06
248.666	81.06
248.899	74.06
249.133	93.06
249.366	114.06
249.599	87.06
249.832	81.06
250.066	74.06
250.299	73.06
250.532	88.06
250.765	78.06
250.998	93.06
251.231	77.06
251.465	75.06
251.698	92.06
251.931	81.06
252.164	95.06
252.397	77.06
252.63	75.06
252.863	89.06
253.096	88.06
253.329	83.06
253.562	74.06
253.795	87.06
254.028	90.06
254.261	78.06
254.494	82.06
254.727	81.06
254.96	76.06
255.193	91.06
255.426	79.06
255.659	74.06
255.892	87.06
256.124	91.06
256.357	82.06
256.59	83.06
256.823	84.06
257.056	99.06
257.289	77.06
257.521	85.06
257.754	83.06
257.987	75.06
258.22	92.06
258.452	82.06
258.685	86.06
258.918	85.06
259.151	98.06
259.383	84.06
259.616	89.06
259.849	98.06
260.081	78.06
260.314	92.06
260.547	73.06
260.779	67.06
261.012	69.06
261.244	89.06
261.477	90.06
261.71	92.06
261.942	105.06
262.175	123.06
262.407	86.06
262.64	79.06
262.872	97.06
263.105	92.06
263.337	83.06
263.57	83.06
263.802	77.06
264.035	84.06
264.267	90.06
264.499	80.06
264.732	90.06
264.964	85.06
265.197	81.06
265.429	77.06
265.661	74.06
265.894	92.06
266.126	85.06
266.358	88.06
266.591	88.06
266.823	92.06
267.055	88.06
267.287	74.06
267.52	92.06
267.752	77.06
267.984	72.06
268.216	92.06
268.448	90.06
268.681	98.06
268.913	92.06
269.145	75.06
269.377	85.06
269.609	73.06
269.841	81.06
270.073	91.06
270.306	88.06
270.538	91.06
270.77	81.06
271.002	83.06
271.234	77.06
271.466	97.06
271.698	79.06
271.93	73.06
272.162	98.06
272.394	90.06
272.626	78.06
272.858	73.06
273.09	85.06
273.322	85.06
273.553	83.06
273.785	76.06
274.017	75.06
274.249	90.06
274.481	81.06
274.713	99.06
274.945	74.06
275.176	85.06
275.408	89.06
275.64	71.06
275.872	95.06
276.104	85.06
276.335	86.06
276.567	99.06
276.799	116.06
277.031	110.06
277.262	83.06
277.494	91.06
277.726	97.06
277.957	86.06
278.189	78.06
278.421	88.06
278.652	106.06
278.884	90.06
279.115	86.06
279.347	76.06
279.579	91.06
279.81	79.06
280.042	90.06
280.273	86.06
280.505	93.06
280.736	89.06
280.968	91.06
281.199	76.06
281.431	88.06
281.662	81.06
281.894	86.06
282.125	95.06
282.356	130.06
282.588	145.06
282.819	122.06
283.051	75.06
283.282	91.06
283.513	98.06
283.745	83.06
283.976	87.06
284.207	88.06
284.439	90.06
284.67	84.06
284.901	71.06
285.132	91.06
285.364	87.06
285.595	87.06
285.826	90.06
286.057	92.06
286.288	81.06
286.52	90.06
286.751	81.06
286.982	98.06
287.213	76.06
287.444	85.06
287.675	84.06
287.906	108.06
288.138	100.06
288.369	97.06
288.6	84.06
288.831	88.06
289.062	82.06
289.293	87.06
289.524	90.06
289.755	83.06
289.986	88.06
290.217	78.06
290.448	93.06
290.679	68.06
290.91	97.06
291.141	95.06
291.371	85.06
291.602	73.06
291.833	84.06
292.064	93.06
292.295	83.06
292.526	79.06
292.757	86.06
292.987	99.06
293.218	92.06
293.449	99.06
293.68	89.06
293.91	84.06
294.141	93.06
294.372	82.06
294.603	75.06
294.833	85.06
295.064	83.06
295.295	99.06
295.525	88.06
295.756	92.06
295.987	104.06
296.217	161.06
296.448	110.06
296.679	97.06
296.909	93.06
297.14	113.06
297.37	93.06
297.601	92.06
297.831	103.06
298.062	90.06
298.292	79.06
298.523	89.06
298.753	96.06
298.984	89.06
299.214	89.06
299.445	110.06
299.675	87.06
299.905	106.06
300.136	94.06
300.366	91.06
300.597	85.06
300.827	96.06
301.057	100.06
301.288	105.06
301.518	92.06
301.748	70.06
301.979	97.06
302.209	103.06
302.439	91.06
302.669	82.06
302.9	103.06
303.13	91.06
303.36	91.06
303.59	93.06
303.82	108.06
304.051	87.06
304.281	85.06
304.511	84.06
304.741	94.06
304.971	90.06
305.201	91.06
305.431	88.06
305.661	79.06
305.891	88.06
306.121	93.06
306.352	91.06
306.582	99.06
306.812	90.06
307.042	88.06
307.272	91.06
307.502	103.06
307.731	98.06
307.961	108.06
308.191	90.06
308.421	88.06
308.651	100.06
308.881	106.06
309.111	105.06
309.341	102.06
309.571	105.06
309.8	101.06
310.03	93.06
310.26	107.06
310.49	91.06
310.72	95.06
310.949	103.06
311.179	113.06
311.409	87.06
311.639	115.06
311.868	93.06
312.098	91.06
312.328	106.06
312.557	108.06
312.787	107.06
313.017	108.06
313.246	92.06
313.476	104.06
313.706	89.06
313.935	102.06
314.165	103.06
314.394	115.06
314.624	103.06
314.853	102.06
315.083	106.06
315.312	77.06
315.542	85.06
315.771	89.06
316.001	98.06
316.23	98.06
316.46	107.06
316.689	77.06
316.919	85.06
317.148	94.06
317.377	105.06
317.607	97.06
317.836	91.06
318.065	76.06
318.295	95.06
318.524	104.06
318.753	88.06
318.983	109.06
319.212	105.06
319.441	116.06
319.67	114.06
319.9	97.06
320.129	102.06
320.358	95.06
320.587	98.06
320.816	101.06
321.046	108.06
321.275	95.06
321.504	98.06
321.733	89.06
321.962	91.06
322.191	105.06
322.42	105.06
322.649	120.06
322.878	109.06
323.108	123.06
323.337	129.06
323.566	149.06
323.795	157.06
324.024	243.06
324.253	449.06
324.482	985.06
324.71	2090.06
324.939	2824.06
325.168	1004.06
325.397	281.06
325.626	179.06
325.855	143.06
326.084	127.06
326.313	137.06
326.542	179.06
326.77	259.06
326.999	515.06
327.228	1126.06
327.457	2084.06
327.686	1694.06
327.914	429.06
328.143	221.06
328.372	177.06
328.6	147.06
328.829	123.06
329.058	136.06
329.287	154.06
329.515	119.06
329.744	114.06
329.972	102.06
330.201	120.06
330.43	142.06
330.658	153.06
330.887	169.06
331.115	152.06
331.344	102.06
331.572	103.06
331.801	109.06
332.03	126.06
332.258	98.06
332.486	81.06
332.715	90.06
332.943	94.06
333.172	94.06
333.4	97.06
333.629	106.06
333.857	118.06
334.085	114.06
334.314	123.06
334.542	157.06
334.771	138.06
334.999	103.06
335.227	105.06
335.455	100.06
335.684	92.06
335.912	102.06
336.14	102.06
336.369	95.06
336.597	102.06
336.825	97.06
337.053	81.06
337.281	92.06
337.51	93.06
337.738	108.06
337.966	102.06
338.194	103.06
338.422	114.06
338.65	98.06
338.878	103.06
339.106	91.06
339.334	103.06
339.562	105.06
339.79	92.06
340.018	82.06
340.246	101.06
340.474	100.06
340.702	90.06
340.93	97.06
341.158	81.06
341.386	79.06
341.614	95.06
341.842	101.06
342.07	94.06
342.298	79.06
342.526	87.06
342.754	89.06
342.981	90.06
343.209	91.06
343.437	102.06
343.665	87.06
343.893	105.06
344.12	93.06
344.348	83.06
344.576	77.06
344.804	88.06
345.031	98.06
345.259	93.06
345.487	93.06
345.714	124.06
345.942	93.06
346.17	80.06
346.397	91.06
346.625	93.06
346.853	97.06
347.08	109.06
347.308	90.06
347.535	93.06
347.763	111.06
347.99	91.06
348.218	99.06
348.445	110.06
348.673	102.06
348.9	109.06
349.128	99.06
349.355	100.06
349.583	94.06
349.81	110.06
350.037	91.06
350.265	89.06
350.492	100.06
350.72	85.06
350.947	109.06
351.174	114.06
351.402	106.06
351.629	118.06
351.856	98.06
352.083	108.06
352.311	109.06
352.538	106.06
352.765	103.06
352.992	117.06
353.22	117.06
353.447	99.06
353.674	93.06
353.901	92.06
354.128	89.06
354.355	90.06
354.583	98.06
354.81	85.06
355.037	85.06
355.264	100.06
355.491	121.06
355.718	83.06
355.945	95.06
356.172	88.06
356.399	99.06
356.626	102.06
356.853	86.06
357.08	92.06
357.307	99.06
357.534	83.06
357.761	101.06
357.988	96.06
358.215	106.06
358.441	97.06
358.668	88.06
358.895	89.06
359.122	97.06
359.349	87.06
359.576	93.06
359.802	109.06
360.029	137.06
360.256	120.06
360.483	105.06
360.709	95.06
360.936	102.06
361.163	93.06
361.39	86.06
361.616	97.06
361.843	83.06
362.07	86.06
362.296	101.06
362.523	81.06
362.749	93.06
362.976	96.06
363.203	77.06
363.429	85.06
363.656	93.06
363.882	99.06
364.109	95.06
364.335	93.06
364.562	77.06
364.788	87.06
365.015	95.06
365.241	102.06
365.468	123.06
365.694	112.06
365.92	87.06
366.147	96.06
366.373	89.06
366.599	87.06
366.826	78.06
367.052	92.06
367.278	92.06
367.505	97.06
367.731	96.06
367.957	99.06
368.184	75.06
368.41	94.06
368.636	116.06
368.862	117.06
369.089	108.06
369.315	104.06
369.541	89.06
369.767	86.06
369.993	99.06
370.219	93.06
370.445	84.06
370.672	87.06
370.898	102.06
371.124	92.06
371.35	93.06
371.576	100.06
371.802	94.06
372.028	82.06
372.254	100.06
372.48	95.06
372.706	89.06
372.932	88.06
373.158	91.06
373.384	101.06
373.61	101.06
373.835	92.06
374.061	87.06
374.287	79.06
374.513	103.06
374.739	91.06
374.965	99.06
375.191	93.06
375.416	91.06
375.642	102.06
375.868	103.06
376.094	108.06
376.319	99.06
376.545	93.06
376.771	83.06
376.997	95.06
377.222	99.06
377.448	95.06
377.674	62.06
377.899	89.06
378.125	77.06
378.35	84.06
378.576	94.06
378.802	86.06
379.027	93.06
379.253	99.06
379.478	81.06
379.704	84.06
379.929	92.06
380.155	98.06
380.38	96.06
380.606	92.06
380.831	92.06
381.057	90.06
381.282	98.06
381.507	87.06
381.733	87.06
381.958	100.06
382.184	91.06
382.409	89.06
382.634	89.06
382.86	100.06
383.085	104.06
383.31	99.06
383.535	90.06
383.761	104.06
383.986	100.06
384.211	101.06
384.436	94.06
384.662	96.06
384.887	92.06
385.112	92.06
385.337	102.06
385.562	111.06
385.787	104.06
386.013	114.06
386.238	110.06
386.463	117.06
386.688	109.06
386.913	108.06
387.138	92.06
387.363	103.06
387.588	96.06
387.813	94.06
388.038	99.06
388.263	94.06
388.488	104.06
388.713	102.06
388.938	89.06
389.163	90.06
389.387	95.06
389.612	101.06
389.837	98.06
390.062	95.06
390.287	104.06
390.512	95.06
390.736	70.06
390.961	78.06
391.186	90.06
391.411	93.06
391.636	85.06
391.86	93.06
392.085	91.06
392.31	79.06
392.534	88.06
392.759	70.06
392.984	92.06
393.208	92.06
393.433	94.06
393.658	84.06
393.882	82.06
394.107	78.06
394.331	94.06
394.556	82.06
394.78	99.06
395.005	88.06
395.229	87.06
395.454	87.06
395.678	101.06
395.903	88.06
396.127	105.06
396.352	101.06
396.576	83.06
396.801	79.06
397.025	76.06
397.249	83.06
397.474	92.06
397.698	85.06
397.922	92.06
398.147	91.06
398.371	87.06
398.595	79.06
398.82	93.06
399.044	107.06
399.268	95.06
399.492	85.06
399.717	88.06
399.941	103.06
400.165	100.06
400.389	103.06
400.613	87.06
400.837	78.06
401.062	80.06
401.286	85.06
401.51	90.06
401.734	94.06
401.958	117.06
402.182	118.06
402.406	157.06
402.63	121.06
402.854	97.06
403.078	91.06
403.302	98.06
403.526	105.06
403.75	90.06
403.974	88.06
404.198	73.06
404.422	101.06
404.645	89.06
404.869	90.06
405.093	101.06
405.317	108.06
405.541	108.06
405.765	105.06
405.988	138.06
406.212	164.06
406.436	219.06
406.66	165.06
406.883	106.06
407.107	106.06
407.331	110.06
407.555	109.06
407.778	93.06
408.002	93.06
408.226	87.06
408.449	83.06
408.673	94.06
408.896	101.06
409.12	103.06
409.344	100.06
409.567	96.06
409.791	92.06
410.014	90.06
410.238	78.06
410.461	93.06
410.685	101.06
410.908	100.06
411.132	97.06
411.355	115.06
411.578	96.06
411.802	81.06
412.025	83.06
412.249	88.06
412.472	97.06
412.695	98.06
412.919	82.06
413.142	100.06
413.365	90.06
413.589	90.06
413.812	89.06
414.035	89.06
414.258	94.06
414.482	92.06
414.705	96.06
414.928	94.06
415.151	90.06
415.374	99.06
415.597	92.06
415.821	87.06
416.044	82.06
416.267	76.06
416.49	99.06
416.713	81.06
416.936	86.06
417.159	93.06
417.382	93.06
417.605	88.06
417.828	93.06
418.051	97.06
418.274	78.06
418.497	81.06
418.72	85.06
418.943	93.06
419.166	81.06
419.389	77.06
419.611	84.06
419.834	93.06
420.057	90.06
420.28	85.06
420.503	94.06
420.726	85.06
420.948	94.06
421.171	96.06
421.394	93.06
421.617	82.06
421.839	95.06
422.062	94.06
422.285	90.06
422.507	103.06
422.73	99.06
422.953	106.06
423.175	101.06
423.398	77.06
423.621	87.06
423.843	87.06
424.066	95.06
424.288	86.06
424.511	98.06
424.733	93.06
424.956	119.06
425.178	97.06
425.401	89.06
425.623	110.06
425.846	100.06
426.068	116.06
426.291	99.06
426.513	99.06
426.735	111.06
426.958	95.06
427.18	114.06
427.402	170.06
427.625	217.06
427.847	148.06
428.069	108.06
428.292	88.06
428.514	85.06
428.736	81.06
428.958	78.06
429.181	75.06
429.403	77.06
429.625	83.06
429.847	99.06
430.069	101.06
430.292	88.06
430.514	94.06
430.736	90.06
430.958	92.06
431.18	89.06
431.402	93.06
431.624	86.06
431.846	75.06
432.068	83.06
432.29	82.06
432.512	92.06
432.734	90.06
432.956	86.06
433.178	103.06
433.4	102.06
433.622	84.06
433.844	78.06
434.066	81.06
434.287	92.06
434.509	87.06
434.731	88.06
434.953	89.06
435.175	88.06
435.397	96.06
435.618	99.06
435.84	102.06
436.062	130.06
436.284	123.06
436.505	104.06
436.727	112.06
436.949	94.06
437.17	82.06
437.392	82.06
437.614	109.06
437.835	109.06
438.057	135.06
438.278	129.06
438.5	105.06
438.721	142.06
438.943	97.06
439.165	94.06
439.386	93.06
439.608	90.06
439.829	119.06
440.05	134.06
440.272	181.06
440.493	99.06
440.715	97.06
440.936	92.06
441.158	87.06
441.379	101.06
441.6	95.06
441.822	89.06
442.043	93.06
442.264	124.06
442.486	125.06
442.707	99.06
442.928	118.06
443.149	150.06
443.371	146.06
443.592	136.06
443.813	131.06
444.034	118.06
444.255	95.06
444.476	99.06
444.698	94.06
444.919	93.06
445.14	129.06
445.361	136.06
445.582	142.06
445.803	172.06
446.024	173.06
446.245	169.06
446.466	111.06
446.687	85.06
446.908	75.06
447.129	80.06
447.35	91.06
447.571	107.06
447.792	93.06
448.013	93.06
448.234	113.06
448.455	122.06
448.675	117.06
448.896	133.06
449.117	98.06
449.338	106.06
449.559	166.06
449.779	141.06
450	93.06
450.221	100.06
450.442	95.06
450.662	94.06
450.883	116.06
451.104	122.06
451.324	108.06
451.545	95.06
451.766	92.06
451.986	93.06
452.207	99.06
452.428	99.06
452.648	89.06
452.869	121.06
453.089	130.06
453.31	137.06
453.53	87.06
453.751	83.06
453.971	107.06
454.192	111.06
454.412	90.06
454.633	91.06
454.853	96.06
455.073	74.06
455.294	89.06
455.514	96.06
455.734	104.06
455.955	82.06
456.175	85.06
456.395	82.06
456.616	92.06
456.836	98.06
457.056	87.06
457.276	86.06
457.497	89.06
457.717	97.06
457.937	81.06
458.157	94.06
458.377	91.06
458.598	115.06
458.818	170.06
459.038	201.06
459.258	137.06
459.478	78.06
459.698	93.06
459.918	99.06
460.138	79.06
460.358	91.06
460.578	91.06
460.798	87.06
461.018	98.06
461.238	86.06
461.458	93.06
461.678	83.06
461.898	89.06
462.118	92.06
462.338	96.06
462.558	81.06
462.777	79.06
462.997	92.06
463.217	83.06
463.437	85.06
463.657	101.06
463.876	99.06
464.096	92.06
464.316	93.06
464.536	97.06
464.755	97.06
464.975	117.06
465.195	202.06
465.414	194.06
465.634	99.06
465.854	91.06
466.073	82.06
466.293	81.06
466.512	93.06
466.732	88.06
466.951	86.06
467.171	76.06
467.391	87.06
467.61	104.06
467.829	102.06
468.049	100.06
468.268	112.06
468.488	82.06
468.707	86.06
468.927	77.06
469.146	86.06
469.365	82.06
469.585	75.06
469.804	95.06
470.023	88.06
470.243	97.06
470.462	109.06
470.681	125.06
470.901	82.06
471.12	87.06
471.339	72.06
471.558	86.06
471.777	75.06
471.997	102.06
472.216	121.06
472.435	151.06
472.654	89.06
472.873	88.06
473.092	94.06
473.311	79.06
473.53	105.06
473.749	99.06
473.968	111.06
474.187	117.06
474.406	106.06
474.625	69.06
474.844	102.06
475.063	102.06
475.282	96.06
475.501	86.06
475.72	97.06
475.939	87.06
476.158	78.06
476.377	104.06
476.596	91.06
476.814	98.06
477.033	93.06
477.252	103.06
477.471	97.06
477.69	93.06
477.908	93.06
478.127	89.06
478.346	79.06
478.564	81.06
478.783	107.06
479.002	89.06
479.22	88.06
479.439	109.06
479.658	101.06
479.876	101.06
480.095	104.06
480.313	88.06
480.532	100.06
480.751	106.06
480.969	127.06
481.188	230.06
481.406	171.06
481.624	94.06
481.843	81.06
482.061	77.06
482.28	87.06
482.498	96.06
482.717	87.06
482.935	86.06
483.153	91.06
483.372	74.06
483.59	99.06
483.808	89.06
484.027	101.06
484.245	91.06
484.463	91.06
484.681	98.06
484.9	103.06
485.118	85.06
485.336	98.06
485.554	105.06
485.772	110.06
485.99	98.06
486.209	103.06
486.427	108.06
486.645	100.06
486.863	122.06
487.081	115.06
487.299	95.06
487.517	101.06
487.735	93.06
487.953	93.06
488.171	94.06
488.389	94.06
488.607	93.06
488.825	94.06
489.043	97.06
489.261	87.06
489.479	81.06
489.696	97.06
489.914	83.06
490.132	91.06
490.35	93.06
490.568	106.06
490.786	87.06
491.003	99.06
491.221	83.06
491.439	86.06
491.657	90.06
491.874	85.06
492.092	104.06
492.31	101.06
492.527	98.06
492.745	91.06
492.963	78.06
493.18	101.06
493.398	94.06
493.615	108.06
493.833	94.06
494.05	94.06
494.268	103.06
494.485	82.06
494.703	78.06
494.92	99.06
495.138	85.06
495.355	100.06
495.573	85.06
495.79	93.06
496.008	72.06
496.225	102.06
496.442	83.06
496.66	98.06
496.877	96.06
497.094	94.06
497.312	100.06
497.529	85.06
497.746	95.06
497.963	92.06
498.181	93.06
498.398	84.06
498.615	116.06
498.832	103.06
499.049	86.06
499.267	108.06
499.484	101.06
499.701	96.06
499.918	98.06
500.135	86.06
500.352	82.06
500.569	97.06
500.786	92.06
501.003	104.06
501.22	91.06
501.437	81.06
501.654	99.06
501.871	105.06
502.088	103.06
502.305	79.06
502.522	92.06
502.739	102.06
502.956	99.06
503.172	101.06
503.389	106.06
503.606	99.06
503.823	98.06
504.04	90.06
504.256	89.06
504.473	97.06
504.69	89.06
504.907	83.06
505.123	99.06
505.34	83.06
505.557	88.06
505.773	91.06
505.99	103.06
506.207	96.06
506.423	89.06
506.64	102.06
506.856	93.06
507.073	88.06
507.289	97.06
507.506	93.06
507.722	121.06
507.939	125.06
508.155	98.06
508.372	105.06
508.588	98.06
508.805	109.06
509.021	102.06
509.238	111.06
509.454	93.06
509.67	110.06
509.887	108.06
510.103	120.06
510.319	203.06
510.536	759.06
510.752	2502.06
510.968	688.06
511.184	153.06
511.401	117.06
511.617	107.06
511.833	87.06
512.049	91.06
512.265	90.06
512.481	86.06
512.698	82.06
512.914	93.06
513.13	92.06
513.346	87.06
513.562	104.06
513.778	92.06
513.994	100.06
514.21	108.06
514.426	131.06
514.642	160.06
