Data from Circ_1981_H10_HRD10591_00050.txt Node
Date: Wed Jan 03 12:34:31 EST 2024
User: Yrep
Spectrometer: HR+D1059
Trigger mode: 1
Integration Time (sec): 1.000000E-1
Scans to average: 1
Electric dark correction enabled: true
Nonlinearity correction enabled: false
Boxcar width: 0
XAxis mode: Wavelengths
Number of Pixels in Spectrum: 2048
>>>>>Begin Spectral Data<<<<<
223.165	-21.06
223.4	-21.06
223.635	-21.06
223.869	-24.06
224.104	-14.06
224.338	-22.06
224.573	-15.06
224.808	-17.06
225.042	-19.06
225.277	11.94
225.511	-14.06
225.746	9.94
225.98	4.94
226.215	8.94
226.449	17.94
226.683	28.94
226.918	28.94
227.152	34.94
227.387	37.94
227.621	42.94
227.856	45.94
228.09	49.94
228.324	50.94
228.559	53.94
228.793	69.94
229.027	53.94
229.262	83.94
229.496	81.94
229.73	97.94
229.964	94.94
230.199	82.94
230.433	71.94
230.667	83.94
230.901	85.94
231.136	75.94
231.37	84.94
231.604	84.94
231.838	90.94
232.072	73.94
232.306	84.94
232.541	86.94
232.775	85.94
233.009	85.94
233.243	75.94
233.477	72.94
233.711	82.94
233.945	85.94
234.179	78.94
234.413	82.94
234.647	87.94
234.881	77.94
235.115	85.94
235.349	75.94
235.583	73.94
235.817	81.94
236.051	77.94
236.285	78.94
236.519	66.94
236.753	81.94
236.987	66.94
237.221	80.94
237.455	90.94
237.689	84.94
237.922	79.94
238.156	78.94
238.39	82.94
238.624	81.94
238.858	76.94
239.091	80.94
239.325	76.94
239.559	92.94
239.793	80.94
240.027	70.94
240.26	74.94
240.494	84.94
240.728	78.94
240.961	75.94
241.195	86.94
241.429	73.94
241.662	77.94
241.896	75.94
242.13	81.94
242.363	68.94
242.597	80.94
242.83	76.94
243.064	83.94
243.298	77.94
243.531	82.94
243.765	80.94
243.998	88.94
244.232	77.94
244.465	92.94
244.699	90.94
244.932	88.94
245.166	83.94
245.399	75.94
245.633	82.94
245.866	66.94
246.099	69.94
246.333	64.94
246.566	75.94
246.8	84.94
247.033	83.94
247.266	68.94
247.5	85.94
247.733	84.94
247.966	78.94
248.2	84.94
248.433	82.94
248.666	86.94
248.899	93.94
249.133	94.94
249.366	91.94
249.599	112.94
249.832	82.94
250.066	77.94
250.299	80.94
250.532	72.94
250.765	73.94
250.998	76.94
251.231	81.94
251.465	78.94
251.698	92.94
251.931	67.94
252.164	82.94
252.397	77.94
252.63	86.94
252.863	89.94
253.096	84.94
253.329	73.94
253.562	72.94
253.795	82.94
254.028	75.94
254.261	88.94
254.494	82.94
254.727	72.94
254.96	79.94
255.193	92.94
255.426	78.94
255.659	81.94
255.892	97.94
256.124	86.94
256.357	92.94
256.59	80.94
256.823	85.94
257.056	93.94
257.289	91.94
257.521	91.94
257.754	100.94
257.987	86.94
258.22	91.94
258.452	84.94
258.685	85.94
258.918	98.94
259.151	84.94
259.383	77.94
259.616	86.94
259.849	83.94
260.081	74.94
260.314	90.94
260.547	82.94
260.779	88.94
261.012	75.94
261.244	80.94
261.477	94.94
261.71	94.94
261.942	133.94
262.175	125.94
262.407	108.94
262.64	92.94
262.872	84.94
263.105	95.94
263.337	82.94
263.57	85.94
263.802	84.94
264.035	73.94
264.267	77.94
264.499	76.94
264.732	87.94
264.964	80.94
265.197	90.94
265.429	82.94
265.661	90.94
265.894	89.94
266.126	85.94
266.358	75.94
266.591	70.94
266.823	80.94
267.055	80.94
267.287	92.94
267.52	92.94
267.752	84.94
267.984	93.94
268.216	89.94
268.448	66.94
268.681	86.94
268.913	89.94
269.145	94.94
269.377	96.94
269.609	86.94
269.841	92.94
270.073	79.94
270.306	91.94
270.538	89.94
270.77	81.94
271.002	90.94
271.234	99.94
271.466	83.94
271.698	89.94
271.93	95.94
272.162	95.94
272.394	91.94
272.626	90.94
272.858	86.94
273.09	96.94
273.322	69.94
273.553	91.94
273.785	73.94
274.017	84.94
274.249	84.94
274.481	99.94
274.713	81.94
274.945	80.94
275.176	92.94
275.408	94.94
275.64	100.94
275.872	74.94
276.104	91.94
276.335	105.94
276.567	97.94
276.799	118.94
277.031	129.94
277.262	102.94
277.494	99.94
277.726	96.94
277.957	87.94
278.189	87.94
278.421	86.94
278.652	91.94
278.884	83.94
279.115	91.94
279.347	101.94
279.579	92.94
279.81	81.94
280.042	91.94
280.273	84.94
280.505	80.94
280.736	89.94
280.968	89.94
281.199	73.94
281.431	68.94
281.662	103.94
281.894	92.94
282.125	106.94
282.356	125.94
282.588	133.94
282.819	127.94
283.051	99.94
283.282	82.94
283.513	105.94
283.745	89.94
283.976	84.94
284.207	90.94
284.439	96.94
284.67	71.94
284.901	78.94
285.132	89.94
285.364	85.94
285.595	101.94
285.826	90.94
286.057	98.94
286.288	96.94
286.52	88.94
286.751	90.94
286.982	91.94
287.213	91.94
287.444	100.94
287.675	96.94
287.906	86.94
288.138	86.94
288.369	93.94
288.6	97.94
288.831	72.94
289.062	93.94
289.293	99.94
289.524	82.94
289.755	108.94
289.986	81.94
290.217	91.94
290.448	90.94
290.679	92.94
290.91	99.94
291.141	85.94
291.371	81.94
291.602	94.94
291.833	86.94
292.064	87.94
292.295	92.94
292.526	101.94
292.757	90.94
292.987	92.94
293.218	82.94
293.449	84.94
293.68	97.94
293.91	94.94
294.141	100.94
294.372	89.94
294.603	93.94
294.833	93.94
295.064	93.94
295.295	101.94
295.525	93.94
295.756	112.94
295.987	126.94
296.217	147.94
296.448	138.94
296.679	98.94
296.909	90.94
297.14	90.94
297.37	96.94
297.601	83.94
297.831	98.94
298.062	90.94
298.292	96.94
298.523	94.94
298.753	80.94
298.984	88.94
299.214	89.94
299.445	90.94
299.675	90.94
299.905	109.94
300.136	90.94
300.366	90.94
300.597	91.94
300.827	83.94
301.057	99.94
301.288	111.94
301.518	104.94
301.748	93.94
301.979	105.94
302.209	86.94
302.439	93.94
302.669	106.94
302.9	92.94
303.13	107.94
303.36	99.94
303.59	96.94
303.82	115.94
304.051	90.94
304.281	84.94
304.511	101.94
304.741	86.94
304.971	93.94
305.201	100.94
305.431	89.94
305.661	97.94
305.891	104.94
306.121	104.94
306.352	110.94
306.582	116.94
306.812	100.94
307.042	94.94
307.272	86.94
307.502	97.94
307.731	104.94
307.961	104.94
308.191	92.94
308.421	84.94
308.651	92.94
308.881	85.94
309.111	89.94
309.341	100.94
309.571	87.94
309.8	99.94
310.03	104.94
310.26	110.94
310.49	105.94
310.72	121.94
310.949	116.94
311.179	110.94
311.409	112.94
311.639	105.94
311.868	108.94
312.098	107.94
312.328	98.94
312.557	114.94
312.787	115.94
313.017	120.94
313.246	110.94
313.476	99.94
313.706	91.94
313.935	92.94
314.165	105.94
314.394	115.94
314.624	108.94
314.853	127.94
315.083	96.94
315.312	102.94
315.542	100.94
315.771	101.94
316.001	92.94
316.23	100.94
316.46	89.94
316.689	96.94
316.919	102.94
317.148	97.94
317.377	102.94
317.607	115.94
317.836	111.94
318.065	98.94
318.295	82.94
318.524	88.94
318.753	102.94
318.983	93.94
319.212	116.94
319.441	111.94
319.67	110.94
319.9	104.94
320.129	89.94
320.358	94.94
320.587	108.94
320.816	109.94
321.046	109.94
321.275	98.94
321.504	90.94
321.733	93.94
321.962	98.94
322.191	90.94
322.42	109.94
322.649	130.94
322.878	116.94
323.108	115.94
323.337	140.94
323.566	137.94
323.795	186.94
324.024	232.94
324.253	476.94
324.482	1043.94
324.71	2144.94
324.939	3099.94
325.168	1066.94
325.397	290.94
325.626	175.94
325.855	135.94
326.084	153.94
326.313	147.94
326.542	174.94
326.77	263.94
326.999	537.94
327.228	1165.94
327.457	2217.94
327.686	1798.94
327.914	459.94
328.143	218.94
328.372	189.94
328.6	160.94
328.829	146.94
329.058	148.94
329.287	172.94
329.515	131.94
329.744	107.94
329.972	114.94
330.201	124.94
330.43	163.94
330.658	148.94
330.887	198.94
331.115	174.94
331.344	105.94
331.572	97.94
331.801	99.94
332.03	119.94
332.258	105.94
332.486	90.94
332.715	101.94
332.943	109.94
333.172	97.94
333.4	105.94
333.629	104.94
333.857	102.94
334.085	124.94
334.314	123.94
334.542	154.94
334.771	138.94
334.999	110.94
335.227	101.94
335.455	106.94
335.684	117.94
335.912	93.94
336.14	101.94
336.369	108.94
336.597	113.94
336.825	89.94
337.053	89.94
337.281	94.94
337.51	89.94
337.738	95.94
337.966	113.94
338.194	86.94
338.422	102.94
338.65	104.94
338.878	89.94
339.106	91.94
339.334	106.94
339.562	88.94
339.79	104.94
340.018	93.94
340.246	102.94
340.474	108.94
340.702	106.94
340.93	91.94
341.158	96.94
341.386	89.94
341.614	97.94
341.842	102.94
342.07	94.94
342.298	93.94
342.526	96.94
342.754	94.94
342.981	90.94
343.209	95.94
343.437	106.94
343.665	83.94
343.893	92.94
344.12	89.94
344.348	86.94
344.576	100.94
344.804	113.94
345.031	102.94
345.259	117.94
345.487	101.94
345.714	99.94
345.942	93.94
346.17	86.94
346.397	93.94
346.625	99.94
346.853	98.94
347.08	83.94
347.308	94.94
347.535	101.94
347.763	111.94
347.99	110.94
348.218	113.94
348.445	116.94
348.673	117.94
348.9	93.94
349.128	96.94
349.355	85.94
349.583	92.94
349.81	90.94
350.037	92.94
350.265	105.94
350.492	99.94
350.72	93.94
350.947	106.94
351.174	126.94
351.402	122.94
351.629	98.94
351.856	115.94
352.083	102.94
352.311	115.94
352.538	121.94
352.765	111.94
352.992	138.94
353.22	108.94
353.447	118.94
353.674	108.94
353.901	79.94
354.128	85.94
354.355	99.94
354.583	116.94
354.81	96.94
355.037	88.94
355.264	88.94
355.491	96.94
355.718	98.94
355.945	92.94
356.172	90.94
356.399	92.94
356.626	85.94
356.853	98.94
357.08	109.94
357.307	91.94
357.534	100.94
357.761	91.94
357.988	90.94
358.215	97.94
358.441	103.94
358.668	85.94
358.895	96.94
359.122	91.94
359.349	86.94
359.576	82.94
359.802	114.94
360.029	125.94
360.256	136.94
360.483	122.94
360.709	107.94
360.936	94.94
361.163	109.94
361.39	98.94
361.616	100.94
361.843	96.94
362.07	104.94
362.296	102.94
362.523	96.94
362.749	93.94
362.976	80.94
363.203	101.94
363.429	84.94
363.656	86.94
363.882	99.94
364.109	95.94
364.335	112.94
364.562	92.94
364.788	96.94
365.015	98.94
365.241	99.94
365.468	112.94
365.694	107.94
365.92	110.94
366.147	87.94
366.373	83.94
366.599	85.94
366.826	95.94
367.052	91.94
367.278	105.94
367.505	102.94
367.731	106.94
367.957	107.94
368.184	94.94
368.41	101.94
368.636	111.94
368.862	130.94
369.089	110.94
369.315	104.94
369.541	94.94
369.767	90.94
369.993	105.94
370.219	92.94
370.445	76.94
370.672	99.94
370.898	101.94
371.124	91.94
371.35	100.94
371.576	97.94
371.802	96.94
372.028	81.94
372.254	97.94
372.48	86.94
372.706	76.94
372.932	89.94
373.158	92.94
373.384	91.94
373.61	100.94
373.835	92.94
374.061	100.94
374.287	100.94
374.513	92.94
374.739	92.94
374.965	89.94
375.191	81.94
375.416	89.94
375.642	86.94
375.868	85.94
376.094	72.94
376.319	98.94
376.545	96.94
376.771	97.94
376.997	104.94
377.222	85.94
377.448	89.94
377.674	84.94
377.899	91.94
378.125	78.94
378.35	88.94
378.576	93.94
378.802	92.94
379.027	99.94
379.253	92.94
379.478	89.94
379.704	91.94
379.929	96.94
380.155	81.94
380.38	85.94
380.606	101.94
380.831	86.94
381.057	82.94
381.282	98.94
381.507	87.94
381.733	95.94
381.958	96.94
382.184	104.94
382.409	88.94
382.634	105.94
382.86	92.94
383.085	101.94
383.31	92.94
383.535	93.94
383.761	99.94
383.986	92.94
384.211	90.94
384.436	104.94
384.662	88.94
384.887	91.94
385.112	100.94
385.337	106.94
385.562	90.94
385.787	97.94
386.013	102.94
386.238	119.94
386.463	109.94
386.688	109.94
386.913	106.94
387.138	96.94
387.363	92.94
387.588	100.94
387.813	97.94
388.038	104.94
388.263	108.94
388.488	99.94
388.713	86.94
388.938	86.94
389.163	89.94
389.387	87.94
389.612	89.94
389.837	92.94
390.062	107.94
390.287	84.94
390.512	85.94
390.736	90.94
390.961	92.94
391.186	86.94
391.411	89.94
391.636	84.94
391.86	76.94
392.085	85.94
392.31	96.94
392.534	85.94
392.759	84.94
392.984	91.94
393.208	80.94
393.433	96.94
393.658	96.94
393.882	88.94
394.107	102.94
394.331	96.94
394.556	89.94
394.78	87.94
395.005	84.94
395.229	84.94
395.454	97.94
395.678	87.94
395.903	96.94
396.127	91.94
396.352	85.94
396.576	90.94
396.801	87.94
397.025	86.94
397.249	105.94
397.474	89.94
397.698	80.94
397.922	82.94
398.147	89.94
398.371	90.94
398.595	78.94
398.82	86.94
399.044	85.94
399.268	83.94
399.492	85.94
399.717	97.94
399.941	105.94
400.165	107.94
400.389	93.94
400.613	83.94
400.837	96.94
401.062	90.94
401.286	72.94
401.51	91.94
401.734	92.94
401.958	105.94
402.182	125.94
402.406	180.94
402.63	131.94
402.854	107.94
403.078	85.94
403.302	77.94
403.526	84.94
403.75	98.94
403.974	96.94
404.198	83.94
404.422	90.94
404.645	81.94
404.869	91.94
405.093	94.94
405.317	100.94
405.541	116.94
405.765	119.94
405.988	126.94
406.212	188.94
406.436	257.94
406.66	175.94
406.883	126.94
407.107	94.94
407.331	98.94
407.555	117.94
407.778	106.94
408.002	85.94
408.226	90.94
408.449	76.94
408.673	82.94
408.896	90.94
409.12	102.94
409.344	100.94
409.567	96.94
409.791	84.94
410.014	93.94
410.238	97.94
410.461	106.94
410.685	103.94
410.908	96.94
411.132	105.94
411.355	90.94
411.578	89.94
411.802	90.94
412.025	90.94
412.249	93.94
412.472	98.94
412.695	83.94
412.919	92.94
413.142	70.94
413.365	78.94
413.589	95.94
413.812	74.94
414.035	93.94
414.258	87.94
414.482	86.94
414.705	93.94
414.928	97.94
415.151	102.94
415.374	115.94
415.597	84.94
415.821	91.94
416.044	74.94
416.267	84.94
416.49	90.94
416.713	83.94
416.936	73.94
417.159	89.94
417.382	89.94
417.605	84.94
417.828	85.94
418.051	94.94
418.274	104.94
418.497	80.94
418.72	75.94
418.943	98.94
419.166	97.94
419.389	89.94
419.611	81.94
419.834	94.94
420.057	100.94
420.28	82.94
420.503	95.94
420.726	84.94
420.948	91.94
421.171	110.94
421.394	96.94
421.617	91.94
421.839	87.94
422.062	87.94
422.285	102.94
422.507	108.94
422.73	109.94
422.953	90.94
423.175	90.94
423.398	74.94
423.621	68.94
423.843	93.94
424.066	85.94
424.288	101.94
424.511	95.94
424.733	97.94
424.956	128.94
425.178	104.94
425.401	115.94
425.623	114.94
425.846	96.94
426.068	107.94
426.291	98.94
426.513	81.94
426.735	85.94
426.958	96.94
427.18	133.94
427.402	169.94
427.625	204.94
427.847	168.94
428.069	122.94
428.292	95.94
428.514	108.94
428.736	81.94
428.958	88.94
429.181	91.94
429.403	87.94
429.625	100.94
429.847	90.94
430.069	109.94
430.292	116.94
430.514	82.94
430.736	88.94
430.958	76.94
431.18	84.94
431.402	84.94
431.624	84.94
431.846	86.94
432.068	97.94
432.29	86.94
432.512	100.94
432.734	98.94
432.956	98.94
433.178	104.94
433.4	102.94
433.622	93.94
433.844	88.94
434.066	86.94
434.287	103.94
434.509	77.94
434.731	97.94
434.953	85.94
435.175	84.94
435.397	77.94
435.618	102.94
435.84	114.94
436.062	155.94
436.284	124.94
436.505	103.94
436.727	110.94
436.949	107.94
437.17	106.94
437.392	99.94
437.614	88.94
437.835	111.94
438.057	152.94
438.278	138.94
438.5	132.94
438.721	155.94
438.943	130.94
439.165	87.94
439.386	76.94
439.608	110.94
439.829	118.94
440.05	167.94
440.272	193.94
440.493	111.94
440.715	81.94
440.936	93.94
441.158	92.94
441.379	80.94
441.6	87.94
441.822	91.94
442.043	116.94
442.264	133.94
442.486	115.94
442.707	92.94
442.928	123.94
443.149	173.94
443.371	171.94
443.592	131.94
443.813	161.94
444.034	127.94
444.255	80.94
444.476	95.94
444.698	100.94
444.919	101.94
445.14	136.94
445.361	128.94
445.582	128.94
445.803	211.94
446.024	183.94
446.245	179.94
446.466	129.94
446.687	83.94
446.908	91.94
447.129	94.94
447.35	85.94
447.571	97.94
447.792	97.94
448.013	105.94
448.234	105.94
448.455	104.94
448.675	134.94
448.896	153.94
449.117	118.94
449.338	115.94
449.559	174.94
449.779	164.94
450	98.94
450.221	97.94
450.442	105.94
450.662	86.94
450.883	110.94
451.104	132.94
451.324	101.94
451.545	84.94
451.766	87.94
451.986	96.94
452.207	84.94
452.428	69.94
452.648	92.94
452.869	114.94
453.089	126.94
453.31	125.94
453.53	116.94
453.751	100.94
453.971	130.94
454.192	121.94
454.412	101.94
454.633	87.94
454.853	80.94
455.073	84.94
455.294	105.94
455.514	115.94
455.734	94.94
455.955	89.94
456.175	83.94
456.395	89.94
456.616	85.94
456.836	89.94
457.056	97.94
457.276	84.94
457.497	93.94
457.717	85.94
457.937	98.94
458.157	96.94
458.377	97.94
458.598	121.94
458.818	184.94
459.038	216.94
459.258	154.94
459.478	102.94
459.698	80.94
459.918	88.94
460.138	79.94
460.358	74.94
460.578	74.94
460.798	85.94
461.018	88.94
461.238	98.94
461.458	91.94
461.678	83.94
461.898	83.94
462.118	88.94
462.338	91.94
462.558	89.94
462.777	92.94
462.997	74.94
463.217	84.94
463.437	82.94
463.657	85.94
463.876	104.94
464.096	82.94
464.316	99.94
464.536	80.94
464.755	92.94
464.975	115.94
465.195	211.94
465.414	225.94
465.634	104.94
465.854	81.94
466.073	96.94
466.293	90.94
466.512	78.94
466.732	86.94
466.951	92.94
467.171	87.94
467.391	93.94
467.61	102.94
467.829	105.94
468.049	93.94
468.268	101.94
468.488	85.94
468.707	78.94
468.927	91.94
469.146	85.94
469.365	93.94
469.585	88.94
469.804	100.94
470.023	109.94
470.243	83.94
470.462	108.94
470.681	127.94
470.901	77.94
471.12	89.94
471.339	92.94
471.558	97.94
471.777	89.94
471.997	89.94
472.216	113.94
472.435	163.94
472.654	89.94
472.873	88.94
473.092	86.94
473.311	81.94
473.53	88.94
473.749	94.94
473.968	93.94
474.187	121.94
474.406	86.94
474.625	85.94
474.844	93.94
475.063	85.94
475.282	80.94
475.501	97.94
475.72	99.94
475.939	86.94
476.158	88.94
476.377	88.94
476.596	92.94
476.814	88.94
477.033	99.94
477.252	92.94
477.471	70.94
477.69	76.94
477.908	95.94
478.127	72.94
478.346	87.94
478.564	90.94
478.783	103.94
479.002	96.94
479.22	101.94
479.439	117.94
479.658	111.94
479.876	103.94
480.095	98.94
480.313	95.94
480.532	98.94
480.751	100.94
480.969	108.94
481.188	224.94
481.406	163.94
481.624	86.94
481.843	80.94
482.061	88.94
482.28	95.94
482.498	76.94
482.717	88.94
482.935	69.94
483.153	102.94
483.372	82.94
483.59	90.94
483.808	79.94
484.027	92.94
484.245	85.94
484.463	97.94
484.681	100.94
484.9	89.94
485.118	91.94
485.336	99.94
485.554	87.94
485.772	99.94
485.99	92.94
486.209	88.94
486.427	110.94
486.645	105.94
486.863	123.94
487.081	108.94
487.299	94.94
487.517	84.94
487.735	88.94
487.953	97.94
488.171	100.94
488.389	93.94
488.607	103.94
488.825	98.94
489.043	99.94
489.261	100.94
489.479	90.94
489.696	96.94
489.914	92.94
490.132	85.94
490.35	92.94
490.568	86.94
490.786	82.94
491.003	103.94
491.221	93.94
491.439	105.94
491.657	93.94
491.874	83.94
492.092	98.94
492.31	85.94
492.527	92.94
492.745	88.94
492.963	92.94
493.18	83.94
493.398	92.94
493.615	94.94
493.833	96.94
494.05	85.94
494.268	80.94
494.485	101.94
494.703	82.94
494.92	94.94
495.138	83.94
495.355	88.94
495.573	85.94
495.79	80.94
496.008	96.94
496.225	96.94
496.442	106.94
496.66	102.94
496.877	85.94
497.094	99.94
497.312	99.94
497.529	74.94
497.746	104.94
497.963	76.94
498.181	90.94
498.398	107.94
498.615	106.94
498.832	107.94
499.049	99.94
499.267	74.94
499.484	88.94
499.701	88.94
499.918	96.94
500.135	82.94
500.352	92.94
500.569	79.94
500.786	90.94
501.003	91.94
501.22	95.94
501.437	92.94
501.654	77.94
501.871	106.94
502.088	102.94
502.305	100.94
502.522	88.94
502.739	81.94
502.956	85.94
503.172	97.94
503.389	104.94
503.606	126.94
503.823	103.94
504.04	100.94
504.256	96.94
504.473	76.94
504.69	96.94
504.907	105.94
505.123	73.94
505.34	104.94
505.557	104.94
505.773	102.94
505.99	99.94
506.207	85.94
506.423	90.94
506.64	88.94
506.856	83.94
507.073	90.94
507.289	92.94
507.506	109.94
507.722	131.94
507.939	130.94
508.155	88.94
508.372	98.94
508.588	90.94
508.805	98.94
509.021	99.94
509.238	102.94
509.454	100.94
509.67	107.94
509.887	117.94
510.103	147.94
510.319	205.94
510.536	756.94
510.752	2600.94
510.968	704.94
511.184	158.94
511.401	128.94
511.617	105.94
511.833	87.94
512.049	93.94
512.265	80.94
512.481	77.94
512.698	88.94
512.914	96.94
513.13	99.94
513.346	86.94
513.562	110.94
513.778	99.94
513.994	98.94
514.21	102.94
