Data from Circ_1981_H10_HRD10591_00047.txt Node
Date: Wed Jan 03 12:34:30 EST 2024
User: Yrep
Spectrometer: HR+D1059
Trigger mode: 1
Integration Time (sec): 1.000000E-1
Scans to average: 1
Electric dark correction enabled: true
Nonlinearity correction enabled: false
Boxcar width: 0
XAxis mode: Wavelengths
Number of Pixels in Spectrum: 2048
>>>>>Begin Spectral Data<<<<<
223.165	-8
223.4	-8
223.635	-8
223.869	-9
224.104	-23
224.338	-13
224.573	-22
224.808	-14
225.042	-8
225.277	-3
225.511	3
225.746	-6
225.98	2
226.215	10
226.449	20
226.683	14
226.918	24
227.152	33
227.387	31
227.621	32
227.856	41
228.09	47
228.324	64
228.559	56
228.793	61
229.027	61
229.262	67
229.496	79
229.73	92
229.964	87
230.199	67
230.433	69
230.667	72
230.901	77
231.136	83
231.37	83
231.604	79
231.838	66
232.072	83
232.306	88
232.541	90
232.775	92
233.009	75
233.243	92
233.477	98
233.711	76
233.945	68
234.179	87
234.413	74
234.647	76
234.881	71
235.115	61
235.349	89
235.583	80
235.817	78
236.051	77
236.285	73
236.519	73
236.753	75
236.987	71
237.221	93
237.455	90
237.689	84
237.922	71
238.156	65
238.39	82
238.624	64
238.858	73
239.091	74
239.325	77
239.559	73
239.793	70
240.027	82
240.26	84
240.494	86
240.728	87
240.961	79
241.195	70
241.429	68
241.662	88
241.896	88
242.13	79
242.363	78
242.597	75
242.83	76
243.064	77
243.298	66
243.531	67
243.765	75
243.998	70
244.232	76
244.465	82
244.699	91
244.932	82
245.166	76
245.399	74
245.633	89
245.866	78
246.099	66
246.333	71
246.566	82
246.8	93
247.033	82
247.266	72
247.5	79
247.733	64
247.966	91
248.2	85
248.433	95
248.666	73
248.899	83
249.133	94
249.366	109
249.599	104
249.832	90
250.066	91
250.299	87
250.532	85
250.765	95
250.998	84
251.231	77
251.465	85
251.698	78
251.931	75
252.164	96
252.397	79
252.63	86
252.863	93
253.096	86
253.329	77
253.562	83
253.795	93
254.028	84
254.261	73
254.494	91
254.727	93
254.96	82
255.193	89
255.426	76
255.659	68
255.892	96
256.124	84
256.357	75
256.59	75
256.823	77
257.056	80
257.289	99
257.521	79
257.754	73
257.987	78
258.22	77
258.452	67
258.685	78
258.918	88
259.151	92
259.383	95
259.616	75
259.849	89
260.081	101
260.314	69
260.547	95
260.779	90
261.012	92
261.244	87
261.477	82
261.71	95
261.942	129
262.175	128
262.407	92
262.64	98
262.872	94
263.105	78
263.337	91
263.57	88
263.802	85
264.035	82
264.267	78
264.499	97
264.732	76
264.964	78
265.197	88
265.429	74
265.661	86
265.894	77
266.126	84
266.358	75
266.591	79
266.823	79
267.055	70
267.287	100
267.52	81
267.752	85
267.984	90
268.216	76
268.448	102
268.681	72
268.913	84
269.145	79
269.377	92
269.609	84
269.841	85
270.073	96
270.306	106
270.538	79
270.77	88
271.002	82
271.234	92
271.466	87
271.698	95
271.93	88
272.162	79
272.394	90
272.626	76
272.858	76
273.09	82
273.322	84
273.553	88
273.785	91
274.017	87
274.249	96
274.481	82
274.713	100
274.945	89
275.176	76
275.408	94
275.64	90
275.872	75
276.104	84
276.335	90
276.567	104
276.799	122
277.031	109
277.262	95
277.494	99
277.726	98
277.957	82
278.189	91
278.421	86
278.652	93
278.884	98
279.115	87
279.347	93
279.579	100
279.81	87
280.042	83
280.273	94
280.505	98
280.736	90
280.968	79
281.199	78
281.431	90
281.662	79
281.894	99
282.125	96
282.356	148
282.588	162
282.819	133
283.051	96
283.282	95
283.513	106
283.745	96
283.976	93
284.207	90
284.439	92
284.67	94
284.901	87
285.132	79
285.364	87
285.595	92
285.826	94
286.057	92
286.288	86
286.52	89
286.751	90
286.982	89
287.213	93
287.444	86
287.675	91
287.906	94
288.138	93
288.369	101
288.6	96
288.831	93
289.062	89
289.293	95
289.524	91
289.755	79
289.986	90
290.217	99
290.448	82
290.679	95
290.91	86
291.141	72
291.371	90
291.602	84
291.833	88
292.064	79
292.295	92
292.526	92
292.757	100
292.987	90
293.218	87
293.449	80
293.68	76
293.91	88
294.141	88
294.372	92
294.603	92
294.833	84
295.064	84
295.295	104
295.525	89
295.756	118
295.987	125
296.217	162
296.448	143
296.679	100
296.909	82
297.14	94
297.37	102
297.601	89
297.831	86
298.062	90
298.292	93
298.523	95
298.753	98
298.984	93
299.214	87
299.445	99
299.675	102
299.905	83
300.136	96
300.366	100
300.597	91
300.827	102
301.057	98
301.288	89
301.518	90
301.748	88
301.979	93
302.209	93
302.439	99
302.669	102
302.9	90
303.13	90
303.36	94
303.59	106
303.82	112
304.051	99
304.281	100
304.511	86
304.741	96
304.971	99
305.201	101
305.431	92
305.661	90
305.891	95
306.121	74
306.352	102
306.582	94
306.812	101
307.042	96
307.272	103
307.502	95
307.731	100
307.961	100
308.191	92
308.421	107
308.651	98
308.881	81
309.111	103
309.341	104
309.571	104
309.8	106
310.03	105
310.26	107
310.49	99
310.72	94
310.949	102
311.179	98
311.409	87
311.639	97
311.868	98
312.098	98
312.328	91
312.557	102
312.787	131
313.017	118
313.246	105
313.476	84
313.706	94
313.935	83
314.165	92
314.394	92
314.624	110
314.853	103
315.083	96
315.312	85
315.542	86
315.771	89
316.001	87
316.23	95
316.46	99
316.689	104
316.919	107
317.148	86
317.377	94
317.607	100
317.836	107
318.065	106
318.295	109
318.524	88
318.753	87
318.983	97
319.212	95
319.441	124
319.67	122
319.9	103
320.129	108
320.358	107
320.587	97
320.816	107
321.046	103
321.275	107
321.504	106
321.733	107
321.962	108
322.191	100
322.42	110
322.649	121
322.878	115
323.108	145
323.337	130
323.566	151
323.795	162
324.024	233
324.253	429
324.482	936
324.71	1940
324.939	2666
325.168	964
325.397	286
325.626	169
325.855	136
326.084	139
326.313	140
326.542	164
326.77	228
326.999	499
327.228	1029
327.457	1937
327.686	1557
327.914	422
328.143	235
328.372	199
328.6	137
328.829	129
329.058	163
329.287	164
329.515	121
329.744	104
329.972	116
330.201	123
330.43	145
330.658	152
330.887	199
331.115	153
331.344	112
331.572	110
331.801	121
332.03	118
332.258	104
332.486	92
332.715	93
332.943	113
333.172	101
333.4	93
333.629	97
333.857	135
334.085	107
334.314	133
334.542	134
334.771	151
334.999	117
335.227	91
335.455	102
335.684	111
335.912	98
336.14	114
336.369	103
336.597	96
336.825	101
337.053	98
337.281	86
337.51	95
337.738	90
337.966	87
338.194	114
338.422	107
338.65	101
338.878	93
339.106	102
339.334	100
339.562	103
339.79	90
340.018	92
340.246	93
340.474	92
340.702	98
340.93	105
341.158	92
341.386	105
341.614	105
341.842	105
342.07	102
342.298	93
342.526	87
342.754	93
342.981	94
343.209	97
343.437	99
343.665	87
343.893	89
344.12	91
344.348	86
344.576	110
344.804	90
345.031	94
345.259	93
345.487	98
345.714	94
345.942	82
346.17	101
346.397	103
346.625	100
346.853	77
347.08	100
347.308	107
347.535	89
347.763	102
347.99	106
348.218	115
348.445	114
348.673	103
348.9	107
349.128	98
349.355	100
349.583	88
349.81	93
350.037	102
350.265	110
350.492	102
350.72	101
350.947	105
351.174	118
351.402	114
351.629	99
351.856	106
352.083	106
352.311	114
352.538	126
352.765	123
352.992	123
353.22	104
353.447	113
353.674	99
353.901	103
354.128	103
354.355	102
354.583	82
354.81	94
355.037	90
355.264	103
355.491	104
355.718	91
355.945	91
356.172	80
356.399	89
356.626	85
356.853	92
357.08	96
357.307	108
357.534	96
357.761	98
357.988	100
358.215	104
358.441	95
358.668	76
358.895	89
359.122	99
359.349	93
359.576	98
359.802	116
360.029	138
360.256	130
360.483	104
360.709	99
360.936	88
361.163	96
361.39	106
361.616	107
361.843	86
362.07	94
362.296	105
362.523	107
362.749	85
362.976	100
363.203	90
363.429	86
363.656	112
363.882	98
364.109	93
364.335	94
364.562	80
364.788	95
365.015	110
365.241	96
365.468	128
365.694	106
365.92	95
366.147	106
366.373	101
366.599	98
366.826	87
367.052	82
367.278	110
367.505	105
367.731	96
367.957	90
368.184	87
368.41	91
368.636	123
368.862	132
369.089	98
369.315	104
369.541	108
369.767	83
369.993	96
370.219	91
370.445	86
370.672	95
370.898	100
371.124	84
371.35	86
371.576	88
371.802	86
372.028	77
372.254	93
372.48	101
372.706	83
372.932	87
373.158	84
373.384	115
373.61	126
373.835	80
374.061	93
374.287	84
374.513	89
374.739	95
374.965	79
375.191	88
375.416	91
375.642	104
375.868	91
376.094	103
376.319	79
376.545	92
376.771	96
376.997	90
377.222	109
377.448	98
377.674	83
377.899	98
378.125	100
378.35	86
378.576	89
378.802	87
379.027	92
379.253	91
379.478	96
379.704	108
379.929	107
380.155	103
380.38	104
380.606	92
380.831	98
381.057	102
381.282	99
381.507	99
381.733	93
381.958	87
382.184	105
382.409	117
382.634	99
382.86	89
383.085	108
383.31	104
383.535	93
383.761	99
383.986	102
384.211	85
384.436	98
384.662	89
384.887	111
385.112	102
385.337	105
385.562	110
385.787	125
386.013	117
386.238	114
386.463	112
386.688	111
386.913	89
387.138	88
387.363	86
387.588	89
387.813	110
388.038	107
388.263	102
388.488	108
388.713	94
388.938	95
389.163	99
389.387	99
389.612	100
389.837	84
390.062	88
390.287	96
390.512	93
390.736	98
390.961	80
391.186	87
391.411	107
391.636	76
391.86	87
392.085	86
392.31	92
392.534	96
392.759	80
392.984	78
393.208	84
393.433	114
393.658	108
393.882	81
394.107	86
394.331	91
394.556	86
394.78	79
395.005	83
395.229	79
395.454	86
395.678	84
395.903	110
396.127	98
396.352	85
396.576	88
396.801	93
397.025	98
397.249	89
397.474	107
397.698	94
397.922	89
398.147	86
398.371	87
398.595	89
398.82	97
399.044	87
399.268	77
399.492	96
399.717	88
399.941	104
400.165	107
400.389	99
400.613	95
400.837	91
401.062	85
401.286	104
401.51	98
401.734	96
401.958	108
402.182	116
402.406	196
402.63	128
402.854	103
403.078	98
403.302	86
403.526	71
403.75	92
403.974	102
404.198	99
404.422	96
404.645	92
404.869	98
405.093	89
405.317	103
405.541	122
405.765	105
405.988	122
406.212	198
406.436	267
406.66	193
406.883	119
407.107	87
407.331	115
407.555	124
407.778	102
408.002	99
408.226	90
408.449	104
408.673	97
408.896	96
409.12	98
409.344	101
409.567	89
409.791	94
410.014	89
410.238	79
410.461	96
410.685	89
410.908	105
411.132	103
411.355	89
411.578	93
411.802	89
412.025	92
412.249	93
412.472	85
412.695	109
412.919	103
413.142	79
413.365	101
413.589	89
413.812	99
414.035	92
414.258	103
414.482	88
414.705	86
414.928	89
415.151	92
415.374	90
415.597	97
415.821	99
416.044	90
416.267	86
416.49	92
416.713	90
416.936	96
417.159	103
417.382	94
417.605	95
417.828	98
418.051	89
418.274	76
418.497	80
418.72	105
418.943	98
419.166	92
419.389	89
419.611	100
419.834	89
420.057	88
420.28	95
420.503	94
420.726	88
420.948	86
421.171	108
421.394	85
421.617	93
421.839	84
422.062	84
422.285	82
422.507	98
422.73	128
422.953	92
423.175	92
423.398	82
423.621	106
423.843	101
424.066	94
424.288	96
424.511	85
424.733	100
424.956	129
425.178	112
425.401	110
425.623	114
425.846	86
426.068	91
426.291	90
426.513	90
426.735	98
426.958	110
427.18	115
427.402	171
427.625	231
427.847	155
428.069	123
428.292	105
428.514	86
428.736	94
428.958	105
429.181	96
429.403	83
429.625	82
429.847	98
430.069	110
430.292	92
430.514	90
430.736	88
430.958	86
431.18	96
431.402	80
431.624	76
431.846	82
432.068	78
432.29	95
432.512	96
432.734	107
432.956	93
433.178	107
433.4	101
433.622	84
433.844	94
434.066	82
434.287	96
434.509	88
434.731	80
434.953	86
435.175	105
435.397	103
435.618	109
435.84	104
436.062	126
436.284	141
436.505	120
436.727	100
436.949	100
437.17	84
437.392	93
437.614	97
437.835	119
438.057	134
438.278	145
438.5	118
438.721	138
438.943	108
439.165	100
439.386	95
439.608	96
439.829	121
440.05	168
440.272	175
440.493	99
440.715	99
440.936	101
441.158	99
441.379	100
441.6	98
441.822	99
442.043	96
442.264	118
442.486	107
442.707	102
442.928	91
443.149	162
443.371	148
443.592	127
443.813	137
444.034	123
444.255	104
444.476	97
444.698	103
444.919	96
445.14	141
445.361	128
445.582	127
445.803	165
446.024	173
446.245	171
446.466	134
446.687	86
446.908	86
447.129	102
447.35	86
447.571	89
447.792	93
448.013	98
448.234	114
448.455	111
448.675	130
448.896	146
449.117	110
449.338	106
449.559	146
449.779	156
450	90
450.221	93
450.442	98
450.662	103
450.883	112
451.104	131
451.324	108
451.545	90
451.766	83
451.986	85
452.207	94
452.428	92
452.648	112
452.869	129
453.089	126
453.31	114
453.53	100
453.751	104
453.971	109
454.192	127
454.412	100
454.633	101
454.853	96
455.073	97
455.294	99
455.514	109
455.734	97
455.955	82
456.175	82
456.395	87
456.616	86
456.836	82
457.056	91
457.276	91
457.497	76
457.717	99
457.937	81
458.157	96
458.377	99
458.598	127
458.818	176
459.038	210
459.258	138
459.478	114
459.698	93
459.918	96
460.138	99
460.358	82
460.578	85
460.798	91
461.018	94
461.238	79
461.458	89
461.678	94
461.898	88
462.118	87
462.338	79
462.558	91
462.777	96
462.997	95
463.217	87
463.437	92
463.657	100
463.876	90
464.096	95
464.316	82
464.536	96
464.755	102
464.975	134
465.195	201
465.414	219
465.634	115
465.854	98
466.073	84
466.293	99
466.512	100
466.732	87
466.951	84
467.171	91
467.391	85
467.61	111
467.829	108
468.049	113
468.268	112
468.488	90
468.707	92
468.927	95
469.146	90
469.365	92
469.585	87
469.804	116
470.023	110
470.243	94
470.462	111
470.681	136
470.901	87
471.12	90
471.339	79
471.558	86
471.777	101
471.997	96
472.216	119
472.435	174
472.654	102
472.873	83
473.092	86
473.311	96
473.53	89
473.749	97
473.968	90
474.187	125
474.406	100
474.625	98
474.844	85
475.063	77
475.282	82
475.501	78
475.72	90
475.939	94
476.158	74
476.377	74
476.596	96
476.814	104
477.033	92
477.252	101
477.471	95
477.69	107
477.908	104
478.127	96
478.346	89
478.564	104
478.783	92
479.002	100
479.22	93
479.439	109
479.658	124
479.876	112
480.095	95
480.313	108
480.532	103
480.751	106
480.969	117
481.188	236
481.406	173
481.624	106
481.843	96
482.061	86
482.28	98
482.498	80
482.717	94
482.935	88
483.153	96
483.372	94
483.59	92
483.808	86
484.027	101
484.245	109
484.463	113
484.681	89
484.9	88
485.118	84
485.336	98
485.554	107
485.772	104
485.99	105
486.209	112
486.427	100
486.645	123
486.863	116
487.081	124
487.299	107
487.517	101
487.735	92
487.953	92
488.171	103
488.389	95
488.607	113
488.825	97
489.043	92
489.261	106
489.479	92
489.696	87
489.914	84
490.132	87
490.35	84
490.568	88
490.786	83
491.003	90
491.221	82
491.439	97
491.657	99
491.874	105
492.092	105
492.31	95
492.527	92
492.745	87
492.963	90
493.18	98
493.398	90
493.615	102
493.833	106
494.05	87
494.268	66
494.485	91
494.703	100
494.92	85
495.138	90
495.355	94
495.573	93
495.79	91
496.008	99
496.225	93
496.442	80
496.66	89
496.877	102
497.094	98
497.312	85
497.529	89
497.746	91
497.963	91
498.181	95
498.398	92
498.615	116
498.832	111
499.049	99
499.267	98
499.484	105
499.701	89
499.918	84
500.135	91
500.352	107
500.569	100
500.786	110
501.003	102
501.22	92
501.437	110
501.654	106
501.871	119
502.088	94
502.305	92
502.522	84
502.739	78
502.956	90
503.172	104
503.389	104
503.606	121
503.823	100
504.04	104
504.256	98
504.473	83
504.69	94
504.907	100
505.123	93
505.34	104
505.557	89
505.773	97
505.99	100
506.207	98
506.423	75
506.64	100
506.856	95
507.073	91
507.289	87
507.506	109
507.722	111
507.939	124
508.155	94
508.372	109
508.588	94
508.805	111
509.021	111
509.238	111
509.454	98
509.67	103
509.887	120
510.103	138
510.319	229
510.536	812
510.752	2751
510.968	738
511.184	186
511.401	121
511.617	118
511.833	79
512.049	93
512.265	93
512.481	98
512.698	93
512.914	95
513.13	99
513.346	94
513.562	106
513.778	110
513.994	98
514.21	104
514.426	132
514.642	169
514.858	155
515.074	192
515.29	583
515.506	2099
515.721	751
515.937	186
516.153	116
516.369	114
516.585	105
516.801	92
517.016	101
517.232	100
517.448	112
517.664	91
517.879	90
518.095	90
518.311	87
518.527	87
518.742	100
518.958	91
519.173	98
519.389	98
519.605	96
519.82	106
520.036	109
520.251	147
520.467	132
520.682	117
520.898	110
521.113	121
521.329	156
521.544	252
521.76	741
521.975	3390
522.19	2004
522.406	438
522.621	142
522.836	109
523.052	113
523.267	109
523.482	100
523.698	115
523.913	147
524.128	107
524.343	99
524.559	94
524.774	86
524.989	95
525.204	104
525.419	114
525.634	105
525.849	100
526.064	102
526.28	107
526.495	95
526.71	92
526.925	90
527.14	100
527.355	78
527.57	99
527.785	94
527.999	94
528.214	95
528.429	95
528.644	93
528.859	103
529.074	87
529.289	147
529.503	231
529.718	112
529.933	86
530.148	83
530.363	103
530.577	95
530.792	109
531.007	99
531.221	82
531.436	94
531.651	108
531.865	98
532.08	94
532.295	91
532.509	100
532.724	91
532.938	96
533.153	98
533.367	96
533.582	94
533.796	106
534.011	88
534.225	98
534.44	113
534.654	98
534.868	106
535.083	85
535.297	94
535.511	111
535.726	106
535.94	104
536.154	84
536.369	94
536.583	96
536.797	86
537.011	96
537.225	84
537.44	100
537.654	98
537.868	88
538.082	95
538.296	78
538.51	88
538.724	93
538.938	99
539.153	97
539.367	119
539.581	96
539.795	94
540.009	90
540.222	108
540.436	85
540.65	77
540.864	94
541.078	96
541.292	109
541.506	101
541.72	98
541.934	91
542.147	97
542.361	85
542.575	107
542.789	76
543.002	93
543.216	96
543.43	92
543.644	90
543.857	92
544.071	91
544.285	99
544.498	101
544.712	97
544.925	82
545.139	86
545.352	95
545.566	89
545.779	90
545.993	91
546.206	98
546.42	82
546.633	78
546.847	93
547.06	90
547.274	87
547.487	78
547.7	96
547.914	82
548.127	82
548.34	105
548.554	73
548.767	90
548.98	90
549.193	76
549.407	86
549.62	94
549.833	94
550.046	84
550.259	84
550.473	87
550.686	90
550.899	72
551.112	75
551.325	87
551.538	104
551.751	100
551.964	86
552.177	82
552.39	91
552.603	98
552.816	107
553.029	72
553.242	93
553.455	86
553.667	113
553.88	92
554.093	106
554.306	96
554.519	98
554.732	107
554.944	109
555.157	88
555.37	92
555.583	99
555.795	85
556.008	81
556.221	86
556.433	72
556.646	76
556.859	102
557.071	97
557.284	92
557.496	95
557.709	100
557.921	93
558.134	86
558.346	86
558.559	87
558.771	75
558.984	98
559.196	80
559.409	97
559.621	100
559.833	92
560.046	87
560.258	92
560.47	97
560.683	94
560.895	87
561.107	82
561.32	88
561.532	93
561.744	87
561.956	95
562.168	91
562.381	98
562.593	91
562.805	82
563.017	96
563.229	95
563.441	85
563.653	109
563.865	93
564.077	83
564.289	84
564.501	67
564.713	95
564.925	89
565.137	109
565.349	101
565.561	85
565.773	90
565.985	93
566.197	79
566.408	103
566.62	97
566.832	99
567.044	102
567.255	84
567.467	86
567.679	110
567.891	83
568.102	86
568.314	90
568.526	99
568.737	92
568.949	102
569.161	90
569.372	90
569.584	83
569.795	90
570.007	132
570.218	255
570.43	138
570.641	80
570.853	100
571.064	95
571.276	93
571.487	87
571.698	97
571.91	95
572.121	98
572.333	101
572.544	86
572.755	100
572.966	83
573.178	92
573.389	98
573.6	86
573.811	82
574.023	84
574.234	90
574.445	86
574.656	91
574.867	96
575.078	87
575.289	87
575.501	84
575.712	100
575.923	88
576.134	98
576.345	101
576.556	80
576.767	100
576.978	92
577.188	95
577.399	93
577.61	96
577.821	102
578.032	116
578.243	309
578.454	815
578.665	228
578.875	121
579.086	104
579.297	88
579.508	93
579.718	96
579.929	73
580.14	84
580.35	88
580.561	83
580.772	116
580.982	69
581.193	93
