Data from Circ_1981_H10_HRD10591_00010.txt Node
Date: Wed Jan 03 12:34:23 EST 2024
User: Yrep
Spectrometer: HR+D1059
Trigger mode: 1
Integration Time (sec): 1.000000E-1
Scans to average: 1
Electric dark correction enabled: true
Nonlinearity correction enabled: false
Boxcar width: 0
XAxis mode: Wavelengths
Number of Pixels in Spectrum: 2048
>>>>>Begin Spectral Data<<<<<
223.165	-26.69
223.4	-26.69
223.635	-26.69
223.869	-23.69
224.104	-18.69
224.338	-3.69
224.573	-17.69
224.808	-20.69
225.042	-17.69
225.277	-5.69
225.511	-2.69
225.746	10.31
225.98	21.31
226.215	6.31
226.449	21.31
226.683	33.31
226.918	23.31
227.152	21.31
227.387	39.31
227.621	33.31
227.856	58.31
228.09	46.31
228.324	55.31
228.559	57.31
228.793	60.31
229.027	55.31
229.262	64.31
229.496	75.31
229.73	99.31
229.964	113.31
230.199	83.31
230.433	81.31
230.667	81.31
230.901	97.31
231.136	73.31
231.37	73.31
231.604	73.31
231.838	71.31
232.072	82.31
232.306	68.31
232.541	77.31
232.775	90.31
233.009	88.31
233.243	84.31
233.477	88.31
233.711	71.31
233.945	67.31
234.179	89.31
234.413	92.31
234.647	90.31
234.881	79.31
235.115	67.31
235.349	72.31
235.583	69.31
235.817	89.31
236.051	79.31
236.285	87.31
236.519	70.31
236.753	77.31
236.987	83.31
237.221	93.31
237.455	72.31
237.689	71.31
237.922	76.31
238.156	87.31
238.39	84.31
238.624	68.31
238.858	69.31
239.091	75.31
239.325	81.31
239.559	94.31
239.793	81.31
240.027	93.31
240.26	79.31
240.494	81.31
240.728	74.31
240.961	87.31
241.195	80.31
241.429	67.31
241.662	74.31
241.896	73.31
242.13	61.31
242.363	81.31
242.597	88.31
242.83	77.31
243.064	78.31
243.298	84.31
243.531	86.31
243.765	77.31
243.998	73.31
244.232	78.31
244.465	82.31
244.699	77.31
244.932	87.31
245.166	82.31
245.399	89.31
245.633	76.31
245.866	81.31
246.099	69.31
246.333	73.31
246.566	69.31
246.8	69.31
247.033	81.31
247.266	90.31
247.5	73.31
247.733	85.31
247.966	73.31
248.2	74.31
248.433	91.31
248.666	90.31
248.899	70.31
249.133	87.31
249.366	101.31
249.599	113.31
249.832	88.31
250.066	96.31
250.299	82.31
250.532	81.31
250.765	81.31
250.998	84.31
251.231	80.31
251.465	80.31
251.698	81.31
251.931	81.31
252.164	79.31
252.397	81.31
252.63	81.31
252.863	66.31
253.096	81.31
253.329	75.31
253.562	71.31
253.795	93.31
254.028	66.31
254.261	77.31
254.494	67.31
254.727	76.31
254.96	98.31
255.193	85.31
255.426	77.31
255.659	73.31
255.892	75.31
256.124	78.31
256.357	78.31
256.59	100.31
256.823	91.31
257.056	85.31
257.289	75.31
257.521	97.31
257.754	95.31
257.987	84.31
258.22	79.31
258.452	86.31
258.685	86.31
258.918	90.31
259.151	74.31
259.383	66.31
259.616	100.31
259.849	94.31
260.081	81.31
260.314	88.31
260.547	87.31
260.779	78.31
261.012	97.31
261.244	86.31
261.477	82.31
261.71	109.31
261.942	128.31
262.175	125.31
262.407	103.31
262.64	75.31
262.872	73.31
263.105	92.31
263.337	88.31
263.57	91.31
263.802	101.31
264.035	83.31
264.267	98.31
264.499	81.31
264.732	76.31
264.964	75.31
265.197	71.31
265.429	93.31
265.661	76.31
265.894	82.31
266.126	82.31
266.358	86.31
266.591	88.31
266.823	87.31
267.055	71.31
267.287	78.31
267.52	90.31
267.752	97.31
267.984	89.31
268.216	98.31
268.448	79.31
268.681	93.31
268.913	88.31
269.145	89.31
269.377	82.31
269.609	81.31
269.841	74.31
270.073	87.31
270.306	101.31
270.538	77.31
270.77	83.31
271.002	83.31
271.234	88.31
271.466	81.31
271.698	83.31
271.93	85.31
272.162	105.31
272.394	78.31
272.626	84.31
272.858	85.31
273.09	85.31
273.322	76.31
273.553	94.31
273.785	94.31
274.017	88.31
274.249	97.31
274.481	92.31
274.713	74.31
274.945	91.31
275.176	82.31
275.408	91.31
275.64	83.31
275.872	103.31
276.104	89.31
276.335	93.31
276.567	105.31
276.799	115.31
277.031	111.31
277.262	102.31
277.494	79.31
277.726	97.31
277.957	91.31
278.189	85.31
278.421	81.31
278.652	94.31
278.884	89.31
279.115	83.31
279.347	97.31
279.579	89.31
279.81	91.31
280.042	96.31
280.273	87.31
280.505	94.31
280.736	89.31
280.968	103.31
281.199	84.31
281.431	113.31
281.662	88.31
281.894	83.31
282.125	124.31
282.356	118.31
282.588	134.31
282.819	122.31
283.051	81.31
283.282	86.31
283.513	95.31
283.745	87.31
283.976	74.31
284.207	76.31
284.439	98.31
284.67	92.31
284.901	81.31
285.132	96.31
285.364	93.31
285.595	86.31
285.826	101.31
286.057	111.31
286.288	93.31
286.52	98.31
286.751	88.31
286.982	92.31
287.213	88.31
287.444	97.31
287.675	92.31
287.906	94.31
288.138	74.31
288.369	99.31
288.6	83.31
288.831	79.31
289.062	89.31
289.293	90.31
289.524	83.31
289.755	81.31
289.986	93.31
290.217	92.31
290.448	84.31
290.679	99.31
290.91	77.31
291.141	97.31
291.371	85.31
291.602	97.31
291.833	100.31
292.064	99.31
292.295	91.31
292.526	90.31
292.757	92.31
292.987	82.31
293.218	95.31
293.449	106.31
293.68	90.31
293.91	89.31
294.141	88.31
294.372	81.31
294.603	91.31
294.833	77.31
295.064	90.31
295.295	78.31
295.525	98.31
295.756	93.31
295.987	136.31
296.217	150.31
296.448	129.31
296.679	85.31
296.909	104.31
297.14	97.31
297.37	89.31
297.601	95.31
297.831	82.31
298.062	88.31
298.292	88.31
298.523	107.31
298.753	84.31
298.984	89.31
299.214	80.31
299.445	101.31
299.675	92.31
299.905	102.31
300.136	95.31
300.366	87.31
300.597	100.31
300.827	99.31
301.057	103.31
301.288	111.31
301.518	100.31
301.748	97.31
301.979	106.31
302.209	101.31
302.439	98.31
302.669	94.31
302.9	92.31
303.13	90.31
303.36	96.31
303.59	93.31
303.82	115.31
304.051	92.31
304.281	101.31
304.511	86.31
304.741	95.31
304.971	78.31
305.201	92.31
305.431	77.31
305.661	87.31
305.891	94.31
306.121	109.31
306.352	99.31
306.582	97.31
306.812	98.31
307.042	109.31
307.272	89.31
307.502	98.31
307.731	86.31
307.961	95.31
308.191	93.31
308.421	90.31
308.651	98.31
308.881	98.31
309.111	88.31
309.341	85.31
309.571	91.31
309.8	109.31
310.03	109.31
310.26	117.31
310.49	103.31
310.72	101.31
310.949	111.31
311.179	109.31
311.409	92.31
311.639	106.31
311.868	107.31
312.098	108.31
312.328	115.31
312.557	123.31
312.787	110.31
313.017	93.31
313.246	87.31
313.476	70.31
313.706	84.31
313.935	94.31
314.165	105.31
314.394	100.31
314.624	111.31
314.853	105.31
315.083	94.31
315.312	89.31
315.542	94.31
315.771	94.31
316.001	88.31
316.23	99.31
316.46	89.31
316.689	91.31
316.919	93.31
317.148	104.31
317.377	86.31
317.607	90.31
317.836	91.31
318.065	105.31
318.295	86.31
318.524	90.31
318.753	99.31
318.983	100.31
319.212	119.31
319.441	112.31
319.67	121.31
319.9	99.31
320.129	93.31
320.358	89.31
320.587	109.31
320.816	98.31
321.046	117.31
321.275	124.31
321.504	94.31
321.733	95.31
321.962	114.31
322.191	106.31
322.42	110.31
322.649	129.31
322.878	98.31
323.108	125.31
323.337	133.31
323.566	144.31
323.795	174.31
324.024	244.31
324.253	455.31
324.482	994.31
324.71	2061.31
324.939	2847.31
325.168	1054.31
325.397	294.31
325.626	160.31
325.855	133.31
326.084	152.31
326.313	131.31
326.542	165.31
326.77	258.31
326.999	527.31
327.228	1098.31
327.457	2082.31
327.686	1715.31
327.914	456.31
328.143	231.31
328.372	200.31
328.6	162.31
328.829	119.31
329.058	139.31
329.287	165.31
329.515	111.31
329.744	115.31
329.972	106.31
330.201	141.31
330.43	165.31
330.658	175.31
330.887	185.31
331.115	151.31
331.344	116.31
331.572	105.31
331.801	109.31
332.03	121.31
332.258	110.31
332.486	96.31
332.715	91.31
332.943	106.31
333.172	90.31
333.4	101.31
333.629	105.31
333.857	123.31
334.085	117.31
334.314	137.31
334.542	171.31
334.771	153.31
334.999	106.31
335.227	117.31
335.455	103.31
335.684	101.31
335.912	97.31
336.14	95.31
336.369	105.31
336.597	117.31
336.825	99.31
337.053	96.31
337.281	93.31
337.51	97.31
337.738	97.31
337.966	105.31
338.194	103.31
338.422	114.31
338.65	90.31
338.878	103.31
339.106	82.31
339.334	89.31
339.562	90.31
339.79	92.31
340.018	102.31
340.246	108.31
340.474	106.31
340.702	98.31
340.93	95.31
341.158	91.31
341.386	90.31
341.614	105.31
341.842	98.31
342.07	87.31
342.298	86.31
342.526	100.31
342.754	88.31
342.981	96.31
343.209	88.31
343.437	99.31
343.665	83.31
343.893	94.31
344.12	93.31
344.348	90.31
344.576	88.31
344.804	102.31
345.031	100.31
345.259	101.31
345.487	94.31
345.714	97.31
345.942	102.31
346.17	93.31
346.397	99.31
346.625	95.31
346.853	99.31
347.08	91.31
347.308	99.31
347.535	113.31
347.763	102.31
347.99	111.31
348.218	105.31
348.445	109.31
348.673	102.31
348.9	107.31
349.128	112.31
349.355	85.31
349.583	86.31
349.81	89.31
350.037	97.31
350.265	111.31
350.492	87.31
350.72	87.31
350.947	109.31
351.174	111.31
351.402	121.31
351.629	109.31
351.856	110.31
352.083	107.31
352.311	111.31
352.538	117.31
352.765	110.31
352.992	116.31
353.22	109.31
353.447	110.31
353.674	109.31
353.901	91.31
354.128	97.31
354.355	101.31
354.583	110.31
354.81	101.31
355.037	101.31
355.264	94.31
355.491	101.31
355.718	87.31
355.945	90.31
356.172	94.31
356.399	83.31
356.626	93.31
356.853	97.31
357.08	93.31
357.307	107.31
357.534	82.31
357.761	89.31
357.988	79.31
358.215	91.31
358.441	93.31
358.668	102.31
358.895	94.31
359.122	109.31
359.349	100.31
359.576	106.31
359.802	103.31
360.029	126.31
360.256	130.31
360.483	119.31
360.709	91.31
360.936	95.31
361.163	100.31
361.39	97.31
361.616	79.31
361.843	81.31
362.07	107.31
362.296	103.31
362.523	97.31
362.749	110.31
362.976	75.31
363.203	108.31
363.429	105.31
363.656	105.31
363.882	76.31
364.109	78.31
364.335	85.31
364.562	90.31
364.788	105.31
365.015	114.31
365.241	97.31
365.468	100.31
365.694	113.31
365.92	110.31
366.147	78.31
366.373	77.31
366.599	82.31
366.826	94.31
367.052	78.31
367.278	99.31
367.505	100.31
367.731	102.31
367.957	100.31
368.184	97.31
368.41	105.31
368.636	120.31
368.862	140.31
369.089	122.31
369.315	85.31
369.541	83.31
369.767	100.31
369.993	87.31
370.219	93.31
370.445	97.31
370.672	84.31
370.898	97.31
371.124	85.31
371.35	94.31
371.576	98.31
371.802	91.31
372.028	98.31
372.254	95.31
372.48	95.31
372.706	87.31
372.932	98.31
373.158	100.31
373.384	97.31
373.61	89.31
373.835	91.31
374.061	85.31
374.287	100.31
374.513	88.31
374.739	93.31
374.965	86.31
375.191	85.31
375.416	78.31
375.642	100.31
375.868	93.31
376.094	93.31
376.319	89.31
376.545	91.31
376.771	96.31
376.997	93.31
377.222	90.31
377.448	89.31
377.674	82.31
377.899	95.31
378.125	98.31
378.35	107.31
378.576	102.31
378.802	99.31
379.027	99.31
379.253	100.31
379.478	86.31
379.704	92.31
379.929	81.31
380.155	106.31
380.38	94.31
380.606	96.31
380.831	96.31
381.057	97.31
381.282	101.31
381.507	102.31
381.733	95.31
381.958	94.31
382.184	88.31
382.409	106.31
382.634	106.31
382.86	94.31
383.085	93.31
383.31	98.31
383.535	94.31
383.761	94.31
383.986	90.31
384.211	102.31
384.436	110.31
384.662	95.31
384.887	120.31
385.112	115.31
385.337	107.31
385.562	107.31
385.787	102.31
386.013	117.31
386.238	114.31
386.463	115.31
386.688	108.31
386.913	108.31
387.138	117.31
387.363	118.31
387.588	88.31
387.813	112.31
388.038	101.31
388.263	131.31
388.488	120.31
388.713	89.31
388.938	88.31
389.163	93.31
389.387	85.31
389.612	94.31
389.837	97.31
390.062	95.31
390.287	94.31
390.512	87.31
390.736	81.31
390.961	91.31
391.186	90.31
391.411	102.31
391.636	88.31
391.86	89.31
392.085	86.31
392.31	89.31
392.534	85.31
392.759	93.31
392.984	91.31
393.208	106.31
393.433	135.31
393.658	107.31
393.882	87.31
394.107	97.31
394.331	88.31
394.556	89.31
394.78	90.31
395.005	100.31
395.229	93.31
395.454	86.31
395.678	87.31
395.903	86.31
396.127	85.31
396.352	103.31
396.576	90.31
396.801	117.31
397.025	97.31
397.249	94.31
397.474	98.31
397.698	112.31
397.922	91.31
398.147	101.31
398.371	93.31
398.595	86.31
398.82	86.31
399.044	91.31
399.268	81.31
399.492	83.31
399.717	93.31
399.941	90.31
400.165	102.31
400.389	111.31
400.613	91.31
400.837	96.31
401.062	89.31
401.286	83.31
401.51	108.31
401.734	81.31
401.958	113.31
402.182	133.31
402.406	199.31
402.63	126.31
402.854	88.31
403.078	101.31
403.302	91.31
403.526	94.31
403.75	81.31
403.974	87.31
404.198	84.31
404.422	103.31
404.645	97.31
404.869	96.31
405.093	105.31
405.317	108.31
405.541	110.31
405.765	102.31
405.988	138.31
406.212	205.31
406.436	303.31
406.66	179.31
406.883	106.31
407.107	103.31
407.331	101.31
407.555	111.31
407.778	100.31
408.002	75.31
408.226	83.31
408.449	96.31
408.673	90.31
408.896	115.31
409.12	109.31
409.344	81.31
409.567	87.31
409.791	85.31
410.014	107.31
410.238	88.31
410.461	97.31
410.685	102.31
410.908	106.31
411.132	105.31
411.355	91.31
411.578	93.31
411.802	84.31
412.025	93.31
412.249	94.31
412.472	101.31
412.695	90.31
412.919	97.31
413.142	86.31
413.365	88.31
413.589	94.31
413.812	102.31
414.035	99.31
414.258	87.31
414.482	96.31
414.705	93.31
414.928	99.31
415.151	99.31
415.374	101.31
415.597	94.31
415.821	86.31
416.044	91.31
416.267	103.31
416.49	87.31
416.713	87.31
416.936	90.31
417.159	93.31
417.382	94.31
417.605	87.31
417.828	86.31
418.051	89.31
418.274	89.31
418.497	91.31
418.72	95.31
418.943	85.31
419.166	84.31
419.389	74.31
419.611	91.31
419.834	89.31
420.057	76.31
420.28	86.31
420.503	90.31
420.726	91.31
420.948	86.31
421.171	104.31
421.394	101.31
421.617	97.31
421.839	75.31
422.062	97.31
422.285	93.31
422.507	100.31
422.73	132.31
422.953	102.31
423.175	89.31
423.398	86.31
423.621	88.31
423.843	92.31
424.066	84.31
424.288	91.31
424.511	88.31
424.733	84.31
424.956	115.31
425.178	104.31
425.401	112.31
425.623	114.31
425.846	99.31
426.068	93.31
426.291	91.31
426.513	93.31
426.735	83.31
426.958	99.31
427.18	107.31
427.402	161.31
427.625	216.31
427.847	161.31
428.069	120.31
428.292	85.31
428.514	93.31
428.736	91.31
428.958	96.31
429.181	82.31
429.403	84.31
429.625	87.31
429.847	98.31
430.069	109.31
430.292	96.31
430.514	95.31
430.736	86.31
430.958	73.31
431.18	79.31
431.402	82.31
431.624	85.31
431.846	93.31
432.068	84.31
432.29	77.31
432.512	96.31
432.734	87.31
432.956	93.31
433.178	109.31
433.4	96.31
433.622	97.31
433.844	92.31
434.066	93.31
434.287	106.31
434.509	92.31
434.731	85.31
434.953	74.31
435.175	101.31
435.397	101.31
435.618	93.31
435.84	100.31
436.062	142.31
436.284	127.31
436.505	113.31
436.727	117.31
436.949	90.31
437.17	97.31
437.392	93.31
437.614	83.31
437.835	114.31
438.057	142.31
438.278	136.31
438.5	107.31
438.721	129.31
438.943	110.31
439.165	91.31
439.386	100.31
439.608	96.31
439.829	103.31
440.05	149.31
440.272	166.31
440.493	104.31
440.715	93.31
440.936	100.31
441.158	87.31
441.379	84.31
441.6	113.31
441.822	102.31
442.043	98.31
442.264	118.31
442.486	103.31
442.707	117.31
442.928	111.31
443.149	151.31
443.371	140.31
443.592	118.31
443.813	115.31
444.034	126.31
444.255	94.31
444.476	89.31
444.698	83.31
444.919	92.31
445.14	135.31
445.361	126.31
445.582	139.31
445.803	154.31
446.024	156.31
446.245	146.31
446.466	111.31
446.687	106.31
446.908	86.31
447.129	91.31
447.35	97.31
447.571	96.31
447.792	97.31
448.013	101.31
448.234	106.31
448.455	103.31
448.675	119.31
448.896	140.31
449.117	103.31
449.338	106.31
449.559	140.31
449.779	136.31
450	99.31
450.221	91.31
450.442	85.31
450.662	103.31
450.883	119.31
451.104	127.31
451.324	110.31
451.545	92.31
451.766	102.31
451.986	77.31
452.207	93.31
452.428	92.31
452.648	101.31
452.869	111.31
453.089	126.31
453.31	140.31
453.53	102.31
453.751	100.31
453.971	117.31
454.192	126.31
454.412	111.31
454.633	86.31
454.853	85.31
455.073	100.31
455.294	83.31
455.514	105.31
455.734	95.31
455.955	92.31
456.175	95.31
456.395	84.31
456.616	98.31
456.836	95.31
457.056	91.31
457.276	72.31
457.497	93.31
457.717	83.31
457.937	101.31
458.157	99.31
458.377	85.31
458.598	123.31
458.818	200.31
459.038	200.31
459.258	132.31
459.478	92.31
459.698	96.31
459.918	108.31
460.138	94.31
460.358	104.31
460.578	86.31
460.798	102.31
461.018	90.31
461.238	81.31
461.458	90.31
461.678	74.31
461.898	75.31
462.118	92.31
462.338	69.31
462.558	83.31
462.777	77.31
462.997	80.31
463.217	88.31
463.437	82.31
463.657	78.31
463.876	91.31
464.096	96.31
464.316	102.31
464.536	108.31
464.755	95.31
464.975	110.31
465.195	219.31
465.414	233.31
465.634	111.31
465.854	94.31
466.073	93.31
466.293	79.31
466.512	91.31
466.732	90.31
466.951	87.31
467.171	85.31
467.391	105.31
467.61	111.31
467.829	108.31
468.049	117.31
468.268	110.31
468.488	93.31
468.707	102.31
468.927	78.31
469.146	101.31
469.365	95.31
469.585	97.31
469.804	95.31
470.023	104.31
470.243	108.31
470.462	119.31
470.681	117.31
470.901	84.31
471.12	88.31
471.339	94.31
471.558	87.31
471.777	93.31
471.997	92.31
472.216	117.31
472.435	166.31
472.654	108.31
472.873	97.31
473.092	90.31
473.311	97.31
473.53	94.31
473.749	93.31
473.968	87.31
474.187	121.31
474.406	104.31
474.625	90.31
474.844	83.31
475.063	86.31
475.282	76.31
475.501	93.31
475.72	98.31
475.939	83.31
476.158	86.31
476.377	80.31
476.596	88.31
476.814	101.31
477.033	97.31
477.252	100.31
477.471	75.31
477.69	81.31
477.908	95.31
478.127	105.31
478.346	93.31
478.564	99.31
478.783	99.31
479.002	99.31
479.22	95.31
479.439	104.31
479.658	108.31
479.876	106.31
480.095	97.31
480.313	102.31
480.532	117.31
480.751	107.31
480.969	130.31
481.188	241.31
481.406	178.31
481.624	102.31
481.843	79.31
482.061	84.31
482.28	91.31
482.498	97.31
482.717	94.31
482.935	93.31
483.153	82.31
483.372	86.31
483.59	98.31
483.808	95.31
484.027	81.31
484.245	89.31
484.463	95.31
484.681	108.31
484.9	85.31
485.118	94.31
485.336	92.31
485.554	112.31
485.772	103.31
485.99	114.31
486.209	107.31
486.427	103.31
486.645	132.31
486.863	107.31
487.081	97.31
487.299	102.31
487.517	96.31
487.735	95.31
487.953	103.31
488.171	95.31
488.389	98.31
488.607	109.31
488.825	92.31
489.043	96.31
489.261	92.31
489.479	93.31
489.696	87.31
489.914	93.31
490.132	84.31
490.35	84.31
490.568	82.31
490.786	92.31
491.003	78.31
491.221	87.31
491.439	77.31
491.657	95.31
491.874	85.31
492.092	87.31
492.31	95.31
492.527	86.31
492.745	83.31
492.963	92.31
493.18	89.31
493.398	100.31
493.615	93.31
493.833	98.31
494.05	81.31
494.268	101.31
494.485	93.31
494.703	89.31
494.92	87.31
495.138	87.31
495.355	93.31
495.573	97.31
495.79	91.31
496.008	98.31
496.225	99.31
496.442	87.31
496.66	87.31
496.877	80.31
497.094	93.31
497.312	97.31
497.529	86.31
497.746	106.31
497.963	110.31
498.181	98.31
498.398	81.31
498.615	116.31
498.832	91.31
499.049	91.31
499.267	101.31
499.484	102.31
499.701	94.31
499.918	86.31
500.135	73.31
500.352	87.31
500.569	87.31
500.786	93.31
501.003	82.31
501.22	93.31
501.437	92.31
501.654	91.31
501.871	111.31
502.088	85.31
502.305	93.31
502.522	82.31
502.739	73.31
502.956	91.31
503.172	91.31
503.389	101.31
503.606	102.31
503.823	103.31
504.04	87.31
504.256	91.31
504.473	97.31
504.69	95.31
504.907	92.31
505.123	82.31
505.34	85.31
505.557	106.31
505.773	100.31
505.99	88.31
506.207	107.31
506.423	87.31
506.64	85.31
506.856	94.31
507.073	96.31
507.289	89.31
507.506	108.31
507.722	128.31
507.939	121.31
508.155	113.31
508.372	108.31
508.588	98.31
508.805	98.31
509.021	101.31
509.238	100.31
509.454	103.31
509.67	115.31
509.887	110.31
510.103	139.31
510.319	224.31
510.536	844.31
510.752	2803.31
510.968	763.31
511.184	156.31
511.401	124.31
511.617	104.31
511.833	98.31
512.049	81.31
512.265	99.31
512.481	100.31
512.698	87.31
512.914	101.31
513.13	103.31
513.346	90.31
513.562	106.31
513.778	101.31
