Data from Circ_1981_H10_HRD10591_00029.txt Node
Date: Wed Jan 03 12:34:26 EST 2024
User: Yrep
Spectrometer: HR+D1059
Trigger mode: 1
Integration Time (sec): 1.000000E-1
Scans to average: 1
Electric dark correction enabled: true
Nonlinearity correction enabled: false
Boxcar width: 0
XAxis mode: Wavelengths
Number of Pixels in Spectrum: 2048
>>>>>Begin Spectral Data<<<<<
223.165	-24.94
223.4	-24.94
223.635	-24.94
223.869	-14.94
224.104	-9.94
224.338	-24.94
224.573	-23.94
224.808	-20.94
225.042	-14.94
225.277	4.06
225.511	6.06
225.746	1.06
225.98	8.06
226.215	20.06
226.449	15.06
226.683	21.06
226.918	31.06
227.152	28.06
227.387	49.06
227.621	35.06
227.856	53.06
228.09	41.06
228.324	38.06
228.559	53.06
228.793	51.06
229.027	57.06
229.262	59.06
229.496	85.06
229.73	94.06
229.964	92.06
230.199	75.06
230.433	82.06
230.667	87.06
230.901	91.06
231.136	88.06
231.37	73.06
231.604	69.06
231.838	90.06
232.072	74.06
232.306	86.06
232.541	82.06
232.775	71.06
233.009	72.06
233.243	88.06
233.477	81.06
233.711	71.06
233.945	77.06
234.179	91.06
234.413	78.06
234.647	82.06
234.881	80.06
235.115	76.06
235.349	65.06
235.583	86.06
235.817	80.06
236.051	74.06
236.285	94.06
236.519	52.06
236.753	77.06
236.987	76.06
237.221	83.06
237.455	84.06
237.689	76.06
237.922	72.06
238.156	64.06
238.39	83.06
238.624	66.06
238.858	69.06
239.091	63.06
239.325	65.06
239.559	71.06
239.793	73.06
240.027	80.06
240.26	74.06
240.494	67.06
240.728	64.06
240.961	65.06
241.195	81.06
241.429	76.06
241.662	88.06
241.896	90.06
242.13	75.06
242.363	77.06
242.597	79.06
242.83	77.06
243.064	73.06
243.298	83.06
243.531	75.06
243.765	65.06
243.998	68.06
244.232	70.06
244.465	68.06
244.699	87.06
244.932	94.06
245.166	88.06
245.399	74.06
245.633	86.06
245.866	68.06
246.099	67.06
246.333	81.06
246.566	75.06
246.8	65.06
247.033	68.06
247.266	71.06
247.5	84.06
247.733	75.06
247.966	95.06
248.2	76.06
248.433	83.06
248.666	87.06
248.899	86.06
249.133	85.06
249.366	94.06
249.599	86.06
249.832	82.06
250.066	72.06
250.299	64.06
250.532	75.06
250.765	80.06
250.998	67.06
251.231	75.06
251.465	85.06
251.698	74.06
251.931	55.06
252.164	79.06
252.397	59.06
252.63	75.06
252.863	71.06
253.096	73.06
253.329	77.06
253.562	86.06
253.795	85.06
254.028	81.06
254.261	80.06
254.494	61.06
254.727	65.06
254.96	85.06
255.193	92.06
255.426	80.06
255.659	82.06
255.892	90.06
256.124	72.06
256.357	70.06
256.59	79.06
256.823	83.06
257.056	63.06
257.289	83.06
257.521	72.06
257.754	63.06
257.987	79.06
258.22	82.06
258.452	81.06
258.685	76.06
258.918	86.06
259.151	74.06
259.383	84.06
259.616	81.06
259.849	85.06
260.081	80.06
260.314	72.06
260.547	85.06
260.779	85.06
261.012	97.06
261.244	76.06
261.477	93.06
261.71	82.06
261.942	98.06
262.175	94.06
262.407	87.06
262.64	73.06
262.872	72.06
263.105	82.06
263.337	83.06
263.57	76.06
263.802	88.06
264.035	85.06
264.267	73.06
264.499	85.06
264.732	76.06
264.964	95.06
265.197	86.06
265.429	89.06
265.661	92.06
265.894	79.06
266.126	80.06
266.358	90.06
266.591	83.06
266.823	75.06
267.055	81.06
267.287	70.06
267.52	89.06
267.752	58.06
267.984	87.06
268.216	96.06
268.448	97.06
268.681	96.06
268.913	87.06
269.145	81.06
269.377	87.06
269.609	88.06
269.841	92.06
270.073	76.06
270.306	85.06
270.538	86.06
270.77	91.06
271.002	93.06
271.234	80.06
271.466	85.06
271.698	87.06
271.93	71.06
272.162	83.06
272.394	87.06
272.626	90.06
272.858	85.06
273.09	76.06
273.322	76.06
273.553	88.06
273.785	90.06
274.017	90.06
274.249	72.06
274.481	79.06
274.713	82.06
274.945	92.06
275.176	85.06
275.408	90.06
275.64	84.06
275.872	93.06
276.104	90.06
276.335	83.06
276.567	92.06
276.799	116.06
277.031	117.06
277.262	109.06
277.494	102.06
277.726	89.06
277.957	87.06
278.189	76.06
278.421	79.06
278.652	76.06
278.884	95.06
279.115	89.06
279.347	84.06
279.579	90.06
279.81	84.06
280.042	90.06
280.273	80.06
280.505	82.06
280.736	87.06
280.968	93.06
281.199	101.06
281.431	93.06
281.662	81.06
281.894	99.06
282.125	91.06
282.356	114.06
282.588	146.06
282.819	116.06
283.051	102.06
283.282	91.06
283.513	85.06
283.745	83.06
283.976	83.06
284.207	83.06
284.439	78.06
284.67	85.06
284.901	86.06
285.132	100.06
285.364	91.06
285.595	80.06
285.826	91.06
286.057	88.06
286.288	80.06
286.52	75.06
286.751	79.06
286.982	70.06
287.213	77.06
287.444	75.06
287.675	82.06
287.906	96.06
288.138	92.06
288.369	87.06
288.6	76.06
288.831	77.06
289.062	80.06
289.293	97.06
289.524	81.06
289.755	84.06
289.986	89.06
290.217	94.06
290.448	81.06
290.679	75.06
290.91	76.06
291.141	89.06
291.371	93.06
291.602	82.06
291.833	92.06
292.064	86.06
292.295	88.06
292.526	97.06
292.757	92.06
292.987	85.06
293.218	81.06
293.449	88.06
293.68	90.06
293.91	76.06
294.141	89.06
294.372	70.06
294.603	92.06
294.833	89.06
295.064	79.06
295.295	81.06
295.525	95.06
295.756	98.06
295.987	108.06
296.217	145.06
296.448	123.06
296.679	87.06
296.909	92.06
297.14	89.06
297.37	85.06
297.601	81.06
297.831	82.06
298.062	96.06
298.292	88.06
298.523	82.06
298.753	83.06
298.984	90.06
299.214	84.06
299.445	87.06
299.675	85.06
299.905	98.06
300.136	73.06
300.366	85.06
300.597	98.06
300.827	75.06
301.057	93.06
301.288	107.06
301.518	94.06
301.748	87.06
301.979	88.06
302.209	88.06
302.439	96.06
302.669	78.06
302.9	101.06
303.13	87.06
303.36	85.06
303.59	102.06
303.82	107.06
304.051	100.06
304.281	99.06
304.511	89.06
304.741	72.06
304.971	95.06
305.201	90.06
305.431	76.06
305.661	89.06
305.891	97.06
306.121	88.06
306.352	106.06
306.582	82.06
306.812	72.06
307.042	91.06
307.272	87.06
307.502	92.06
307.731	95.06
307.961	80.06
308.191	74.06
308.421	92.06
308.651	89.06
308.881	101.06
309.111	87.06
309.341	98.06
309.571	92.06
309.8	103.06
310.03	95.06
310.26	93.06
310.49	98.06
310.72	96.06
310.949	109.06
311.179	103.06
311.409	96.06
311.639	87.06
311.868	93.06
312.098	116.06
312.328	95.06
312.557	113.06
312.787	128.06
313.017	110.06
313.246	91.06
313.476	90.06
313.706	87.06
313.935	96.06
314.165	110.06
314.394	95.06
314.624	98.06
314.853	92.06
315.083	94.06
315.312	84.06
315.542	97.06
315.771	77.06
316.001	83.06
316.23	92.06
316.46	79.06
316.689	88.06
316.919	115.06
317.148	97.06
317.377	107.06
317.607	88.06
317.836	83.06
318.065	89.06
318.295	94.06
318.524	99.06
318.753	86.06
318.983	96.06
319.212	97.06
319.441	113.06
319.67	119.06
319.9	89.06
320.129	91.06
320.358	104.06
320.587	82.06
320.816	95.06
321.046	106.06
321.275	113.06
321.504	84.06
321.733	93.06
321.962	102.06
322.191	96.06
322.42	113.06
322.649	113.06
322.878	115.06
323.108	109.06
323.337	118.06
323.566	140.06
323.795	182.06
324.024	227.06
324.253	458.06
324.482	983.06
324.71	2018.06
324.939	2771.06
325.168	991.06
325.397	275.06
325.626	170.06
325.855	133.06
326.084	136.06
326.313	128.06
326.542	173.06
326.77	251.06
326.999	507.06
327.228	1087.06
327.457	2074.06
327.686	1625.06
327.914	433.06
328.143	221.06
328.372	187.06
328.6	143.06
328.829	141.06
329.058	161.06
329.287	154.06
329.515	113.06
329.744	107.06
329.972	93.06
330.201	122.06
330.43	161.06
330.658	156.06
330.887	163.06
331.115	141.06
331.344	103.06
331.572	113.06
331.801	109.06
332.03	119.06
332.258	88.06
332.486	83.06
332.715	102.06
332.943	81.06
333.172	99.06
333.4	105.06
333.629	113.06
333.857	124.06
334.085	135.06
334.314	124.06
334.542	133.06
334.771	140.06
334.999	104.06
335.227	99.06
335.455	98.06
335.684	76.06
335.912	94.06
336.14	98.06
336.369	94.06
336.597	107.06
336.825	109.06
337.053	81.06
337.281	72.06
337.51	89.06
337.738	95.06
337.966	92.06
338.194	108.06
338.422	101.06
338.65	104.06
338.878	112.06
339.106	98.06
339.334	99.06
339.562	100.06
339.79	90.06
340.018	102.06
340.246	85.06
340.474	96.06
340.702	112.06
340.93	92.06
341.158	89.06
341.386	83.06
341.614	105.06
341.842	94.06
342.07	101.06
342.298	94.06
342.526	86.06
342.754	97.06
342.981	85.06
343.209	96.06
343.437	87.06
343.665	92.06
343.893	87.06
344.12	80.06
344.348	93.06
344.576	96.06
344.804	95.06
345.031	99.06
345.259	97.06
345.487	105.06
345.714	95.06
345.942	91.06
346.17	101.06
346.397	107.06
346.625	95.06
346.853	96.06
347.08	90.06
347.308	97.06
347.535	90.06
347.763	105.06
347.99	102.06
348.218	103.06
348.445	105.06
348.673	109.06
348.9	92.06
349.128	95.06
349.355	106.06
349.583	99.06
349.81	84.06
350.037	97.06
350.265	101.06
350.492	111.06
350.72	97.06
350.947	109.06
351.174	123.06
351.402	132.06
351.629	109.06
351.856	106.06
352.083	107.06
352.311	107.06
352.538	111.06
352.765	103.06
352.992	105.06
353.22	107.06
353.447	95.06
353.674	95.06
353.901	92.06
354.128	93.06
354.355	119.06
354.583	93.06
354.81	95.06
355.037	98.06
355.264	81.06
355.491	86.06
355.718	80.06
355.945	88.06
356.172	95.06
356.399	107.06
356.626	92.06
356.853	91.06
357.08	94.06
357.307	85.06
357.534	101.06
357.761	102.06
357.988	87.06
358.215	105.06
358.441	88.06
358.668	104.06
358.895	90.06
359.122	85.06
359.349	81.06
359.576	96.06
359.802	94.06
360.029	131.06
360.256	128.06
360.483	109.06
360.709	99.06
360.936	104.06
361.163	85.06
361.39	101.06
361.616	93.06
361.843	82.06
362.07	101.06
362.296	102.06
362.523	102.06
362.749	99.06
362.976	104.06
363.203	96.06
363.429	88.06
363.656	72.06
363.882	77.06
364.109	105.06
364.335	90.06
364.562	92.06
364.788	91.06
365.015	100.06
365.241	106.06
365.468	107.06
365.694	100.06
365.92	98.06
366.147	93.06
366.373	73.06
366.599	100.06
366.826	99.06
367.052	97.06
367.278	91.06
367.505	97.06
367.731	91.06
367.957	87.06
368.184	85.06
368.41	111.06
368.636	115.06
368.862	120.06
369.089	108.06
369.315	91.06
369.541	92.06
369.767	107.06
369.993	99.06
370.219	93.06
370.445	90.06
370.672	85.06
370.898	92.06
371.124	74.06
371.35	73.06
371.576	96.06
371.802	92.06
372.028	74.06
372.254	79.06
372.48	91.06
372.706	99.06
372.932	80.06
373.158	100.06
373.384	96.06
373.61	101.06
373.835	98.06
374.061	84.06
374.287	88.06
374.513	88.06
374.739	95.06
374.965	87.06
375.191	90.06
375.416	90.06
375.642	97.06
375.868	87.06
376.094	82.06
376.319	80.06
376.545	98.06
376.771	92.06
376.997	88.06
377.222	84.06
377.448	98.06
377.674	84.06
377.899	86.06
378.125	96.06
378.35	85.06
378.576	104.06
378.802	95.06
379.027	96.06
379.253	76.06
379.478	92.06
379.704	81.06
379.929	88.06
380.155	82.06
380.38	88.06
380.606	84.06
380.831	81.06
381.057	94.06
381.282	87.06
381.507	108.06
381.733	108.06
381.958	99.06
382.184	107.06
382.409	98.06
382.634	98.06
382.86	92.06
383.085	84.06
383.31	100.06
383.535	91.06
383.761	103.06
383.986	100.06
384.211	107.06
384.436	114.06
384.662	87.06
384.887	94.06
385.112	97.06
385.337	103.06
385.562	95.06
385.787	104.06
386.013	118.06
386.238	113.06
386.463	108.06
386.688	104.06
386.913	103.06
387.138	113.06
387.363	108.06
387.588	101.06
387.813	93.06
388.038	93.06
388.263	114.06
388.488	108.06
388.713	103.06
388.938	88.06
389.163	92.06
389.387	74.06
389.612	76.06
389.837	92.06
390.062	89.06
390.287	85.06
390.512	88.06
390.736	82.06
390.961	79.06
391.186	89.06
391.411	89.06
391.636	80.06
391.86	89.06
392.085	92.06
392.31	83.06
392.534	97.06
392.759	82.06
392.984	88.06
393.208	93.06
393.433	103.06
393.658	104.06
393.882	77.06
394.107	95.06
394.331	106.06
394.556	86.06
394.78	88.06
395.005	96.06
395.229	82.06
395.454	88.06
395.678	95.06
395.903	84.06
396.127	100.06
396.352	91.06
396.576	85.06
396.801	90.06
397.025	81.06
397.249	92.06
397.474	95.06
397.698	102.06
397.922	80.06
398.147	88.06
398.371	79.06
398.595	79.06
398.82	89.06
399.044	90.06
399.268	87.06
399.492	101.06
399.717	81.06
399.941	83.06
400.165	83.06
400.389	90.06
400.613	89.06
400.837	97.06
401.062	95.06
401.286	103.06
401.51	98.06
401.734	100.06
401.958	99.06
402.182	116.06
402.406	168.06
402.63	131.06
402.854	92.06
403.078	81.06
403.302	84.06
403.526	80.06
403.75	84.06
403.974	100.06
404.198	93.06
404.422	80.06
404.645	94.06
404.869	90.06
405.093	106.06
405.317	104.06
405.541	97.06
405.765	88.06
405.988	141.06
406.212	180.06
406.436	239.06
406.66	149.06
406.883	106.06
407.107	83.06
407.331	115.06
407.555	110.06
407.778	113.06
408.002	95.06
408.226	80.06
408.449	88.06
408.673	89.06
408.896	105.06
409.12	105.06
409.344	82.06
409.567	102.06
409.791	89.06
410.014	109.06
410.238	105.06
410.461	94.06
410.685	97.06
410.908	92.06
411.132	96.06
411.355	94.06
411.578	85.06
411.802	93.06
412.025	91.06
412.249	79.06
412.472	88.06
412.695	116.06
412.919	98.06
413.142	95.06
413.365	72.06
413.589	85.06
413.812	99.06
414.035	73.06
414.258	86.06
414.482	89.06
414.705	85.06
414.928	95.06
415.151	76.06
415.374	96.06
415.597	98.06
415.821	79.06
416.044	79.06
416.267	96.06
416.49	84.06
416.713	90.06
416.936	106.06
417.159	86.06
417.382	106.06
417.605	94.06
417.828	103.06
418.051	95.06
418.274	83.06
418.497	83.06
418.72	82.06
418.943	88.06
419.166	85.06
419.389	96.06
419.611	92.06
419.834	86.06
420.057	92.06
420.28	76.06
420.503	88.06
420.726	88.06
420.948	92.06
421.171	106.06
421.394	87.06
421.617	104.06
421.839	77.06
422.062	76.06
422.285	94.06
422.507	108.06
422.73	121.06
422.953	114.06
423.175	96.06
423.398	97.06
423.621	88.06
423.843	91.06
424.066	89.06
424.288	96.06
424.511	85.06
424.733	104.06
424.956	121.06
425.178	120.06
425.401	105.06
425.623	99.06
425.846	90.06
426.068	95.06
426.291	81.06
426.513	88.06
426.735	88.06
426.958	85.06
427.18	115.06
427.402	160.06
427.625	209.06
427.847	167.06
428.069	131.06
428.292	96.06
428.514	88.06
428.736	83.06
428.958	84.06
429.181	72.06
429.403	75.06
429.625	91.06
429.847	94.06
430.069	109.06
430.292	91.06
430.514	88.06
430.736	76.06
430.958	95.06
431.18	84.06
431.402	80.06
431.624	105.06
431.846	97.06
432.068	72.06
432.29	80.06
432.512	88.06
432.734	76.06
432.956	89.06
433.178	112.06
433.4	103.06
433.622	92.06
433.844	83.06
434.066	79.06
434.287	83.06
434.509	82.06
434.731	89.06
434.953	85.06
435.175	84.06
435.397	97.06
435.618	87.06
435.84	130.06
436.062	143.06
436.284	121.06
436.505	107.06
436.727	113.06
436.949	101.06
437.17	86.06
437.392	91.06
437.614	93.06
437.835	126.06
438.057	134.06
438.278	127.06
438.5	111.06
438.721	137.06
438.943	115.06
439.165	99.06
439.386	85.06
439.608	80.06
439.829	109.06
440.05	144.06
440.272	175.06
440.493	112.06
440.715	80.06
440.936	95.06
441.158	83.06
441.379	90.06
441.6	85.06
441.822	89.06
442.043	92.06
442.264	121.06
442.486	118.06
442.707	98.06
442.928	115.06
443.149	154.06
443.371	154.06
443.592	111.06
443.813	132.06
444.034	124.06
444.255	93.06
444.476	82.06
444.698	84.06
444.919	85.06
445.14	135.06
445.361	138.06
445.582	132.06
445.803	193.06
446.024	161.06
446.245	163.06
446.466	115.06
446.687	95.06
446.908	100.06
447.129	94.06
447.35	114.06
447.571	86.06
447.792	92.06
448.013	103.06
448.234	112.06
448.455	114.06
448.675	123.06
448.896	147.06
449.117	115.06
449.338	109.06
449.559	149.06
449.779	166.06
450	95.06
450.221	92.06
450.442	87.06
450.662	96.06
450.883	114.06
451.104	128.06
451.324	90.06
451.545	87.06
451.766	95.06
451.986	88.06
452.207	84.06
452.428	101.06
452.648	95.06
452.869	112.06
453.089	106.06
453.31	103.06
453.53	91.06
453.751	86.06
453.971	99.06
454.192	120.06
454.412	93.06
454.633	72.06
454.853	91.06
455.073	90.06
455.294	110.06
455.514	95.06
455.734	105.06
455.955	76.06
456.175	75.06
456.395	87.06
456.616	85.06
456.836	95.06
457.056	81.06
457.276	75.06
457.497	96.06
457.717	96.06
457.937	62.06
458.157	87.06
458.377	101.06
458.598	103.06
458.818	165.06
459.038	180.06
459.258	135.06
459.478	95.06
459.698	76.06
459.918	90.06
460.138	83.06
460.358	76.06
460.578	83.06
460.798	73.06
461.018	102.06
461.238	85.06
461.458	99.06
461.678	77.06
461.898	96.06
462.118	64.06
462.338	83.06
462.558	88.06
462.777	85.06
462.997	85.06
463.217	91.06
463.437	94.06
463.657	76.06
463.876	94.06
464.096	75.06
464.316	87.06
464.536	101.06
464.755	79.06
464.975	114.06
465.195	196.06
465.414	207.06
465.634	107.06
465.854	99.06
466.073	87.06
466.293	86.06
466.512	84.06
466.732	76.06
466.951	81.06
467.171	94.06
467.391	93.06
467.61	119.06
467.829	100.06
468.049	96.06
468.268	111.06
468.488	98.06
468.707	85.06
468.927	83.06
469.146	85.06
469.365	81.06
469.585	95.06
469.804	96.06
470.023	103.06
470.243	95.06
470.462	113.06
470.681	111.06
470.901	90.06
471.12	93.06
471.339	91.06
471.558	76.06
471.777	88.06
471.997	81.06
472.216	121.06
472.435	133.06
472.654	90.06
472.873	89.06
473.092	96.06
473.311	73.06
473.53	84.06
473.749	92.06
473.968	95.06
474.187	129.06
474.406	122.06
474.625	97.06
474.844	81.06
475.063	99.06
475.282	76.06
475.501	92.06
475.72	75.06
475.939	89.06
476.158	76.06
476.377	68.06
476.596	80.06
476.814	88.06
477.033	93.06
477.252	90.06
477.471	87.06
477.69	84.06
477.908	77.06
478.127	77.06
478.346	76.06
478.564	84.06
478.783	100.06
479.002	96.06
479.22	95.06
479.439	103.06
479.658	117.06
479.876	90.06
480.095	90.06
480.313	96.06
480.532	97.06
480.751	96.06
480.969	120.06
481.188	205.06
481.406	148.06
481.624	103.06
481.843	98.06
482.061	79.06
482.28	85.06
482.498	86.06
482.717	94.06
482.935	84.06
483.153	72.06
483.372	70.06
483.59	96.06
483.808	85.06
484.027	87.06
484.245	82.06
484.463	102.06
484.681	98.06
484.9	79.06
485.118	83.06
485.336	103.06
485.554	112.06
485.772	101.06
485.99	119.06
486.209	95.06
486.427	101.06
486.645	113.06
486.863	121.06
487.081	92.06
487.299	95.06
487.517	90.06
487.735	89.06
487.953	93.06
488.171	82.06
488.389	77.06
488.607	88.06
488.825	75.06
489.043	90.06
489.261	82.06
489.479	84.06
489.696	81.06
489.914	87.06
490.132	78.06
490.35	90.06
490.568	91.06
490.786	85.06
491.003	99.06
491.221	103.06
491.439	89.06
491.657	79.06
491.874	80.06
492.092	90.06
492.31	87.06
492.527	92.06
492.745	83.06
492.963	78.06
493.18	89.06
493.398	82.06
493.615	95.06
493.833	92.06
494.05	80.06
494.268	84.06
494.485	92.06
494.703	91.06
494.92	95.06
495.138	88.06
495.355	94.06
495.573	76.06
495.79	103.06
496.008	94.06
496.225	78.06
496.442	91.06
496.66	87.06
496.877	90.06
497.094	92.06
497.312	87.06
497.529	88.06
497.746	77.06
497.963	91.06
498.181	101.06
498.398	87.06
498.615	109.06
498.832	99.06
499.049	87.06
499.267	93.06
499.484	92.06
499.701	100.06
499.918	95.06
500.135	89.06
500.352	89.06
500.569	83.06
500.786	89.06
501.003	83.06
501.22	77.06
501.437	83.06
501.654	79.06
501.871	104.06
502.088	100.06
502.305	87.06
502.522	76.06
502.739	83.06
502.956	84.06
503.172	98.06
503.389	99.06
503.606	113.06
503.823	108.06
504.04	88.06
504.256	82.06
504.473	79.06
504.69	100.06
504.907	95.06
505.123	103.06
505.34	93.06
505.557	98.06
505.773	86.06
505.99	98.06
506.207	83.06
506.423	89.06
506.64	87.06
506.856	89.06
507.073	87.06
507.289	90.06
507.506	97.06
507.722	106.06
507.939	130.06
508.155	96.06
508.372	86.06
508.588	86.06
508.805	105.06
509.021	88.06
509.238	96.06
509.454	101.06
509.67	105.06
509.887	111.06
510.103	125.06
510.319	232.06
510.536	743.06
510.752	2348.06
510.968	633.06
511.184	156.06
511.401	101.06
511.617	96.06
511.833	97.06
512.049	98.06
512.265	96.06
512.481	87.06
512.698	79.06
512.914	86.06
513.13	84.06
513.346	90.06
513.562	83.06
513.778	92.06
513.994	96.06
514.21	93.06
514.426	123.06
514.642	149.06
514.858	138.06
515.074	181.06
515.29	541.06
