Data from Circ_1981_H10_HRD10591_00088.txt Node
Date: Wed Jan 03 12:34:38 EST 2024
User: Yrep
Spectrometer: HR+D1059
Trigger mode: 1
Integration Time (sec): 1.000000E-1
Scans to average: 1
Electric dark correction enabled: true
Nonlinearity correction enabled: false
Boxcar width: 0
XAxis mode: Wavelengths
Number of Pixels in Spectrum: 2048
>>>>>Begin Spectral Data<<<<<
223.165	-17.88
223.4	-17.88
223.635	-17.88
223.869	-24.88
224.104	-24.88
224.338	-6.88
224.573	-8.88
224.808	-8.88
225.042	-14.88
225.277	-24.88
225.511	0.12
225.746	5.12
225.98	14.12
226.215	20.12
226.449	10.12
226.683	28.12
226.918	20.12
227.152	34.12
227.387	36.12
227.621	44.12
227.856	49.12
228.09	44.12
228.324	57.12
228.559	44.12
228.793	62.12
229.027	51.12
229.262	66.12
229.496	69.12
229.73	85.12
229.964	102.12
230.199	86.12
230.433	82.12
230.667	89.12
230.901	63.12
231.136	92.12
231.37	74.12
231.604	77.12
231.838	72.12
232.072	80.12
232.306	93.12
232.541	74.12
232.775	72.12
233.009	86.12
233.243	86.12
233.477	80.12
233.711	70.12
233.945	95.12
234.179	72.12
234.413	99.12
234.647	86.12
234.881	76.12
235.115	86.12
235.349	70.12
235.583	72.12
235.817	68.12
236.051	78.12
236.285	73.12
236.519	80.12
236.753	84.12
236.987	71.12
237.221	76.12
237.455	100.12
237.689	74.12
237.922	88.12
238.156	69.12
238.39	85.12
238.624	64.12
238.858	83.12
239.091	70.12
239.325	84.12
239.559	82.12
239.793	66.12
240.027	70.12
240.26	98.12
240.494	81.12
240.728	85.12
240.961	87.12
241.195	97.12
241.429	90.12
241.662	76.12
241.896	72.12
242.13	67.12
242.363	77.12
242.597	80.12
242.83	76.12
243.064	76.12
243.298	74.12
243.531	84.12
243.765	72.12
243.998	90.12
244.232	71.12
244.465	83.12
244.699	98.12
244.932	77.12
245.166	84.12
245.399	82.12
245.633	72.12
245.866	74.12
246.099	77.12
246.333	74.12
246.566	69.12
246.8	78.12
247.033	81.12
247.266	77.12
247.5	73.12
247.733	81.12
247.966	84.12
248.2	81.12
248.433	72.12
248.666	88.12
248.899	76.12
249.133	67.12
249.366	96.12
249.599	107.12
249.832	85.12
250.066	77.12
250.299	72.12
250.532	73.12
250.765	93.12
250.998	81.12
251.231	73.12
251.465	85.12
251.698	75.12
251.931	82.12
252.164	75.12
252.397	86.12
252.63	77.12
252.863	60.12
253.096	96.12
253.329	76.12
253.562	88.12
253.795	76.12
254.028	92.12
254.261	69.12
254.494	66.12
254.727	88.12
254.96	69.12
255.193	83.12
255.426	80.12
255.659	77.12
255.892	70.12
256.124	67.12
256.357	87.12
256.59	82.12
256.823	81.12
257.056	91.12
257.289	77.12
257.521	76.12
257.754	76.12
257.987	65.12
258.22	75.12
258.452	85.12
258.685	87.12
258.918	89.12
259.151	87.12
259.383	81.12
259.616	79.12
259.849	85.12
260.081	84.12
260.314	80.12
260.547	68.12
260.779	85.12
261.012	90.12
261.244	74.12
261.477	93.12
261.71	86.12
261.942	106.12
262.175	128.12
262.407	96.12
262.64	101.12
262.872	89.12
263.105	92.12
263.337	80.12
263.57	88.12
263.802	97.12
264.035	92.12
264.267	74.12
264.499	84.12
264.732	71.12
264.964	84.12
265.197	74.12
265.429	80.12
265.661	82.12
265.894	77.12
266.126	72.12
266.358	84.12
266.591	82.12
266.823	70.12
267.055	77.12
267.287	88.12
267.52	83.12
267.752	76.12
267.984	87.12
268.216	79.12
268.448	94.12
268.681	84.12
268.913	80.12
269.145	84.12
269.377	71.12
269.609	88.12
269.841	84.12
270.073	99.12
270.306	98.12
270.538	76.12
270.77	93.12
271.002	84.12
271.234	98.12
271.466	82.12
271.698	75.12
271.93	94.12
272.162	83.12
272.394	90.12
272.626	86.12
272.858	96.12
273.09	86.12
273.322	78.12
273.553	95.12
273.785	91.12
274.017	99.12
274.249	81.12
274.481	73.12
274.713	88.12
274.945	93.12
275.176	92.12
275.408	94.12
275.64	86.12
275.872	86.12
276.104	91.12
276.335	88.12
276.567	110.12
276.799	122.12
277.031	90.12
277.262	98.12
277.494	100.12
277.726	86.12
277.957	81.12
278.189	92.12
278.421	83.12
278.652	82.12
278.884	90.12
279.115	92.12
279.347	92.12
279.579	85.12
279.81	98.12
280.042	98.12
280.273	92.12
280.505	90.12
280.736	86.12
280.968	89.12
281.199	83.12
281.431	94.12
281.662	98.12
281.894	90.12
282.125	90.12
282.356	126.12
282.588	158.12
282.819	127.12
283.051	90.12
283.282	94.12
283.513	86.12
283.745	81.12
283.976	90.12
284.207	88.12
284.439	88.12
284.67	87.12
284.901	90.12
285.132	85.12
285.364	92.12
285.595	92.12
285.826	77.12
286.057	89.12
286.288	106.12
286.52	81.12
286.751	84.12
286.982	94.12
287.213	100.12
287.444	115.12
287.675	88.12
287.906	102.12
288.138	81.12
288.369	85.12
288.6	100.12
288.831	79.12
289.062	105.12
289.293	77.12
289.524	72.12
289.755	84.12
289.986	89.12
290.217	94.12
290.448	93.12
290.679	72.12
290.91	93.12
291.141	70.12
291.371	94.12
291.602	102.12
291.833	86.12
292.064	90.12
292.295	92.12
292.526	105.12
292.757	94.12
292.987	92.12
293.218	87.12
293.449	91.12
293.68	96.12
293.91	92.12
294.141	86.12
294.372	85.12
294.603	84.12
294.833	90.12
295.064	93.12
295.295	81.12
295.525	97.12
295.756	102.12
295.987	125.12
296.217	157.12
296.448	131.12
296.679	89.12
296.909	100.12
297.14	85.12
297.37	104.12
297.601	77.12
297.831	88.12
298.062	84.12
298.292	90.12
298.523	98.12
298.753	105.12
298.984	90.12
299.214	94.12
299.445	97.12
299.675	82.12
299.905	93.12
300.136	96.12
300.366	84.12
300.597	93.12
300.827	96.12
301.057	100.12
301.288	123.12
301.518	110.12
301.748	88.12
301.979	98.12
302.209	92.12
302.439	96.12
302.669	86.12
302.9	80.12
303.13	88.12
303.36	92.12
303.59	94.12
303.82	117.12
304.051	100.12
304.281	83.12
304.511	84.12
304.741	89.12
304.971	89.12
305.201	86.12
305.431	85.12
305.661	84.12
305.891	90.12
306.121	98.12
306.352	104.12
306.582	99.12
306.812	98.12
307.042	81.12
307.272	108.12
307.502	100.12
307.731	98.12
307.961	79.12
308.191	88.12
308.421	99.12
308.651	93.12
308.881	93.12
309.111	96.12
309.341	98.12
309.571	90.12
309.8	96.12
310.03	110.12
310.26	108.12
310.49	124.12
310.72	99.12
310.949	97.12
311.179	116.12
311.409	102.12
311.639	99.12
311.868	94.12
312.098	90.12
312.328	87.12
312.557	109.12
312.787	115.12
313.017	102.12
313.246	105.12
313.476	93.12
313.706	94.12
313.935	92.12
314.165	107.12
314.394	122.12
314.624	105.12
314.853	100.12
315.083	90.12
315.312	101.12
315.542	88.12
315.771	107.12
316.001	85.12
316.23	86.12
316.46	89.12
316.689	93.12
316.919	110.12
317.148	104.12
317.377	114.12
317.607	102.12
317.836	86.12
318.065	108.12
318.295	101.12
318.524	91.12
318.753	94.12
318.983	100.12
319.212	104.12
319.441	106.12
319.67	103.12
319.9	91.12
320.129	91.12
320.358	106.12
320.587	120.12
320.816	119.12
321.046	120.12
321.275	110.12
321.504	88.12
321.733	96.12
321.962	105.12
322.191	89.12
322.42	106.12
322.649	99.12
322.878	115.12
323.108	117.12
323.337	135.12
323.566	146.12
323.795	164.12
324.024	216.12
324.253	442.12
324.482	968.12
324.71	1983.12
324.939	2757.12
325.168	983.12
325.397	288.12
325.626	178.12
325.855	139.12
326.084	130.12
326.313	144.12
326.542	147.12
326.77	266.12
326.999	519.12
327.228	1028.12
327.457	1997.12
327.686	1541.12
327.914	423.12
328.143	232.12
328.372	170.12
328.6	145.12
328.829	140.12
329.058	150.12
329.287	163.12
329.515	122.12
329.744	115.12
329.972	104.12
330.201	131.12
330.43	169.12
330.658	161.12
330.887	194.12
331.115	162.12
331.344	104.12
331.572	111.12
331.801	106.12
332.03	117.12
332.258	107.12
332.486	100.12
332.715	91.12
332.943	92.12
333.172	91.12
333.4	102.12
333.629	104.12
333.857	124.12
334.085	120.12
334.314	130.12
334.542	158.12
334.771	156.12
334.999	121.12
335.227	102.12
335.455	96.12
335.684	85.12
335.912	92.12
336.14	93.12
336.369	107.12
336.597	105.12
336.825	110.12
337.053	104.12
337.281	118.12
337.51	88.12
337.738	103.12
337.966	105.12
338.194	120.12
338.422	101.12
338.65	99.12
338.878	105.12
339.106	97.12
339.334	98.12
339.562	81.12
339.79	89.12
340.018	102.12
340.246	107.12
340.474	102.12
340.702	104.12
340.93	94.12
341.158	89.12
341.386	100.12
341.614	90.12
341.842	96.12
342.07	79.12
342.298	90.12
342.526	95.12
342.754	87.12
342.981	94.12
343.209	82.12
343.437	96.12
343.665	106.12
343.893	94.12
344.12	95.12
344.348	99.12
344.576	95.12
344.804	100.12
345.031	101.12
345.259	103.12
345.487	117.12
345.714	88.12
345.942	98.12
346.17	100.12
346.397	98.12
346.625	97.12
346.853	94.12
347.08	103.12
347.308	97.12
347.535	105.12
347.763	113.12
347.99	93.12
348.218	100.12
348.445	114.12
348.673	109.12
348.9	105.12
349.128	93.12
349.355	82.12
349.583	94.12
349.81	97.12
350.037	108.12
350.265	90.12
350.492	98.12
350.72	96.12
350.947	112.12
351.174	141.12
351.402	127.12
351.629	111.12
351.856	100.12
352.083	114.12
352.311	109.12
352.538	117.12
352.765	121.12
352.992	122.12
353.22	124.12
353.447	113.12
353.674	103.12
353.901	116.12
354.128	98.12
354.355	93.12
354.583	105.12
354.81	97.12
355.037	91.12
355.264	104.12
355.491	92.12
355.718	82.12
355.945	99.12
356.172	98.12
356.399	80.12
356.626	104.12
356.853	104.12
357.08	93.12
357.307	103.12
357.534	76.12
357.761	86.12
357.988	90.12
358.215	103.12
358.441	84.12
358.668	93.12
358.895	91.12
359.122	86.12
359.349	83.12
359.576	94.12
359.802	106.12
360.029	127.12
360.256	136.12
360.483	106.12
360.709	93.12
360.936	100.12
361.163	90.12
361.39	115.12
361.616	106.12
361.843	86.12
362.07	111.12
362.296	103.12
362.523	98.12
362.749	110.12
362.976	71.12
363.203	95.12
363.429	109.12
363.656	92.12
363.882	81.12
364.109	94.12
364.335	98.12
364.562	78.12
364.788	100.12
365.015	88.12
365.241	120.12
365.468	117.12
365.694	112.12
365.92	101.12
366.147	96.12
366.373	92.12
366.599	102.12
366.826	87.12
367.052	92.12
367.278	87.12
367.505	105.12
367.731	116.12
367.957	77.12
368.184	84.12
368.41	105.12
368.636	116.12
368.862	114.12
369.089	119.12
369.315	92.12
369.541	95.12
369.767	90.12
369.993	87.12
370.219	93.12
370.445	88.12
370.672	92.12
370.898	96.12
371.124	86.12
371.35	87.12
371.576	88.12
371.802	91.12
372.028	92.12
372.254	83.12
372.48	98.12
372.706	86.12
372.932	73.12
373.158	75.12
373.384	88.12
373.61	94.12
373.835	102.12
374.061	89.12
374.287	101.12
374.513	80.12
374.739	92.12
374.965	89.12
375.191	91.12
375.416	72.12
375.642	91.12
375.868	99.12
376.094	105.12
376.319	71.12
376.545	85.12
376.771	84.12
376.997	83.12
377.222	102.12
377.448	103.12
377.674	87.12
377.899	93.12
378.125	86.12
378.35	81.12
378.576	86.12
378.802	91.12
379.027	96.12
379.253	103.12
379.478	77.12
379.704	92.12
379.929	98.12
380.155	94.12
380.38	89.12
380.606	98.12
380.831	99.12
381.057	94.12
381.282	96.12
381.507	94.12
381.733	85.12
381.958	88.12
382.184	93.12
382.409	98.12
382.634	96.12
382.86	113.12
383.085	94.12
383.31	107.12
383.535	93.12
383.761	105.12
383.986	105.12
384.211	113.12
384.436	88.12
384.662	100.12
384.887	100.12
385.112	105.12
385.337	102.12
385.562	103.12
385.787	84.12
386.013	118.12
386.238	125.12
386.463	96.12
386.688	116.12
386.913	103.12
387.138	118.12
387.363	88.12
387.588	98.12
387.813	85.12
388.038	90.12
388.263	114.12
388.488	97.12
388.713	90.12
388.938	100.12
389.163	88.12
389.387	92.12
389.612	95.12
389.837	99.12
390.062	96.12
390.287	108.12
390.512	83.12
390.736	96.12
390.961	96.12
391.186	92.12
391.411	82.12
391.636	80.12
391.86	98.12
392.085	76.12
392.31	83.12
392.534	92.12
392.759	81.12
392.984	84.12
393.208	98.12
393.433	85.12
393.658	90.12
393.882	97.12
394.107	97.12
394.331	91.12
394.556	84.12
394.78	70.12
395.005	91.12
395.229	84.12
395.454	81.12
395.678	87.12
395.903	76.12
396.127	87.12
396.352	90.12
396.576	89.12
396.801	100.12
397.025	86.12
397.249	92.12
397.474	92.12
397.698	92.12
397.922	92.12
398.147	94.12
398.371	77.12
398.595	88.12
398.82	86.12
399.044	92.12
399.268	92.12
399.492	88.12
399.717	87.12
399.941	85.12
400.165	102.12
400.389	94.12
400.613	94.12
400.837	92.12
401.062	99.12
401.286	83.12
401.51	81.12
401.734	99.12
401.958	101.12
402.182	128.12
402.406	178.12
402.63	140.12
402.854	114.12
403.078	109.12
403.302	88.12
403.526	91.12
403.75	84.12
403.974	70.12
404.198	100.12
404.422	83.12
404.645	88.12
404.869	86.12
405.093	97.12
405.317	114.12
405.541	101.12
405.765	111.12
405.988	122.12
406.212	186.12
406.436	295.12
406.66	172.12
406.883	110.12
407.107	112.12
407.331	98.12
407.555	104.12
407.778	102.12
408.002	105.12
408.226	90.12
408.449	98.12
408.673	90.12
408.896	96.12
409.12	93.12
409.344	80.12
409.567	83.12
409.791	81.12
410.014	88.12
410.238	90.12
410.461	89.12
410.685	91.12
410.908	95.12
411.132	100.12
411.355	101.12
411.578	84.12
411.802	86.12
412.025	105.12
412.249	93.12
412.472	112.12
412.695	109.12
412.919	92.12
413.142	84.12
413.365	80.12
413.589	86.12
413.812	93.12
414.035	92.12
414.258	95.12
414.482	89.12
414.705	99.12
414.928	93.12
415.151	91.12
415.374	94.12
415.597	94.12
415.821	81.12
416.044	81.12
416.267	88.12
416.49	68.12
416.713	98.12
416.936	96.12
417.159	94.12
417.382	100.12
417.605	85.12
417.828	106.12
418.051	92.12
418.274	82.12
418.497	88.12
418.72	93.12
418.943	98.12
419.166	96.12
419.389	109.12
419.611	85.12
419.834	75.12
420.057	77.12
420.28	91.12
420.503	87.12
420.726	88.12
420.948	86.12
421.171	87.12
421.394	87.12
421.617	73.12
421.839	100.12
422.062	96.12
422.285	93.12
422.507	121.12
422.73	115.12
422.953	100.12
423.175	95.12
423.398	83.12
423.621	77.12
423.843	71.12
424.066	93.12
424.288	116.12
424.511	86.12
424.733	110.12
424.956	125.12
425.178	111.12
425.401	108.12
425.623	103.12
425.846	103.12
426.068	95.12
426.291	107.12
426.513	95.12
426.735	88.12
426.958	91.12
427.18	110.12
427.402	177.12
427.625	212.12
427.847	171.12
428.069	125.12
428.292	101.12
428.514	83.12
428.736	91.12
428.958	73.12
429.181	94.12
429.403	83.12
429.625	95.12
429.847	101.12
430.069	121.12
430.292	97.12
430.514	76.12
430.736	85.12
430.958	83.12
431.18	73.12
431.402	75.12
431.624	81.12
431.846	78.12
432.068	73.12
432.29	84.12
432.512	81.12
432.734	88.12
432.956	87.12
433.178	103.12
433.4	98.12
433.622	88.12
433.844	80.12
434.066	97.12
434.287	93.12
434.509	88.12
434.731	98.12
434.953	86.12
435.175	88.12
435.397	96.12
435.618	89.12
435.84	102.12
436.062	146.12
436.284	146.12
436.505	115.12
436.727	106.12
436.949	106.12
437.17	84.12
437.392	83.12
437.614	87.12
437.835	128.12
438.057	162.12
438.278	139.12
438.5	115.12
438.721	142.12
438.943	119.12
439.165	87.12
439.386	102.12
439.608	105.12
439.829	114.12
440.05	142.12
440.272	198.12
440.493	109.12
440.715	86.12
440.936	81.12
441.158	76.12
441.379	97.12
441.6	112.12
441.822	99.12
442.043	102.12
442.264	129.12
442.486	121.12
442.707	97.12
442.928	112.12
443.149	149.12
443.371	149.12
443.592	126.12
443.813	151.12
444.034	118.12
444.255	98.12
444.476	90.12
444.698	92.12
444.919	83.12
445.14	122.12
445.361	132.12
445.582	148.12
445.803	189.12
446.024	180.12
446.245	175.12
446.466	135.12
446.687	100.12
446.908	89.12
447.129	95.12
447.35	90.12
447.571	97.12
447.792	96.12
448.013	122.12
448.234	125.12
448.455	128.12
448.675	139.12
448.896	158.12
449.117	110.12
449.338	112.12
449.559	149.12
449.779	161.12
450	101.12
450.221	91.12
450.442	93.12
450.662	112.12
450.883	135.12
451.104	123.12
451.324	100.12
451.545	77.12
451.766	81.12
451.986	72.12
452.207	95.12
452.428	82.12
452.648	109.12
452.869	110.12
453.089	128.12
453.31	124.12
453.53	113.12
453.751	84.12
453.971	120.12
454.192	125.12
454.412	110.12
454.633	91.12
454.853	89.12
455.073	81.12
455.294	92.12
455.514	116.12
455.734	92.12
455.955	105.12
456.175	85.12
456.395	72.12
456.616	84.12
456.836	104.12
457.056	76.12
457.276	76.12
457.497	94.12
457.717	90.12
457.937	80.12
458.157	101.12
458.377	105.12
458.598	123.12
458.818	214.12
459.038	226.12
459.258	152.12
459.478	94.12
459.698	85.12
459.918	84.12
460.138	84.12
460.358	84.12
460.578	86.12
460.798	89.12
461.018	84.12
461.238	88.12
461.458	103.12
461.678	72.12
461.898	96.12
462.118	83.12
462.338	68.12
462.558	86.12
462.777	90.12
462.997	98.12
463.217	98.12
463.437	80.12
463.657	88.12
463.876	99.12
464.096	96.12
464.316	97.12
464.536	100.12
464.755	110.12
464.975	116.12
465.195	229.12
465.414	220.12
465.634	106.12
465.854	88.12
466.073	84.12
466.293	86.12
466.512	83.12
466.732	89.12
466.951	81.12
467.171	86.12
467.391	87.12
467.61	112.12
467.829	113.12
468.049	114.12
468.268	110.12
468.488	78.12
468.707	77.12
468.927	81.12
469.146	96.12
469.365	84.12
469.585	103.12
469.804	102.12
470.023	113.12
470.243	120.12
470.462	110.12
470.681	123.12
470.901	91.12
471.12	85.12
471.339	90.12
471.558	97.12
471.777	92.12
471.997	88.12
472.216	112.12
472.435	160.12
472.654	98.12
472.873	93.12
473.092	85.12
473.311	94.12
473.53	88.12
473.749	87.12
473.968	104.12
474.187	121.12
474.406	121.12
474.625	86.12
474.844	97.12
475.063	85.12
475.282	81.12
475.501	81.12
475.72	93.12
475.939	77.12
476.158	93.12
476.377	88.12
476.596	85.12
476.814	100.12
477.033	89.12
477.252	99.12
477.471	80.12
477.69	90.12
477.908	75.12
478.127	91.12
478.346	76.12
478.564	89.12
478.783	103.12
479.002	95.12
479.22	88.12
479.439	115.12
479.658	123.12
479.876	93.12
480.095	91.12
480.313	90.12
480.532	98.12
480.751	93.12
480.969	117.12
481.188	221.12
481.406	169.12
481.624	99.12
481.843	96.12
482.061	85.12
482.28	81.12
482.498	87.12
482.717	107.12
482.935	94.12
483.153	77.12
483.372	87.12
483.59	84.12
483.808	88.12
484.027	79.12
484.245	82.12
484.463	100.12
484.681	105.12
484.9	94.12
485.118	103.12
485.336	105.12
485.554	84.12
485.772	104.12
485.99	113.12
486.209	96.12
486.427	107.12
486.645	110.12
486.863	128.12
487.081	109.12
487.299	90.12
487.517	96.12
487.735	98.12
487.953	85.12
488.171	106.12
488.389	101.12
488.607	115.12
488.825	94.12
489.043	98.12
489.261	89.12
489.479	97.12
489.696	62.12
489.914	79.12
490.132	93.12
490.35	81.12
490.568	102.12
490.786	86.12
491.003	95.12
491.221	99.12
491.439	97.12
491.657	86.12
491.874	72.12
492.092	106.12
492.31	93.12
492.527	93.12
492.745	90.12
492.963	84.12
493.18	92.12
493.398	109.12
493.615	88.12
493.833	90.12
494.05	90.12
494.268	83.12
494.485	80.12
494.703	95.12
494.92	88.12
495.138	82.12
495.355	85.12
495.573	92.12
495.79	88.12
496.008	96.12
496.225	96.12
496.442	92.12
496.66	97.12
496.877	93.12
497.094	87.12
497.312	88.12
497.529	86.12
497.746	88.12
497.963	91.12
498.181	96.12
498.398	102.12
498.615	118.12
498.832	110.12
499.049	85.12
499.267	104.12
499.484	93.12
499.701	92.12
499.918	93.12
500.135	73.12
500.352	80.12
500.569	98.12
500.786	99.12
501.003	94.12
501.22	100.12
501.437	106.12
501.654	105.12
501.871	117.12
502.088	88.12
502.305	84.12
502.522	90.12
502.739	86.12
502.956	90.12
503.172	83.12
503.389	98.12
503.606	125.12
503.823	90.12
504.04	83.12
504.256	96.12
504.473	106.12
504.69	82.12
504.907	106.12
505.123	100.12
505.34	85.12
505.557	90.12
505.773	103.12
505.99	90.12
506.207	86.12
506.423	86.12
506.64	88.12
506.856	86.12
507.073	90.12
507.289	96.12
507.506	100.12
507.722	140.12
507.939	134.12
508.155	105.12
508.372	100.12
508.588	86.12
508.805	89.12
509.021	102.12
509.238	94.12
509.454	97.12
509.67	100.12
509.887	106.12
510.103	115.12
510.319	226.12
510.536	839.12
510.752	2740.12
510.968	727.12
511.184	168.12
511.401	114.12
511.617	103.12
511.833	97.12
512.049	98.12
512.265	78.12
512.481	97.12
512.698	97.12
512.914	92.12
513.13	107.12
513.346	110.12
513.562	97.12
513.778	108.12
513.994	94.12
514.21	117.12
