Data from Circ_1981_H10_HRD10591_00017.txt Node
Date: Wed Jan 03 12:34:24 EST 2024
User: Yrep
Spectrometer: HR+D1059
Trigger mode: 1
Integration Time (sec): 1.000000E-1
Scans to average: 1
Electric dark correction enabled: true
Nonlinearity correction enabled: false
Boxcar width: 0
XAxis mode: Wavelengths
Number of Pixels in Spectrum: 2048
>>>>>Begin Spectral Data<<<<<
223.165	-27.44
223.4	-27.44
223.635	-27.44
223.869	-23.44
224.104	-10.44
224.338	-11.44
224.573	-9.44
224.808	-11.44
225.042	-9.44
225.277	-18.44
225.511	6.56
225.746	-5.44
225.98	2.56
226.215	20.56
226.449	17.56
226.683	14.56
226.918	37.56
227.152	27.56
227.387	37.56
227.621	29.56
227.856	48.56
228.09	53.56
228.324	54.56
228.559	51.56
228.793	67.56
229.027	65.56
229.262	76.56
229.496	93.56
229.73	97.56
229.964	94.56
230.199	76.56
230.433	77.56
230.667	90.56
230.901	91.56
231.136	76.56
231.37	89.56
231.604	80.56
231.838	76.56
232.072	88.56
232.306	76.56
232.541	93.56
232.775	83.56
233.009	69.56
233.243	76.56
233.477	90.56
233.711	95.56
233.945	80.56
234.179	82.56
234.413	79.56
234.647	91.56
234.881	77.56
235.115	72.56
235.349	94.56
235.583	77.56
235.817	83.56
236.051	72.56
236.285	59.56
236.519	66.56
236.753	72.56
236.987	93.56
237.221	83.56
237.455	101.56
237.689	88.56
237.922	83.56
238.156	79.56
238.39	85.56
238.624	94.56
238.858	62.56
239.091	68.56
239.325	75.56
239.559	96.56
239.793	71.56
240.027	91.56
240.26	74.56
240.494	89.56
240.728	81.56
240.961	86.56
241.195	90.56
241.429	88.56
241.662	77.56
241.896	81.56
242.13	85.56
242.363	74.56
242.597	75.56
242.83	71.56
243.064	65.56
243.298	78.56
243.531	78.56
243.765	69.56
243.998	83.56
244.232	81.56
244.465	93.56
244.699	82.56
244.932	59.56
245.166	86.56
245.399	77.56
245.633	86.56
245.866	87.56
246.099	69.56
246.333	106.56
246.566	87.56
246.8	85.56
247.033	73.56
247.266	78.56
247.5	90.56
247.733	87.56
247.966	78.56
248.2	91.56
248.433	88.56
248.666	65.56
248.899	92.56
249.133	97.56
249.366	111.56
249.599	108.56
249.832	93.56
250.066	71.56
250.299	83.56
250.532	81.56
250.765	77.56
250.998	67.56
251.231	78.56
251.465	70.56
251.698	80.56
251.931	83.56
252.164	67.56
252.397	73.56
252.63	83.56
252.863	89.56
253.096	95.56
253.329	97.56
253.562	95.56
253.795	70.56
254.028	88.56
254.261	61.56
254.494	82.56
254.727	82.56
254.96	90.56
255.193	89.56
255.426	77.56
255.659	90.56
255.892	88.56
256.124	96.56
256.357	69.56
256.59	77.56
256.823	86.56
257.056	96.56
257.289	85.56
257.521	91.56
257.754	79.56
257.987	83.56
258.22	79.56
258.452	93.56
258.685	77.56
258.918	73.56
259.151	78.56
259.383	83.56
259.616	91.56
259.849	85.56
260.081	94.56
260.314	83.56
260.547	91.56
260.779	78.56
261.012	91.56
261.244	89.56
261.477	91.56
261.71	99.56
261.942	129.56
262.175	131.56
262.407	98.56
262.64	89.56
262.872	73.56
263.105	89.56
263.337	92.56
263.57	82.56
263.802	92.56
264.035	86.56
264.267	76.56
264.499	75.56
264.732	73.56
264.964	87.56
265.197	85.56
265.429	86.56
265.661	95.56
265.894	82.56
266.126	89.56
266.358	82.56
266.591	84.56
266.823	83.56
267.055	70.56
267.287	77.56
267.52	80.56
267.752	81.56
267.984	84.56
268.216	94.56
268.448	93.56
268.681	75.56
268.913	85.56
269.145	90.56
269.377	95.56
269.609	94.56
269.841	94.56
270.073	77.56
270.306	71.56
270.538	97.56
270.77	73.56
271.002	95.56
271.234	94.56
271.466	94.56
271.698	82.56
271.93	82.56
272.162	99.56
272.394	99.56
272.626	82.56
272.858	72.56
273.09	87.56
273.322	82.56
273.553	90.56
273.785	91.56
274.017	65.56
274.249	88.56
274.481	62.56
274.713	93.56
274.945	87.56
275.176	91.56
275.408	98.56
275.64	85.56
275.872	101.56
276.104	93.56
276.335	89.56
276.567	92.56
276.799	122.56
277.031	106.56
277.262	95.56
277.494	83.56
277.726	89.56
277.957	90.56
278.189	86.56
278.421	85.56
278.652	89.56
278.884	86.56
279.115	77.56
279.347	77.56
279.579	100.56
279.81	83.56
280.042	78.56
280.273	86.56
280.505	75.56
280.736	79.56
280.968	87.56
281.199	85.56
281.431	86.56
281.662	75.56
281.894	84.56
282.125	103.56
282.356	126.56
282.588	153.56
282.819	131.56
283.051	95.56
283.282	92.56
283.513	97.56
283.745	85.56
283.976	88.56
284.207	84.56
284.439	103.56
284.67	97.56
284.901	82.56
285.132	100.56
285.364	91.56
285.595	97.56
285.826	88.56
286.057	86.56
286.288	98.56
286.52	81.56
286.751	90.56
286.982	76.56
287.213	83.56
287.444	77.56
287.675	85.56
287.906	99.56
288.138	87.56
288.369	80.56
288.6	97.56
288.831	90.56
289.062	93.56
289.293	90.56
289.524	85.56
289.755	79.56
289.986	83.56
290.217	91.56
290.448	93.56
290.679	95.56
290.91	93.56
291.141	92.56
291.371	86.56
291.602	71.56
291.833	92.56
292.064	96.56
292.295	84.56
292.526	79.56
292.757	97.56
292.987	84.56
293.218	74.56
293.449	87.56
293.68	97.56
293.91	97.56
294.141	94.56
294.372	90.56
294.603	86.56
294.833	101.56
295.064	70.56
295.295	85.56
295.525	87.56
295.756	101.56
295.987	130.56
296.217	145.56
296.448	150.56
296.679	107.56
296.909	93.56
297.14	92.56
297.37	90.56
297.601	76.56
297.831	105.56
298.062	86.56
298.292	107.56
298.523	92.56
298.753	97.56
298.984	88.56
299.214	88.56
299.445	93.56
299.675	69.56
299.905	95.56
300.136	93.56
300.366	95.56
300.597	77.56
300.827	97.56
301.057	108.56
301.288	109.56
301.518	98.56
301.748	90.56
301.979	108.56
302.209	89.56
302.439	104.56
302.669	106.56
302.9	81.56
303.13	71.56
303.36	112.56
303.59	110.56
303.82	109.56
304.051	94.56
304.281	94.56
304.511	93.56
304.741	93.56
304.971	93.56
305.201	75.56
305.431	103.56
305.661	85.56
305.891	84.56
306.121	109.56
306.352	109.56
306.582	90.56
306.812	97.56
307.042	85.56
307.272	88.56
307.502	94.56
307.731	91.56
307.961	110.56
308.191	90.56
308.421	92.56
308.651	92.56
308.881	87.56
309.111	103.56
309.341	97.56
309.571	100.56
309.8	85.56
310.03	105.56
310.26	113.56
310.49	92.56
310.72	106.56
310.949	120.56
311.179	108.56
311.409	113.56
311.639	96.56
311.868	102.56
312.098	102.56
312.328	95.56
312.557	121.56
312.787	116.56
313.017	126.56
313.246	110.56
313.476	100.56
313.706	103.56
313.935	87.56
314.165	100.56
314.394	124.56
314.624	101.56
314.853	93.56
315.083	97.56
315.312	93.56
315.542	93.56
315.771	94.56
316.001	87.56
316.23	94.56
316.46	108.56
316.689	92.56
316.919	97.56
317.148	113.56
317.377	107.56
317.607	101.56
317.836	99.56
318.065	95.56
318.295	78.56
318.524	89.56
318.753	100.56
318.983	110.56
319.212	106.56
319.441	107.56
319.67	121.56
319.9	94.56
320.129	98.56
320.358	88.56
320.587	114.56
320.816	97.56
321.046	107.56
321.275	98.56
321.504	95.56
321.733	85.56
321.962	106.56
322.191	101.56
322.42	106.56
322.649	113.56
322.878	115.56
323.108	130.56
323.337	137.56
323.566	141.56
323.795	173.56
324.024	233.56
324.253	440.56
324.482	891.56
324.71	1875.56
324.939	2479.56
325.168	922.56
325.397	262.56
325.626	149.56
325.855	134.56
326.084	114.56
326.313	129.56
326.542	150.56
326.77	240.56
326.999	482.56
327.228	999.56
327.457	1791.56
327.686	1425.56
327.914	387.56
328.143	221.56
328.372	191.56
328.6	142.56
328.829	138.56
329.058	172.56
329.287	180.56
329.515	128.56
329.744	118.56
329.972	101.56
330.201	128.56
330.43	175.56
330.658	150.56
330.887	203.56
331.115	165.56
331.344	106.56
331.572	95.56
331.801	104.56
332.03	110.56
332.258	102.56
332.486	109.56
332.715	97.56
332.943	96.56
333.172	107.56
333.4	86.56
333.629	107.56
333.857	123.56
334.085	124.56
334.314	105.56
334.542	156.56
334.771	159.56
334.999	118.56
335.227	93.56
335.455	104.56
335.684	109.56
335.912	112.56
336.14	93.56
336.369	110.56
336.597	106.56
336.825	111.56
337.053	85.56
337.281	90.56
337.51	87.56
337.738	98.56
337.966	111.56
338.194	96.56
338.422	104.56
338.65	94.56
338.878	99.56
339.106	97.56
339.334	91.56
339.562	94.56
339.79	86.56
340.018	91.56
340.246	82.56
340.474	108.56
340.702	93.56
340.93	86.56
341.158	93.56
341.386	108.56
341.614	106.56
341.842	100.56
342.07	75.56
342.298	94.56
342.526	89.56
342.754	101.56
342.981	103.56
343.209	94.56
343.437	114.56
343.665	96.56
343.893	83.56
344.12	91.56
344.348	89.56
344.576	97.56
344.804	93.56
345.031	109.56
345.259	106.56
345.487	99.56
345.714	92.56
345.942	93.56
346.17	89.56
346.397	85.56
346.625	75.56
346.853	111.56
347.08	94.56
347.308	98.56
347.535	98.56
347.763	107.56
347.99	101.56
348.218	106.56
348.445	115.56
348.673	105.56
348.9	96.56
349.128	91.56
349.355	93.56
349.583	95.56
349.81	100.56
350.037	105.56
350.265	91.56
350.492	98.56
350.72	96.56
350.947	105.56
351.174	122.56
351.402	113.56
351.629	102.56
351.856	105.56
352.083	92.56
352.311	125.56
352.538	115.56
352.765	119.56
352.992	122.56
353.22	110.56
353.447	103.56
353.674	97.56
353.901	88.56
354.128	95.56
354.355	83.56
354.583	83.56
354.81	99.56
355.037	102.56
355.264	105.56
355.491	92.56
355.718	88.56
355.945	97.56
356.172	90.56
356.399	86.56
356.626	100.56
356.853	104.56
357.08	104.56
357.307	99.56
357.534	99.56
357.761	92.56
357.988	99.56
358.215	97.56
358.441	95.56
358.668	101.56
358.895	99.56
359.122	79.56
359.349	81.56
359.576	99.56
359.802	106.56
360.029	131.56
360.256	140.56
360.483	106.56
360.709	98.56
360.936	88.56
361.163	99.56
361.39	108.56
361.616	112.56
361.843	90.56
362.07	107.56
362.296	100.56
362.523	87.56
362.749	113.56
362.976	98.56
363.203	99.56
363.429	85.56
363.656	100.56
363.882	89.56
364.109	79.56
364.335	99.56
364.562	83.56
364.788	88.56
365.015	103.56
365.241	116.56
365.468	107.56
365.694	110.56
365.92	97.56
366.147	102.56
366.373	107.56
366.599	104.56
366.826	99.56
367.052	89.56
367.278	86.56
367.505	93.56
367.731	93.56
367.957	94.56
368.184	103.56
368.41	104.56
368.636	130.56
368.862	142.56
369.089	117.56
369.315	116.56
369.541	101.56
369.767	82.56
369.993	85.56
370.219	100.56
370.445	92.56
370.672	88.56
370.898	79.56
371.124	95.56
371.35	99.56
371.576	98.56
371.802	94.56
372.028	83.56
372.254	95.56
372.48	91.56
372.706	83.56
372.932	97.56
373.158	85.56
373.384	89.56
373.61	97.56
373.835	98.56
374.061	86.56
374.287	85.56
374.513	81.56
374.739	81.56
374.965	91.56
375.191	87.56
375.416	100.56
375.642	84.56
375.868	98.56
376.094	102.56
376.319	81.56
376.545	87.56
376.771	87.56
376.997	99.56
377.222	95.56
377.448	87.56
377.674	84.56
377.899	78.56
378.125	76.56
378.35	89.56
378.576	93.56
378.802	92.56
379.027	96.56
379.253	99.56
379.478	102.56
379.704	86.56
379.929	98.56
380.155	93.56
380.38	101.56
380.606	97.56
380.831	101.56
381.057	92.56
381.282	90.56
381.507	109.56
381.733	101.56
381.958	99.56
382.184	97.56
382.409	111.56
382.634	104.56
382.86	103.56
383.085	106.56
383.31	103.56
383.535	106.56
383.761	92.56
383.986	96.56
384.211	98.56
384.436	104.56
384.662	95.56
384.887	111.56
385.112	103.56
385.337	103.56
385.562	106.56
385.787	109.56
386.013	121.56
386.238	121.56
386.463	108.56
386.688	108.56
386.913	119.56
387.138	114.56
387.363	108.56
387.588	121.56
387.813	90.56
388.038	103.56
388.263	111.56
388.488	114.56
388.713	87.56
388.938	99.56
389.163	98.56
389.387	102.56
389.612	93.56
389.837	86.56
390.062	105.56
390.287	92.56
390.512	95.56
390.736	93.56
390.961	97.56
391.186	94.56
391.411	87.56
391.636	69.56
391.86	75.56
392.085	81.56
392.31	93.56
392.534	76.56
392.759	90.56
392.984	97.56
393.208	100.56
393.433	125.56
393.658	94.56
393.882	104.56
394.107	99.56
394.331	87.56
394.556	82.56
394.78	99.56
395.005	95.56
395.229	101.56
395.454	86.56
395.678	81.56
395.903	89.56
396.127	91.56
396.352	83.56
396.576	97.56
396.801	102.56
397.025	112.56
397.249	87.56
397.474	79.56
397.698	93.56
397.922	81.56
398.147	78.56
398.371	78.56
398.595	79.56
398.82	83.56
399.044	90.56
399.268	92.56
399.492	82.56
399.717	84.56
399.941	86.56
400.165	108.56
400.389	89.56
400.613	103.56
400.837	96.56
401.062	91.56
401.286	93.56
401.51	94.56
401.734	88.56
401.958	112.56
402.182	141.56
402.406	174.56
402.63	132.56
402.854	102.56
403.078	99.56
403.302	97.56
403.526	87.56
403.75	103.56
403.974	95.56
404.198	84.56
404.422	87.56
404.645	92.56
404.869	87.56
405.093	103.56
405.317	111.56
405.541	106.56
405.765	113.56
405.988	126.56
406.212	196.56
406.436	262.56
406.66	182.56
406.883	112.56
407.107	105.56
407.331	94.56
407.555	100.56
407.778	102.56
408.002	97.56
408.226	93.56
408.449	87.56
408.673	94.56
408.896	93.56
409.12	99.56
409.344	88.56
409.567	97.56
409.791	76.56
410.014	99.56
410.238	88.56
410.461	92.56
410.685	97.56
410.908	89.56
411.132	97.56
411.355	98.56
411.578	89.56
411.802	87.56
412.025	94.56
412.249	100.56
412.472	87.56
412.695	101.56
412.919	103.56
413.142	83.56
413.365	89.56
413.589	77.56
413.812	94.56
414.035	95.56
414.258	73.56
414.482	91.56
414.705	76.56
414.928	81.56
415.151	90.56
415.374	103.56
415.597	94.56
415.821	89.56
416.044	90.56
416.267	99.56
416.49	86.56
416.713	83.56
416.936	94.56
417.159	103.56
417.382	99.56
417.605	96.56
417.828	99.56
418.051	104.56
418.274	87.56
418.497	93.56
418.72	82.56
418.943	95.56
419.166	74.56
419.389	87.56
419.611	91.56
419.834	97.56
420.057	96.56
420.28	87.56
420.503	98.56
420.726	76.56
420.948	90.56
421.171	101.56
421.394	93.56
421.617	98.56
421.839	85.56
422.062	92.56
422.285	89.56
422.507	121.56
422.73	129.56
422.953	93.56
423.175	90.56
423.398	89.56
423.621	73.56
423.843	78.56
424.066	81.56
424.288	88.56
424.511	102.56
424.733	106.56
424.956	106.56
425.178	113.56
425.401	109.56
425.623	110.56
425.846	91.56
426.068	104.56
426.291	102.56
426.513	91.56
426.735	95.56
426.958	105.56
427.18	116.56
427.402	156.56
427.625	226.56
427.847	165.56
428.069	122.56
428.292	89.56
428.514	79.56
428.736	91.56
428.958	81.56
429.181	81.56
429.403	68.56
429.625	85.56
429.847	100.56
430.069	106.56
430.292	93.56
430.514	87.56
430.736	85.56
430.958	88.56
431.18	77.56
431.402	92.56
431.624	90.56
431.846	94.56
432.068	92.56
432.29	83.56
432.512	99.56
432.734	83.56
432.956	86.56
433.178	108.56
433.4	104.56
433.622	85.56
433.844	115.56
434.066	95.56
434.287	99.56
434.509	83.56
434.731	94.56
434.953	91.56
435.175	81.56
435.397	97.56
435.618	87.56
435.84	108.56
436.062	133.56
436.284	122.56
436.505	108.56
436.727	99.56
436.949	109.56
437.17	84.56
437.392	92.56
437.614	98.56
437.835	130.56
438.057	153.56
438.278	119.56
438.5	103.56
438.721	140.56
438.943	120.56
439.165	93.56
439.386	82.56
439.608	97.56
439.829	108.56
440.05	134.56
440.272	165.56
440.493	117.56
440.715	89.56
440.936	100.56
441.158	94.56
441.379	92.56
441.6	105.56
441.822	111.56
442.043	121.56
442.264	109.56
442.486	120.56
442.707	97.56
442.928	99.56
443.149	153.56
443.371	167.56
443.592	116.56
443.813	127.56
444.034	130.56
444.255	105.56
444.476	94.56
444.698	79.56
444.919	98.56
445.14	135.56
445.361	135.56
445.582	128.56
445.803	182.56
446.024	185.56
446.245	173.56
446.466	129.56
446.687	101.56
446.908	87.56
447.129	86.56
447.35	93.56
447.571	88.56
447.792	97.56
448.013	110.56
448.234	101.56
448.455	114.56
448.675	129.56
448.896	132.56
449.117	93.56
449.338	117.56
449.559	152.56
449.779	131.56
450	97.56
450.221	100.56
450.442	89.56
450.662	102.56
450.883	122.56
451.104	130.56
451.324	115.56
451.545	89.56
451.766	90.56
451.986	90.56
452.207	86.56
452.428	82.56
452.648	98.56
452.869	126.56
453.089	115.56
453.31	126.56
453.53	104.56
453.751	101.56
453.971	97.56
454.192	122.56
454.412	106.56
454.633	91.56
454.853	97.56
455.073	75.56
455.294	83.56
455.514	106.56
455.734	103.56
455.955	89.56
456.175	90.56
456.395	95.56
456.616	88.56
456.836	71.56
457.056	83.56
457.276	87.56
457.497	87.56
457.717	88.56
457.937	94.56
458.157	91.56
458.377	98.56
458.598	123.56
458.818	195.56
459.038	218.56
459.258	142.56
459.478	98.56
459.698	78.56
459.918	99.56
460.138	90.56
460.358	88.56
460.578	89.56
460.798	92.56
461.018	85.56
461.238	83.56
461.458	85.56
461.678	85.56
461.898	73.56
462.118	97.56
462.338	94.56
462.558	100.56
462.777	80.56
462.997	92.56
463.217	97.56
463.437	89.56
463.657	91.56
463.876	90.56
464.096	95.56
464.316	95.56
464.536	88.56
464.755	95.56
464.975	111.56
465.195	220.56
465.414	225.56
465.634	117.56
465.854	100.56
466.073	99.56
466.293	83.56
466.512	100.56
466.732	97.56
466.951	102.56
467.171	93.56
467.391	105.56
467.61	99.56
467.829	119.56
468.049	108.56
468.268	91.56
468.488	84.56
468.707	84.56
468.927	86.56
469.146	92.56
469.365	85.56
469.585	90.56
469.804	106.56
470.023	112.56
470.243	97.56
470.462	106.56
470.681	126.56
470.901	107.56
471.12	70.56
471.339	94.56
471.558	95.56
471.777	90.56
471.997	89.56
472.216	115.56
472.435	138.56
472.654	91.56
472.873	79.56
473.092	95.56
473.311	98.56
473.53	95.56
473.749	73.56
473.968	93.56
474.187	121.56
474.406	110.56
474.625	81.56
474.844	91.56
475.063	85.56
475.282	101.56
475.501	94.56
475.72	97.56
475.939	82.56
476.158	92.56
476.377	85.56
476.596	91.56
476.814	89.56
477.033	103.56
477.252	98.56
477.471	90.56
477.69	101.56
477.908	86.56
478.127	90.56
478.346	72.56
478.564	81.56
478.783	99.56
479.002	101.56
479.22	97.56
479.439	118.56
479.658	127.56
479.876	112.56
480.095	83.56
480.313	102.56
480.532	89.56
480.751	89.56
480.969	115.56
481.188	222.56
481.406	164.56
481.624	91.56
481.843	91.56
482.061	74.56
482.28	97.56
482.498	101.56
482.717	85.56
482.935	91.56
483.153	77.56
483.372	81.56
483.59	82.56
483.808	89.56
484.027	91.56
484.245	81.56
484.463	82.56
484.681	83.56
484.9	99.56
485.118	88.56
485.336	98.56
485.554	103.56
485.772	106.56
485.99	100.56
486.209	98.56
486.427	100.56
486.645	113.56
486.863	115.56
487.081	96.56
487.299	101.56
487.517	90.56
487.735	93.56
487.953	90.56
488.171	95.56
488.389	97.56
488.607	123.56
488.825	87.56
489.043	87.56
489.261	90.56
489.479	110.56
489.696	95.56
489.914	91.56
490.132	75.56
490.35	94.56
490.568	101.56
490.786	89.56
491.003	86.56
491.221	98.56
491.439	92.56
491.657	83.56
491.874	81.56
492.092	84.56
492.31	102.56
492.527	87.56
492.745	90.56
492.963	89.56
493.18	83.56
493.398	98.56
493.615	82.56
493.833	99.56
494.05	93.56
494.268	94.56
494.485	97.56
494.703	92.56
494.92	91.56
495.138	91.56
495.355	98.56
495.573	101.56
495.79	92.56
496.008	100.56
496.225	88.56
496.442	89.56
496.66	99.56
496.877	85.56
497.094	97.56
497.312	90.56
497.529	97.56
497.746	91.56
497.963	101.56
498.181	102.56
498.398	93.56
498.615	113.56
498.832	115.56
499.049	83.56
499.267	98.56
499.484	78.56
499.701	85.56
499.918	97.56
500.135	95.56
500.352	93.56
500.569	83.56
500.786	95.56
501.003	100.56
501.22	79.56
501.437	93.56
501.654	95.56
501.871	122.56
502.088	90.56
502.305	105.56
502.522	96.56
502.739	92.56
502.956	81.56
503.172	95.56
503.389	102.56
503.606	115.56
503.823	108.56
504.04	87.56
504.256	85.56
504.473	79.56
504.69	89.56
504.907	94.56
505.123	99.56
505.34	89.56
505.557	89.56
505.773	95.56
505.99	97.56
506.207	91.56
506.423	74.56
506.64	97.56
506.856	97.56
507.073	97.56
507.289	99.56
507.506	104.56
507.722	126.56
507.939	110.56
508.155	101.56
508.372	99.56
508.588	103.56
508.805	93.56
509.021	93.56
509.238	109.56
509.454	101.56
509.67	103.56
509.887	115.56
510.103	129.56
510.319	241.56
510.536	793.56
510.752	2622.56
510.968	710.56
511.184	157.56
511.401	117.56
511.617	97.56
511.833	88.56
512.049	89.56
512.265	101.56
512.481	95.56
512.698	88.56
512.914	91.56
513.13	101.56
513.346	83.56
513.562	97.56
513.778	96.56
513.994	101.56
514.21	116.56
