Data from Circ_1981_H10_HRD10591_00097.txt Node
Date: Wed Jan 03 12:34:40 EST 2024
User: Yrep
Spectrometer: HR+D1059
Trigger mode: 1
Integration Time (sec): 1.000000E-1
Scans to average: 1
Electric dark correction enabled: true
Nonlinearity correction enabled: false
Boxcar width: 0
XAxis mode: Wavelengths
Number of Pixels in Spectrum: 2048
>>>>>Begin Spectral Data<<<<<
223.165	-19.62
223.4	-19.62
223.635	-19.62
223.869	-20.62
224.104	-21.62
224.338	-12.62
224.573	-10.62
224.808	-14.62
225.042	-12.62
225.277	0.38
225.511	5.38
225.746	4.38
225.98	2.38
226.215	9.38
226.449	20.38
226.683	17.38
226.918	31.38
227.152	21.38
227.387	31.38
227.621	32.38
227.856	44.38
228.09	48.38
228.324	50.38
228.559	55.38
228.793	48.38
229.027	63.38
229.262	56.38
229.496	78.38
229.73	95.38
229.964	83.38
230.199	83.38
230.433	78.38
230.667	90.38
230.901	85.38
231.136	92.38
231.37	89.38
231.604	90.38
231.838	81.38
232.072	87.38
232.306	74.38
232.541	80.38
232.775	79.38
233.009	90.38
233.243	88.38
233.477	66.38
233.711	99.38
233.945	90.38
234.179	88.38
234.413	94.38
234.647	83.38
234.881	83.38
235.115	78.38
235.349	71.38
235.583	76.38
235.817	73.38
236.051	84.38
236.285	75.38
236.519	86.38
236.753	87.38
236.987	83.38
237.221	100.38
237.455	83.38
237.689	75.38
237.922	90.38
238.156	83.38
238.39	70.38
238.624	79.38
238.858	86.38
239.091	90.38
239.325	84.38
239.559	84.38
239.793	71.38
240.027	84.38
240.26	67.38
240.494	90.38
240.728	68.38
240.961	78.38
241.195	86.38
241.429	71.38
241.662	73.38
241.896	70.38
242.13	69.38
242.363	89.38
242.597	81.38
242.83	73.38
243.064	93.38
243.298	76.38
243.531	83.38
243.765	86.38
243.998	75.38
244.232	96.38
244.465	95.38
244.699	102.38
244.932	90.38
245.166	85.38
245.399	90.38
245.633	86.38
245.866	78.38
246.099	87.38
246.333	89.38
246.566	83.38
246.8	71.38
247.033	78.38
247.266	77.38
247.5	88.38
247.733	77.38
247.966	86.38
248.2	85.38
248.433	75.38
248.666	72.38
248.899	79.38
249.133	100.38
249.366	98.38
249.599	100.38
249.832	88.38
250.066	84.38
250.299	84.38
250.532	71.38
250.765	91.38
250.998	83.38
251.231	89.38
251.465	83.38
251.698	79.38
251.931	76.38
252.164	86.38
252.397	80.38
252.63	83.38
252.863	70.38
253.096	89.38
253.329	78.38
253.562	84.38
253.795	89.38
254.028	79.38
254.261	78.38
254.494	80.38
254.727	101.38
254.96	101.38
255.193	92.38
255.426	89.38
255.659	84.38
255.892	98.38
256.124	88.38
256.357	80.38
256.59	78.38
256.823	80.38
257.056	89.38
257.289	93.38
257.521	93.38
257.754	92.38
257.987	75.38
258.22	73.38
258.452	79.38
258.685	92.38
258.918	85.38
259.151	80.38
259.383	81.38
259.616	87.38
259.849	80.38
260.081	71.38
260.314	72.38
260.547	77.38
260.779	87.38
261.012	77.38
261.244	83.38
261.477	95.38
261.71	93.38
261.942	126.38
262.175	139.38
262.407	70.38
262.64	77.38
262.872	89.38
263.105	89.38
263.337	70.38
263.57	93.38
263.802	90.38
264.035	86.38
264.267	90.38
264.499	88.38
264.732	89.38
264.964	85.38
265.197	83.38
265.429	91.38
265.661	81.38
265.894	80.38
266.126	77.38
266.358	88.38
266.591	73.38
266.823	86.38
267.055	93.38
267.287	97.38
267.52	95.38
267.752	76.38
267.984	90.38
268.216	73.38
268.448	78.38
268.681	83.38
268.913	79.38
269.145	71.38
269.377	91.38
269.609	80.38
269.841	92.38
270.073	80.38
270.306	83.38
270.538	79.38
270.77	76.38
271.002	90.38
271.234	78.38
271.466	98.38
271.698	95.38
271.93	101.38
272.162	79.38
272.394	86.38
272.626	92.38
272.858	80.38
273.09	100.38
273.322	79.38
273.553	91.38
273.785	93.38
274.017	96.38
274.249	91.38
274.481	93.38
274.713	81.38
274.945	110.38
275.176	94.38
275.408	84.38
275.64	88.38
275.872	99.38
276.104	93.38
276.335	92.38
276.567	103.38
276.799	131.38
277.031	110.38
277.262	91.38
277.494	89.38
277.726	104.38
277.957	79.38
278.189	104.38
278.421	80.38
278.652	77.38
278.884	100.38
279.115	76.38
279.347	90.38
279.579	100.38
279.81	77.38
280.042	90.38
280.273	96.38
280.505	93.38
280.736	78.38
280.968	84.38
281.199	94.38
281.431	82.38
281.662	96.38
281.894	89.38
282.125	107.38
282.356	128.38
282.588	155.38
282.819	128.38
283.051	90.38
283.282	91.38
283.513	94.38
283.745	97.38
283.976	94.38
284.207	91.38
284.439	90.38
284.67	92.38
284.901	85.38
285.132	77.38
285.364	67.38
285.595	91.38
285.826	91.38
286.057	89.38
286.288	97.38
286.52	104.38
286.751	78.38
286.982	96.38
287.213	90.38
287.444	98.38
287.675	95.38
287.906	89.38
288.138	80.38
288.369	88.38
288.6	103.38
288.831	89.38
289.062	75.38
289.293	88.38
289.524	81.38
289.755	91.38
289.986	89.38
290.217	101.38
290.448	86.38
290.679	86.38
290.91	92.38
291.141	89.38
291.371	106.38
291.602	88.38
291.833	83.38
292.064	101.38
292.295	86.38
292.526	90.38
292.757	99.38
292.987	108.38
293.218	84.38
293.449	75.38
293.68	89.38
293.91	87.38
294.141	92.38
294.372	102.38
294.603	87.38
294.833	94.38
295.064	91.38
295.295	87.38
295.525	104.38
295.756	117.38
295.987	131.38
296.217	150.38
296.448	136.38
296.679	106.38
296.909	93.38
297.14	95.38
297.37	84.38
297.601	95.38
297.831	86.38
298.062	97.38
298.292	98.38
298.523	72.38
298.753	99.38
298.984	102.38
299.214	93.38
299.445	103.38
299.675	94.38
299.905	104.38
300.136	96.38
300.366	85.38
300.597	92.38
300.827	107.38
301.057	113.38
301.288	113.38
301.518	108.38
301.748	79.38
301.979	109.38
302.209	98.38
302.439	80.38
302.669	103.38
302.9	105.38
303.13	104.38
303.36	101.38
303.59	99.38
303.82	112.38
304.051	105.38
304.281	99.38
304.511	93.38
304.741	109.38
304.971	93.38
305.201	95.38
305.431	99.38
305.661	93.38
305.891	101.38
306.121	102.38
306.352	105.38
306.582	117.38
306.812	103.38
307.042	87.38
307.272	87.38
307.502	105.38
307.731	97.38
307.961	87.38
308.191	84.38
308.421	96.38
308.651	86.38
308.881	98.38
309.111	91.38
309.341	94.38
309.571	120.38
309.8	103.38
310.03	96.38
310.26	128.38
310.49	107.38
310.72	103.38
310.949	123.38
311.179	114.38
311.409	95.38
311.639	108.38
311.868	108.38
312.098	95.38
312.328	101.38
312.557	91.38
312.787	108.38
313.017	131.38
313.246	106.38
313.476	97.38
313.706	105.38
313.935	111.38
314.165	110.38
314.394	104.38
314.624	109.38
314.853	99.38
315.083	99.38
315.312	108.38
315.542	81.38
315.771	105.38
316.001	109.38
316.23	83.38
316.46	92.38
316.689	96.38
316.919	100.38
317.148	93.38
317.377	101.38
317.607	99.38
317.836	105.38
318.065	86.38
318.295	98.38
318.524	97.38
318.753	103.38
318.983	105.38
319.212	109.38
319.441	119.38
319.67	113.38
319.9	101.38
320.129	109.38
320.358	104.38
320.587	106.38
320.816	115.38
321.046	119.38
321.275	104.38
321.504	103.38
321.733	96.38
321.962	102.38
322.191	124.38
322.42	111.38
322.649	123.38
322.878	112.38
323.108	115.38
323.337	147.38
323.566	144.38
323.795	187.38
324.024	238.38
324.253	405.38
324.482	897.38
324.71	1857.38
324.939	2470.38
325.168	934.38
325.397	280.38
325.626	175.38
325.855	139.38
326.084	133.38
326.313	134.38
326.542	164.38
326.77	259.38
326.999	488.38
327.228	951.38
327.457	1774.38
327.686	1422.38
327.914	389.38
328.143	222.38
328.372	177.38
328.6	158.38
328.829	149.38
329.058	165.38
329.287	147.38
329.515	111.38
329.744	112.38
329.972	109.38
330.201	128.38
330.43	162.38
330.658	145.38
330.887	200.38
331.115	152.38
331.344	120.38
331.572	104.38
331.801	126.38
332.03	111.38
332.258	105.38
332.486	105.38
332.715	100.38
332.943	103.38
333.172	112.38
333.4	90.38
333.629	120.38
333.857	123.38
334.085	113.38
334.314	153.38
334.542	174.38
334.771	155.38
334.999	119.38
335.227	115.38
335.455	105.38
335.684	87.38
335.912	100.38
336.14	109.38
336.369	97.38
336.597	120.38
336.825	107.38
337.053	101.38
337.281	102.38
337.51	86.38
337.738	98.38
337.966	85.38
338.194	108.38
338.422	97.38
338.65	111.38
338.878	112.38
339.106	98.38
339.334	98.38
339.562	98.38
339.79	98.38
340.018	88.38
340.246	86.38
340.474	92.38
340.702	110.38
340.93	91.38
341.158	102.38
341.386	109.38
341.614	109.38
341.842	94.38
342.07	84.38
342.298	97.38
342.526	103.38
342.754	92.38
342.981	98.38
343.209	93.38
343.437	96.38
343.665	102.38
343.893	109.38
344.12	101.38
344.348	105.38
344.576	103.38
344.804	89.38
345.031	101.38
345.259	110.38
345.487	99.38
345.714	113.38
345.942	93.38
346.17	96.38
346.397	79.38
346.625	110.38
346.853	97.38
347.08	97.38
347.308	106.38
347.535	112.38
347.763	98.38
347.99	111.38
348.218	126.38
348.445	114.38
348.673	102.38
348.9	103.38
349.128	99.38
349.355	96.38
349.583	87.38
349.81	102.38
350.037	97.38
350.265	105.38
350.492	96.38
350.72	97.38
350.947	111.38
351.174	123.38
351.402	123.38
351.629	112.38
351.856	99.38
352.083	103.38
352.311	118.38
352.538	119.38
352.765	132.38
352.992	135.38
353.22	126.38
353.447	121.38
353.674	117.38
353.901	94.38
354.128	88.38
354.355	95.38
354.583	102.38
354.81	99.38
355.037	81.38
355.264	107.38
355.491	87.38
355.718	92.38
355.945	93.38
356.172	87.38
356.399	112.38
356.626	82.38
356.853	85.38
357.08	91.38
357.307	88.38
357.534	97.38
357.761	87.38
357.988	92.38
358.215	88.38
358.441	93.38
358.668	86.38
358.895	89.38
359.122	75.38
359.349	96.38
359.576	90.38
359.802	101.38
360.029	126.38
360.256	118.38
360.483	111.38
360.709	104.38
360.936	99.38
361.163	97.38
361.39	107.38
361.616	104.38
361.843	98.38
362.07	108.38
362.296	102.38
362.523	104.38
362.749	93.38
362.976	94.38
363.203	97.38
363.429	81.38
363.656	100.38
363.882	90.38
364.109	94.38
364.335	110.38
364.562	103.38
364.788	104.38
365.015	110.38
365.241	102.38
365.468	119.38
365.694	127.38
365.92	104.38
366.147	94.38
366.373	107.38
366.599	101.38
366.826	104.38
367.052	82.38
367.278	85.38
367.505	95.38
367.731	91.38
367.957	88.38
368.184	106.38
368.41	112.38
368.636	133.38
368.862	125.38
369.089	132.38
369.315	107.38
369.541	104.38
369.767	92.38
369.993	98.38
370.219	106.38
370.445	87.38
370.672	103.38
370.898	99.38
371.124	80.38
371.35	85.38
371.576	74.38
371.802	77.38
372.028	92.38
372.254	85.38
372.48	91.38
372.706	87.38
372.932	95.38
373.158	95.38
373.384	91.38
373.61	91.38
373.835	103.38
374.061	92.38
374.287	96.38
374.513	106.38
374.739	86.38
374.965	87.38
375.191	92.38
375.416	103.38
375.642	98.38
375.868	99.38
376.094	89.38
376.319	87.38
376.545	95.38
376.771	88.38
376.997	88.38
377.222	96.38
377.448	93.38
377.674	88.38
377.899	105.38
378.125	81.38
378.35	89.38
378.576	89.38
378.802	107.38
379.027	109.38
379.253	101.38
379.478	88.38
379.704	89.38
379.929	80.38
380.155	97.38
380.38	94.38
380.606	107.38
380.831	93.38
381.057	103.38
381.282	87.38
381.507	91.38
381.733	92.38
381.958	102.38
382.184	100.38
382.409	110.38
382.634	103.38
382.86	99.38
383.085	94.38
383.31	102.38
383.535	98.38
383.761	90.38
383.986	103.38
384.211	94.38
384.436	94.38
384.662	90.38
384.887	95.38
385.112	94.38
385.337	108.38
385.562	92.38
385.787	98.38
386.013	107.38
386.238	120.38
386.463	98.38
386.688	113.38
386.913	113.38
387.138	100.38
387.363	93.38
387.588	110.38
387.813	93.38
388.038	100.38
388.263	96.38
388.488	101.38
388.713	107.38
388.938	104.38
389.163	106.38
389.387	96.38
389.612	100.38
389.837	88.38
390.062	91.38
390.287	83.38
390.512	90.38
390.736	95.38
390.961	92.38
391.186	91.38
391.411	83.38
391.636	93.38
391.86	96.38
392.085	95.38
392.31	79.38
392.534	88.38
392.759	89.38
392.984	96.38
393.208	100.38
393.433	100.38
393.658	100.38
393.882	87.38
394.107	80.38
394.331	97.38
394.556	98.38
394.78	93.38
395.005	97.38
395.229	91.38
395.454	79.38
395.678	89.38
395.903	97.38
396.127	88.38
396.352	78.38
396.576	89.38
396.801	93.38
397.025	85.38
397.249	84.38
397.474	78.38
397.698	87.38
397.922	95.38
398.147	90.38
398.371	95.38
398.595	83.38
398.82	97.38
399.044	91.38
399.268	88.38
399.492	91.38
399.717	74.38
399.941	98.38
400.165	102.38
400.389	98.38
400.613	95.38
400.837	87.38
401.062	106.38
401.286	97.38
401.51	101.38
401.734	97.38
401.958	112.38
402.182	148.38
402.406	185.38
402.63	140.38
402.854	100.38
403.078	89.38
403.302	96.38
403.526	91.38
403.75	84.38
403.974	96.38
404.198	93.38
404.422	103.38
404.645	91.38
404.869	90.38
405.093	111.38
405.317	101.38
405.541	103.38
405.765	105.38
405.988	137.38
406.212	209.38
406.436	299.38
406.66	200.38
406.883	123.38
407.107	105.38
407.331	109.38
407.555	105.38
407.778	98.38
408.002	97.38
408.226	91.38
408.449	77.38
408.673	93.38
408.896	87.38
409.12	110.38
409.344	98.38
409.567	96.38
409.791	96.38
410.014	97.38
410.238	99.38
410.461	107.38
410.685	115.38
410.908	115.38
411.132	100.38
411.355	88.38
411.578	94.38
411.802	103.38
412.025	76.38
412.249	96.38
412.472	100.38
412.695	106.38
412.919	91.38
413.142	89.38
413.365	92.38
413.589	89.38
413.812	100.38
414.035	110.38
414.258	100.38
414.482	99.38
414.705	104.38
414.928	87.38
415.151	90.38
415.374	95.38
415.597	78.38
415.821	83.38
416.044	101.38
416.267	85.38
416.49	96.38
416.713	89.38
416.936	101.38
417.159	87.38
417.382	92.38
417.605	109.38
417.828	93.38
418.051	89.38
418.274	89.38
418.497	83.38
418.72	85.38
418.943	104.38
419.166	110.38
419.389	99.38
419.611	85.38
419.834	99.38
420.057	94.38
420.28	79.38
420.503	86.38
420.726	94.38
420.948	96.38
421.171	104.38
421.394	96.38
421.617	104.38
421.839	72.38
422.062	96.38
422.285	100.38
422.507	114.38
422.73	107.38
422.953	92.38
423.175	89.38
423.398	95.38
423.621	73.38
423.843	77.38
424.066	86.38
424.288	85.38
424.511	80.38
424.733	102.38
424.956	103.38
425.178	118.38
425.401	105.38
425.623	110.38
425.846	101.38
426.068	92.38
426.291	94.38
426.513	91.38
426.735	101.38
426.958	105.38
427.18	109.38
427.402	157.38
427.625	215.38
427.847	159.38
428.069	130.38
428.292	87.38
428.514	88.38
428.736	88.38
428.958	96.38
429.181	95.38
429.403	94.38
429.625	79.38
429.847	93.38
430.069	109.38
430.292	102.38
430.514	79.38
430.736	83.38
430.958	100.38
431.18	90.38
431.402	103.38
431.624	76.38
431.846	83.38
432.068	79.38
432.29	96.38
432.512	78.38
432.734	86.38
432.956	97.38
433.178	108.38
433.4	99.38
433.622	92.38
433.844	91.38
434.066	88.38
434.287	78.38
434.509	92.38
434.731	103.38
434.953	67.38
435.175	93.38
435.397	90.38
435.618	103.38
435.84	117.38
436.062	136.38
436.284	119.38
436.505	106.38
436.727	106.38
436.949	100.38
437.17	83.38
437.392	86.38
437.614	90.38
437.835	116.38
438.057	142.38
438.278	130.38
438.5	109.38
438.721	125.38
438.943	100.38
439.165	104.38
439.386	88.38
439.608	92.38
439.829	94.38
440.05	134.38
440.272	171.38
440.493	106.38
440.715	94.38
440.936	82.38
441.158	99.38
441.379	98.38
441.6	104.38
441.822	105.38
442.043	115.38
442.264	103.38
442.486	99.38
442.707	103.38
442.928	140.38
443.149	147.38
443.371	163.38
443.592	118.38
443.813	133.38
444.034	120.38
444.255	96.38
444.476	95.38
444.698	85.38
444.919	99.38
445.14	119.38
445.361	136.38
445.582	115.38
445.803	146.38
446.024	156.38
446.245	148.38
446.466	113.38
446.687	96.38
446.908	85.38
447.129	88.38
447.35	90.38
447.571	96.38
447.792	83.38
448.013	98.38
448.234	116.38
448.455	98.38
448.675	122.38
448.896	121.38
449.117	112.38
449.338	101.38
449.559	135.38
449.779	155.38
450	110.38
450.221	88.38
450.442	92.38
450.662	103.38
450.883	116.38
451.104	128.38
451.324	118.38
451.545	87.38
451.766	86.38
451.986	76.38
452.207	92.38
452.428	92.38
452.648	111.38
452.869	127.38
453.089	119.38
453.31	135.38
453.53	104.38
453.751	96.38
453.971	111.38
454.192	143.38
454.412	87.38
454.633	93.38
454.853	78.38
455.073	89.38
455.294	94.38
455.514	104.38
455.734	94.38
455.955	75.38
456.175	76.38
456.395	83.38
456.616	72.38
456.836	103.38
457.056	86.38
457.276	89.38
457.497	85.38
457.717	83.38
457.937	83.38
458.157	101.38
458.377	95.38
458.598	124.38
458.818	203.38
459.038	206.38
459.258	119.38
459.478	95.38
459.698	97.38
459.918	92.38
460.138	89.38
460.358	95.38
460.578	89.38
460.798	92.38
461.018	104.38
461.238	80.38
461.458	100.38
461.678	100.38
461.898	73.38
462.118	83.38
462.338	93.38
462.558	93.38
462.777	76.38
462.997	95.38
463.217	79.38
463.437	78.38
463.657	87.38
463.876	85.38
464.096	81.38
464.316	105.38
464.536	78.38
464.755	104.38
464.975	124.38
465.195	215.38
465.414	242.38
465.634	111.38
465.854	97.38
466.073	93.38
466.293	73.38
466.512	78.38
466.732	88.38
466.951	85.38
467.171	84.38
467.391	109.38
467.61	115.38
467.829	118.38
468.049	113.38
468.268	119.38
468.488	86.38
468.707	94.38
468.927	92.38
469.146	79.38
469.365	96.38
469.585	102.38
469.804	110.38
470.023	104.38
470.243	101.38
470.462	102.38
470.681	111.38
470.901	99.38
471.12	98.38
471.339	114.38
471.558	87.38
471.777	74.38
471.997	102.38
472.216	121.38
472.435	165.38
472.654	97.38
472.873	102.38
473.092	104.38
473.311	94.38
473.53	95.38
473.749	88.38
473.968	91.38
474.187	120.38
474.406	101.38
474.625	79.38
474.844	73.38
475.063	100.38
475.282	95.38
475.501	87.38
475.72	91.38
475.939	99.38
476.158	89.38
476.377	85.38
476.596	81.38
476.814	116.38
477.033	105.38
477.252	90.38
477.471	87.38
477.69	83.38
477.908	86.38
478.127	90.38
478.346	87.38
478.564	106.38
478.783	101.38
479.002	105.38
479.22	104.38
479.439	111.38
479.658	111.38
479.876	95.38
480.095	96.38
480.313	87.38
480.532	101.38
480.751	99.38
480.969	121.38
481.188	224.38
481.406	174.38
481.624	111.38
481.843	95.38
482.061	103.38
482.28	78.38
482.498	75.38
482.717	88.38
482.935	87.38
483.153	89.38
483.372	95.38
483.59	97.38
483.808	84.38
484.027	83.38
484.245	100.38
484.463	94.38
484.681	103.38
484.9	89.38
485.118	103.38
485.336	100.38
485.554	105.38
485.772	97.38
485.99	108.38
486.209	108.38
486.427	110.38
486.645	106.38
486.863	125.38
487.081	113.38
487.299	100.38
487.517	104.38
487.735	95.38
487.953	90.38
488.171	101.38
488.389	94.38
488.607	112.38
488.825	81.38
489.043	111.38
489.261	104.38
489.479	89.38
489.696	78.38
489.914	88.38
490.132	92.38
490.35	85.38
490.568	92.38
490.786	101.38
491.003	97.38
491.221	92.38
491.439	93.38
491.657	73.38
491.874	102.38
492.092	89.38
492.31	92.38
492.527	94.38
492.745	94.38
492.963	107.38
493.18	92.38
493.398	99.38
493.615	95.38
493.833	96.38
494.05	86.38
494.268	89.38
494.485	75.38
494.703	86.38
494.92	94.38
495.138	94.38
495.355	104.38
495.573	88.38
495.79	99.38
496.008	104.38
496.225	100.38
496.442	90.38
496.66	87.38
496.877	76.38
497.094	85.38
497.312	86.38
497.529	93.38
497.746	97.38
497.963	85.38
498.181	92.38
498.398	84.38
498.615	112.38
498.832	110.38
499.049	86.38
499.267	83.38
499.484	81.38
499.701	94.38
499.918	90.38
500.135	89.38
500.352	92.38
500.569	93.38
500.786	79.38
501.003	102.38
501.22	91.38
501.437	88.38
501.654	106.38
501.871	116.38
502.088	85.38
502.305	98.38
502.522	96.38
502.739	83.38
502.956	92.38
503.172	96.38
503.389	110.38
503.606	121.38
503.823	106.38
504.04	91.38
504.256	111.38
504.473	104.38
504.69	92.38
504.907	88.38
505.123	96.38
505.34	104.38
505.557	83.38
505.773	97.38
505.99	77.38
506.207	89.38
506.423	95.38
506.64	80.38
506.856	76.38
507.073	87.38
507.289	95.38
507.506	99.38
507.722	127.38
507.939	140.38
508.155	103.38
508.372	96.38
508.588	90.38
508.805	87.38
509.021	107.38
509.238	99.38
509.454	104.38
509.67	106.38
509.887	106.38
510.103	132.38
510.319	237.38
510.536	876.38
510.752	3051.38
510.968	803.38
511.184	181.38
511.401	104.38
511.617	105.38
511.833	102.38
512.049	102.38
512.265	101.38
512.481	92.38
512.698	77.38
512.914	101.38
513.13	99.38
