Data from Circ_1981_H10_HRD10591_00023.txt Node
Date: Wed Jan 03 12:34:25 EST 2024
User: Yrep
Spectrometer: HR+D1059
Trigger mode: 1
Integration Time (sec): 1.000000E-1
Scans to average: 1
Electric dark correction enabled: true
Nonlinearity correction enabled: false
Boxcar width: 0
XAxis mode: Wavelengths
Number of Pixels in Spectrum: 2048
>>>>>Begin Spectral Data<<<<<
223.165	-7.06
223.4	-7.06
223.635	-7.06
223.869	-29.06
224.104	-24.06
224.338	-14.06
224.573	-0.06
224.808	-16.06
225.042	-14.06
225.277	-6.06
225.511	-9.06
225.746	-8.06
225.98	13.94
226.215	30.94
226.449	16.94
226.683	8.94
226.918	29.94
227.152	26.94
227.387	41.94
227.621	33.94
227.856	43.94
228.09	32.94
228.324	49.94
228.559	52.94
228.793	70.94
229.027	56.94
229.262	60.94
229.496	85.94
229.73	98.94
229.964	83.94
230.199	73.94
230.433	67.94
230.667	81.94
230.901	83.94
231.136	74.94
231.37	58.94
231.604	72.94
231.838	79.94
232.072	85.94
232.306	63.94
232.541	79.94
232.775	63.94
233.009	75.94
233.243	86.94
233.477	82.94
233.711	74.94
233.945	82.94
234.179	72.94
234.413	69.94
234.647	85.94
234.881	77.94
235.115	76.94
235.349	84.94
235.583	73.94
235.817	77.94
236.051	69.94
236.285	76.94
236.519	64.94
236.753	92.94
236.987	94.94
237.221	89.94
237.455	102.94
237.689	66.94
237.922	86.94
238.156	90.94
238.39	88.94
238.624	75.94
238.858	87.94
239.091	68.94
239.325	82.94
239.559	75.94
239.793	86.94
240.027	86.94
240.26	85.94
240.494	90.94
240.728	71.94
240.961	74.94
241.195	69.94
241.429	78.94
241.662	84.94
241.896	86.94
242.13	76.94
242.363	76.94
242.597	76.94
242.83	85.94
243.064	78.94
243.298	68.94
243.531	74.94
243.765	92.94
243.998	76.94
244.232	77.94
244.465	88.94
244.699	56.94
244.932	82.94
245.166	66.94
245.399	73.94
245.633	84.94
245.866	86.94
246.099	75.94
246.333	92.94
246.566	79.94
246.8	91.94
247.033	79.94
247.266	71.94
247.5	73.94
247.733	84.94
247.966	78.94
248.2	84.94
248.433	80.94
248.666	64.94
248.899	97.94
249.133	86.94
249.366	106.94
249.599	91.94
249.832	83.94
250.066	72.94
250.299	82.94
250.532	80.94
250.765	84.94
250.998	84.94
251.231	78.94
251.465	88.94
251.698	86.94
251.931	74.94
252.164	71.94
252.397	85.94
252.63	80.94
252.863	73.94
253.096	88.94
253.329	79.94
253.562	75.94
253.795	89.94
254.028	86.94
254.261	79.94
254.494	86.94
254.727	92.94
254.96	89.94
255.193	82.94
255.426	77.94
255.659	76.94
255.892	91.94
256.124	72.94
256.357	77.94
256.59	92.94
256.823	84.94
257.056	87.94
257.289	64.94
257.521	93.94
257.754	84.94
257.987	90.94
258.22	74.94
258.452	91.94
258.685	86.94
258.918	102.94
259.151	87.94
259.383	86.94
259.616	90.94
259.849	80.94
260.081	90.94
260.314	82.94
260.547	82.94
260.779	72.94
261.012	91.94
261.244	102.94
261.477	82.94
261.71	100.94
261.942	117.94
262.175	120.94
262.407	101.94
262.64	83.94
262.872	83.94
263.105	86.94
263.337	86.94
263.57	92.94
263.802	90.94
264.035	80.94
264.267	93.94
264.499	86.94
264.732	86.94
264.964	86.94
265.197	92.94
265.429	90.94
265.661	85.94
265.894	72.94
266.126	87.94
266.358	90.94
266.591	84.94
266.823	87.94
267.055	85.94
267.287	83.94
267.52	88.94
267.752	82.94
267.984	95.94
268.216	92.94
268.448	80.94
268.681	78.94
268.913	79.94
269.145	84.94
269.377	80.94
269.609	79.94
269.841	78.94
270.073	83.94
270.306	92.94
270.538	88.94
270.77	89.94
271.002	75.94
271.234	86.94
271.466	72.94
271.698	79.94
271.93	85.94
272.162	97.94
272.394	95.94
272.626	78.94
272.858	97.94
273.09	78.94
273.322	77.94
273.553	74.94
273.785	86.94
274.017	89.94
274.249	90.94
274.481	77.94
274.713	99.94
274.945	92.94
275.176	84.94
275.408	94.94
275.64	71.94
275.872	93.94
276.104	102.94
276.335	86.94
276.567	95.94
276.799	106.94
277.031	98.94
277.262	89.94
277.494	78.94
277.726	86.94
277.957	91.94
278.189	88.94
278.421	86.94
278.652	84.94
278.884	94.94
279.115	99.94
279.347	100.94
279.579	95.94
279.81	98.94
280.042	82.94
280.273	93.94
280.505	84.94
280.736	78.94
280.968	75.94
281.199	89.94
281.431	81.94
281.662	84.94
281.894	79.94
282.125	97.94
282.356	115.94
282.588	137.94
282.819	112.94
283.051	95.94
283.282	91.94
283.513	94.94
283.745	99.94
283.976	78.94
284.207	86.94
284.439	82.94
284.67	90.94
284.901	93.94
285.132	101.94
285.364	106.94
285.595	88.94
285.826	90.94
286.057	95.94
286.288	93.94
286.52	90.94
286.751	98.94
286.982	81.94
287.213	108.94
287.444	98.94
287.675	106.94
287.906	94.94
288.138	96.94
288.369	102.94
288.6	102.94
288.831	98.94
289.062	98.94
289.293	87.94
289.524	80.94
289.755	71.94
289.986	82.94
290.217	86.94
290.448	105.94
290.679	97.94
290.91	92.94
291.141	93.94
291.371	88.94
291.602	80.94
291.833	86.94
292.064	88.94
292.295	87.94
292.526	82.94
292.757	93.94
292.987	88.94
293.218	89.94
293.449	98.94
293.68	96.94
293.91	83.94
294.141	100.94
294.372	99.94
294.603	100.94
294.833	91.94
295.064	83.94
295.295	102.94
295.525	102.94
295.756	112.94
295.987	125.94
296.217	152.94
296.448	124.94
296.679	113.94
296.909	91.94
297.14	87.94
297.37	90.94
297.601	84.94
297.831	102.94
298.062	82.94
298.292	90.94
298.523	93.94
298.753	89.94
298.984	89.94
299.214	96.94
299.445	99.94
299.675	103.94
299.905	93.94
300.136	87.94
300.366	83.94
300.597	105.94
300.827	93.94
301.057	97.94
301.288	109.94
301.518	91.94
301.748	86.94
301.979	96.94
302.209	93.94
302.439	98.94
302.669	94.94
302.9	86.94
303.13	87.94
303.36	94.94
303.59	102.94
303.82	109.94
304.051	87.94
304.281	97.94
304.511	80.94
304.741	87.94
304.971	77.94
305.201	86.94
305.431	84.94
305.661	98.94
305.891	94.94
306.121	102.94
306.352	119.94
306.582	111.94
306.812	120.94
307.042	112.94
307.272	103.94
307.502	94.94
307.731	98.94
307.961	82.94
308.191	99.94
308.421	90.94
308.651	101.94
308.881	82.94
309.111	94.94
309.341	104.94
309.571	99.94
309.8	106.94
310.03	111.94
310.26	112.94
310.49	90.94
310.72	109.94
310.949	119.94
311.179	111.94
311.409	100.94
311.639	101.94
311.868	100.94
312.098	102.94
312.328	98.94
312.557	124.94
312.787	117.94
313.017	113.94
313.246	95.94
313.476	102.94
313.706	82.94
313.935	100.94
314.165	118.94
314.394	114.94
314.624	108.94
314.853	96.94
315.083	110.94
315.312	106.94
315.542	89.94
315.771	98.94
316.001	82.94
316.23	93.94
316.46	88.94
316.689	96.94
316.919	86.94
317.148	95.94
317.377	99.94
317.607	104.94
317.836	100.94
318.065	86.94
318.295	102.94
318.524	91.94
318.753	99.94
318.983	97.94
319.212	109.94
319.441	111.94
319.67	111.94
319.9	93.94
320.129	100.94
320.358	83.94
320.587	100.94
320.816	104.94
321.046	102.94
321.275	109.94
321.504	106.94
321.733	94.94
321.962	99.94
322.191	102.94
322.42	106.94
322.649	149.94
322.878	118.94
323.108	123.94
323.337	132.94
323.566	152.94
323.795	158.94
324.024	239.94
324.253	498.94
324.482	1040.94
324.71	2216.94
324.939	3100.94
325.168	1086.94
325.397	296.94
325.626	159.94
325.855	137.94
326.084	152.94
326.313	151.94
326.542	173.94
326.77	263.94
326.999	566.94
327.228	1183.94
327.457	2282.94
327.686	1814.94
327.914	458.94
328.143	251.94
328.372	176.94
328.6	136.94
328.829	128.94
329.058	143.94
329.287	144.94
329.515	112.94
329.744	109.94
329.972	108.94
330.201	113.94
330.43	146.94
330.658	147.94
330.887	186.94
331.115	146.94
331.344	99.94
331.572	104.94
331.801	106.94
332.03	112.94
332.258	106.94
332.486	100.94
332.715	93.94
332.943	106.94
333.172	95.94
333.4	108.94
333.629	111.94
333.857	115.94
334.085	99.94
334.314	121.94
334.542	149.94
334.771	127.94
334.999	103.94
335.227	100.94
335.455	112.94
335.684	92.94
335.912	90.94
336.14	106.94
336.369	98.94
336.597	104.94
336.825	105.94
337.053	104.94
337.281	122.94
337.51	99.94
337.738	101.94
337.966	97.94
338.194	104.94
338.422	99.94
338.65	99.94
338.878	102.94
339.106	104.94
339.334	86.94
339.562	95.94
339.79	87.94
340.018	88.94
340.246	102.94
340.474	93.94
340.702	95.94
340.93	81.94
341.158	86.94
341.386	107.94
341.614	99.94
341.842	96.94
342.07	87.94
342.298	98.94
342.526	98.94
342.754	87.94
342.981	99.94
343.209	79.94
343.437	110.94
343.665	83.94
343.893	90.94
344.12	88.94
344.348	87.94
344.576	90.94
344.804	106.94
345.031	96.94
345.259	114.94
345.487	93.94
345.714	79.94
345.942	111.94
346.17	91.94
346.397	93.94
346.625	82.94
346.853	100.94
347.08	102.94
347.308	91.94
347.535	95.94
347.763	98.94
347.99	98.94
348.218	109.94
348.445	120.94
348.673	105.94
348.9	107.94
349.128	96.94
349.355	98.94
349.583	98.94
349.81	88.94
350.037	104.94
350.265	116.94
350.492	106.94
350.72	115.94
350.947	111.94
351.174	105.94
351.402	115.94
351.629	107.94
351.856	94.94
352.083	109.94
352.311	105.94
352.538	115.94
352.765	110.94
352.992	117.94
353.22	112.94
353.447	108.94
353.674	110.94
353.901	89.94
354.128	88.94
354.355	104.94
354.583	94.94
354.81	97.94
355.037	80.94
355.264	90.94
355.491	109.94
355.718	98.94
355.945	98.94
356.172	97.94
356.399	83.94
356.626	94.94
356.853	88.94
357.08	92.94
357.307	95.94
357.534	87.94
357.761	88.94
357.988	98.94
358.215	105.94
358.441	108.94
358.668	98.94
358.895	95.94
359.122	84.94
359.349	106.94
359.576	89.94
359.802	118.94
360.029	133.94
360.256	137.94
360.483	106.94
360.709	106.94
360.936	88.94
361.163	103.94
361.39	85.94
361.616	95.94
361.843	107.94
362.07	92.94
362.296	106.94
362.523	108.94
362.749	100.94
362.976	83.94
363.203	96.94
363.429	85.94
363.656	95.94
363.882	97.94
364.109	96.94
364.335	90.94
364.562	83.94
364.788	96.94
365.015	91.94
365.241	117.94
365.468	122.94
365.694	114.94
365.92	98.94
366.147	99.94
366.373	87.94
366.599	92.94
366.826	94.94
367.052	83.94
367.278	94.94
367.505	91.94
367.731	91.94
367.957	95.94
368.184	89.94
368.41	100.94
368.636	102.94
368.862	110.94
369.089	112.94
369.315	105.94
369.541	85.94
369.767	99.94
369.993	93.94
370.219	94.94
370.445	90.94
370.672	94.94
370.898	78.94
371.124	98.94
371.35	82.94
371.576	95.94
371.802	84.94
372.028	86.94
372.254	98.94
372.48	92.94
372.706	95.94
372.932	86.94
373.158	95.94
373.384	95.94
373.61	100.94
373.835	95.94
374.061	81.94
374.287	87.94
374.513	90.94
374.739	90.94
374.965	79.94
375.191	95.94
375.416	109.94
375.642	119.94
375.868	103.94
376.094	87.94
376.319	95.94
376.545	88.94
376.771	84.94
376.997	96.94
377.222	89.94
377.448	88.94
377.674	80.94
377.899	89.94
378.125	80.94
378.35	94.94
378.576	83.94
378.802	96.94
379.027	96.94
379.253	94.94
379.478	104.94
379.704	96.94
379.929	90.94
380.155	104.94
380.38	87.94
380.606	104.94
380.831	96.94
381.057	96.94
381.282	104.94
381.507	104.94
381.733	90.94
381.958	102.94
382.184	92.94
382.409	94.94
382.634	110.94
382.86	97.94
383.085	96.94
383.31	100.94
383.535	103.94
383.761	95.94
383.986	100.94
384.211	85.94
384.436	101.94
384.662	110.94
384.887	108.94
385.112	111.94
385.337	115.94
385.562	107.94
385.787	101.94
386.013	125.94
386.238	133.94
386.463	105.94
386.688	106.94
386.913	94.94
387.138	109.94
387.363	112.94
387.588	105.94
387.813	94.94
388.038	96.94
388.263	111.94
388.488	106.94
388.713	98.94
388.938	88.94
389.163	97.94
389.387	105.94
389.612	98.94
389.837	97.94
390.062	103.94
390.287	85.94
390.512	79.94
390.736	96.94
390.961	84.94
391.186	95.94
391.411	104.94
391.636	96.94
391.86	76.94
392.085	97.94
392.31	93.94
392.534	98.94
392.759	94.94
392.984	90.94
393.208	93.94
393.433	111.94
393.658	113.94
393.882	86.94
394.107	92.94
394.331	86.94
394.556	85.94
394.78	86.94
395.005	93.94
395.229	82.94
395.454	81.94
395.678	82.94
395.903	92.94
396.127	94.94
396.352	90.94
396.576	93.94
396.801	92.94
397.025	90.94
397.249	86.94
397.474	96.94
397.698	109.94
397.922	78.94
398.147	86.94
398.371	84.94
398.595	95.94
398.82	92.94
399.044	98.94
399.268	77.94
399.492	91.94
399.717	79.94
399.941	76.94
400.165	101.94
400.389	87.94
400.613	87.94
400.837	99.94
401.062	83.94
401.286	73.94
401.51	86.94
401.734	90.94
401.958	98.94
402.182	120.94
402.406	168.94
402.63	132.94
402.854	100.94
403.078	91.94
403.302	94.94
403.526	91.94
403.75	95.94
403.974	100.94
404.198	78.94
404.422	87.94
404.645	100.94
404.869	79.94
405.093	98.94
405.317	97.94
405.541	99.94
405.765	101.94
405.988	130.94
406.212	178.94
406.436	227.94
406.66	166.94
406.883	101.94
407.107	114.94
407.331	111.94
407.555	101.94
407.778	107.94
408.002	90.94
408.226	85.94
408.449	82.94
408.673	75.94
408.896	88.94
409.12	103.94
409.344	104.94
409.567	78.94
409.791	94.94
410.014	106.94
410.238	99.94
410.461	99.94
410.685	99.94
410.908	105.94
411.132	105.94
411.355	103.94
411.578	99.94
411.802	89.94
412.025	86.94
412.249	79.94
412.472	93.94
412.695	104.94
412.919	113.94
413.142	95.94
413.365	98.94
413.589	85.94
413.812	94.94
414.035	83.94
414.258	86.94
414.482	86.94
414.705	94.94
414.928	100.94
415.151	98.94
415.374	99.94
415.597	91.94
415.821	85.94
416.044	95.94
416.267	92.94
416.49	94.94
416.713	102.94
416.936	103.94
417.159	100.94
417.382	95.94
417.605	85.94
417.828	88.94
418.051	100.94
418.274	92.94
418.497	104.94
418.72	94.94
418.943	88.94
419.166	78.94
419.389	108.94
419.611	100.94
419.834	89.94
420.057	83.94
420.28	89.94
420.503	78.94
420.726	87.94
420.948	88.94
421.171	107.94
421.394	105.94
421.617	87.94
421.839	88.94
422.062	75.94
422.285	101.94
422.507	105.94
422.73	123.94
422.953	103.94
423.175	104.94
423.398	93.94
423.621	96.94
423.843	101.94
424.066	74.94
424.288	79.94
424.511	95.94
424.733	115.94
424.956	121.94
425.178	104.94
425.401	112.94
425.623	118.94
425.846	110.94
426.068	90.94
426.291	99.94
426.513	102.94
426.735	98.94
426.958	98.94
427.18	108.94
427.402	179.94
427.625	216.94
427.847	143.94
428.069	134.94
428.292	113.94
428.514	87.94
428.736	98.94
428.958	86.94
429.181	89.94
429.403	87.94
429.625	95.94
429.847	96.94
430.069	110.94
430.292	101.94
430.514	95.94
430.736	92.94
430.958	79.94
431.18	79.94
431.402	84.94
431.624	82.94
431.846	77.94
432.068	83.94
432.29	90.94
432.512	79.94
432.734	86.94
432.956	95.94
433.178	111.94
433.4	106.94
433.622	103.94
433.844	71.94
434.066	95.94
434.287	85.94
434.509	99.94
434.731	80.94
434.953	95.94
435.175	85.94
435.397	87.94
435.618	87.94
435.84	116.94
436.062	154.94
436.284	126.94
436.505	108.94
436.727	100.94
436.949	93.94
437.17	100.94
437.392	88.94
437.614	98.94
437.835	112.94
438.057	136.94
438.278	126.94
438.5	108.94
438.721	135.94
438.943	112.94
439.165	98.94
439.386	91.94
439.608	86.94
439.829	96.94
440.05	142.94
440.272	178.94
440.493	109.94
440.715	90.94
440.936	94.94
441.158	100.94
441.379	99.94
441.6	94.94
441.822	101.94
442.043	102.94
442.264	120.94
442.486	104.94
442.707	98.94
442.928	119.94
443.149	166.94
443.371	166.94
443.592	127.94
443.813	122.94
444.034	121.94
444.255	102.94
444.476	81.94
444.698	83.94
444.919	93.94
445.14	115.94
445.361	129.94
445.582	135.94
445.803	181.94
446.024	166.94
446.245	158.94
446.466	130.94
446.687	103.94
446.908	94.94
447.129	80.94
447.35	101.94
447.571	87.94
447.792	100.94
448.013	111.94
448.234	113.94
448.455	105.94
448.675	128.94
448.896	135.94
449.117	113.94
449.338	118.94
449.559	164.94
449.779	166.94
450	106.94
450.221	98.94
450.442	99.94
450.662	86.94
450.883	116.94
451.104	102.94
451.324	85.94
451.545	102.94
451.766	92.94
451.986	90.94
452.207	112.94
452.428	94.94
452.648	103.94
452.869	114.94
453.089	100.94
453.31	115.94
453.53	95.94
453.751	86.94
453.971	95.94
454.192	121.94
454.412	104.94
454.633	98.94
454.853	90.94
455.073	85.94
455.294	91.94
455.514	131.94
455.734	97.94
455.955	96.94
456.175	84.94
456.395	83.94
456.616	87.94
456.836	86.94
457.056	99.94
457.276	78.94
457.497	86.94
457.717	95.94
457.937	90.94
458.157	99.94
458.377	99.94
458.598	120.94
458.818	178.94
459.038	186.94
459.258	131.94
459.478	87.94
459.698	82.94
459.918	97.94
460.138	91.94
460.358	83.94
460.578	90.94
460.798	82.94
461.018	91.94
461.238	90.94
461.458	84.94
461.678	93.94
461.898	87.94
462.118	80.94
462.338	86.94
462.558	82.94
462.777	82.94
462.997	88.94
463.217	64.94
463.437	84.94
463.657	85.94
463.876	94.94
464.096	90.94
464.316	96.94
464.536	100.94
464.755	94.94
464.975	103.94
465.195	196.94
465.414	176.94
465.634	92.94
465.854	95.94
466.073	95.94
466.293	90.94
466.512	92.94
466.732	86.94
466.951	89.94
467.171	96.94
467.391	84.94
467.61	105.94
467.829	109.94
468.049	115.94
468.268	110.94
468.488	93.94
468.707	85.94
468.927	89.94
469.146	76.94
469.365	82.94
469.585	84.94
469.804	89.94
470.023	88.94
470.243	100.94
470.462	102.94
470.681	108.94
470.901	93.94
471.12	100.94
471.339	90.94
471.558	79.94
471.777	88.94
471.997	90.94
472.216	121.94
472.435	151.94
472.654	106.94
472.873	95.94
473.092	88.94
473.311	77.94
473.53	75.94
473.749	86.94
473.968	100.94
474.187	121.94
474.406	104.94
474.625	91.94
474.844	98.94
475.063	95.94
475.282	103.94
475.501	100.94
475.72	101.94
475.939	91.94
476.158	84.94
476.377	95.94
476.596	96.94
476.814	100.94
477.033	86.94
477.252	91.94
477.471	102.94
477.69	98.94
477.908	87.94
478.127	95.94
478.346	86.94
478.564	88.94
478.783	89.94
479.002	106.94
479.22	87.94
479.439	106.94
479.658	115.94
479.876	98.94
480.095	99.94
480.313	104.94
480.532	89.94
480.751	98.94
480.969	124.94
481.188	225.94
481.406	177.94
481.624	113.94
481.843	100.94
482.061	88.94
482.28	95.94
482.498	81.94
482.717	83.94
482.935	95.94
483.153	88.94
483.372	84.94
483.59	90.94
483.808	88.94
484.027	87.94
484.245	101.94
484.463	107.94
484.681	93.94
484.9	94.94
485.118	93.94
485.336	94.94
485.554	102.94
485.772	108.94
485.99	116.94
486.209	101.94
486.427	110.94
486.645	112.94
486.863	108.94
487.081	109.94
487.299	96.94
487.517	109.94
487.735	102.94
487.953	94.94
488.171	102.94
488.389	87.94
488.607	107.94
488.825	101.94
489.043	88.94
489.261	101.94
489.479	99.94
489.696	97.94
489.914	99.94
490.132	79.94
490.35	75.94
490.568	85.94
490.786	102.94
491.003	86.94
491.221	98.94
491.439	91.94
491.657	103.94
491.874	78.94
492.092	86.94
492.31	91.94
492.527	90.94
492.745	86.94
492.963	95.94
493.18	93.94
493.398	105.94
493.615	95.94
493.833	88.94
494.05	92.94
494.268	78.94
494.485	98.94
494.703	89.94
494.92	108.94
495.138	93.94
495.355	95.94
495.573	87.94
495.79	92.94
496.008	104.94
496.225	85.94
496.442	90.94
496.66	93.94
496.877	87.94
497.094	88.94
497.312	79.94
497.529	76.94
497.746	102.94
497.963	86.94
498.181	97.94
498.398	92.94
498.615	116.94
498.832	110.94
499.049	83.94
499.267	92.94
499.484	98.94
499.701	79.94
499.918	84.94
500.135	83.94
500.352	96.94
500.569	97.94
500.786	86.94
501.003	86.94
501.22	90.94
501.437	102.94
501.654	92.94
501.871	118.94
502.088	102.94
502.305	78.94
502.522	92.94
502.739	102.94
502.956	98.94
503.172	86.94
503.389	103.94
503.606	111.94
503.823	89.94
504.04	95.94
504.256	89.94
504.473	93.94
504.69	97.94
504.907	88.94
505.123	91.94
505.34	84.94
505.557	80.94
505.773	90.94
505.99	92.94
506.207	89.94
506.423	86.94
506.64	93.94
506.856	94.94
507.073	89.94
507.289	94.94
507.506	92.94
507.722	128.94
507.939	123.94
508.155	86.94
508.372	103.94
508.588	107.94
508.805	92.94
509.021	100.94
509.238	98.94
509.454	92.94
509.67	90.94
509.887	105.94
510.103	136.94
510.319	216.94
510.536	745.94
510.752	2413.94
510.968	666.94
511.184	160.94
511.401	124.94
511.617	115.94
511.833	93.94
512.049	99.94
512.265	94.94
512.481	98.94
512.698	92.94
512.914	99.94
513.13	77.94
513.346	93.94
513.562	101.94
513.778	112.94
513.994	90.94
