Data from Circ_1981_H10_HRD10591_00012.txt Node
Date: Wed Jan 03 12:34:23 EST 2024
User: Yrep
Spectrometer: HR+D1059
Trigger mode: 1
Integration Time (sec): 1.000000E-1
Scans to average: 1
Electric dark correction enabled: true
Nonlinearity correction enabled: false
Boxcar width: 0
XAxis mode: Wavelengths
Number of Pixels in Spectrum: 2048
>>>>>Begin Spectral Data<<<<<
223.165	-7.56
223.4	-7.56
223.635	-7.56
223.869	-24.56
224.104	-22.56
224.338	-20.56
224.573	-9.56
224.808	-7.56
225.042	-7.56
225.277	8.44
225.511	-6.56
225.746	3.44
225.98	1.44
226.215	13.44
226.449	11.44
226.683	24.44
226.918	23.44
227.152	20.44
227.387	26.44
227.621	31.44
227.856	48.44
228.09	45.44
228.324	47.44
228.559	57.44
228.793	64.44
229.027	73.44
229.262	61.44
229.496	70.44
229.73	85.44
229.964	80.44
230.199	73.44
230.433	82.44
230.667	77.44
230.901	71.44
231.136	77.44
231.37	83.44
231.604	72.44
231.838	84.44
232.072	82.44
232.306	66.44
232.541	83.44
232.775	69.44
233.009	97.44
233.243	92.44
233.477	64.44
233.711	76.44
233.945	80.44
234.179	65.44
234.413	83.44
234.647	82.44
234.881	73.44
235.115	76.44
235.349	90.44
235.583	71.44
235.817	74.44
236.051	86.44
236.285	70.44
236.519	86.44
236.753	75.44
236.987	89.44
237.221	76.44
237.455	88.44
237.689	89.44
237.922	69.44
238.156	69.44
238.39	79.44
238.624	74.44
238.858	71.44
239.091	88.44
239.325	72.44
239.559	87.44
239.793	71.44
240.027	78.44
240.26	58.44
240.494	77.44
240.728	75.44
240.961	78.44
241.195	83.44
241.429	81.44
241.662	74.44
241.896	81.44
242.13	83.44
242.363	91.44
242.597	79.44
242.83	77.44
243.064	74.44
243.298	73.44
243.531	78.44
243.765	88.44
243.998	68.44
244.232	62.44
244.465	90.44
244.699	79.44
244.932	70.44
245.166	73.44
245.399	87.44
245.633	77.44
245.866	71.44
246.099	58.44
246.333	79.44
246.566	75.44
246.8	67.44
247.033	78.44
247.266	60.44
247.5	83.44
247.733	74.44
247.966	82.44
248.2	83.44
248.433	87.44
248.666	76.44
248.899	77.44
249.133	82.44
249.366	95.44
249.599	99.44
249.832	92.44
250.066	84.44
250.299	81.44
250.532	74.44
250.765	75.44
250.998	79.44
251.231	79.44
251.465	75.44
251.698	84.44
251.931	80.44
252.164	72.44
252.397	78.44
252.63	57.44
252.863	71.44
253.096	78.44
253.329	75.44
253.562	84.44
253.795	89.44
254.028	72.44
254.261	74.44
254.494	69.44
254.727	85.44
254.96	71.44
255.193	70.44
255.426	85.44
255.659	70.44
255.892	89.44
256.124	82.44
256.357	74.44
256.59	82.44
256.823	60.44
257.056	83.44
257.289	78.44
257.521	80.44
257.754	89.44
257.987	84.44
258.22	71.44
258.452	67.44
258.685	81.44
258.918	74.44
259.151	89.44
259.383	81.44
259.616	80.44
259.849	90.44
260.081	92.44
260.314	75.44
260.547	76.44
260.779	70.44
261.012	68.44
261.244	71.44
261.477	88.44
261.71	100.44
261.942	120.44
262.175	131.44
262.407	98.44
262.64	83.44
262.872	72.44
263.105	88.44
263.337	84.44
263.57	84.44
263.802	91.44
264.035	81.44
264.267	87.44
264.499	90.44
264.732	90.44
264.964	84.44
265.197	92.44
265.429	78.44
265.661	60.44
265.894	82.44
266.126	86.44
266.358	79.44
266.591	82.44
266.823	101.44
267.055	65.44
267.287	79.44
267.52	85.44
267.752	84.44
267.984	82.44
268.216	71.44
268.448	93.44
268.681	81.44
268.913	91.44
269.145	91.44
269.377	90.44
269.609	81.44
269.841	89.44
270.073	86.44
270.306	81.44
270.538	90.44
270.77	73.44
271.002	80.44
271.234	84.44
271.466	88.44
271.698	82.44
271.93	86.44
272.162	86.44
272.394	86.44
272.626	93.44
272.858	91.44
273.09	88.44
273.322	78.44
273.553	83.44
273.785	81.44
274.017	72.44
274.249	90.44
274.481	82.44
274.713	90.44
274.945	92.44
275.176	86.44
275.408	82.44
275.64	81.44
275.872	80.44
276.104	95.44
276.335	84.44
276.567	90.44
276.799	126.44
277.031	106.44
277.262	89.44
277.494	90.44
277.726	87.44
277.957	81.44
278.189	100.44
278.421	88.44
278.652	81.44
278.884	96.44
279.115	81.44
279.347	62.44
279.579	79.44
279.81	78.44
280.042	80.44
280.273	87.44
280.505	90.44
280.736	88.44
280.968	83.44
281.199	70.44
281.431	83.44
281.662	76.44
281.894	82.44
282.125	94.44
282.356	114.44
282.588	138.44
282.819	110.44
283.051	83.44
283.282	83.44
283.513	86.44
283.745	72.44
283.976	82.44
284.207	95.44
284.439	85.44
284.67	102.44
284.901	89.44
285.132	71.44
285.364	83.44
285.595	91.44
285.826	75.44
286.057	85.44
286.288	88.44
286.52	88.44
286.751	93.44
286.982	92.44
287.213	87.44
287.444	84.44
287.675	83.44
287.906	90.44
288.138	103.44
288.369	90.44
288.6	74.44
288.831	86.44
289.062	80.44
289.293	97.44
289.524	82.44
289.755	82.44
289.986	84.44
290.217	87.44
290.448	82.44
290.679	87.44
290.91	79.44
291.141	90.44
291.371	82.44
291.602	66.44
291.833	86.44
292.064	92.44
292.295	80.44
292.526	94.44
292.757	85.44
292.987	82.44
293.218	88.44
293.449	92.44
293.68	90.44
293.91	69.44
294.141	82.44
294.372	88.44
294.603	81.44
294.833	83.44
295.064	91.44
295.295	84.44
295.525	93.44
295.756	104.44
295.987	99.44
296.217	143.44
296.448	133.44
296.679	101.44
296.909	87.44
297.14	85.44
297.37	102.44
297.601	95.44
297.831	89.44
298.062	84.44
298.292	98.44
298.523	92.44
298.753	79.44
298.984	85.44
299.214	85.44
299.445	85.44
299.675	84.44
299.905	100.44
300.136	102.44
300.366	87.44
300.597	98.44
300.827	93.44
301.057	97.44
301.288	120.44
301.518	104.44
301.748	92.44
301.979	105.44
302.209	99.44
302.439	107.44
302.669	95.44
302.9	85.44
303.13	90.44
303.36	106.44
303.59	108.44
303.82	111.44
304.051	98.44
304.281	90.44
304.511	102.44
304.741	98.44
304.971	94.44
305.201	90.44
305.431	88.44
305.661	92.44
305.891	91.44
306.121	100.44
306.352	105.44
306.582	113.44
306.812	93.44
307.042	93.44
307.272	91.44
307.502	98.44
307.731	87.44
307.961	83.44
308.191	100.44
308.421	93.44
308.651	90.44
308.881	90.44
309.111	97.44
309.341	81.44
309.571	106.44
309.8	91.44
310.03	94.44
310.26	97.44
310.49	95.44
310.72	96.44
310.949	126.44
311.179	108.44
311.409	73.44
311.639	79.44
311.868	97.44
312.098	95.44
312.328	106.44
312.557	108.44
312.787	116.44
313.017	123.44
313.246	111.44
313.476	95.44
313.706	98.44
313.935	106.44
314.165	91.44
314.394	112.44
314.624	102.44
314.853	96.44
315.083	98.44
315.312	113.44
315.542	91.44
315.771	98.44
316.001	98.44
316.23	88.44
316.46	88.44
316.689	112.44
316.919	103.44
317.148	87.44
317.377	100.44
317.607	112.44
317.836	86.44
318.065	81.44
318.295	82.44
318.524	89.44
318.753	82.44
318.983	109.44
319.212	108.44
319.441	112.44
319.67	111.44
319.9	100.44
320.129	101.44
320.358	98.44
320.587	104.44
320.816	103.44
321.046	105.44
321.275	100.44
321.504	90.44
321.733	99.44
321.962	91.44
322.191	106.44
322.42	102.44
322.649	103.44
322.878	124.44
323.108	132.44
323.337	128.44
323.566	127.44
323.795	151.44
324.024	199.44
324.253	438.44
324.482	864.44
324.71	1853.44
324.939	2522.44
325.168	920.44
325.397	272.44
325.626	145.44
325.855	142.44
326.084	115.44
326.313	137.44
326.542	148.44
326.77	243.44
326.999	455.44
327.228	935.44
327.457	1768.44
327.686	1449.44
327.914	388.44
328.143	238.44
328.372	182.44
328.6	138.44
328.829	133.44
329.058	157.44
329.287	156.44
329.515	120.44
329.744	101.44
329.972	100.44
330.201	113.44
330.43	155.44
330.658	146.44
330.887	172.44
331.115	131.44
331.344	104.44
331.572	102.44
331.801	106.44
332.03	114.44
332.258	92.44
332.486	96.44
332.715	106.44
332.943	94.44
333.172	112.44
333.4	105.44
333.629	106.44
333.857	124.44
334.085	126.44
334.314	120.44
334.542	152.44
334.771	143.44
334.999	121.44
335.227	90.44
335.455	88.44
335.684	100.44
335.912	102.44
336.14	105.44
336.369	89.44
336.597	101.44
336.825	98.44
337.053	84.44
337.281	84.44
337.51	94.44
337.738	91.44
337.966	103.44
338.194	88.44
338.422	94.44
338.65	94.44
338.878	108.44
339.106	91.44
339.334	96.44
339.562	102.44
339.79	78.44
340.018	76.44
340.246	98.44
340.474	95.44
340.702	92.44
340.93	94.44
341.158	91.44
341.386	99.44
341.614	104.44
341.842	94.44
342.07	99.44
342.298	98.44
342.526	97.44
342.754	71.44
342.981	75.44
343.209	76.44
343.437	91.44
343.665	83.44
343.893	93.44
344.12	93.44
344.348	88.44
344.576	84.44
344.804	90.44
345.031	94.44
345.259	116.44
345.487	94.44
345.714	97.44
345.942	97.44
346.17	87.44
346.397	94.44
346.625	83.44
346.853	96.44
347.08	96.44
347.308	106.44
347.535	100.44
347.763	99.44
347.99	94.44
348.218	106.44
348.445	116.44
348.673	120.44
348.9	78.44
349.128	91.44
349.355	95.44
349.583	90.44
349.81	105.44
350.037	96.44
350.265	86.44
350.492	96.44
350.72	89.44
350.947	102.44
351.174	103.44
351.402	115.44
351.629	98.44
351.856	94.44
352.083	113.44
352.311	114.44
352.538	121.44
352.765	117.44
352.992	111.44
353.22	113.44
353.447	100.44
353.674	106.44
353.901	101.44
354.128	94.44
354.355	86.44
354.583	107.44
354.81	99.44
355.037	97.44
355.264	89.44
355.491	94.44
355.718	91.44
355.945	75.44
356.172	97.44
356.399	86.44
356.626	97.44
356.853	89.44
357.08	92.44
357.307	96.44
357.534	101.44
357.761	99.44
357.988	99.44
358.215	86.44
358.441	80.44
358.668	89.44
358.895	91.44
359.122	102.44
359.349	103.44
359.576	81.44
359.802	92.44
360.029	128.44
360.256	123.44
360.483	96.44
360.709	90.44
360.936	99.44
361.163	94.44
361.39	105.44
361.616	104.44
361.843	93.44
362.07	96.44
362.296	95.44
362.523	93.44
362.749	90.44
362.976	94.44
363.203	91.44
363.429	87.44
363.656	97.44
363.882	86.44
364.109	85.44
364.335	94.44
364.562	84.44
364.788	89.44
365.015	100.44
365.241	99.44
365.468	94.44
365.694	121.44
365.92	102.44
366.147	100.44
366.373	84.44
366.599	86.44
366.826	79.44
367.052	99.44
367.278	87.44
367.505	88.44
367.731	93.44
367.957	86.44
368.184	101.44
368.41	103.44
368.636	101.44
368.862	123.44
369.089	115.44
369.315	86.44
369.541	101.44
369.767	89.44
369.993	95.44
370.219	96.44
370.445	88.44
370.672	82.44
370.898	82.44
371.124	81.44
371.35	88.44
371.576	83.44
371.802	85.44
372.028	78.44
372.254	83.44
372.48	91.44
372.706	84.44
372.932	102.44
373.158	97.44
373.384	90.44
373.61	93.44
373.835	100.44
374.061	94.44
374.287	84.44
374.513	88.44
374.739	88.44
374.965	90.44
375.191	84.44
375.416	91.44
375.642	95.44
375.868	95.44
376.094	89.44
376.319	84.44
376.545	88.44
376.771	84.44
376.997	76.44
377.222	90.44
377.448	82.44
377.674	90.44
377.899	96.44
378.125	84.44
378.35	81.44
378.576	80.44
378.802	79.44
379.027	85.44
379.253	89.44
379.478	94.44
379.704	86.44
379.929	99.44
380.155	94.44
380.38	104.44
380.606	86.44
380.831	97.44
381.057	81.44
381.282	101.44
381.507	103.44
381.733	96.44
381.958	80.44
382.184	104.44
382.409	106.44
382.634	100.44
382.86	90.44
383.085	91.44
383.31	93.44
383.535	98.44
383.761	100.44
383.986	110.44
384.211	98.44
384.436	87.44
384.662	104.44
384.887	115.44
385.112	104.44
385.337	120.44
385.562	115.44
385.787	105.44
386.013	115.44
386.238	119.44
386.463	113.44
386.688	106.44
386.913	102.44
387.138	92.44
387.363	108.44
387.588	101.44
387.813	116.44
388.038	110.44
388.263	110.44
388.488	112.44
388.713	101.44
388.938	98.44
389.163	103.44
389.387	95.44
389.612	94.44
389.837	81.44
390.062	80.44
390.287	102.44
390.512	86.44
390.736	88.44
390.961	76.44
391.186	88.44
391.411	87.44
391.636	82.44
391.86	87.44
392.085	88.44
392.31	73.44
392.534	86.44
392.759	97.44
392.984	84.44
393.208	88.44
393.433	111.44
393.658	101.44
393.882	85.44
394.107	79.44
394.331	72.44
394.556	79.44
394.78	91.44
395.005	86.44
395.229	78.44
395.454	87.44
395.678	82.44
395.903	96.44
396.127	89.44
396.352	96.44
396.576	95.44
396.801	89.44
397.025	111.44
397.249	94.44
397.474	81.44
397.698	82.44
397.922	85.44
398.147	84.44
398.371	94.44
398.595	88.44
398.82	90.44
399.044	90.44
399.268	87.44
399.492	86.44
399.717	84.44
399.941	92.44
400.165	99.44
400.389	94.44
400.613	87.44
400.837	80.44
401.062	96.44
401.286	87.44
401.51	90.44
401.734	96.44
401.958	104.44
402.182	138.44
402.406	190.44
402.63	124.44
402.854	96.44
403.078	99.44
403.302	87.44
403.526	89.44
403.75	80.44
403.974	90.44
404.198	86.44
404.422	91.44
404.645	73.44
404.869	88.44
405.093	103.44
405.317	111.44
405.541	114.44
405.765	110.44
405.988	134.44
406.212	186.44
406.436	293.44
406.66	187.44
406.883	120.44
407.107	113.44
407.331	97.44
407.555	119.44
407.778	91.44
408.002	98.44
408.226	92.44
408.449	86.44
408.673	83.44
408.896	89.44
409.12	82.44
409.344	94.44
409.567	78.44
409.791	88.44
410.014	99.44
410.238	96.44
410.461	94.44
410.685	79.44
410.908	109.44
411.132	108.44
411.355	100.44
411.578	92.44
411.802	75.44
412.025	76.44
412.249	89.44
412.472	80.44
412.695	92.44
412.919	86.44
413.142	97.44
413.365	92.44
413.589	77.44
413.812	85.44
414.035	90.44
414.258	82.44
414.482	104.44
414.705	96.44
414.928	86.44
415.151	100.44
415.374	86.44
415.597	67.44
415.821	80.44
416.044	90.44
416.267	100.44
416.49	91.44
416.713	76.44
416.936	70.44
417.159	79.44
417.382	86.44
417.605	90.44
417.828	87.44
418.051	95.44
418.274	80.44
418.497	70.44
418.72	82.44
418.943	104.44
419.166	105.44
419.389	94.44
419.611	88.44
419.834	90.44
420.057	83.44
420.28	90.44
420.503	88.44
420.726	101.44
420.948	90.44
421.171	80.44
421.394	98.44
421.617	87.44
421.839	74.44
422.062	90.44
422.285	82.44
422.507	115.44
422.73	120.44
422.953	97.44
423.175	91.44
423.398	100.44
423.621	90.44
423.843	83.44
424.066	82.44
424.288	90.44
424.511	87.44
424.733	112.44
424.956	113.44
425.178	113.44
425.401	99.44
425.623	117.44
425.846	94.44
426.068	104.44
426.291	95.44
426.513	78.44
426.735	92.44
426.958	102.44
427.18	122.44
427.402	140.44
427.625	201.44
427.847	162.44
428.069	105.44
428.292	76.44
428.514	75.44
428.736	84.44
428.958	83.44
429.181	87.44
429.403	87.44
429.625	82.44
429.847	91.44
430.069	113.44
430.292	95.44
430.514	74.44
430.736	92.44
430.958	70.44
431.18	70.44
431.402	91.44
431.624	74.44
431.846	82.44
432.068	82.44
432.29	75.44
432.512	90.44
432.734	85.44
432.956	91.44
433.178	95.44
433.4	97.44
433.622	92.44
433.844	86.44
434.066	97.44
434.287	84.44
434.509	86.44
434.731	99.44
434.953	81.44
435.175	87.44
435.397	83.44
435.618	82.44
435.84	82.44
436.062	127.44
436.284	127.44
436.505	101.44
436.727	102.44
436.949	87.44
437.17	88.44
437.392	96.44
437.614	82.44
437.835	105.44
438.057	126.44
438.278	130.44
438.5	111.44
438.721	127.44
438.943	104.44
439.165	98.44
439.386	90.44
439.608	90.44
439.829	97.44
440.05	137.44
440.272	165.44
440.493	106.44
440.715	87.44
440.936	89.44
441.158	85.44
441.379	90.44
441.6	96.44
441.822	92.44
442.043	113.44
442.264	96.44
442.486	114.44
442.707	92.44
442.928	100.44
443.149	137.44
443.371	149.44
443.592	108.44
443.813	105.44
444.034	110.44
444.255	88.44
444.476	90.44
444.698	89.44
444.919	92.44
445.14	140.44
445.361	118.44
445.582	130.44
445.803	154.44
446.024	134.44
446.245	141.44
446.466	112.44
446.687	96.44
446.908	91.44
447.129	95.44
447.35	82.44
447.571	98.44
447.792	91.44
448.013	99.44
448.234	106.44
448.455	89.44
448.675	134.44
448.896	132.44
449.117	102.44
449.338	112.44
449.559	133.44
449.779	130.44
450	97.44
450.221	93.44
450.442	95.44
450.662	99.44
450.883	114.44
451.104	113.44
451.324	104.44
451.545	86.44
451.766	96.44
451.986	89.44
452.207	76.44
452.428	108.44
452.648	102.44
452.869	124.44
453.089	125.44
453.31	130.44
453.53	98.44
453.751	97.44
453.971	111.44
454.192	120.44
454.412	116.44
454.633	82.44
454.853	86.44
455.073	91.44
455.294	73.44
455.514	92.44
455.734	98.44
455.955	90.44
456.175	69.44
456.395	80.44
456.616	83.44
456.836	87.44
457.056	81.44
457.276	67.44
457.497	72.44
457.717	71.44
457.937	81.44
458.157	82.44
458.377	88.44
458.598	107.44
458.818	181.44
459.038	192.44
459.258	124.44
459.478	101.44
459.698	83.44
459.918	89.44
460.138	95.44
460.358	79.44
460.578	73.44
460.798	91.44
461.018	88.44
461.238	78.44
461.458	69.44
461.678	84.44
461.898	99.44
462.118	87.44
462.338	79.44
462.558	95.44
462.777	79.44
462.997	88.44
463.217	80.44
463.437	89.44
463.657	92.44
463.876	87.44
464.096	93.44
464.316	102.44
464.536	82.44
464.755	94.44
464.975	127.44
465.195	190.44
465.414	200.44
465.634	90.44
465.854	82.44
466.073	78.44
466.293	95.44
466.512	90.44
466.732	84.44
466.951	75.44
467.171	84.44
467.391	88.44
467.61	103.44
467.829	97.44
468.049	101.44
468.268	108.44
468.488	96.44
468.707	82.44
468.927	85.44
469.146	74.44
469.365	80.44
469.585	81.44
469.804	98.44
470.023	106.44
470.243	99.44
470.462	98.44
470.681	112.44
470.901	98.44
471.12	86.44
471.339	82.44
471.558	94.44
471.777	89.44
471.997	86.44
472.216	126.44
472.435	167.44
472.654	84.44
472.873	76.44
473.092	78.44
473.311	81.44
473.53	83.44
473.749	79.44
473.968	91.44
474.187	112.44
474.406	118.44
474.625	83.44
474.844	84.44
475.063	84.44
475.282	84.44
475.501	94.44
475.72	97.44
475.939	85.44
476.158	88.44
476.377	89.44
476.596	80.44
476.814	108.44
477.033	91.44
477.252	84.44
477.471	84.44
477.69	96.44
477.908	94.44
478.127	78.44
478.346	79.44
478.564	85.44
478.783	82.44
479.002	88.44
479.22	90.44
479.439	102.44
479.658	103.44
479.876	92.44
480.095	94.44
480.313	95.44
480.532	101.44
480.751	101.44
480.969	119.44
481.188	255.44
481.406	172.44
481.624	112.44
481.843	92.44
482.061	84.44
482.28	87.44
482.498	99.44
482.717	82.44
482.935	91.44
483.153	72.44
483.372	94.44
483.59	91.44
483.808	90.44
484.027	86.44
484.245	95.44
484.463	101.44
484.681	85.44
484.9	99.44
485.118	98.44
485.336	95.44
485.554	86.44
485.772	114.44
485.99	112.44
486.209	107.44
486.427	104.44
486.645	107.44
486.863	135.44
487.081	103.44
487.299	106.44
487.517	105.44
487.735	85.44
487.953	83.44
488.171	86.44
488.389	94.44
488.607	111.44
488.825	88.44
489.043	87.44
489.261	91.44
489.479	95.44
489.696	90.44
489.914	87.44
490.132	92.44
490.35	99.44
490.568	100.44
490.786	83.44
491.003	79.44
491.221	82.44
491.439	104.44
491.657	98.44
491.874	81.44
492.092	90.44
492.31	81.44
492.527	81.44
492.745	91.44
492.963	85.44
493.18	95.44
493.398	84.44
493.615	83.44
493.833	85.44
494.05	84.44
494.268	91.44
494.485	88.44
494.703	104.44
494.92	87.44
495.138	92.44
495.355	97.44
495.573	95.44
495.79	90.44
496.008	94.44
496.225	93.44
496.442	79.44
496.66	87.44
496.877	82.44
497.094	96.44
497.312	87.44
497.529	87.44
497.746	74.44
497.963	90.44
498.181	99.44
498.398	87.44
498.615	121.44
498.832	108.44
499.049	100.44
499.267	92.44
499.484	93.44
499.701	90.44
499.918	99.44
500.135	83.44
500.352	97.44
500.569	86.44
500.786	100.44
501.003	103.44
501.22	82.44
501.437	89.44
501.654	97.44
501.871	112.44
502.088	107.44
502.305	91.44
502.522	85.44
502.739	96.44
502.956	86.44
503.172	88.44
503.389	108.44
503.606	113.44
503.823	92.44
504.04	85.44
504.256	89.44
504.473	98.44
504.69	90.44
504.907	97.44
505.123	90.44
505.34	87.44
505.557	90.44
505.773	99.44
505.99	75.44
506.207	86.44
506.423	100.44
506.64	94.44
506.856	100.44
507.073	89.44
507.289	94.44
507.506	107.44
507.722	121.44
507.939	138.44
508.155	98.44
508.372	88.44
508.588	100.44
508.805	79.44
509.021	108.44
509.238	100.44
509.454	90.44
509.67	112.44
509.887	111.44
510.103	113.44
510.319	223.44
510.536	844.44
510.752	2868.44
510.968	772.44
511.184	182.44
511.401	114.44
511.617	100.44
511.833	98.44
512.049	94.44
512.265	74.44
512.481	81.44
512.698	92.44
512.914	90.44
513.13	106.44
513.346	99.44
513.562	92.44
513.778	99.44
513.994	99.44
514.21	111.44
514.426	132.44
514.642	149.44
514.858	138.44
515.074	199.44
515.29	574.44
