Data from Circ_1981_H10_HRD10591_00002.txt Node
Date: Wed Jan 03 12:34:21 EST 2024
User: Yrep
Spectrometer: HR+D1059
Trigger mode: 1
Integration Time (sec): 1.000000E-1
Scans to average: 1
Electric dark correction enabled: true
Nonlinearity correction enabled: false
Boxcar width: 0
XAxis mode: Wavelengths
Number of Pixels in Spectrum: 2048
>>>>>Begin Spectral Data<<<<<
223.165	-24.31
223.4	-24.31
223.635	-24.31
223.869	-23.31
224.104	-14.31
224.338	-10.31
224.573	-20.31
224.808	-10.31
225.042	-3.31
225.277	1.69
225.511	-3.31
225.746	-1.31
225.98	11.69
226.215	10.69
226.449	11.69
226.683	10.69
226.918	30.69
227.152	33.69
227.387	35.69
227.621	24.69
227.856	42.69
228.09	38.69
228.324	28.69
228.559	54.69
228.793	72.69
229.027	60.69
229.262	65.69
229.496	81.69
229.73	88.69
229.964	76.69
230.199	78.69
230.433	78.69
230.667	77.69
230.901	78.69
231.136	71.69
231.37	65.69
231.604	74.69
231.838	79.69
232.072	84.69
232.306	87.69
232.541	81.69
232.775	88.69
233.009	74.69
233.243	80.69
233.477	94.69
233.711	67.69
233.945	82.69
234.179	85.69
234.413	96.69
234.647	80.69
234.881	75.69
235.115	77.69
235.349	70.69
235.583	70.69
235.817	65.69
236.051	62.69
236.285	80.69
236.519	68.69
236.753	77.69
236.987	76.69
237.221	102.69
237.455	96.69
237.689	71.69
237.922	72.69
238.156	83.69
238.39	79.69
238.624	93.69
238.858	72.69
239.091	89.69
239.325	72.69
239.559	77.69
239.793	76.69
240.027	73.69
240.26	80.69
240.494	88.69
240.728	82.69
240.961	76.69
241.195	89.69
241.429	74.69
241.662	72.69
241.896	77.69
242.13	80.69
242.363	80.69
242.597	83.69
242.83	75.69
243.064	68.69
243.298	76.69
243.531	87.69
243.765	82.69
243.998	74.69
244.232	84.69
244.465	68.69
244.699	97.69
244.932	60.69
245.166	70.69
245.399	77.69
245.633	71.69
245.866	64.69
246.099	81.69
246.333	84.69
246.566	77.69
246.8	68.69
247.033	76.69
247.266	81.69
247.5	81.69
247.733	88.69
247.966	84.69
248.2	76.69
248.433	75.69
248.666	66.69
248.899	91.69
249.133	89.69
249.366	98.69
249.599	84.69
249.832	84.69
250.066	78.69
250.299	73.69
250.532	73.69
250.765	88.69
250.998	85.69
251.231	86.69
251.465	66.69
251.698	69.69
251.931	74.69
252.164	77.69
252.397	84.69
252.63	88.69
252.863	73.69
253.096	76.69
253.329	91.69
253.562	94.69
253.795	85.69
254.028	94.69
254.261	98.69
254.494	93.69
254.727	78.69
254.96	81.69
255.193	82.69
255.426	86.69
255.659	92.69
255.892	87.69
256.124	92.69
256.357	77.69
256.59	82.69
256.823	68.69
257.056	73.69
257.289	68.69
257.521	76.69
257.754	83.69
257.987	96.69
258.22	81.69
258.452	89.69
258.685	84.69
258.918	73.69
259.151	80.69
259.383	75.69
259.616	66.69
259.849	96.69
260.081	73.69
260.314	78.69
260.547	85.69
260.779	71.69
261.012	89.69
261.244	84.69
261.477	91.69
261.71	96.69
261.942	114.69
262.175	125.69
262.407	97.69
262.64	74.69
262.872	82.69
263.105	76.69
263.337	76.69
263.57	97.69
263.802	98.69
264.035	79.69
264.267	75.69
264.499	81.69
264.732	78.69
264.964	74.69
265.197	83.69
265.429	86.69
265.661	82.69
265.894	85.69
266.126	79.69
266.358	74.69
266.591	85.69
266.823	81.69
267.055	81.69
267.287	81.69
267.52	83.69
267.752	85.69
267.984	75.69
268.216	83.69
268.448	103.69
268.681	89.69
268.913	71.69
269.145	77.69
269.377	103.69
269.609	98.69
269.841	89.69
270.073	93.69
270.306	90.69
270.538	84.69
270.77	78.69
271.002	76.69
271.234	91.69
271.466	82.69
271.698	91.69
271.93	78.69
272.162	92.69
272.394	83.69
272.626	81.69
272.858	89.69
273.09	83.69
273.322	80.69
273.553	80.69
273.785	81.69
274.017	87.69
274.249	83.69
274.481	82.69
274.713	97.69
274.945	78.69
275.176	84.69
275.408	77.69
275.64	79.69
275.872	77.69
276.104	78.69
276.335	100.69
276.567	104.69
276.799	110.69
277.031	102.69
277.262	90.69
277.494	85.69
277.726	100.69
277.957	89.69
278.189	100.69
278.421	76.69
278.652	85.69
278.884	95.69
279.115	86.69
279.347	80.69
279.579	102.69
279.81	93.69
280.042	86.69
280.273	91.69
280.505	100.69
280.736	100.69
280.968	96.69
281.199	78.69
281.431	89.69
281.662	86.69
281.894	97.69
282.125	112.69
282.356	125.69
282.588	157.69
282.819	118.69
283.051	84.69
283.282	84.69
283.513	85.69
283.745	92.69
283.976	72.69
284.207	84.69
284.439	103.69
284.67	96.69
284.901	75.69
285.132	81.69
285.364	93.69
285.595	98.69
285.826	86.69
286.057	93.69
286.288	103.69
286.52	89.69
286.751	88.69
286.982	75.69
287.213	86.69
287.444	90.69
287.675	93.69
287.906	88.69
288.138	90.69
288.369	116.69
288.6	103.69
288.831	84.69
289.062	96.69
289.293	96.69
289.524	74.69
289.755	92.69
289.986	86.69
290.217	85.69
290.448	84.69
290.679	94.69
290.91	75.69
291.141	75.69
291.371	86.69
291.602	84.69
291.833	93.69
292.064	82.69
292.295	88.69
292.526	104.69
292.757	88.69
292.987	74.69
293.218	83.69
293.449	91.69
293.68	88.69
293.91	87.69
294.141	89.69
294.372	86.69
294.603	86.69
294.833	97.69
295.064	92.69
295.295	76.69
295.525	93.69
295.756	96.69
295.987	116.69
296.217	137.69
296.448	133.69
296.679	82.69
296.909	100.69
297.14	97.69
297.37	88.69
297.601	73.69
297.831	86.69
298.062	89.69
298.292	95.69
298.523	86.69
298.753	94.69
298.984	85.69
299.214	76.69
299.445	98.69
299.675	97.69
299.905	90.69
300.136	84.69
300.366	87.69
300.597	80.69
300.827	98.69
301.057	80.69
301.288	107.69
301.518	101.69
301.748	95.69
301.979	104.69
302.209	84.69
302.439	98.69
302.669	80.69
302.9	100.69
303.13	102.69
303.36	100.69
303.59	97.69
303.82	116.69
304.051	103.69
304.281	84.69
304.511	90.69
304.741	86.69
304.971	84.69
305.201	97.69
305.431	92.69
305.661	90.69
305.891	96.69
306.121	91.69
306.352	96.69
306.582	104.69
306.812	98.69
307.042	92.69
307.272	118.69
307.502	97.69
307.731	93.69
307.961	90.69
308.191	89.69
308.421	101.69
308.651	96.69
308.881	88.69
309.111	89.69
309.341	101.69
309.571	98.69
309.8	101.69
310.03	92.69
310.26	105.69
310.49	96.69
310.72	114.69
310.949	115.69
311.179	118.69
311.409	98.69
311.639	106.69
311.868	92.69
312.098	93.69
312.328	100.69
312.557	110.69
312.787	114.69
313.017	109.69
313.246	100.69
313.476	108.69
313.706	90.69
313.935	93.69
314.165	111.69
314.394	110.69
314.624	101.69
314.853	105.69
315.083	91.69
315.312	98.69
315.542	83.69
315.771	90.69
316.001	84.69
316.23	88.69
316.46	91.69
316.689	90.69
316.919	101.69
317.148	109.69
317.377	103.69
317.607	106.69
317.836	108.69
318.065	101.69
318.295	88.69
318.524	90.69
318.753	94.69
318.983	84.69
319.212	92.69
319.441	115.69
319.67	108.69
319.9	103.69
320.129	98.69
320.358	93.69
320.587	97.69
320.816	100.69
321.046	110.69
321.275	107.69
321.504	104.69
321.733	105.69
321.962	93.69
322.191	96.69
322.42	114.69
322.649	121.69
322.878	117.69
323.108	121.69
323.337	141.69
323.566	156.69
323.795	188.69
324.024	230.69
324.253	429.69
324.482	966.69
324.71	2003.69
324.939	2753.69
325.168	978.69
325.397	280.69
325.626	160.69
325.855	141.69
326.084	140.69
326.313	134.69
326.542	161.69
326.77	247.69
326.999	509.69
327.228	1057.69
327.457	2022.69
327.686	1568.69
327.914	422.69
328.143	247.69
328.372	184.69
328.6	144.69
328.829	136.69
329.058	150.69
329.287	182.69
329.515	131.69
329.744	116.69
329.972	112.69
330.201	124.69
330.43	158.69
330.658	157.69
330.887	192.69
331.115	158.69
331.344	88.69
331.572	112.69
331.801	113.69
332.03	120.69
332.258	98.69
332.486	99.69
332.715	107.69
332.943	101.69
333.172	102.69
333.4	96.69
333.629	107.69
333.857	115.69
334.085	120.69
334.314	128.69
334.542	150.69
334.771	148.69
334.999	124.69
335.227	104.69
335.455	84.69
335.684	102.69
335.912	98.69
336.14	104.69
336.369	112.69
336.597	101.69
336.825	108.69
337.053	99.69
337.281	91.69
337.51	95.69
337.738	84.69
337.966	106.69
338.194	99.69
338.422	88.69
338.65	97.69
338.878	106.69
339.106	93.69
339.334	100.69
339.562	89.69
339.79	88.69
340.018	103.69
340.246	84.69
340.474	93.69
340.702	95.69
340.93	104.69
341.158	96.69
341.386	91.69
341.614	100.69
341.842	97.69
342.07	90.69
342.298	89.69
342.526	94.69
342.754	85.69
342.981	101.69
343.209	105.69
343.437	111.69
343.665	77.69
343.893	84.69
344.12	97.69
344.348	86.69
344.576	91.69
344.804	95.69
345.031	104.69
345.259	109.69
345.487	115.69
345.714	100.69
345.942	96.69
346.17	89.69
346.397	90.69
346.625	102.69
346.853	102.69
347.08	95.69
347.308	102.69
347.535	94.69
347.763	109.69
347.99	100.69
348.218	108.69
348.445	114.69
348.673	107.69
348.9	100.69
349.128	104.69
349.355	91.69
349.583	97.69
349.81	82.69
350.037	94.69
350.265	100.69
350.492	99.69
350.72	103.69
350.947	106.69
351.174	110.69
351.402	110.69
351.629	109.69
351.856	121.69
352.083	104.69
352.311	116.69
352.538	125.69
352.765	120.69
352.992	123.69
353.22	112.69
353.447	98.69
353.674	106.69
353.901	101.69
354.128	99.69
354.355	107.69
354.583	107.69
354.81	108.69
355.037	88.69
355.264	101.69
355.491	107.69
355.718	83.69
355.945	77.69
356.172	86.69
356.399	95.69
356.626	82.69
356.853	94.69
357.08	95.69
357.307	91.69
357.534	84.69
357.761	100.69
357.988	91.69
358.215	104.69
358.441	94.69
358.668	101.69
358.895	96.69
359.122	87.69
359.349	81.69
359.576	118.69
359.802	113.69
360.029	137.69
360.256	135.69
360.483	116.69
360.709	105.69
360.936	104.69
361.163	95.69
361.39	112.69
361.616	95.69
361.843	92.69
362.07	97.69
362.296	114.69
362.523	98.69
362.749	101.69
362.976	96.69
363.203	100.69
363.429	78.69
363.656	93.69
363.882	86.69
364.109	89.69
364.335	89.69
364.562	106.69
364.788	98.69
365.015	101.69
365.241	102.69
365.468	117.69
365.694	118.69
365.92	107.69
366.147	88.69
366.373	91.69
366.599	86.69
366.826	86.69
367.052	102.69
367.278	96.69
367.505	90.69
367.731	91.69
367.957	90.69
368.184	85.69
368.41	110.69
368.636	115.69
368.862	127.69
369.089	126.69
369.315	124.69
369.541	90.69
369.767	87.69
369.993	98.69
370.219	96.69
370.445	95.69
370.672	87.69
370.898	92.69
371.124	95.69
371.35	86.69
371.576	84.69
371.802	77.69
372.028	80.69
372.254	85.69
372.48	95.69
372.706	84.69
372.932	95.69
373.158	82.69
373.384	106.69
373.61	90.69
373.835	85.69
374.061	82.69
374.287	97.69
374.513	92.69
374.739	77.69
374.965	78.69
375.191	77.69
375.416	83.69
375.642	85.69
375.868	89.69
376.094	98.69
376.319	100.69
376.545	98.69
376.771	88.69
376.997	94.69
377.222	91.69
377.448	91.69
377.674	92.69
377.899	89.69
378.125	87.69
378.35	90.69
378.576	80.69
378.802	99.69
379.027	93.69
379.253	88.69
379.478	91.69
379.704	93.69
379.929	88.69
380.155	92.69
380.38	98.69
380.606	107.69
380.831	112.69
381.057	116.69
381.282	104.69
381.507	93.69
381.733	109.69
381.958	98.69
382.184	98.69
382.409	106.69
382.634	100.69
382.86	115.69
383.085	101.69
383.31	97.69
383.535	100.69
383.761	92.69
383.986	110.69
384.211	101.69
384.436	116.69
384.662	110.69
384.887	105.69
385.112	117.69
385.337	114.69
385.562	115.69
385.787	118.69
386.013	127.69
386.238	140.69
386.463	132.69
386.688	116.69
386.913	103.69
387.138	110.69
387.363	122.69
387.588	99.69
387.813	102.69
388.038	117.69
388.263	145.69
388.488	138.69
388.713	112.69
388.938	102.69
389.163	94.69
389.387	98.69
389.612	102.69
389.837	101.69
390.062	91.69
390.287	89.69
390.512	83.69
390.736	94.69
390.961	98.69
391.186	87.69
391.411	89.69
391.636	86.69
391.86	101.69
392.085	80.69
392.31	92.69
392.534	86.69
392.759	96.69
392.984	108.69
393.208	114.69
393.433	144.69
393.658	119.69
393.882	85.69
394.107	86.69
394.331	105.69
394.556	88.69
394.78	100.69
395.005	100.69
395.229	94.69
395.454	78.69
395.678	84.69
395.903	82.69
396.127	89.69
396.352	101.69
396.576	94.69
396.801	104.69
397.025	126.69
397.249	98.69
397.474	85.69
397.698	78.69
397.922	95.69
398.147	90.69
398.371	77.69
398.595	80.69
398.82	96.69
399.044	88.69
399.268	89.69
399.492	78.69
399.717	89.69
399.941	101.69
400.165	99.69
400.389	100.69
400.613	101.69
400.837	84.69
401.062	98.69
401.286	80.69
401.51	85.69
401.734	90.69
401.958	114.69
402.182	133.69
402.406	178.69
402.63	140.69
402.854	105.69
403.078	92.69
403.302	99.69
403.526	93.69
403.75	90.69
403.974	76.69
404.198	72.69
404.422	87.69
404.645	91.69
404.869	92.69
405.093	104.69
405.317	108.69
405.541	114.69
405.765	116.69
405.988	112.69
406.212	178.69
406.436	269.69
406.66	184.69
406.883	110.69
407.107	104.69
407.331	104.69
407.555	112.69
407.778	99.69
408.002	89.69
408.226	89.69
408.449	101.69
408.673	90.69
408.896	103.69
409.12	88.69
409.344	90.69
409.567	96.69
409.791	96.69
410.014	84.69
410.238	95.69
410.461	98.69
410.685	100.69
410.908	100.69
411.132	115.69
411.355	110.69
411.578	98.69
411.802	104.69
412.025	77.69
412.249	97.69
412.472	98.69
412.695	100.69
412.919	103.69
413.142	77.69
413.365	85.69
413.589	85.69
413.812	84.69
414.035	88.69
414.258	69.69
414.482	100.69
414.705	83.69
414.928	82.69
415.151	93.69
415.374	89.69
415.597	94.69
415.821	86.69
416.044	101.69
416.267	91.69
416.49	84.69
416.713	85.69
416.936	98.69
417.159	96.69
417.382	96.69
417.605	76.69
417.828	104.69
418.051	104.69
418.274	101.69
418.497	86.69
418.72	73.69
418.943	88.69
419.166	84.69
419.389	84.69
419.611	71.69
419.834	100.69
420.057	87.69
420.28	89.69
420.503	73.69
420.726	90.69
420.948	96.69
421.171	108.69
421.394	92.69
421.617	82.69
421.839	80.69
422.062	95.69
422.285	108.69
422.507	121.69
422.73	98.69
422.953	95.69
423.175	87.69
423.398	91.69
423.621	84.69
423.843	93.69
424.066	103.69
424.288	88.69
424.511	82.69
424.733	108.69
424.956	120.69
425.178	112.69
425.401	115.69
425.623	112.69
425.846	92.69
426.068	114.69
426.291	101.69
426.513	86.69
426.735	109.69
426.958	102.69
427.18	128.69
427.402	162.69
427.625	240.69
427.847	168.69
428.069	124.69
428.292	86.69
428.514	97.69
428.736	92.69
428.958	96.69
429.181	103.69
429.403	86.69
429.625	90.69
429.847	114.69
430.069	123.69
430.292	103.69
430.514	93.69
430.736	78.69
430.958	76.69
431.18	94.69
431.402	75.69
431.624	84.69
431.846	89.69
432.068	82.69
432.29	84.69
432.512	96.69
432.734	82.69
432.956	84.69
433.178	93.69
433.4	97.69
433.622	82.69
433.844	98.69
434.066	88.69
434.287	87.69
434.509	100.69
434.731	90.69
434.953	76.69
435.175	81.69
435.397	87.69
435.618	93.69
435.84	112.69
436.062	138.69
436.284	132.69
436.505	124.69
436.727	106.69
436.949	118.69
437.17	78.69
437.392	92.69
437.614	75.69
437.835	99.69
438.057	141.69
438.278	137.69
438.5	132.69
438.721	149.69
438.943	102.69
439.165	88.69
439.386	104.69
439.608	109.69
439.829	107.69
440.05	148.69
440.272	174.69
440.493	120.69
440.715	88.69
440.936	86.69
441.158	91.69
441.379	101.69
441.6	96.69
441.822	104.69
442.043	118.69
442.264	116.69
442.486	115.69
442.707	102.69
442.928	114.69
443.149	144.69
443.371	153.69
443.592	121.69
443.813	128.69
444.034	124.69
444.255	94.69
444.476	96.69
444.698	86.69
444.919	89.69
445.14	121.69
445.361	132.69
445.582	131.69
445.803	183.69
446.024	178.69
446.245	159.69
446.466	131.69
446.687	110.69
446.908	109.69
447.129	88.69
447.35	87.69
447.571	88.69
447.792	89.69
448.013	98.69
448.234	123.69
448.455	103.69
448.675	151.69
448.896	134.69
449.117	106.69
449.338	108.69
449.559	148.69
449.779	155.69
450	106.69
450.221	107.69
450.442	85.69
450.662	90.69
450.883	122.69
451.104	130.69
451.324	96.69
451.545	91.69
451.766	89.69
451.986	77.69
452.207	88.69
452.428	103.69
452.648	103.69
452.869	133.69
453.089	125.69
453.31	137.69
453.53	101.69
453.751	89.69
453.971	102.69
454.192	135.69
454.412	113.69
454.633	90.69
454.853	100.69
455.073	101.69
455.294	92.69
455.514	106.69
455.734	97.69
455.955	86.69
456.175	90.69
456.395	82.69
456.616	100.69
456.836	96.69
457.056	95.69
457.276	69.69
457.497	69.69
457.717	74.69
457.937	89.69
458.157	96.69
458.377	103.69
458.598	117.69
458.818	182.69
459.038	210.69
459.258	155.69
459.478	86.69
459.698	86.69
459.918	87.69
460.138	91.69
460.358	82.69
460.578	69.69
460.798	94.69
461.018	80.69
461.238	85.69
461.458	88.69
461.678	72.69
461.898	80.69
462.118	93.69
462.338	84.69
462.558	89.69
462.777	105.69
462.997	85.69
463.217	96.69
463.437	88.69
463.657	80.69
463.876	91.69
464.096	92.69
464.316	99.69
464.536	89.69
464.755	106.69
464.975	117.69
465.195	197.69
465.414	204.69
465.634	109.69
465.854	80.69
466.073	97.69
466.293	104.69
466.512	80.69
466.732	82.69
466.951	78.69
467.171	86.69
467.391	100.69
467.61	103.69
467.829	108.69
468.049	96.69
468.268	112.69
468.488	105.69
468.707	89.69
468.927	93.69
469.146	75.69
469.365	87.69
469.585	88.69
469.804	98.69
470.023	106.69
470.243	101.69
470.462	106.69
470.681	115.69
470.901	94.69
471.12	82.69
471.339	100.69
471.558	80.69
471.777	91.69
471.997	92.69
472.216	119.69
472.435	150.69
472.654	100.69
472.873	84.69
473.092	87.69
473.311	87.69
473.53	94.69
473.749	77.69
473.968	87.69
474.187	125.69
474.406	111.69
474.625	96.69
474.844	90.69
475.063	85.69
475.282	89.69
475.501	84.69
475.72	95.69
475.939	96.69
476.158	84.69
476.377	84.69
476.596	89.69
476.814	92.69
477.033	103.69
477.252	94.69
477.471	85.69
477.69	90.69
477.908	71.69
478.127	92.69
478.346	91.69
478.564	92.69
478.783	93.69
479.002	93.69
479.22	100.69
479.439	99.69
479.658	105.69
479.876	92.69
480.095	90.69
480.313	103.69
480.532	96.69
480.751	110.69
480.969	116.69
481.188	230.69
481.406	180.69
481.624	102.69
481.843	82.69
482.061	93.69
482.28	89.69
482.498	82.69
482.717	88.69
482.935	91.69
483.153	78.69
483.372	94.69
483.59	98.69
483.808	93.69
484.027	88.69
484.245	67.69
484.463	76.69
484.681	93.69
484.9	97.69
485.118	96.69
485.336	97.69
485.554	100.69
485.772	96.69
485.99	110.69
486.209	100.69
486.427	105.69
486.645	110.69
486.863	105.69
487.081	107.69
487.299	103.69
487.517	87.69
487.735	103.69
487.953	89.69
488.171	85.69
488.389	80.69
488.607	101.69
488.825	95.69
489.043	100.69
489.261	82.69
489.479	76.69
489.696	80.69
489.914	91.69
490.132	91.69
490.35	81.69
490.568	77.69
490.786	97.69
491.003	94.69
491.221	97.69
491.439	98.69
491.657	108.69
491.874	98.69
492.092	85.69
492.31	88.69
492.527	93.69
492.745	84.69
492.963	98.69
493.18	97.69
493.398	87.69
493.615	87.69
493.833	97.69
494.05	82.69
494.268	89.69
494.485	99.69
494.703	90.69
494.92	92.69
495.138	88.69
495.355	84.69
495.573	103.69
495.79	80.69
496.008	90.69
496.225	71.69
496.442	91.69
496.66	84.69
496.877	105.69
497.094	85.69
497.312	82.69
497.529	78.69
497.746	91.69
497.963	101.69
498.181	103.69
498.398	89.69
498.615	115.69
498.832	107.69
499.049	92.69
499.267	90.69
499.484	89.69
499.701	100.69
499.918	100.69
500.135	88.69
500.352	98.69
500.569	88.69
500.786	99.69
501.003	118.69
501.22	85.69
501.437	73.69
501.654	96.69
501.871	123.69
502.088	104.69
502.305	99.69
502.522	94.69
502.739	89.69
502.956	95.69
503.172	96.69
503.389	96.69
503.606	102.69
503.823	92.69
504.04	91.69
504.256	84.69
504.473	67.69
504.69	92.69
504.907	105.69
505.123	103.69
505.34	77.69
505.557	100.69
505.773	73.69
505.99	85.69
506.207	100.69
506.423	91.69
506.64	85.69
506.856	93.69
507.073	83.69
507.289	107.69
507.506	106.69
507.722	121.69
507.939	125.69
508.155	96.69
508.372	92.69
508.588	89.69
508.805	98.69
509.021	98.69
509.238	102.69
509.454	101.69
509.67	104.69
509.887	124.69
510.103	139.69
510.319	229.69
510.536	800.69
510.752	2607.69
510.968	706.69
511.184	157.69
511.401	118.69
511.617	96.69
511.833	92.69
512.049	100.69
512.265	90.69
512.481	106.69
512.698	98.69
512.914	104.69
513.13	103.69
513.346	91.69
513.562	92.69
