Data from Circ_1981_H10_HRD10591_00074.txt Node
Date: Wed Jan 03 12:34:35 EST 2024
User: Yrep
Spectrometer: HR+D1059
Trigger mode: 1
Integration Time (sec): 1.000000E-1
Scans to average: 1
Electric dark correction enabled: true
Nonlinearity correction enabled: false
Boxcar width: 0
XAxis mode: Wavelengths
Number of Pixels in Spectrum: 2048
>>>>>Begin Spectral Data<<<<<
223.165	-8.31
223.4	-8.31
223.635	-8.31
223.869	-17.31
224.104	-16.31
224.338	-15.31
224.573	-14.31
224.808	-14.31
225.042	-1.31
225.277	-10.31
225.511	-7.31
225.746	-5.31
225.98	6.69
226.215	6.69
226.449	11.69
226.683	32.69
226.918	17.69
227.152	34.69
227.387	38.69
227.621	38.69
227.856	44.69
228.09	40.69
228.324	46.69
228.559	51.69
228.793	52.69
229.027	47.69
229.262	72.69
229.496	60.69
229.73	87.69
229.964	92.69
230.199	78.69
230.433	63.69
230.667	76.69
230.901	62.69
231.136	79.69
231.37	73.69
231.604	80.69
231.838	67.69
232.072	80.69
232.306	78.69
232.541	65.69
232.775	88.69
233.009	84.69
233.243	87.69
233.477	85.69
233.711	63.69
233.945	92.69
234.179	80.69
234.413	85.69
234.647	82.69
234.881	79.69
235.115	88.69
235.349	73.69
235.583	88.69
235.817	78.69
236.051	89.69
236.285	69.69
236.519	72.69
236.753	78.69
236.987	76.69
237.221	99.69
237.455	102.69
237.689	70.69
237.922	66.69
238.156	68.69
238.39	70.69
238.624	67.69
238.858	81.69
239.091	84.69
239.325	78.69
239.559	79.69
239.793	81.69
240.027	70.69
240.26	94.69
240.494	86.69
240.728	64.69
240.961	82.69
241.195	73.69
241.429	79.69
241.662	67.69
241.896	83.69
242.13	69.69
242.363	73.69
242.597	78.69
242.83	73.69
243.064	60.69
243.298	88.69
243.531	78.69
243.765	69.69
243.998	82.69
244.232	73.69
244.465	83.69
244.699	86.69
244.932	69.69
245.166	73.69
245.399	78.69
245.633	74.69
245.866	86.69
246.099	71.69
246.333	75.69
246.566	91.69
246.8	73.69
247.033	78.69
247.266	53.69
247.5	74.69
247.733	67.69
247.966	82.69
248.2	76.69
248.433	67.69
248.666	77.69
248.899	86.69
249.133	80.69
249.366	94.69
249.599	101.69
249.832	66.69
250.066	75.69
250.299	69.69
250.532	67.69
250.765	87.69
250.998	79.69
251.231	88.69
251.465	74.69
251.698	82.69
251.931	87.69
252.164	82.69
252.397	87.69
252.63	87.69
252.863	81.69
253.096	71.69
253.329	80.69
253.562	73.69
253.795	73.69
254.028	74.69
254.261	82.69
254.494	83.69
254.727	82.69
254.96	84.69
255.193	67.69
255.426	76.69
255.659	66.69
255.892	81.69
256.124	74.69
256.357	73.69
256.59	85.69
256.823	82.69
257.056	73.69
257.289	82.69
257.521	80.69
257.754	73.69
257.987	74.69
258.22	76.69
258.452	90.69
258.685	63.69
258.918	75.69
259.151	85.69
259.383	78.69
259.616	66.69
259.849	67.69
260.081	74.69
260.314	62.69
260.547	94.69
260.779	83.69
261.012	84.69
261.244	77.69
261.477	87.69
261.71	110.69
261.942	95.69
262.175	121.69
262.407	90.69
262.64	90.69
262.872	84.69
263.105	80.69
263.337	82.69
263.57	78.69
263.802	88.69
264.035	90.69
264.267	72.69
264.499	86.69
264.732	68.69
264.964	81.69
265.197	90.69
265.429	87.69
265.661	84.69
265.894	83.69
266.126	87.69
266.358	80.69
266.591	77.69
266.823	78.69
267.055	93.69
267.287	69.69
267.52	76.69
267.752	87.69
267.984	85.69
268.216	86.69
268.448	78.69
268.681	81.69
268.913	92.69
269.145	66.69
269.377	79.69
269.609	66.69
269.841	86.69
270.073	85.69
270.306	80.69
270.538	77.69
270.77	68.69
271.002	69.69
271.234	73.69
271.466	75.69
271.698	82.69
271.93	77.69
272.162	91.69
272.394	97.69
272.626	84.69
272.858	85.69
273.09	89.69
273.322	94.69
273.553	82.69
273.785	72.69
274.017	82.69
274.249	88.69
274.481	94.69
274.713	75.69
274.945	86.69
275.176	84.69
275.408	88.69
275.64	102.69
275.872	76.69
276.104	99.69
276.335	102.69
276.567	94.69
276.799	98.69
277.031	98.69
277.262	94.69
277.494	97.69
277.726	88.69
277.957	80.69
278.189	84.69
278.421	91.69
278.652	73.69
278.884	88.69
279.115	89.69
279.347	88.69
279.579	78.69
279.81	79.69
280.042	86.69
280.273	84.69
280.505	82.69
280.736	90.69
280.968	82.69
281.199	94.69
281.431	78.69
281.662	102.69
281.894	84.69
282.125	89.69
282.356	111.69
282.588	143.69
282.819	130.69
283.051	89.69
283.282	83.69
283.513	81.69
283.745	87.69
283.976	80.69
284.207	84.69
284.439	94.69
284.67	80.69
284.901	83.69
285.132	82.69
285.364	101.69
285.595	80.69
285.826	72.69
286.057	86.69
286.288	81.69
286.52	86.69
286.751	84.69
286.982	80.69
287.213	85.69
287.444	91.69
287.675	96.69
287.906	94.69
288.138	101.69
288.369	100.69
288.6	90.69
288.831	82.69
289.062	84.69
289.293	93.69
289.524	79.69
289.755	98.69
289.986	64.69
290.217	88.69
290.448	75.69
290.679	82.69
290.91	88.69
291.141	89.69
291.371	86.69
291.602	87.69
291.833	71.69
292.064	96.69
292.295	86.69
292.526	82.69
292.757	76.69
292.987	86.69
293.218	78.69
293.449	86.69
293.68	89.69
293.91	79.69
294.141	86.69
294.372	96.69
294.603	88.69
294.833	92.69
295.064	90.69
295.295	75.69
295.525	83.69
295.756	85.69
295.987	115.69
296.217	137.69
296.448	131.69
296.679	84.69
296.909	86.69
297.14	78.69
297.37	66.69
297.601	89.69
297.831	80.69
298.062	97.69
298.292	89.69
298.523	92.69
298.753	80.69
298.984	78.69
299.214	88.69
299.445	88.69
299.675	83.69
299.905	100.69
300.136	89.69
300.366	69.69
300.597	84.69
300.827	87.69
301.057	101.69
301.288	90.69
301.518	91.69
301.748	78.69
301.979	81.69
302.209	84.69
302.439	84.69
302.669	84.69
302.9	87.69
303.13	79.69
303.36	94.69
303.59	101.69
303.82	96.69
304.051	85.69
304.281	86.69
304.511	86.69
304.741	91.69
304.971	72.69
305.201	92.69
305.431	98.69
305.661	99.69
305.891	81.69
306.121	94.69
306.352	93.69
306.582	94.69
306.812	86.69
307.042	95.69
307.272	88.69
307.502	84.69
307.731	91.69
307.961	99.69
308.191	80.69
308.421	88.69
308.651	105.69
308.881	98.69
309.111	82.69
309.341	99.69
309.571	89.69
309.8	96.69
310.03	111.69
310.26	105.69
310.49	117.69
310.72	86.69
310.949	103.69
311.179	113.69
311.409	95.69
311.639	75.69
311.868	94.69
312.098	96.69
312.328	98.69
312.557	108.69
312.787	109.69
313.017	95.69
313.246	98.69
313.476	79.69
313.706	97.69
313.935	98.69
314.165	100.69
314.394	114.69
314.624	84.69
314.853	93.69
315.083	98.69
315.312	101.69
315.542	103.69
315.771	91.69
316.001	90.69
316.23	87.69
316.46	95.69
316.689	82.69
316.919	89.69
317.148	87.69
317.377	86.69
317.607	110.69
317.836	98.69
318.065	94.69
318.295	88.69
318.524	90.69
318.753	87.69
318.983	108.69
319.212	101.69
319.441	94.69
319.67	101.69
319.9	103.69
320.129	94.69
320.358	84.69
320.587	72.69
320.816	92.69
321.046	106.69
321.275	94.69
321.504	93.69
321.733	91.69
321.962	99.69
322.191	94.69
322.42	104.69
322.649	125.69
322.878	124.69
323.108	124.69
323.337	139.69
323.566	138.69
323.795	179.69
324.024	243.69
324.253	496.69
324.482	1098.69
324.71	2377.69
324.939	3263.69
325.168	1138.69
325.397	297.69
325.626	176.69
325.855	140.69
326.084	140.69
326.313	160.69
326.542	177.69
326.77	294.69
326.999	594.69
327.228	1311.69
327.457	2453.69
327.686	1983.69
327.914	504.69
328.143	233.69
328.372	187.69
328.6	144.69
328.829	108.69
329.058	154.69
329.287	158.69
329.515	121.69
329.744	118.69
329.972	113.69
330.201	120.69
330.43	150.69
330.658	159.69
330.887	186.69
331.115	153.69
331.344	104.69
331.572	103.69
331.801	99.69
332.03	106.69
332.258	101.69
332.486	94.69
332.715	88.69
332.943	80.69
333.172	112.69
333.4	116.69
333.629	106.69
333.857	124.69
334.085	106.69
334.314	115.69
334.542	137.69
334.771	146.69
334.999	94.69
335.227	104.69
335.455	93.69
335.684	99.69
335.912	101.69
336.14	91.69
336.369	104.69
336.597	102.69
336.825	103.69
337.053	82.69
337.281	80.69
337.51	78.69
337.738	89.69
337.966	91.69
338.194	106.69
338.422	100.69
338.65	86.69
338.878	87.69
339.106	82.69
339.334	85.69
339.562	96.69
339.79	86.69
340.018	80.69
340.246	99.69
340.474	102.69
340.702	98.69
340.93	92.69
341.158	83.69
341.386	97.69
341.614	114.69
341.842	93.69
342.07	85.69
342.298	94.69
342.526	82.69
342.754	76.69
342.981	85.69
343.209	93.69
343.437	98.69
343.665	96.69
343.893	95.69
344.12	72.69
344.348	72.69
344.576	96.69
344.804	89.69
345.031	83.69
345.259	114.69
345.487	106.69
345.714	96.69
345.942	83.69
346.17	87.69
346.397	97.69
346.625	98.69
346.853	78.69
347.08	91.69
347.308	103.69
347.535	114.69
347.763	93.69
347.99	102.69
348.218	88.69
348.445	111.69
348.673	107.69
348.9	100.69
349.128	97.69
349.355	90.69
349.583	88.69
349.81	92.69
350.037	98.69
350.265	110.69
350.492	88.69
350.72	97.69
350.947	93.69
351.174	99.69
351.402	111.69
351.629	104.69
351.856	93.69
352.083	104.69
352.311	117.69
352.538	105.69
352.765	106.69
352.992	100.69
353.22	105.69
353.447	97.69
353.674	99.69
353.901	94.69
354.128	95.69
354.355	90.69
354.583	90.69
354.81	108.69
355.037	91.69
355.264	97.69
355.491	90.69
355.718	78.69
355.945	99.69
356.172	82.69
356.399	101.69
356.626	80.69
356.853	89.69
357.08	85.69
357.307	78.69
357.534	87.69
357.761	92.69
357.988	82.69
358.215	89.69
358.441	78.69
358.668	95.69
358.895	87.69
359.122	90.69
359.349	85.69
359.576	88.69
359.802	121.69
360.029	150.69
360.256	124.69
360.483	120.69
360.709	91.69
360.936	84.69
361.163	104.69
361.39	102.69
361.616	108.69
361.843	92.69
362.07	100.69
362.296	102.69
362.523	97.69
362.749	96.69
362.976	110.69
363.203	109.69
363.429	82.69
363.656	98.69
363.882	94.69
364.109	99.69
364.335	93.69
364.562	91.69
364.788	96.69
365.015	91.69
365.241	97.69
365.468	115.69
365.694	99.69
365.92	80.69
366.147	102.69
366.373	91.69
366.599	98.69
366.826	76.69
367.052	83.69
367.278	85.69
367.505	86.69
367.731	96.69
367.957	92.69
368.184	106.69
368.41	99.69
368.636	120.69
368.862	118.69
369.089	110.69
369.315	95.69
369.541	89.69
369.767	92.69
369.993	91.69
370.219	97.69
370.445	94.69
370.672	87.69
370.898	87.69
371.124	95.69
371.35	74.69
371.576	89.69
371.802	79.69
372.028	76.69
372.254	82.69
372.48	83.69
372.706	90.69
372.932	86.69
373.158	95.69
373.384	100.69
373.61	94.69
373.835	86.69
374.061	81.69
374.287	98.69
374.513	107.69
374.739	100.69
374.965	84.69
375.191	83.69
375.416	82.69
375.642	86.69
375.868	76.69
376.094	82.69
376.319	73.69
376.545	84.69
376.771	94.69
376.997	101.69
377.222	91.69
377.448	96.69
377.674	74.69
377.899	114.69
378.125	91.69
378.35	90.69
378.576	75.69
378.802	86.69
379.027	89.69
379.253	80.69
379.478	82.69
379.704	101.69
379.929	90.69
380.155	76.69
380.38	98.69
380.606	95.69
380.831	103.69
381.057	97.69
381.282	85.69
381.507	91.69
381.733	81.69
381.958	96.69
382.184	91.69
382.409	102.69
382.634	105.69
382.86	88.69
383.085	95.69
383.31	104.69
383.535	107.69
383.761	87.69
383.986	96.69
384.211	90.69
384.436	74.69
384.662	92.69
384.887	93.69
385.112	97.69
385.337	99.69
385.562	88.69
385.787	80.69
386.013	100.69
386.238	116.69
386.463	92.69
386.688	111.69
386.913	90.69
387.138	105.69
387.363	104.69
387.588	93.69
387.813	94.69
388.038	95.69
388.263	116.69
388.488	89.69
388.713	76.69
388.938	90.69
389.163	91.69
389.387	86.69
389.612	94.69
389.837	83.69
390.062	86.69
390.287	79.69
390.512	88.69
390.736	86.69
390.961	97.69
391.186	97.69
391.411	94.69
391.636	107.69
391.86	83.69
392.085	82.69
392.31	87.69
392.534	76.69
392.759	86.69
392.984	78.69
393.208	99.69
393.433	94.69
393.658	99.69
393.882	87.69
394.107	78.69
394.331	87.69
394.556	88.69
394.78	72.69
395.005	96.69
395.229	81.69
395.454	72.69
395.678	90.69
395.903	98.69
396.127	82.69
396.352	95.69
396.576	87.69
396.801	75.69
397.025	95.69
397.249	91.69
397.474	89.69
397.698	100.69
397.922	84.69
398.147	95.69
398.371	80.69
398.595	87.69
398.82	95.69
399.044	78.69
399.268	84.69
399.492	92.69
399.717	81.69
399.941	96.69
400.165	92.69
400.389	94.69
400.613	90.69
400.837	82.69
401.062	89.69
401.286	88.69
401.51	93.69
401.734	80.69
401.958	113.69
402.182	116.69
402.406	163.69
402.63	114.69
402.854	93.69
403.078	91.69
403.302	94.69
403.526	74.69
403.75	75.69
403.974	99.69
404.198	87.69
404.422	86.69
404.645	76.69
404.869	101.69
405.093	91.69
405.317	102.69
405.541	100.69
405.765	107.69
405.988	126.69
406.212	176.69
406.436	243.69
406.66	165.69
406.883	107.69
407.107	96.69
407.331	96.69
407.555	104.69
407.778	100.69
408.002	93.69
408.226	94.69
408.449	84.69
408.673	86.69
408.896	100.69
409.12	107.69
409.344	95.69
409.567	91.69
409.791	86.69
410.014	101.69
410.238	96.69
410.461	89.69
410.685	100.69
410.908	91.69
411.132	113.69
411.355	103.69
411.578	88.69
411.802	75.69
412.025	94.69
412.249	90.69
412.472	96.69
412.695	94.69
412.919	90.69
413.142	90.69
413.365	85.69
413.589	81.69
413.812	91.69
414.035	92.69
414.258	96.69
414.482	84.69
414.705	90.69
414.928	95.69
415.151	76.69
415.374	91.69
415.597	88.69
415.821	79.69
416.044	85.69
416.267	83.69
416.49	95.69
416.713	69.69
416.936	85.69
417.159	88.69
417.382	94.69
417.605	81.69
417.828	94.69
418.051	106.69
418.274	82.69
418.497	91.69
418.72	83.69
418.943	100.69
419.166	93.69
419.389	97.69
419.611	87.69
419.834	89.69
420.057	88.69
420.28	89.69
420.503	53.69
420.726	86.69
420.948	88.69
421.171	92.69
421.394	94.69
421.617	84.69
421.839	93.69
422.062	80.69
422.285	100.69
422.507	95.69
422.73	102.69
422.953	95.69
423.175	86.69
423.398	75.69
423.621	98.69
423.843	91.69
424.066	90.69
424.288	95.69
424.511	87.69
424.733	107.69
424.956	135.69
425.178	106.69
425.401	125.69
425.623	106.69
425.846	90.69
426.068	84.69
426.291	89.69
426.513	91.69
426.735	96.69
426.958	98.69
427.18	120.69
427.402	182.69
427.625	204.69
427.847	156.69
428.069	121.69
428.292	98.69
428.514	102.69
428.736	95.69
428.958	78.69
429.181	73.69
429.403	84.69
429.625	94.69
429.847	96.69
430.069	119.69
430.292	89.69
430.514	92.69
430.736	94.69
430.958	90.69
431.18	73.69
431.402	88.69
431.624	73.69
431.846	80.69
432.068	88.69
432.29	87.69
432.512	91.69
432.734	87.69
432.956	108.69
433.178	97.69
433.4	103.69
433.622	92.69
433.844	93.69
434.066	85.69
434.287	81.69
434.509	96.69
434.731	89.69
434.953	86.69
435.175	76.69
435.397	92.69
435.618	94.69
435.84	116.69
436.062	163.69
436.284	128.69
436.505	100.69
436.727	124.69
436.949	100.69
437.17	95.69
437.392	106.69
437.614	105.69
437.835	102.69
438.057	143.69
438.278	122.69
438.5	129.69
438.721	176.69
438.943	103.69
439.165	94.69
439.386	98.69
439.608	110.69
439.829	103.69
440.05	158.69
440.272	197.69
440.493	106.69
440.715	94.69
440.936	86.69
441.158	91.69
441.379	83.69
441.6	99.69
441.822	106.69
442.043	107.69
442.264	129.69
442.486	111.69
442.707	96.69
442.928	102.69
443.149	176.69
443.371	143.69
443.592	127.69
443.813	125.69
444.034	131.69
444.255	107.69
444.476	99.69
444.698	67.69
444.919	86.69
445.14	123.69
445.361	139.69
445.582	147.69
445.803	206.69
446.024	185.69
446.245	177.69
446.466	139.69
446.687	87.69
446.908	103.69
447.129	95.69
447.35	102.69
447.571	100.69
447.792	95.69
448.013	96.69
448.234	108.69
448.455	114.69
448.675	135.69
448.896	161.69
449.117	108.69
449.338	115.69
449.559	170.69
449.779	193.69
450	103.69
450.221	87.69
450.442	90.69
450.662	111.69
450.883	121.69
451.104	119.69
451.324	86.69
451.545	87.69
451.766	105.69
451.986	79.69
452.207	82.69
452.428	96.69
452.648	89.69
452.869	102.69
453.089	122.69
453.31	114.69
453.53	96.69
453.751	92.69
453.971	106.69
454.192	122.69
454.412	90.69
454.633	86.69
454.853	84.69
455.073	86.69
455.294	90.69
455.514	121.69
455.734	104.69
455.955	94.69
456.175	89.69
456.395	92.69
456.616	78.69
456.836	84.69
457.056	82.69
457.276	82.69
457.497	90.69
457.717	77.69
457.937	90.69
458.157	84.69
458.377	67.69
458.598	107.69
458.818	180.69
459.038	208.69
459.258	162.69
459.478	94.69
459.698	84.69
459.918	91.69
460.138	83.69
460.358	85.69
460.578	81.69
460.798	98.69
461.018	96.69
461.238	88.69
461.458	86.69
461.678	93.69
461.898	68.69
462.118	98.69
462.338	79.69
462.558	88.69
462.777	82.69
462.997	81.69
463.217	90.69
463.437	83.69
463.657	80.69
463.876	75.69
464.096	88.69
464.316	89.69
464.536	96.69
464.755	93.69
464.975	117.69
465.195	195.69
465.414	206.69
465.634	101.69
465.854	80.69
466.073	78.69
466.293	83.69
466.512	83.69
466.732	94.69
466.951	91.69
467.171	73.69
467.391	94.69
467.61	96.69
467.829	101.69
468.049	119.69
468.268	102.69
468.488	79.69
468.707	86.69
468.927	74.69
469.146	75.69
469.365	74.69
469.585	86.69
469.804	97.69
470.023	98.69
470.243	102.69
470.462	91.69
470.681	121.69
470.901	91.69
471.12	96.69
471.339	80.69
471.558	86.69
471.777	91.69
471.997	100.69
472.216	112.69
472.435	158.69
472.654	104.69
472.873	99.69
473.092	94.69
473.311	96.69
473.53	100.69
473.749	80.69
473.968	107.69
474.187	124.69
474.406	107.69
474.625	88.69
474.844	94.69
475.063	91.69
475.282	75.69
475.501	97.69
475.72	78.69
475.939	83.69
476.158	87.69
476.377	80.69
476.596	87.69
476.814	96.69
477.033	79.69
477.252	88.69
477.471	90.69
477.69	86.69
477.908	78.69
478.127	61.69
478.346	97.69
478.564	95.69
478.783	90.69
479.002	98.69
479.22	87.69
479.439	96.69
479.658	107.69
479.876	96.69
480.095	97.69
480.313	95.69
480.532	82.69
480.751	82.69
480.969	113.69
481.188	201.69
481.406	174.69
481.624	94.69
481.843	87.69
482.061	86.69
482.28	70.69
482.498	79.69
482.717	77.69
482.935	98.69
483.153	85.69
483.372	91.69
483.59	83.69
483.808	81.69
484.027	73.69
484.245	87.69
484.463	86.69
484.681	92.69
484.9	91.69
485.118	85.69
485.336	94.69
485.554	89.69
485.772	90.69
485.99	84.69
486.209	98.69
486.427	98.69
486.645	107.69
486.863	107.69
487.081	93.69
487.299	86.69
487.517	101.69
487.735	93.69
487.953	82.69
488.171	103.69
488.389	92.69
488.607	91.69
488.825	70.69
489.043	94.69
489.261	84.69
489.479	86.69
489.696	96.69
489.914	82.69
490.132	81.69
490.35	94.69
490.568	91.69
490.786	86.69
491.003	82.69
491.221	87.69
491.439	86.69
491.657	100.69
491.874	86.69
492.092	87.69
492.31	84.69
492.527	79.69
492.745	79.69
492.963	88.69
493.18	109.69
493.398	92.69
493.615	87.69
493.833	85.69
494.05	76.69
494.268	100.69
494.485	98.69
494.703	78.69
494.92	81.69
495.138	88.69
495.355	106.69
495.573	94.69
495.79	89.69
496.008	80.69
496.225	97.69
496.442	84.69
496.66	88.69
496.877	83.69
497.094	99.69
497.312	91.69
497.529	91.69
497.746	80.69
497.963	93.69
498.181	92.69
498.398	87.69
498.615	108.69
498.832	95.69
499.049	97.69
499.267	89.69
499.484	99.69
499.701	97.69
499.918	90.69
500.135	88.69
500.352	70.69
500.569	69.69
500.786	94.69
501.003	69.69
501.22	91.69
501.437	98.69
501.654	95.69
501.871	106.69
502.088	87.69
502.305	88.69
502.522	86.69
502.739	76.69
502.956	94.69
503.172	80.69
503.389	92.69
503.606	113.69
503.823	93.69
504.04	86.69
504.256	78.69
504.473	87.69
504.69	71.69
504.907	92.69
505.123	91.69
505.34	95.69
505.557	78.69
505.773	88.69
505.99	89.69
506.207	102.69
506.423	84.69
506.64	92.69
506.856	95.69
507.073	98.69
507.289	80.69
507.506	92.69
507.722	111.69
507.939	101.69
508.155	100.69
508.372	88.69
508.588	94.69
508.805	95.69
509.021	105.69
509.238	102.69
509.454	87.69
509.67	108.69
509.887	113.69
510.103	126.69
510.319	198.69
510.536	710.69
510.752	2313.69
510.968	638.69
511.184	160.69
511.401	107.69
511.617	107.69
511.833	89.69
512.049	92.69
512.265	93.69
512.481	106.69
512.698	94.69
512.914	101.69
513.13	87.69
513.346	95.69
513.562	80.69
513.778	93.69
513.994	102.69
514.21	104.69
514.426	119.69
514.642	151.69
514.858	134.69
515.074	190.69
515.29	543.69
515.506	1713.69
