Data from Circ_1981_H10_HRD10591_00095.txt Node
Date: Wed Jan 03 12:34:40 EST 2024
User: Yrep
Spectrometer: HR+D1059
Trigger mode: 1
Integration Time (sec): 1.000000E-1
Scans to average: 1
Electric dark correction enabled: true
Nonlinearity correction enabled: false
Boxcar width: 0
XAxis mode: Wavelengths
Number of Pixels in Spectrum: 2048
>>>>>Begin Spectral Data<<<<<
223.165	-14.88
223.4	-14.88
223.635	-14.88
223.869	-11.88
224.104	-23.88
224.338	-20.88
224.573	-16.88
224.808	-22.88
225.042	7.12
225.277	3.12
225.511	-2.88
225.746	7.12
225.98	-3.88
226.215	7.12
226.449	22.12
226.683	24.12
226.918	18.12
227.152	29.12
227.387	39.12
227.621	33.12
227.856	46.12
228.09	37.12
228.324	50.12
228.559	61.12
228.793	49.12
229.027	62.12
229.262	67.12
229.496	82.12
229.73	97.12
229.964	91.12
230.199	72.12
230.433	79.12
230.667	81.12
230.901	77.12
231.136	79.12
231.37	78.12
231.604	82.12
231.838	92.12
232.072	78.12
232.306	77.12
232.541	85.12
232.775	88.12
233.009	80.12
233.243	79.12
233.477	80.12
233.711	91.12
233.945	78.12
234.179	69.12
234.413	79.12
234.647	81.12
234.881	72.12
235.115	80.12
235.349	74.12
235.583	92.12
235.817	49.12
236.051	71.12
236.285	84.12
236.519	86.12
236.753	89.12
236.987	81.12
237.221	98.12
237.455	92.12
237.689	86.12
237.922	85.12
238.156	80.12
238.39	81.12
238.624	72.12
238.858	66.12
239.091	65.12
239.325	79.12
239.559	92.12
239.793	79.12
240.027	84.12
240.26	90.12
240.494	74.12
240.728	85.12
240.961	88.12
241.195	94.12
241.429	63.12
241.662	77.12
241.896	73.12
242.13	70.12
242.363	86.12
242.597	76.12
242.83	81.12
243.064	66.12
243.298	70.12
243.531	64.12
243.765	75.12
243.998	89.12
244.232	69.12
244.465	72.12
244.699	73.12
244.932	71.12
245.166	71.12
245.399	60.12
245.633	70.12
245.866	80.12
246.099	57.12
246.333	83.12
246.566	83.12
246.8	80.12
247.033	73.12
247.266	95.12
247.5	80.12
247.733	76.12
247.966	79.12
248.2	68.12
248.433	71.12
248.666	84.12
248.899	79.12
249.133	75.12
249.366	94.12
249.599	96.12
249.832	89.12
250.066	77.12
250.299	72.12
250.532	84.12
250.765	92.12
250.998	94.12
251.231	75.12
251.465	83.12
251.698	75.12
251.931	76.12
252.164	81.12
252.397	97.12
252.63	83.12
252.863	82.12
253.096	73.12
253.329	81.12
253.562	80.12
253.795	65.12
254.028	91.12
254.261	82.12
254.494	79.12
254.727	80.12
254.96	83.12
255.193	85.12
255.426	75.12
255.659	79.12
255.892	76.12
256.124	92.12
256.357	98.12
256.59	82.12
256.823	90.12
257.056	95.12
257.289	60.12
257.521	83.12
257.754	81.12
257.987	80.12
258.22	88.12
258.452	83.12
258.685	79.12
258.918	91.12
259.151	83.12
259.383	85.12
259.616	71.12
259.849	73.12
260.081	82.12
260.314	99.12
260.547	94.12
260.779	81.12
261.012	73.12
261.244	80.12
261.477	77.12
261.71	87.12
261.942	121.12
262.175	128.12
262.407	101.12
262.64	90.12
262.872	68.12
263.105	91.12
263.337	91.12
263.57	90.12
263.802	70.12
264.035	80.12
264.267	94.12
264.499	95.12
264.732	85.12
264.964	93.12
265.197	88.12
265.429	79.12
265.661	76.12
265.894	75.12
266.126	105.12
266.358	83.12
266.591	98.12
266.823	83.12
267.055	95.12
267.287	89.12
267.52	79.12
267.752	87.12
267.984	73.12
268.216	81.12
268.448	85.12
268.681	69.12
268.913	95.12
269.145	77.12
269.377	97.12
269.609	97.12
269.841	66.12
270.073	72.12
270.306	80.12
270.538	96.12
270.77	81.12
271.002	82.12
271.234	82.12
271.466	84.12
271.698	81.12
271.93	90.12
272.162	73.12
272.394	101.12
272.626	83.12
272.858	75.12
273.09	74.12
273.322	92.12
273.553	85.12
273.785	76.12
274.017	88.12
274.249	103.12
274.481	90.12
274.713	95.12
274.945	83.12
275.176	91.12
275.408	84.12
275.64	87.12
275.872	90.12
276.104	90.12
276.335	79.12
276.567	95.12
276.799	99.12
277.031	100.12
277.262	95.12
277.494	85.12
277.726	95.12
277.957	90.12
278.189	91.12
278.421	93.12
278.652	100.12
278.884	83.12
279.115	88.12
279.347	100.12
279.579	93.12
279.81	96.12
280.042	101.12
280.273	85.12
280.505	91.12
280.736	84.12
280.968	83.12
281.199	100.12
281.431	99.12
281.662	67.12
281.894	89.12
282.125	99.12
282.356	123.12
282.588	149.12
282.819	111.12
283.051	83.12
283.282	100.12
283.513	104.12
283.745	81.12
283.976	85.12
284.207	83.12
284.439	76.12
284.67	79.12
284.901	79.12
285.132	92.12
285.364	84.12
285.595	83.12
285.826	87.12
286.057	86.12
286.288	89.12
286.52	107.12
286.751	95.12
286.982	83.12
287.213	79.12
287.444	84.12
287.675	92.12
287.906	95.12
288.138	106.12
288.369	80.12
288.6	85.12
288.831	91.12
289.062	93.12
289.293	88.12
289.524	87.12
289.755	72.12
289.986	84.12
290.217	87.12
290.448	93.12
290.679	89.12
290.91	93.12
291.141	90.12
291.371	83.12
291.602	80.12
291.833	90.12
292.064	86.12
292.295	73.12
292.526	79.12
292.757	85.12
292.987	82.12
293.218	80.12
293.449	104.12
293.68	78.12
293.91	84.12
294.141	82.12
294.372	88.12
294.603	91.12
294.833	90.12
295.064	76.12
295.295	70.12
295.525	108.12
295.756	81.12
295.987	119.12
296.217	142.12
296.448	129.12
296.679	93.12
296.909	83.12
297.14	76.12
297.37	100.12
297.601	71.12
297.831	88.12
298.062	85.12
298.292	85.12
298.523	94.12
298.753	93.12
298.984	81.12
299.214	90.12
299.445	75.12
299.675	95.12
299.905	97.12
300.136	90.12
300.366	95.12
300.597	87.12
300.827	102.12
301.057	101.12
301.288	110.12
301.518	91.12
301.748	87.12
301.979	101.12
302.209	83.12
302.439	94.12
302.669	84.12
302.9	82.12
303.13	98.12
303.36	104.12
303.59	102.12
303.82	118.12
304.051	102.12
304.281	96.12
304.511	85.12
304.741	106.12
304.971	91.12
305.201	86.12
305.431	92.12
305.661	87.12
305.891	98.12
306.121	102.12
306.352	92.12
306.582	115.12
306.812	101.12
307.042	80.12
307.272	99.12
307.502	100.12
307.731	92.12
307.961	83.12
308.191	77.12
308.421	77.12
308.651	89.12
308.881	88.12
309.111	95.12
309.341	105.12
309.571	99.12
309.8	93.12
310.03	103.12
310.26	97.12
310.49	108.12
310.72	99.12
310.949	99.12
311.179	111.12
311.409	104.12
311.639	106.12
311.868	102.12
312.098	96.12
312.328	100.12
312.557	109.12
312.787	100.12
313.017	95.12
313.246	108.12
313.476	101.12
313.706	91.12
313.935	95.12
314.165	95.12
314.394	118.12
314.624	95.12
314.853	99.12
315.083	97.12
315.312	100.12
315.542	99.12
315.771	88.12
316.001	95.12
316.23	91.12
316.46	87.12
316.689	92.12
316.919	93.12
317.148	95.12
317.377	88.12
317.607	92.12
317.836	89.12
318.065	93.12
318.295	88.12
318.524	89.12
318.753	89.12
318.983	110.12
319.212	105.12
319.441	116.12
319.67	104.12
319.9	93.12
320.129	95.12
320.358	92.12
320.587	86.12
320.816	107.12
321.046	98.12
321.275	108.12
321.504	101.12
321.733	89.12
321.962	95.12
322.191	100.12
322.42	121.12
322.649	120.12
322.878	122.12
323.108	127.12
323.337	131.12
323.566	151.12
323.795	171.12
324.024	250.12
324.253	477.12
324.482	1081.12
324.71	2324.12
324.939	3212.12
325.168	1126.12
325.397	328.12
325.626	157.12
325.855	150.12
326.084	133.12
326.313	134.12
326.542	165.12
326.77	271.12
326.999	561.12
327.228	1201.12
327.457	2393.12
327.686	1913.12
327.914	467.12
328.143	219.12
328.372	189.12
328.6	125.12
328.829	133.12
329.058	148.12
329.287	153.12
329.515	125.12
329.744	106.12
329.972	104.12
330.201	128.12
330.43	132.12
330.658	153.12
330.887	174.12
331.115	150.12
331.344	103.12
331.572	107.12
331.801	96.12
332.03	109.12
332.258	114.12
332.486	101.12
332.715	97.12
332.943	87.12
333.172	89.12
333.4	99.12
333.629	113.12
333.857	108.12
334.085	115.12
334.314	108.12
334.542	134.12
334.771	158.12
334.999	113.12
335.227	109.12
335.455	104.12
335.684	107.12
335.912	85.12
336.14	105.12
336.369	112.12
336.597	93.12
336.825	98.12
337.053	80.12
337.281	79.12
337.51	82.12
337.738	98.12
337.966	94.12
338.194	96.12
338.422	104.12
338.65	97.12
338.878	83.12
339.106	81.12
339.334	103.12
339.562	91.12
339.79	99.12
340.018	105.12
340.246	92.12
340.474	103.12
340.702	95.12
340.93	79.12
341.158	100.12
341.386	99.12
341.614	113.12
341.842	95.12
342.07	97.12
342.298	81.12
342.526	96.12
342.754	59.12
342.981	95.12
343.209	79.12
343.437	101.12
343.665	98.12
343.893	85.12
344.12	86.12
344.348	90.12
344.576	109.12
344.804	107.12
345.031	93.12
345.259	105.12
345.487	88.12
345.714	109.12
345.942	103.12
346.17	97.12
346.397	83.12
346.625	100.12
346.853	104.12
347.08	92.12
347.308	106.12
347.535	98.12
347.763	104.12
347.99	101.12
348.218	108.12
348.445	100.12
348.673	115.12
348.9	93.12
349.128	86.12
349.355	89.12
349.583	82.12
349.81	81.12
350.037	108.12
350.265	91.12
350.492	93.12
350.72	96.12
350.947	92.12
351.174	104.12
351.402	112.12
351.629	97.12
351.856	97.12
352.083	100.12
352.311	95.12
352.538	116.12
352.765	118.12
352.992	115.12
353.22	108.12
353.447	109.12
353.674	93.12
353.901	82.12
354.128	81.12
354.355	88.12
354.583	77.12
354.81	116.12
355.037	92.12
355.264	95.12
355.491	103.12
355.718	108.12
355.945	91.12
356.172	91.12
356.399	105.12
356.626	86.12
356.853	97.12
357.08	103.12
357.307	87.12
357.534	84.12
357.761	96.12
357.988	77.12
358.215	87.12
358.441	98.12
358.668	98.12
358.895	88.12
359.122	91.12
359.349	94.12
359.576	92.12
359.802	112.12
360.029	131.12
360.256	113.12
360.483	116.12
360.709	87.12
360.936	86.12
361.163	91.12
361.39	100.12
361.616	93.12
361.843	110.12
362.07	95.12
362.296	87.12
362.523	91.12
362.749	101.12
362.976	93.12
363.203	89.12
363.429	68.12
363.656	99.12
363.882	89.12
364.109	95.12
364.335	79.12
364.562	104.12
364.788	87.12
365.015	101.12
365.241	108.12
365.468	105.12
365.694	107.12
365.92	100.12
366.147	87.12
366.373	102.12
366.599	88.12
366.826	93.12
367.052	89.12
367.278	87.12
367.505	90.12
367.731	105.12
367.957	104.12
368.184	91.12
368.41	91.12
368.636	111.12
368.862	129.12
369.089	108.12
369.315	91.12
369.541	92.12
369.767	80.12
369.993	77.12
370.219	92.12
370.445	93.12
370.672	75.12
370.898	91.12
371.124	93.12
371.35	83.12
371.576	93.12
371.802	97.12
372.028	92.12
372.254	90.12
372.48	96.12
372.706	97.12
372.932	91.12
373.158	77.12
373.384	88.12
373.61	106.12
373.835	92.12
374.061	72.12
374.287	82.12
374.513	86.12
374.739	91.12
374.965	91.12
375.191	76.12
375.416	82.12
375.642	76.12
375.868	91.12
376.094	92.12
376.319	85.12
376.545	76.12
376.771	81.12
376.997	75.12
377.222	97.12
377.448	95.12
377.674	92.12
377.899	87.12
378.125	76.12
378.35	85.12
378.576	89.12
378.802	92.12
379.027	95.12
379.253	88.12
379.478	85.12
379.704	88.12
379.929	92.12
380.155	105.12
380.38	84.12
380.606	88.12
380.831	85.12
381.057	105.12
381.282	95.12
381.507	99.12
381.733	97.12
381.958	93.12
382.184	96.12
382.409	105.12
382.634	98.12
382.86	97.12
383.085	91.12
383.31	115.12
383.535	91.12
383.761	99.12
383.986	102.12
384.211	94.12
384.436	98.12
384.662	85.12
384.887	83.12
385.112	100.12
385.337	93.12
385.562	115.12
385.787	99.12
386.013	100.12
386.238	126.12
386.463	109.12
386.688	98.12
386.913	98.12
387.138	88.12
387.363	102.12
387.588	100.12
387.813	109.12
388.038	102.12
388.263	97.12
388.488	97.12
388.713	88.12
388.938	92.12
389.163	87.12
389.387	87.12
389.612	105.12
389.837	88.12
390.062	95.12
390.287	83.12
390.512	94.12
390.736	72.12
390.961	95.12
391.186	85.12
391.411	97.12
391.636	97.12
391.86	84.12
392.085	84.12
392.31	86.12
392.534	76.12
392.759	79.12
392.984	55.12
393.208	88.12
393.433	91.12
393.658	92.12
393.882	81.12
394.107	76.12
394.331	89.12
394.556	92.12
394.78	79.12
395.005	84.12
395.229	102.12
395.454	87.12
395.678	85.12
395.903	82.12
396.127	96.12
396.352	83.12
396.576	81.12
396.801	90.12
397.025	77.12
397.249	75.12
397.474	82.12
397.698	82.12
397.922	88.12
398.147	93.12
398.371	82.12
398.595	87.12
398.82	80.12
399.044	88.12
399.268	80.12
399.492	83.12
399.717	83.12
399.941	82.12
400.165	107.12
400.389	97.12
400.613	83.12
400.837	97.12
401.062	82.12
401.286	89.12
401.51	89.12
401.734	87.12
401.958	98.12
402.182	124.12
402.406	169.12
402.63	121.12
402.854	98.12
403.078	96.12
403.302	92.12
403.526	93.12
403.75	83.12
403.974	96.12
404.198	90.12
404.422	103.12
404.645	92.12
404.869	103.12
405.093	98.12
405.317	112.12
405.541	101.12
405.765	97.12
405.988	119.12
406.212	175.12
406.436	247.12
406.66	152.12
406.883	111.12
407.107	100.12
407.331	95.12
407.555	119.12
407.778	101.12
408.002	86.12
408.226	83.12
408.449	90.12
408.673	111.12
408.896	102.12
409.12	100.12
409.344	100.12
409.567	99.12
409.791	90.12
410.014	92.12
410.238	91.12
410.461	98.12
410.685	89.12
410.908	93.12
411.132	106.12
411.355	113.12
411.578	97.12
411.802	93.12
412.025	104.12
412.249	99.12
412.472	101.12
412.695	104.12
412.919	92.12
413.142	100.12
413.365	85.12
413.589	90.12
413.812	100.12
414.035	87.12
414.258	87.12
414.482	88.12
414.705	70.12
414.928	78.12
415.151	83.12
415.374	91.12
415.597	90.12
415.821	91.12
416.044	84.12
416.267	82.12
416.49	87.12
416.713	77.12
416.936	95.12
417.159	85.12
417.382	85.12
417.605	79.12
417.828	92.12
418.051	92.12
418.274	91.12
418.497	91.12
418.72	71.12
418.943	93.12
419.166	79.12
419.389	87.12
419.611	87.12
419.834	90.12
420.057	72.12
420.28	82.12
420.503	83.12
420.726	92.12
420.948	91.12
421.171	100.12
421.394	95.12
421.617	83.12
421.839	80.12
422.062	95.12
422.285	94.12
422.507	111.12
422.73	115.12
422.953	95.12
423.175	94.12
423.398	68.12
423.621	83.12
423.843	92.12
424.066	76.12
424.288	88.12
424.511	93.12
424.733	115.12
424.956	115.12
425.178	104.12
425.401	119.12
425.623	121.12
425.846	84.12
426.068	93.12
426.291	96.12
426.513	92.12
426.735	92.12
426.958	88.12
427.18	124.12
427.402	167.12
427.625	221.12
427.847	175.12
428.069	123.12
428.292	95.12
428.514	81.12
428.736	90.12
428.958	87.12
429.181	85.12
429.403	80.12
429.625	86.12
429.847	106.12
430.069	103.12
430.292	91.12
430.514	89.12
430.736	91.12
430.958	92.12
431.18	98.12
431.402	80.12
431.624	95.12
431.846	95.12
432.068	84.12
432.29	94.12
432.512	94.12
432.734	97.12
432.956	89.12
433.178	111.12
433.4	104.12
433.622	96.12
433.844	82.12
434.066	103.12
434.287	91.12
434.509	96.12
434.731	104.12
434.953	83.12
435.175	103.12
435.397	95.12
435.618	111.12
435.84	121.12
436.062	166.12
436.284	112.12
436.505	110.12
436.727	92.12
436.949	105.12
437.17	92.12
437.392	80.12
437.614	84.12
437.835	116.12
438.057	143.12
438.278	135.12
438.5	130.12
438.721	163.12
438.943	111.12
439.165	96.12
439.386	108.12
439.608	96.12
439.829	103.12
440.05	154.12
440.272	177.12
440.493	112.12
440.715	79.12
440.936	71.12
441.158	103.12
441.379	91.12
441.6	95.12
441.822	95.12
442.043	101.12
442.264	121.12
442.486	131.12
442.707	93.12
442.928	108.12
443.149	149.12
443.371	155.12
443.592	130.12
443.813	131.12
444.034	131.12
444.255	97.12
444.476	91.12
444.698	83.12
444.919	95.12
445.14	149.12
445.361	136.12
445.582	127.12
445.803	180.12
446.024	185.12
446.245	198.12
446.466	139.12
446.687	81.12
446.908	79.12
447.129	95.12
447.35	87.12
447.571	96.12
447.792	99.12
448.013	107.12
448.234	120.12
448.455	111.12
448.675	142.12
448.896	151.12
449.117	101.12
449.338	122.12
449.559	148.12
449.779	159.12
450	115.12
450.221	86.12
450.442	93.12
450.662	106.12
450.883	116.12
451.104	107.12
451.324	101.12
451.545	107.12
451.766	91.12
451.986	83.12
452.207	88.12
452.428	99.12
452.648	105.12
452.869	110.12
453.089	122.12
453.31	129.12
453.53	94.12
453.751	93.12
453.971	108.12
454.192	128.12
454.412	109.12
454.633	92.12
454.853	82.12
455.073	80.12
455.294	89.12
455.514	107.12
455.734	85.12
455.955	79.12
456.175	81.12
456.395	83.12
456.616	75.12
456.836	85.12
457.056	87.12
457.276	89.12
457.497	79.12
457.717	76.12
457.937	86.12
458.157	83.12
458.377	87.12
458.598	104.12
458.818	171.12
459.038	192.12
459.258	144.12
459.478	76.12
459.698	92.12
459.918	96.12
460.138	86.12
460.358	81.12
460.578	79.12
460.798	94.12
461.018	84.12
461.238	78.12
461.458	92.12
461.678	84.12
461.898	88.12
462.118	83.12
462.338	91.12
462.558	99.12
462.777	85.12
462.997	91.12
463.217	76.12
463.437	96.12
463.657	80.12
463.876	88.12
464.096	75.12
464.316	89.12
464.536	83.12
464.755	90.12
464.975	107.12
465.195	194.12
465.414	184.12
465.634	90.12
465.854	90.12
466.073	88.12
466.293	79.12
466.512	88.12
466.732	95.12
466.951	87.12
467.171	85.12
467.391	97.12
467.61	101.12
467.829	106.12
468.049	108.12
468.268	90.12
468.488	83.12
468.707	105.12
468.927	86.12
469.146	87.12
469.365	104.12
469.585	87.12
469.804	87.12
470.023	101.12
470.243	100.12
470.462	112.12
470.681	130.12
470.901	87.12
471.12	68.12
471.339	99.12
471.558	85.12
471.777	90.12
471.997	91.12
472.216	108.12
472.435	159.12
472.654	108.12
472.873	97.12
473.092	83.12
473.311	96.12
473.53	82.12
473.749	94.12
473.968	104.12
474.187	129.12
474.406	115.12
474.625	90.12
474.844	91.12
475.063	83.12
475.282	77.12
475.501	79.12
475.72	87.12
475.939	94.12
476.158	98.12
476.377	96.12
476.596	91.12
476.814	88.12
477.033	105.12
477.252	108.12
477.471	93.12
477.69	95.12
477.908	88.12
478.127	89.12
478.346	89.12
478.564	116.12
478.783	100.12
479.002	76.12
479.22	96.12
479.439	96.12
479.658	104.12
479.876	94.12
480.095	82.12
480.313	99.12
480.532	98.12
480.751	84.12
480.969	113.12
481.188	227.12
481.406	156.12
481.624	90.12
481.843	89.12
482.061	89.12
482.28	93.12
482.498	83.12
482.717	89.12
482.935	81.12
483.153	91.12
483.372	81.12
483.59	96.12
483.808	79.12
484.027	88.12
484.245	96.12
484.463	97.12
484.681	99.12
484.9	97.12
485.118	95.12
485.336	104.12
485.554	110.12
485.772	108.12
485.99	100.12
486.209	101.12
486.427	105.12
486.645	98.12
486.863	105.12
487.081	90.12
487.299	99.12
487.517	93.12
487.735	97.12
487.953	87.12
488.171	86.12
488.389	103.12
488.607	97.12
488.825	84.12
489.043	88.12
489.261	100.12
489.479	76.12
489.696	87.12
489.914	84.12
490.132	96.12
490.35	90.12
490.568	92.12
490.786	70.12
491.003	95.12
491.221	82.12
491.439	86.12
491.657	92.12
491.874	78.12
492.092	80.12
492.31	89.12
492.527	74.12
492.745	99.12
492.963	92.12
493.18	85.12
493.398	77.12
493.615	85.12
493.833	100.12
494.05	87.12
494.268	95.12
494.485	99.12
494.703	97.12
494.92	89.12
495.138	69.12
495.355	97.12
495.573	98.12
495.79	97.12
496.008	102.12
496.225	75.12
496.442	87.12
496.66	85.12
496.877	91.12
497.094	92.12
497.312	88.12
497.529	81.12
497.746	82.12
497.963	85.12
498.181	89.12
498.398	86.12
498.615	101.12
498.832	106.12
499.049	92.12
499.267	91.12
499.484	88.12
499.701	83.12
499.918	80.12
500.135	92.12
500.352	84.12
500.569	82.12
500.786	97.12
501.003	96.12
501.22	89.12
501.437	95.12
501.654	87.12
501.871	111.12
502.088	84.12
502.305	89.12
502.522	100.12
502.739	80.12
502.956	97.12
503.172	93.12
503.389	89.12
503.606	108.12
503.823	107.12
504.04	93.12
504.256	84.12
504.473	88.12
504.69	95.12
504.907	91.12
505.123	96.12
505.34	84.12
505.557	94.12
505.773	82.12
505.99	98.12
506.207	86.12
506.423	91.12
506.64	88.12
506.856	103.12
507.073	75.12
507.289	100.12
507.506	110.12
507.722	123.12
507.939	117.12
508.155	105.12
508.372	87.12
508.588	94.12
508.805	92.12
509.021	105.12
509.238	92.12
509.454	97.12
509.67	97.12
509.887	116.12
510.103	130.12
510.319	214.12
510.536	703.12
510.752	2313.12
510.968	630.12
511.184	149.12
511.401	124.12
511.617	96.12
511.833	82.12
512.049	93.12
512.265	90.12
512.481	91.12
512.698	102.12
512.914	94.12
513.13	96.12
513.346	90.12
513.562	84.12
513.778	104.12
513.994	103.12
514.21	103.12
514.426	123.12
514.642	133.12
514.858	140.12
