Data from Circ_1981_H10_HRD10591_00091.txt Node
Date: Wed Jan 03 12:34:39 EST 2024
User: Yrep
Spectrometer: HR+D1059
Trigger mode: 1
Integration Time (sec): 1.000000E-1
Scans to average: 1
Electric dark correction enabled: true
Nonlinearity correction enabled: false
Boxcar width: 0
XAxis mode: Wavelengths
Number of Pixels in Spectrum: 2048
>>>>>Begin Spectral Data<<<<<
223.165	-18.81
223.4	-18.81
223.635	-18.81
223.869	-15.81
224.104	-23.81
224.338	0.19
224.573	-21.81
224.808	-19.81
225.042	-2.81
225.277	5.19
225.511	3.19
225.746	1.19
225.98	4.19
226.215	2.19
226.449	3.19
226.683	24.19
226.918	30.19
227.152	29.19
227.387	43.19
227.621	13.19
227.856	36.19
228.09	56.19
228.324	47.19
228.559	54.19
228.793	53.19
229.027	62.19
229.262	55.19
229.496	73.19
229.73	75.19
229.964	88.19
230.199	72.19
230.433	70.19
230.667	84.19
230.901	88.19
231.136	87.19
231.37	75.19
231.604	82.19
231.838	84.19
232.072	78.19
232.306	93.19
232.541	84.19
232.775	83.19
233.009	75.19
233.243	73.19
233.477	72.19
233.711	90.19
233.945	75.19
234.179	89.19
234.413	73.19
234.647	68.19
234.881	62.19
235.115	75.19
235.349	61.19
235.583	84.19
235.817	79.19
236.051	82.19
236.285	77.19
236.519	69.19
236.753	80.19
236.987	74.19
237.221	85.19
237.455	97.19
237.689	80.19
237.922	76.19
238.156	76.19
238.39	77.19
238.624	74.19
238.858	82.19
239.091	86.19
239.325	73.19
239.559	82.19
239.793	74.19
240.027	77.19
240.26	72.19
240.494	61.19
240.728	80.19
240.961	77.19
241.195	91.19
241.429	76.19
241.662	84.19
241.896	78.19
242.13	67.19
242.363	68.19
242.597	72.19
242.83	91.19
243.064	66.19
243.298	78.19
243.531	74.19
243.765	81.19
243.998	72.19
244.232	76.19
244.465	84.19
244.699	93.19
244.932	78.19
245.166	75.19
245.399	80.19
245.633	82.19
245.866	85.19
246.099	90.19
246.333	68.19
246.566	83.19
246.8	69.19
247.033	88.19
247.266	70.19
247.5	66.19
247.733	69.19
247.966	84.19
248.2	78.19
248.433	82.19
248.666	88.19
248.899	87.19
249.133	82.19
249.366	113.19
249.599	102.19
249.832	72.19
250.066	78.19
250.299	74.19
250.532	91.19
250.765	70.19
250.998	79.19
251.231	83.19
251.465	74.19
251.698	78.19
251.931	76.19
252.164	80.19
252.397	67.19
252.63	84.19
252.863	86.19
253.096	85.19
253.329	82.19
253.562	84.19
253.795	88.19
254.028	90.19
254.261	78.19
254.494	94.19
254.727	87.19
254.96	85.19
255.193	90.19
255.426	73.19
255.659	69.19
255.892	70.19
256.124	78.19
256.357	91.19
256.59	81.19
256.823	88.19
257.056	71.19
257.289	77.19
257.521	70.19
257.754	97.19
257.987	81.19
258.22	101.19
258.452	65.19
258.685	80.19
258.918	84.19
259.151	65.19
259.383	72.19
259.616	81.19
259.849	75.19
260.081	90.19
260.314	89.19
260.547	85.19
260.779	87.19
261.012	82.19
261.244	72.19
261.477	82.19
261.71	102.19
261.942	101.19
262.175	110.19
262.407	90.19
262.64	85.19
262.872	79.19
263.105	84.19
263.337	92.19
263.57	87.19
263.802	90.19
264.035	75.19
264.267	66.19
264.499	86.19
264.732	85.19
264.964	88.19
265.197	82.19
265.429	76.19
265.661	75.19
265.894	82.19
266.126	86.19
266.358	87.19
266.591	88.19
266.823	74.19
267.055	78.19
267.287	70.19
267.52	96.19
267.752	96.19
267.984	84.19
268.216	75.19
268.448	73.19
268.681	86.19
268.913	72.19
269.145	75.19
269.377	69.19
269.609	87.19
269.841	90.19
270.073	86.19
270.306	77.19
270.538	85.19
270.77	77.19
271.002	94.19
271.234	75.19
271.466	84.19
271.698	102.19
271.93	83.19
272.162	89.19
272.394	72.19
272.626	92.19
272.858	84.19
273.09	83.19
273.322	57.19
273.553	104.19
273.785	68.19
274.017	58.19
274.249	91.19
274.481	88.19
274.713	84.19
274.945	84.19
275.176	102.19
275.408	75.19
275.64	78.19
275.872	91.19
276.104	82.19
276.335	91.19
276.567	88.19
276.799	107.19
277.031	115.19
277.262	85.19
277.494	97.19
277.726	95.19
277.957	97.19
278.189	72.19
278.421	80.19
278.652	75.19
278.884	86.19
279.115	82.19
279.347	83.19
279.579	84.19
279.81	89.19
280.042	84.19
280.273	97.19
280.505	86.19
280.736	89.19
280.968	64.19
281.199	82.19
281.431	93.19
281.662	99.19
281.894	84.19
282.125	97.19
282.356	118.19
282.588	145.19
282.819	101.19
283.051	90.19
283.282	84.19
283.513	89.19
283.745	89.19
283.976	90.19
284.207	86.19
284.439	83.19
284.67	90.19
284.901	80.19
285.132	86.19
285.364	72.19
285.595	94.19
285.826	83.19
286.057	84.19
286.288	98.19
286.52	91.19
286.751	91.19
286.982	81.19
287.213	82.19
287.444	84.19
287.675	85.19
287.906	85.19
288.138	85.19
288.369	91.19
288.6	82.19
288.831	84.19
289.062	96.19
289.293	92.19
289.524	87.19
289.755	84.19
289.986	77.19
290.217	68.19
290.448	101.19
290.679	97.19
290.91	92.19
291.141	84.19
291.371	73.19
291.602	84.19
291.833	92.19
292.064	89.19
292.295	91.19
292.526	86.19
292.757	83.19
292.987	95.19
293.218	87.19
293.449	76.19
293.68	85.19
293.91	83.19
294.141	85.19
294.372	87.19
294.603	95.19
294.833	86.19
295.064	100.19
295.295	75.19
295.525	95.19
295.756	93.19
295.987	119.19
296.217	149.19
296.448	114.19
296.679	88.19
296.909	81.19
297.14	75.19
297.37	89.19
297.601	99.19
297.831	81.19
298.062	97.19
298.292	93.19
298.523	105.19
298.753	95.19
298.984	98.19
299.214	86.19
299.445	81.19
299.675	77.19
299.905	93.19
300.136	94.19
300.366	87.19
300.597	89.19
300.827	97.19
301.057	108.19
301.288	113.19
301.518	91.19
301.748	92.19
301.979	93.19
302.209	94.19
302.439	91.19
302.669	74.19
302.9	86.19
303.13	101.19
303.36	89.19
303.59	97.19
303.82	106.19
304.051	92.19
304.281	100.19
304.511	78.19
304.741	93.19
304.971	82.19
305.201	88.19
305.431	79.19
305.661	86.19
305.891	101.19
306.121	86.19
306.352	113.19
306.582	99.19
306.812	102.19
307.042	95.19
307.272	89.19
307.502	87.19
307.731	90.19
307.961	90.19
308.191	95.19
308.421	88.19
308.651	94.19
308.881	96.19
309.111	100.19
309.341	99.19
309.571	86.19
309.8	93.19
310.03	81.19
310.26	101.19
310.49	101.19
310.72	102.19
310.949	108.19
311.179	106.19
311.409	99.19
311.639	105.19
311.868	100.19
312.098	100.19
312.328	93.19
312.557	116.19
312.787	114.19
313.017	106.19
313.246	94.19
313.476	90.19
313.706	80.19
313.935	97.19
314.165	105.19
314.394	85.19
314.624	89.19
314.853	94.19
315.083	78.19
315.312	86.19
315.542	94.19
315.771	106.19
316.001	107.19
316.23	83.19
316.46	79.19
316.689	109.19
316.919	90.19
317.148	90.19
317.377	101.19
317.607	96.19
317.836	84.19
318.065	89.19
318.295	91.19
318.524	92.19
318.753	86.19
318.983	96.19
319.212	105.19
319.441	111.19
319.67	96.19
319.9	87.19
320.129	86.19
320.358	84.19
320.587	104.19
320.816	99.19
321.046	92.19
321.275	101.19
321.504	100.19
321.733	104.19
321.962	117.19
322.191	105.19
322.42	109.19
322.649	109.19
322.878	109.19
323.108	120.19
323.337	138.19
323.566	131.19
323.795	152.19
324.024	208.19
324.253	428.19
324.482	898.19
324.71	1903.19
324.939	2586.19
325.168	920.19
325.397	284.19
325.626	153.19
325.855	122.19
326.084	139.19
326.313	137.19
326.542	186.19
326.77	244.19
326.999	501.19
327.228	1016.19
327.457	1886.19
327.686	1528.19
327.914	412.19
328.143	200.19
328.372	150.19
328.6	145.19
328.829	120.19
329.058	135.19
329.287	129.19
329.515	107.19
329.744	87.19
329.972	106.19
330.201	110.19
330.43	132.19
330.658	132.19
330.887	162.19
331.115	138.19
331.344	127.19
331.572	106.19
331.801	113.19
332.03	98.19
332.258	108.19
332.486	99.19
332.715	94.19
332.943	104.19
333.172	91.19
333.4	98.19
333.629	95.19
333.857	98.19
334.085	110.19
334.314	117.19
334.542	140.19
334.771	150.19
334.999	98.19
335.227	95.19
335.455	99.19
335.684	89.19
335.912	93.19
336.14	104.19
336.369	100.19
336.597	108.19
336.825	106.19
337.053	97.19
337.281	105.19
337.51	89.19
337.738	89.19
337.966	85.19
338.194	99.19
338.422	87.19
338.65	89.19
338.878	91.19
339.106	91.19
339.334	88.19
339.562	88.19
339.79	100.19
340.018	102.19
340.246	92.19
340.474	104.19
340.702	99.19
340.93	94.19
341.158	87.19
341.386	91.19
341.614	95.19
341.842	90.19
342.07	80.19
342.298	92.19
342.526	106.19
342.754	94.19
342.981	82.19
343.209	86.19
343.437	96.19
343.665	77.19
343.893	75.19
344.12	84.19
344.348	88.19
344.576	95.19
344.804	88.19
345.031	100.19
345.259	104.19
345.487	101.19
345.714	89.19
345.942	93.19
346.17	82.19
346.397	89.19
346.625	95.19
346.853	100.19
347.08	93.19
347.308	97.19
347.535	111.19
347.763	108.19
347.99	104.19
348.218	104.19
348.445	120.19
348.673	98.19
348.9	84.19
349.128	80.19
349.355	88.19
349.583	92.19
349.81	97.19
350.037	100.19
350.265	91.19
350.492	98.19
350.72	104.19
350.947	105.19
351.174	109.19
351.402	99.19
351.629	96.19
351.856	100.19
352.083	98.19
352.311	107.19
352.538	113.19
352.765	112.19
352.992	110.19
353.22	115.19
353.447	94.19
353.674	101.19
353.901	90.19
354.128	83.19
354.355	100.19
354.583	95.19
354.81	94.19
355.037	91.19
355.264	91.19
355.491	103.19
355.718	90.19
355.945	89.19
356.172	76.19
356.399	95.19
356.626	95.19
356.853	72.19
357.08	87.19
357.307	97.19
357.534	100.19
357.761	97.19
357.988	97.19
358.215	111.19
358.441	91.19
358.668	90.19
358.895	96.19
359.122	90.19
359.349	83.19
359.576	86.19
359.802	105.19
360.029	112.19
360.256	122.19
360.483	94.19
360.709	86.19
360.936	89.19
361.163	91.19
361.39	89.19
361.616	99.19
361.843	77.19
362.07	94.19
362.296	90.19
362.523	90.19
362.749	89.19
362.976	103.19
363.203	96.19
363.429	97.19
363.656	85.19
363.882	93.19
364.109	86.19
364.335	86.19
364.562	87.19
364.788	90.19
365.015	93.19
365.241	101.19
365.468	97.19
365.694	101.19
365.92	91.19
366.147	96.19
366.373	92.19
366.599	87.19
366.826	97.19
367.052	87.19
367.278	80.19
367.505	83.19
367.731	94.19
367.957	86.19
368.184	94.19
368.41	94.19
368.636	108.19
368.862	122.19
369.089	93.19
369.315	101.19
369.541	95.19
369.767	89.19
369.993	87.19
370.219	86.19
370.445	96.19
370.672	90.19
370.898	96.19
371.124	87.19
371.35	87.19
371.576	83.19
371.802	76.19
372.028	99.19
372.254	91.19
372.48	89.19
372.706	81.19
372.932	86.19
373.158	81.19
373.384	93.19
373.61	86.19
373.835	96.19
374.061	88.19
374.287	86.19
374.513	99.19
374.739	102.19
374.965	89.19
375.191	97.19
375.416	95.19
375.642	98.19
375.868	85.19
376.094	89.19
376.319	100.19
376.545	91.19
376.771	94.19
376.997	95.19
377.222	93.19
377.448	102.19
377.674	81.19
377.899	86.19
378.125	99.19
378.35	97.19
378.576	99.19
378.802	77.19
379.027	94.19
379.253	92.19
379.478	87.19
379.704	86.19
379.929	92.19
380.155	88.19
380.38	88.19
380.606	94.19
380.831	98.19
381.057	87.19
381.282	92.19
381.507	94.19
381.733	75.19
381.958	90.19
382.184	93.19
382.409	105.19
382.634	98.19
382.86	100.19
383.085	86.19
383.31	94.19
383.535	102.19
383.761	98.19
383.986	94.19
384.211	97.19
384.436	102.19
384.662	76.19
384.887	97.19
385.112	93.19
385.337	90.19
385.562	101.19
385.787	92.19
386.013	93.19
386.238	91.19
386.463	111.19
386.688	99.19
386.913	91.19
387.138	105.19
387.363	108.19
387.588	96.19
387.813	97.19
388.038	115.19
388.263	81.19
388.488	95.19
388.713	94.19
388.938	90.19
389.163	90.19
389.387	101.19
389.612	88.19
389.837	84.19
390.062	77.19
390.287	88.19
390.512	100.19
390.736	84.19
390.961	84.19
391.186	98.19
391.411	101.19
391.636	99.19
391.86	89.19
392.085	76.19
392.31	90.19
392.534	80.19
392.759	83.19
392.984	86.19
393.208	98.19
393.433	96.19
393.658	109.19
393.882	98.19
394.107	80.19
394.331	66.19
394.556	84.19
394.78	96.19
395.005	82.19
395.229	82.19
395.454	81.19
395.678	86.19
395.903	101.19
396.127	94.19
396.352	92.19
396.576	109.19
396.801	89.19
397.025	95.19
397.249	83.19
397.474	85.19
397.698	73.19
397.922	93.19
398.147	72.19
398.371	88.19
398.595	86.19
398.82	89.19
399.044	90.19
399.268	85.19
399.492	71.19
399.717	68.19
399.941	96.19
400.165	102.19
400.389	96.19
400.613	84.19
400.837	81.19
401.062	77.19
401.286	90.19
401.51	90.19
401.734	97.19
401.958	93.19
402.182	129.19
402.406	160.19
402.63	121.19
402.854	96.19
403.078	94.19
403.302	96.19
403.526	93.19
403.75	96.19
403.974	87.19
404.198	95.19
404.422	71.19
404.645	90.19
404.869	91.19
405.093	97.19
405.317	106.19
405.541	102.19
405.765	102.19
405.988	111.19
406.212	184.19
406.436	222.19
406.66	149.19
406.883	97.19
407.107	102.19
407.331	105.19
407.555	108.19
407.778	95.19
408.002	84.19
408.226	88.19
408.449	82.19
408.673	108.19
408.896	101.19
409.12	103.19
409.344	95.19
409.567	88.19
409.791	92.19
410.014	93.19
410.238	96.19
410.461	83.19
410.685	85.19
410.908	106.19
411.132	95.19
411.355	109.19
411.578	95.19
411.802	89.19
412.025	81.19
412.249	93.19
412.472	82.19
412.695	106.19
412.919	84.19
413.142	89.19
413.365	84.19
413.589	96.19
413.812	97.19
414.035	94.19
414.258	90.19
414.482	78.19
414.705	74.19
414.928	83.19
415.151	89.19
415.374	77.19
415.597	75.19
415.821	78.19
416.044	88.19
416.267	89.19
416.49	100.19
416.713	90.19
416.936	78.19
417.159	84.19
417.382	94.19
417.605	84.19
417.828	98.19
418.051	85.19
418.274	88.19
418.497	90.19
418.72	96.19
418.943	96.19
419.166	97.19
419.389	103.19
419.611	92.19
419.834	87.19
420.057	96.19
420.28	85.19
420.503	89.19
420.726	90.19
420.948	85.19
421.171	104.19
421.394	93.19
421.617	98.19
421.839	93.19
422.062	89.19
422.285	93.19
422.507	116.19
422.73	108.19
422.953	94.19
423.175	95.19
423.398	89.19
423.621	89.19
423.843	85.19
424.066	78.19
424.288	92.19
424.511	110.19
424.733	98.19
424.956	137.19
425.178	115.19
425.401	105.19
425.623	92.19
425.846	85.19
426.068	89.19
426.291	89.19
426.513	93.19
426.735	75.19
426.958	96.19
427.18	110.19
427.402	157.19
427.625	216.19
427.847	160.19
428.069	123.19
428.292	81.19
428.514	95.19
428.736	70.19
428.958	84.19
429.181	81.19
429.403	72.19
429.625	76.19
429.847	88.19
430.069	100.19
430.292	103.19
430.514	82.19
430.736	89.19
430.958	67.19
431.18	78.19
431.402	76.19
431.624	96.19
431.846	94.19
432.068	72.19
432.29	85.19
432.512	75.19
432.734	81.19
432.956	79.19
433.178	97.19
433.4	87.19
433.622	88.19
433.844	81.19
434.066	96.19
434.287	76.19
434.509	92.19
434.731	93.19
434.953	80.19
435.175	92.19
435.397	96.19
435.618	102.19
435.84	109.19
436.062	149.19
436.284	133.19
436.505	114.19
436.727	102.19
436.949	78.19
437.17	97.19
437.392	86.19
437.614	92.19
437.835	104.19
438.057	120.19
438.278	129.19
438.5	116.19
438.721	136.19
438.943	110.19
439.165	87.19
439.386	88.19
439.608	74.19
439.829	94.19
440.05	134.19
440.272	167.19
440.493	113.19
440.715	92.19
440.936	104.19
441.158	83.19
441.379	98.19
441.6	89.19
441.822	84.19
442.043	90.19
442.264	109.19
442.486	135.19
442.707	97.19
442.928	106.19
443.149	141.19
443.371	136.19
443.592	120.19
443.813	118.19
444.034	120.19
444.255	102.19
444.476	90.19
444.698	80.19
444.919	88.19
445.14	130.19
445.361	110.19
445.582	133.19
445.803	170.19
446.024	164.19
446.245	161.19
446.466	128.19
446.687	76.19
446.908	94.19
447.129	77.19
447.35	88.19
447.571	88.19
447.792	97.19
448.013	112.19
448.234	103.19
448.455	106.19
448.675	122.19
448.896	121.19
449.117	109.19
449.338	107.19
449.559	136.19
449.779	166.19
450	117.19
450.221	101.19
450.442	89.19
450.662	101.19
450.883	110.19
451.104	122.19
451.324	92.19
451.545	74.19
451.766	85.19
451.986	82.19
452.207	91.19
452.428	100.19
452.648	83.19
452.869	102.19
453.089	113.19
453.31	100.19
453.53	100.19
453.751	99.19
453.971	107.19
454.192	107.19
454.412	98.19
454.633	86.19
454.853	96.19
455.073	101.19
455.294	96.19
455.514	109.19
455.734	101.19
455.955	90.19
456.175	58.19
456.395	97.19
456.616	87.19
456.836	83.19
457.056	81.19
457.276	97.19
457.497	84.19
457.717	81.19
457.937	84.19
458.157	93.19
458.377	85.19
458.598	105.19
458.818	148.19
459.038	188.19
459.258	118.19
459.478	103.19
459.698	86.19
459.918	88.19
460.138	85.19
460.358	74.19
460.578	74.19
460.798	78.19
461.018	97.19
461.238	80.19
461.458	90.19
461.678	84.19
461.898	81.19
462.118	80.19
462.338	89.19
462.558	80.19
462.777	78.19
462.997	102.19
463.217	92.19
463.437	93.19
463.657	78.19
463.876	82.19
464.096	78.19
464.316	85.19
464.536	97.19
464.755	96.19
464.975	104.19
465.195	174.19
465.414	190.19
465.634	101.19
465.854	86.19
466.073	92.19
466.293	80.19
466.512	89.19
466.732	84.19
466.951	86.19
467.171	84.19
467.391	101.19
467.61	114.19
467.829	118.19
468.049	100.19
468.268	115.19
468.488	101.19
468.707	86.19
468.927	88.19
469.146	76.19
469.365	84.19
469.585	75.19
469.804	86.19
470.023	96.19
470.243	96.19
470.462	100.19
470.681	115.19
470.901	96.19
471.12	88.19
471.339	77.19
471.558	81.19
471.777	102.19
471.997	89.19
472.216	109.19
472.435	152.19
472.654	109.19
472.873	90.19
473.092	78.19
473.311	98.19
473.53	90.19
473.749	94.19
473.968	100.19
474.187	138.19
474.406	102.19
474.625	88.19
474.844	88.19
475.063	96.19
475.282	100.19
475.501	97.19
475.72	90.19
475.939	73.19
476.158	82.19
476.377	78.19
476.596	87.19
476.814	102.19
477.033	95.19
477.252	88.19
477.471	89.19
477.69	94.19
477.908	89.19
478.127	85.19
478.346	106.19
478.564	96.19
478.783	99.19
479.002	96.19
479.22	92.19
479.439	105.19
479.658	115.19
479.876	92.19
480.095	76.19
480.313	94.19
480.532	87.19
480.751	92.19
480.969	125.19
481.188	214.19
481.406	141.19
481.624	101.19
481.843	86.19
482.061	79.19
482.28	80.19
482.498	95.19
482.717	72.19
482.935	83.19
483.153	103.19
483.372	88.19
483.59	76.19
483.808	84.19
484.027	91.19
484.245	86.19
484.463	90.19
484.681	86.19
484.9	92.19
485.118	109.19
485.336	87.19
485.554	94.19
485.772	101.19
485.99	118.19
486.209	109.19
486.427	116.19
486.645	106.19
486.863	118.19
487.081	109.19
487.299	102.19
487.517	93.19
487.735	77.19
487.953	103.19
488.171	88.19
488.389	88.19
488.607	119.19
488.825	91.19
489.043	92.19
489.261	100.19
489.479	85.19
489.696	78.19
489.914	87.19
490.132	77.19
490.35	109.19
490.568	81.19
490.786	88.19
491.003	92.19
491.221	76.19
491.439	78.19
491.657	89.19
491.874	99.19
492.092	98.19
492.31	85.19
492.527	89.19
492.745	107.19
492.963	102.19
493.18	85.19
493.398	89.19
493.615	84.19
493.833	104.19
494.05	90.19
494.268	98.19
494.485	87.19
494.703	81.19
494.92	99.19
495.138	83.19
495.355	85.19
495.573	77.19
495.79	86.19
496.008	83.19
496.225	86.19
496.442	93.19
496.66	78.19
496.877	92.19
497.094	94.19
497.312	89.19
497.529	89.19
497.746	87.19
497.963	88.19
498.181	95.19
498.398	94.19
498.615	90.19
498.832	105.19
499.049	84.19
499.267	96.19
499.484	96.19
499.701	86.19
499.918	81.19
500.135	80.19
500.352	89.19
500.569	88.19
500.786	97.19
501.003	98.19
501.22	83.19
501.437	76.19
501.654	105.19
501.871	118.19
502.088	103.19
502.305	99.19
502.522	84.19
502.739	82.19
502.956	87.19
503.172	83.19
503.389	89.19
503.606	116.19
503.823	96.19
504.04	86.19
504.256	85.19
504.473	107.19
504.69	92.19
504.907	92.19
505.123	94.19
505.34	92.19
505.557	88.19
505.773	87.19
505.99	88.19
506.207	107.19
506.423	86.19
506.64	102.19
506.856	97.19
507.073	74.19
507.289	106.19
507.506	96.19
507.722	133.19
507.939	111.19
508.155	105.19
508.372	96.19
508.588	101.19
508.805	97.19
509.021	99.19
509.238	94.19
509.454	109.19
509.67	88.19
509.887	108.19
510.103	132.19
510.319	209.19
510.536	723.19
510.752	2333.19
510.968	661.19
511.184	141.19
511.401	103.19
511.617	85.19
511.833	91.19
512.049	89.19
512.265	85.19
512.481	93.19
512.698	86.19
512.914	104.19
513.13	98.19
513.346	97.19
513.562	89.19
513.778	93.19
513.994	95.19
514.21	105.19
514.426	131.19
514.642	146.19
514.858	132.19
515.074	163.19
515.29	485.19
515.506	1630.19
