Data from Circ_1981_H10_HRD10591_00063.txt Node
Date: Wed Jan 03 12:34:33 EST 2024
User: Yrep
Spectrometer: HR+D1059
Trigger mode: 1
Integration Time (sec): 1.000000E-1
Scans to average: 1
Electric dark correction enabled: true
Nonlinearity correction enabled: false
Boxcar width: 0
XAxis mode: Wavelengths
Number of Pixels in Spectrum: 2048
>>>>>Begin Spectral Data<<<<<
223.165	-23.62
223.4	-23.62
223.635	-23.62
223.869	-15.62
224.104	-14.62
224.338	-21.62
224.573	-13.62
224.808	-14.62
225.042	-10.62
225.277	-2.62
225.511	7.38
225.746	0.38
225.98	3.38
226.215	-0.62
226.449	18.38
226.683	27.38
226.918	22.38
227.152	38.38
227.387	41.38
227.621	42.38
227.856	50.38
228.09	52.38
228.324	57.38
228.559	59.38
228.793	47.38
229.027	56.38
229.262	64.38
229.496	74.38
229.73	96.38
229.964	91.38
230.199	82.38
230.433	68.38
230.667	73.38
230.901	73.38
231.136	66.38
231.37	64.38
231.604	70.38
231.838	96.38
232.072	74.38
232.306	80.38
232.541	83.38
232.775	79.38
233.009	76.38
233.243	72.38
233.477	73.38
233.711	82.38
233.945	74.38
234.179	71.38
234.413	81.38
234.647	67.38
234.881	74.38
235.115	74.38
235.349	77.38
235.583	88.38
235.817	75.38
236.051	75.38
236.285	75.38
236.519	80.38
236.753	91.38
236.987	76.38
237.221	88.38
237.455	83.38
237.689	79.38
237.922	78.38
238.156	70.38
238.39	75.38
238.624	59.38
238.858	74.38
239.091	74.38
239.325	71.38
239.559	82.38
239.793	83.38
240.027	73.38
240.26	61.38
240.494	77.38
240.728	80.38
240.961	79.38
241.195	72.38
241.429	79.38
241.662	72.38
241.896	66.38
242.13	65.38
242.363	73.38
242.597	83.38
242.83	77.38
243.064	78.38
243.298	65.38
243.531	83.38
243.765	73.38
243.998	71.38
244.232	74.38
244.465	74.38
244.699	73.38
244.932	82.38
245.166	81.38
245.399	78.38
245.633	81.38
245.866	77.38
246.099	81.38
246.333	69.38
246.566	68.38
246.8	74.38
247.033	73.38
247.266	88.38
247.5	61.38
247.733	71.38
247.966	63.38
248.2	66.38
248.433	72.38
248.666	69.38
248.899	68.38
249.133	81.38
249.366	100.38
249.599	107.38
249.832	83.38
250.066	74.38
250.299	73.38
250.532	82.38
250.765	69.38
250.998	81.38
251.231	81.38
251.465	67.38
251.698	79.38
251.931	65.38
252.164	81.38
252.397	78.38
252.63	66.38
252.863	80.38
253.096	67.38
253.329	73.38
253.562	90.38
253.795	79.38
254.028	86.38
254.261	65.38
254.494	85.38
254.727	99.38
254.96	74.38
255.193	77.38
255.426	85.38
255.659	91.38
255.892	65.38
256.124	88.38
256.357	87.38
256.59	76.38
256.823	83.38
257.056	91.38
257.289	83.38
257.521	80.38
257.754	81.38
257.987	69.38
258.22	91.38
258.452	79.38
258.685	59.38
258.918	73.38
259.151	79.38
259.383	81.38
259.616	98.38
259.849	77.38
260.081	79.38
260.314	74.38
260.547	75.38
260.779	70.38
261.012	91.38
261.244	87.38
261.477	95.38
261.71	97.38
261.942	121.38
262.175	143.38
262.407	82.38
262.64	78.38
262.872	80.38
263.105	83.38
263.337	95.38
263.57	86.38
263.802	85.38
264.035	86.38
264.267	60.38
264.499	79.38
264.732	61.38
264.964	83.38
265.197	81.38
265.429	85.38
265.661	86.38
265.894	85.38
266.126	72.38
266.358	94.38
266.591	74.38
266.823	77.38
267.055	83.38
267.287	80.38
267.52	83.38
267.752	87.38
267.984	78.38
268.216	88.38
268.448	87.38
268.681	84.38
268.913	85.38
269.145	81.38
269.377	86.38
269.609	77.38
269.841	76.38
270.073	83.38
270.306	81.38
270.538	71.38
270.77	82.38
271.002	93.38
271.234	89.38
271.466	99.38
271.698	78.38
271.93	79.38
272.162	89.38
272.394	91.38
272.626	87.38
272.858	89.38
273.09	69.38
273.322	102.38
273.553	75.38
273.785	94.38
274.017	63.38
274.249	66.38
274.481	75.38
274.713	73.38
274.945	93.38
275.176	85.38
275.408	97.38
275.64	83.38
275.872	86.38
276.104	99.38
276.335	90.38
276.567	128.38
276.799	116.38
277.031	118.38
277.262	104.38
277.494	94.38
277.726	73.38
277.957	73.38
278.189	91.38
278.421	74.38
278.652	88.38
278.884	80.38
279.115	95.38
279.347	90.38
279.579	75.38
279.81	79.38
280.042	89.38
280.273	88.38
280.505	85.38
280.736	83.38
280.968	95.38
281.199	85.38
281.431	87.38
281.662	81.38
281.894	71.38
282.125	89.38
282.356	138.38
282.588	153.38
282.819	129.38
283.051	86.38
283.282	99.38
283.513	93.38
283.745	96.38
283.976	92.38
284.207	82.38
284.439	87.38
284.67	91.38
284.901	78.38
285.132	87.38
285.364	88.38
285.595	87.38
285.826	95.38
286.057	86.38
286.288	92.38
286.52	94.38
286.751	87.38
286.982	81.38
287.213	85.38
287.444	88.38
287.675	90.38
287.906	91.38
288.138	92.38
288.369	83.38
288.6	96.38
288.831	99.38
289.062	87.38
289.293	83.38
289.524	83.38
289.755	94.38
289.986	89.38
290.217	83.38
290.448	83.38
290.679	82.38
290.91	89.38
291.141	87.38
291.371	86.38
291.602	90.38
291.833	90.38
292.064	81.38
292.295	93.38
292.526	85.38
292.757	94.38
292.987	88.38
293.218	74.38
293.449	87.38
293.68	87.38
293.91	91.38
294.141	83.38
294.372	87.38
294.603	94.38
294.833	102.38
295.064	84.38
295.295	103.38
295.525	96.38
295.756	116.38
295.987	127.38
296.217	150.38
296.448	128.38
296.679	93.38
296.909	100.38
297.14	92.38
297.37	98.38
297.601	104.38
297.831	101.38
298.062	85.38
298.292	87.38
298.523	94.38
298.753	79.38
298.984	81.38
299.214	96.38
299.445	90.38
299.675	79.38
299.905	92.38
300.136	93.38
300.366	81.38
300.597	91.38
300.827	83.38
301.057	100.38
301.288	111.38
301.518	101.38
301.748	107.38
301.979	116.38
302.209	104.38
302.439	84.38
302.669	93.38
302.9	94.38
303.13	90.38
303.36	87.38
303.59	111.38
303.82	122.38
304.051	94.38
304.281	89.38
304.511	82.38
304.741	88.38
304.971	72.38
305.201	83.38
305.431	87.38
305.661	98.38
305.891	81.38
306.121	106.38
306.352	93.38
306.582	106.38
306.812	99.38
307.042	83.38
307.272	100.38
307.502	107.38
307.731	100.38
307.961	74.38
308.191	74.38
308.421	93.38
308.651	84.38
308.881	88.38
309.111	93.38
309.341	87.38
309.571	82.38
309.8	110.38
310.03	101.38
310.26	109.38
310.49	105.38
310.72	105.38
310.949	125.38
311.179	107.38
311.409	106.38
311.639	106.38
311.868	90.38
312.098	89.38
312.328	97.38
312.557	121.38
312.787	129.38
313.017	114.38
313.246	74.38
313.476	93.38
313.706	103.38
313.935	108.38
314.165	98.38
314.394	128.38
314.624	100.38
314.853	97.38
315.083	89.38
315.312	86.38
315.542	89.38
315.771	98.38
316.001	98.38
316.23	104.38
316.46	89.38
316.689	90.38
316.919	98.38
317.148	97.38
317.377	92.38
317.607	107.38
317.836	90.38
318.065	95.38
318.295	77.38
318.524	95.38
318.753	78.38
318.983	85.38
319.212	114.38
319.441	116.38
319.67	117.38
319.9	91.38
320.129	92.38
320.358	85.38
320.587	95.38
320.816	110.38
321.046	94.38
321.275	104.38
321.504	96.38
321.733	114.38
321.962	115.38
322.191	98.38
322.42	114.38
322.649	121.38
322.878	121.38
323.108	121.38
323.337	158.38
323.566	146.38
323.795	186.38
324.024	231.38
324.253	491.38
324.482	1075.38
324.71	2302.38
324.939	3199.38
325.168	1111.38
325.397	307.38
325.626	173.38
325.855	147.38
326.084	151.38
326.313	144.38
326.542	168.38
326.77	273.38
326.999	567.38
327.228	1183.38
327.457	2285.38
327.686	1855.38
327.914	467.38
328.143	237.38
328.372	200.38
328.6	161.38
328.829	131.38
329.058	169.38
329.287	170.38
329.515	130.38
329.744	107.38
329.972	127.38
330.201	134.38
330.43	166.38
330.658	171.38
330.887	211.38
331.115	165.38
331.344	95.38
331.572	132.38
331.801	129.38
332.03	114.38
332.258	103.38
332.486	84.38
332.715	78.38
332.943	97.38
333.172	92.38
333.4	101.38
333.629	113.38
333.857	120.38
334.085	110.38
334.314	131.38
334.542	179.38
334.771	174.38
334.999	113.38
335.227	105.38
335.455	82.38
335.684	101.38
335.912	101.38
336.14	108.38
336.369	105.38
336.597	106.38
336.825	97.38
337.053	98.38
337.281	88.38
337.51	93.38
337.738	90.38
337.966	85.38
338.194	105.38
338.422	101.38
338.65	94.38
338.878	85.38
339.106	80.38
339.334	98.38
339.562	86.38
339.79	68.38
340.018	84.38
340.246	81.38
340.474	92.38
340.702	114.38
340.93	93.38
341.158	91.38
341.386	108.38
341.614	103.38
341.842	95.38
342.07	99.38
342.298	96.38
342.526	99.38
342.754	91.38
342.981	84.38
343.209	99.38
343.437	101.38
343.665	86.38
343.893	89.38
344.12	98.38
344.348	102.38
344.576	94.38
344.804	93.38
345.031	97.38
345.259	108.38
345.487	97.38
345.714	90.38
345.942	97.38
346.17	95.38
346.397	94.38
346.625	91.38
346.853	85.38
347.08	76.38
347.308	87.38
347.535	105.38
347.763	104.38
347.99	101.38
348.218	121.38
348.445	120.38
348.673	106.38
348.9	113.38
349.128	97.38
349.355	81.38
349.583	95.38
349.81	104.38
350.037	95.38
350.265	93.38
350.492	103.38
350.72	91.38
350.947	108.38
351.174	117.38
351.402	129.38
351.629	113.38
351.856	103.38
352.083	119.38
352.311	123.38
352.538	149.38
352.765	125.38
352.992	135.38
353.22	115.38
353.447	89.38
353.674	99.38
353.901	103.38
354.128	95.38
354.355	98.38
354.583	89.38
354.81	95.38
355.037	83.38
355.264	81.38
355.491	98.38
355.718	83.38
355.945	89.38
356.172	95.38
356.399	95.38
356.626	98.38
356.853	100.38
357.08	90.38
357.307	97.38
357.534	85.38
357.761	90.38
357.988	79.38
358.215	103.38
358.441	93.38
358.668	106.38
358.895	98.38
359.122	87.38
359.349	95.38
359.576	98.38
359.802	118.38
360.029	138.38
360.256	135.38
360.483	102.38
360.709	86.38
360.936	102.38
361.163	110.38
361.39	109.38
361.616	106.38
361.843	102.38
362.07	100.38
362.296	111.38
362.523	101.38
362.749	106.38
362.976	97.38
363.203	98.38
363.429	90.38
363.656	82.38
363.882	102.38
364.109	93.38
364.335	92.38
364.562	102.38
364.788	81.38
365.015	99.38
365.241	105.38
365.468	128.38
365.694	109.38
365.92	108.38
366.147	107.38
366.373	101.38
366.599	93.38
366.826	78.38
367.052	102.38
367.278	77.38
367.505	95.38
367.731	97.38
367.957	88.38
368.184	85.38
368.41	114.38
368.636	119.38
368.862	127.38
369.089	106.38
369.315	106.38
369.541	86.38
369.767	94.38
369.993	97.38
370.219	101.38
370.445	89.38
370.672	84.38
370.898	92.38
371.124	83.38
371.35	66.38
371.576	97.38
371.802	78.38
372.028	86.38
372.254	89.38
372.48	77.38
372.706	71.38
372.932	90.38
373.158	89.38
373.384	85.38
373.61	100.38
373.835	112.38
374.061	94.38
374.287	113.38
374.513	89.38
374.739	102.38
374.965	79.38
375.191	85.38
375.416	88.38
375.642	93.38
375.868	109.38
376.094	104.38
376.319	97.38
376.545	93.38
376.771	88.38
376.997	99.38
377.222	99.38
377.448	99.38
377.674	83.38
377.899	84.38
378.125	85.38
378.35	92.38
378.576	85.38
378.802	86.38
379.027	93.38
379.253	92.38
379.478	93.38
379.704	87.38
379.929	91.38
380.155	97.38
380.38	75.38
380.606	83.38
380.831	90.38
381.057	105.38
381.282	93.38
381.507	93.38
381.733	88.38
381.958	112.38
382.184	83.38
382.409	85.38
382.634	96.38
382.86	101.38
383.085	105.38
383.31	110.38
383.535	102.38
383.761	101.38
383.986	89.38
384.211	91.38
384.436	99.38
384.662	98.38
384.887	93.38
385.112	103.38
385.337	107.38
385.562	110.38
385.787	107.38
386.013	108.38
386.238	107.38
386.463	99.38
386.688	102.38
386.913	99.38
387.138	87.38
387.363	107.38
387.588	100.38
387.813	83.38
388.038	111.38
388.263	113.38
388.488	91.38
388.713	104.38
388.938	109.38
389.163	94.38
389.387	77.38
389.612	89.38
389.837	89.38
390.062	75.38
390.287	89.38
390.512	94.38
390.736	96.38
390.961	93.38
391.186	87.38
391.411	69.38
391.636	85.38
391.86	80.38
392.085	74.38
392.31	100.38
392.534	103.38
392.759	87.38
392.984	88.38
393.208	76.38
393.433	86.38
393.658	89.38
393.882	79.38
394.107	79.38
394.331	77.38
394.556	81.38
394.78	109.38
395.005	89.38
395.229	74.38
395.454	92.38
395.678	81.38
395.903	96.38
396.127	99.38
396.352	89.38
396.576	82.38
396.801	84.38
397.025	91.38
397.249	85.38
397.474	79.38
397.698	69.38
397.922	85.38
398.147	99.38
398.371	91.38
398.595	81.38
398.82	86.38
399.044	90.38
399.268	86.38
399.492	85.38
399.717	83.38
399.941	80.38
400.165	86.38
400.389	81.38
400.613	87.38
400.837	94.38
401.062	102.38
401.286	79.38
401.51	102.38
401.734	86.38
401.958	103.38
402.182	150.38
402.406	174.38
402.63	136.38
402.854	106.38
403.078	97.38
403.302	79.38
403.526	72.38
403.75	78.38
403.974	92.38
404.198	73.38
404.422	84.38
404.645	83.38
404.869	103.38
405.093	104.38
405.317	102.38
405.541	112.38
405.765	93.38
405.988	128.38
406.212	205.38
406.436	311.38
406.66	203.38
406.883	106.38
407.107	119.38
407.331	96.38
407.555	95.38
407.778	127.38
408.002	78.38
408.226	85.38
408.449	98.38
408.673	89.38
408.896	99.38
409.12	101.38
409.344	87.38
409.567	99.38
409.791	89.38
410.014	82.38
410.238	83.38
410.461	88.38
410.685	95.38
410.908	101.38
411.132	104.38
411.355	103.38
411.578	90.38
411.802	69.38
412.025	80.38
412.249	89.38
412.472	100.38
412.695	104.38
412.919	79.38
413.142	101.38
413.365	73.38
413.589	81.38
413.812	85.38
414.035	90.38
414.258	94.38
414.482	99.38
414.705	84.38
414.928	83.38
415.151	78.38
415.374	81.38
415.597	87.38
415.821	83.38
416.044	88.38
416.267	96.38
416.49	102.38
416.713	84.38
416.936	82.38
417.159	75.38
417.382	84.38
417.605	103.38
417.828	101.38
418.051	105.38
418.274	88.38
418.497	97.38
418.72	75.38
418.943	105.38
419.166	89.38
419.389	86.38
419.611	87.38
419.834	83.38
420.057	84.38
420.28	77.38
420.503	92.38
420.726	85.38
420.948	80.38
421.171	105.38
421.394	82.38
421.617	89.38
421.839	103.38
422.062	88.38
422.285	86.38
422.507	109.38
422.73	108.38
422.953	97.38
423.175	73.38
423.398	96.38
423.621	85.38
423.843	84.38
424.066	88.38
424.288	98.38
424.511	70.38
424.733	89.38
424.956	117.38
425.178	107.38
425.401	105.38
425.623	98.38
425.846	97.38
426.068	108.38
426.291	91.38
426.513	87.38
426.735	101.38
426.958	95.38
427.18	113.38
427.402	170.38
427.625	239.38
427.847	179.38
428.069	118.38
428.292	105.38
428.514	81.38
428.736	97.38
428.958	64.38
429.181	90.38
429.403	84.38
429.625	87.38
429.847	94.38
430.069	97.38
430.292	103.38
430.514	75.38
430.736	95.38
430.958	68.38
431.18	73.38
431.402	81.38
431.624	91.38
431.846	90.38
432.068	86.38
432.29	83.38
432.512	90.38
432.734	85.38
432.956	90.38
433.178	96.38
433.4	102.38
433.622	97.38
433.844	87.38
434.066	96.38
434.287	93.38
434.509	80.38
434.731	74.38
434.953	80.38
435.175	95.38
435.397	85.38
435.618	125.38
435.84	104.38
436.062	143.38
436.284	139.38
436.505	99.38
436.727	104.38
436.949	94.38
437.17	96.38
437.392	97.38
437.614	97.38
437.835	118.38
438.057	134.38
438.278	131.38
438.5	119.38
438.721	157.38
438.943	108.38
439.165	96.38
439.386	98.38
439.608	96.38
439.829	106.38
440.05	160.38
440.272	207.38
440.493	114.38
440.715	82.38
440.936	95.38
441.158	101.38
441.379	94.38
441.6	98.38
441.822	96.38
442.043	112.38
442.264	131.38
442.486	118.38
442.707	106.38
442.928	118.38
443.149	165.38
443.371	161.38
443.592	130.38
443.813	131.38
444.034	119.38
444.255	93.38
444.476	97.38
444.698	91.38
444.919	88.38
445.14	124.38
445.361	139.38
445.582	133.38
445.803	189.38
446.024	206.38
446.245	169.38
446.466	139.38
446.687	90.38
446.908	85.38
447.129	92.38
447.35	91.38
447.571	97.38
447.792	93.38
448.013	102.38
448.234	116.38
448.455	122.38
448.675	134.38
448.896	141.38
449.117	97.38
449.338	97.38
449.559	148.38
449.779	168.38
450	102.38
450.221	93.38
450.442	101.38
450.662	105.38
450.883	123.38
451.104	136.38
451.324	105.38
451.545	85.38
451.766	95.38
451.986	88.38
452.207	90.38
452.428	79.38
452.648	110.38
452.869	109.38
453.089	118.38
453.31	134.38
453.53	91.38
453.751	100.38
453.971	118.38
454.192	135.38
454.412	95.38
454.633	90.38
454.853	87.38
455.073	87.38
455.294	95.38
455.514	120.38
455.734	103.38
455.955	89.38
456.175	74.38
456.395	81.38
456.616	95.38
456.836	91.38
457.056	81.38
457.276	88.38
457.497	77.38
457.717	82.38
457.937	100.38
458.157	86.38
458.377	90.38
458.598	121.38
458.818	222.38
459.038	225.38
459.258	145.38
459.478	107.38
459.698	94.38
459.918	85.38
460.138	85.38
460.358	93.38
460.578	91.38
460.798	98.38
461.018	91.38
461.238	97.38
461.458	71.38
461.678	79.38
461.898	89.38
462.118	77.38
462.338	73.38
462.558	73.38
462.777	87.38
462.997	100.38
463.217	79.38
463.437	72.38
463.657	80.38
463.876	88.38
464.096	90.38
464.316	104.38
464.536	105.38
464.755	94.38
464.975	126.38
465.195	237.38
465.414	265.38
465.634	115.38
465.854	85.38
466.073	88.38
466.293	103.38
466.512	82.38
466.732	89.38
466.951	80.38
467.171	92.38
467.391	97.38
467.61	118.38
467.829	99.38
468.049	113.38
468.268	106.38
468.488	90.38
468.707	91.38
468.927	84.38
469.146	77.38
469.365	92.38
469.585	82.38
469.804	93.38
470.023	105.38
470.243	92.38
470.462	104.38
470.681	123.38
470.901	100.38
471.12	91.38
471.339	69.38
471.558	78.38
471.777	103.38
471.997	93.38
472.216	127.38
472.435	164.38
472.654	110.38
472.873	97.38
473.092	90.38
473.311	82.38
473.53	80.38
473.749	89.38
473.968	104.38
474.187	151.38
474.406	97.38
474.625	99.38
474.844	81.38
475.063	87.38
475.282	99.38
475.501	99.38
475.72	83.38
475.939	89.38
476.158	93.38
476.377	89.38
476.596	93.38
476.814	103.38
477.033	90.38
477.252	95.38
477.471	86.38
477.69	81.38
477.908	84.38
478.127	84.38
478.346	78.38
478.564	94.38
478.783	99.38
479.002	102.38
479.22	104.38
479.439	107.38
479.658	119.38
479.876	88.38
480.095	101.38
480.313	86.38
480.532	84.38
480.751	96.38
480.969	125.38
481.188	258.38
481.406	192.38
481.624	118.38
481.843	90.38
482.061	82.38
482.28	83.38
482.498	70.38
482.717	82.38
482.935	79.38
483.153	71.38
483.372	72.38
483.59	85.38
483.808	93.38
484.027	87.38
484.245	88.38
484.463	79.38
484.681	117.38
484.9	100.38
485.118	88.38
485.336	99.38
485.554	86.38
485.772	99.38
485.99	90.38
486.209	106.38
486.427	100.38
486.645	121.38
486.863	127.38
487.081	105.38
487.299	98.38
487.517	88.38
487.735	91.38
487.953	98.38
488.171	85.38
488.389	89.38
488.607	96.38
488.825	87.38
489.043	92.38
489.261	87.38
489.479	88.38
489.696	82.38
489.914	95.38
490.132	83.38
490.35	104.38
490.568	90.38
490.786	90.38
491.003	89.38
491.221	81.38
491.439	106.38
491.657	90.38
491.874	99.38
492.092	81.38
492.31	84.38
492.527	85.38
492.745	75.38
492.963	87.38
493.18	89.38
493.398	91.38
493.615	99.38
493.833	102.38
494.05	73.38
494.268	82.38
494.485	82.38
494.703	105.38
494.92	99.38
495.138	87.38
495.355	97.38
495.573	81.38
495.79	81.38
496.008	98.38
496.225	86.38
496.442	104.38
496.66	83.38
496.877	86.38
497.094	88.38
497.312	90.38
497.529	88.38
497.746	83.38
497.963	73.38
498.181	104.38
498.398	99.38
498.615	108.38
498.832	93.38
499.049	72.38
499.267	78.38
499.484	95.38
499.701	92.38
499.918	88.38
500.135	88.38
500.352	80.38
500.569	87.38
500.786	97.38
501.003	94.38
501.22	93.38
501.437	105.38
501.654	102.38
501.871	128.38
502.088	97.38
502.305	89.38
502.522	104.38
502.739	80.38
502.956	94.38
503.172	82.38
503.389	91.38
503.606	108.38
503.823	102.38
504.04	97.38
504.256	91.38
504.473	80.38
504.69	81.38
504.907	91.38
505.123	83.38
505.34	92.38
505.557	89.38
505.773	97.38
505.99	93.38
506.207	79.38
506.423	86.38
506.64	78.38
506.856	82.38
507.073	94.38
507.289	102.38
507.506	82.38
507.722	138.38
507.939	133.38
508.155	98.38
508.372	95.38
508.588	104.38
508.805	93.38
509.021	100.38
509.238	107.38
509.454	89.38
509.67	98.38
509.887	106.38
510.103	152.38
510.319	227.38
510.536	859.38
510.752	2889.38
510.968	755.38
511.184	165.38
511.401	125.38
511.617	80.38
511.833	106.38
512.049	78.38
512.265	80.38
512.481	90.38
512.698	89.38
512.914	95.38
513.13	90.38
513.346	90.38
513.562	108.38
513.778	107.38
513.994	90.38
514.21	95.38
514.426	153.38
514.642	179.38
