Data from Circ_1981_H10_HRD10591_00060.txt Node
Date: Wed Jan 03 12:34:33 EST 2024
User: Yrep
Spectrometer: HR+D1059
Trigger mode: 1
Integration Time (sec): 1.000000E-1
Scans to average: 1
Electric dark correction enabled: true
Nonlinearity correction enabled: false
Boxcar width: 0
XAxis mode: Wavelengths
Number of Pixels in Spectrum: 2048
>>>>>Begin Spectral Data<<<<<
223.165	-16.5
223.4	-16.5
223.635	-16.5
223.869	-18.5
224.104	-11.5
224.338	-28.5
224.573	-1.5
224.808	-8.5
225.042	-1.5
225.277	4.5
225.511	-2.5
225.746	-11.5
225.98	14.5
226.215	-8.5
226.449	8.5
226.683	9.5
226.918	39.5
227.152	32.5
227.387	39.5
227.621	40.5
227.856	55.5
228.09	40.5
228.324	67.5
228.559	55.5
228.793	169.5
229.027	468.5
229.262	535.5
229.496	634.5
229.73	846.5
229.964	842.5
230.199	555.5
230.433	481.5
230.667	501.5
230.901	469.5
231.136	459.5
231.37	445.5
231.604	450.5
231.838	467.5
232.072	456.5
232.306	477.5
232.541	481.5
232.775	497.5
233.009	495.5
233.243	483.5
233.477	503.5
233.711	517.5
233.945	510.5
234.179	519.5
234.413	534.5
234.647	516.5
234.881	531.5
235.115	547.5
235.349	539.5
235.583	572.5
235.817	618.5
236.051	682.5
236.285	633.5
236.519	646.5
236.753	727.5
236.987	912.5
237.221	1409.5
237.455	1565.5
237.689	914.5
237.922	757.5
238.156	775.5
238.39	717.5
238.624	697.5
238.858	683.5
239.091	673.5
239.325	704.5
239.559	724.5
239.793	745.5
240.027	792.5
240.26	985.5
240.494	1073.5
240.728	1031.5
240.961	962.5
241.195	857.5
241.429	812.5
241.662	765.5
241.896	785.5
242.13	806.5
242.363	807.5
242.597	843.5
242.83	813.5
243.064	856.5
243.298	824.5
243.531	844.5
243.765	884.5
243.998	880.5
244.232	887.5
244.465	947.5
244.699	952.5
244.932	924.5
245.166	927.5
245.399	940.5
245.633	940.5
245.866	955.5
246.099	950.5
246.333	988.5
246.566	991.5
246.8	1004.5
247.033	1041.5
247.266	1115.5
247.5	1138.5
247.733	1211.5
247.966	1215.5
248.2	1183.5
248.433	1221.5
248.666	1272.5
248.899	1425.5
249.133	1548.5
249.366	1561.5
249.599	1383.5
249.832	1272.5
250.066	1274.5
250.299	1353.5
250.532	1451.5
250.765	1638.5
250.998	1882.5
251.231	1760.5
251.465	1519.5
251.698	1487.5
251.931	1440.5
252.164	1441.5
252.397	1467.5
252.63	1545.5
252.863	1635.5
253.096	1746.5
253.329	1837.5
253.562	1745.5
253.795	1649.5
254.028	1644.5
254.261	1696.5
254.494	1923.5
254.727	2325.5
254.96	2369.5
255.193	2038.5
255.426	1861.5
255.659	1743.5
255.892	1797.5
256.124	1900.5
256.357	1832.5
256.59	1711.5
256.823	1627.5
257.056	1608.5
257.289	1636.5
257.521	1623.5
257.754	1628.5
257.987	1579.5
258.22	1612.5
258.452	1643.5
258.685	1597.5
258.918	1668.5
259.151	1690.5
259.383	1770.5
259.616	1783.5
259.849	1810.5
260.081	2094.5
260.314	2261.5
260.547	2140.5
260.779	1927.5
261.012	1881.5
261.244	1804.5
261.477	1760.5
261.71	1792.5
261.942	1809.5
262.175	1867.5
262.407	1796.5
262.64	1697.5
262.872	1667.5
263.105	1713.5
263.337	1704.5
263.57	1710.5
263.802	1722.5
264.035	1679.5
264.267	1683.5
264.499	1722.5
264.732	1763.5
264.964	1718.5
265.197	1748.5
265.429	1743.5
265.661	1766.5
265.894	1762.5
266.126	1790.5
266.358	1814.5
266.591	1866.5
266.823	1915.5
267.055	1955.5
267.287	1940.5
267.52	1898.5
267.752	1899.5
267.984	1896.5
268.216	1938.5
268.448	1983.5
268.681	2059.5
268.913	2169.5
269.145	2447.5
269.377	2501.5
269.609	2354.5
269.841	2315.5
270.073	2487.5
270.306	2753.5
270.538	2954.5
270.77	2781.5
271.002	2575.5
271.234	2523.5
271.466	2751.5
271.698	2897.5
271.93	2895.5
272.162	2936.5
272.394	2773.5
272.626	2579.5
272.858	2439.5
273.09	2363.5
273.322	2330.5
273.553	2255.5
273.785	2273.5
274.017	2307.5
274.249	2310.5
274.481	2315.5
274.713	2344.5
274.945	2342.5
275.176	2373.5
275.408	2312.5
275.64	2366.5
275.872	2343.5
276.104	2361.5
276.335	2399.5
276.567	2447.5
276.799	2699.5
277.031	2963.5
277.262	3107.5
277.494	2898.5
277.726	2700.5
277.957	2591.5
278.189	2503.5
278.421	2461.5
278.652	2431.5
278.884	2430.5
279.115	2443.5
279.347	2390.5
279.579	2440.5
279.81	2409.5
280.042	2411.5
280.273	2420.5
280.505	2468.5
280.736	2461.5
280.968	2413.5
281.199	2480.5
281.431	2507.5
281.662	2543.5
281.894	2490.5
282.125	2587.5
282.356	2747.5
282.588	2916.5
282.819	2746.5
283.051	2569.5
283.282	2601.5
283.513	2640.5
283.745	2660.5
283.976	2710.5
284.207	2713.5
284.439	2682.5
284.67	2657.5
284.901	2721.5
285.132	2628.5
285.364	2678.5
285.595	2695.5
285.826	2666.5
286.057	2758.5
286.288	2665.5
286.52	2726.5
286.751	2759.5
286.982	2732.5
287.213	2721.5
287.444	2744.5
287.675	2889.5
287.906	2970.5
288.138	3019.5
288.369	3000.5
288.6	2911.5
288.831	2889.5
289.062	2853.5
289.293	2832.5
289.524	2832.5
289.755	2855.5
289.986	2849.5
290.217	2870.5
290.448	2829.5
290.679	2873.5
290.91	2831.5
291.141	2819.5
291.371	2868.5
291.602	2871.5
291.833	2851.5
292.064	2875.5
292.295	2881.5
292.526	2858.5
292.757	2799.5
292.987	2852.5
293.218	2813.5
293.449	2898.5
293.68	2859.5
293.91	2828.5
294.141	2881.5
294.372	2879.5
294.603	2893.5
294.833	2854.5
295.064	2915.5
295.295	2865.5
295.525	2913.5
295.756	2979.5
295.987	3083.5
296.217	3267.5
296.448	3158.5
296.679	2966.5
296.909	2961.5
297.14	2957.5
297.37	3077.5
297.601	3068.5
297.831	3084.5
298.062	3098.5
298.292	3076.5
298.523	3187.5
298.753	3103.5
298.984	3094.5
299.214	3111.5
299.445	3149.5
299.675	3152.5
299.905	3168.5
300.136	3183.5
300.366	3155.5
300.597	3191.5
300.827	3237.5
301.057	3339.5
301.288	3433.5
301.518	3343.5
301.748	3424.5
301.979	3423.5
302.209	3462.5
302.439	3438.5
302.669	3373.5
302.9	3345.5
303.13	3328.5
303.36	3398.5
303.59	3393.5
303.82	3413.5
304.051	3457.5
304.281	3305.5
304.511	3336.5
304.741	3293.5
304.971	3323.5
305.201	3300.5
305.431	3298.5
305.661	3317.5
305.891	3337.5
306.121	3306.5
306.352	3402.5
306.582	3378.5
306.812	3283.5
307.042	3310.5
307.272	3255.5
307.502	3330.5
307.731	3276.5
307.961	3330.5
308.191	3376.5
308.421	3303.5
308.651	3338.5
308.881	3289.5
309.111	3413.5
309.341	3383.5
309.571	3497.5
309.8	3578.5
310.03	3645.5
310.26	3604.5
310.49	3639.5
310.72	3809.5
310.949	3905.5
311.179	3866.5
311.409	3701.5
311.639	3687.5
311.868	3740.5
312.098	3780.5
312.328	3810.5
312.557	3960.5
312.787	4080.5
313.017	3928.5
313.246	3835.5
313.476	3751.5
313.706	3844.5
313.935	3899.5
314.165	3998.5
314.394	4068.5
314.624	3923.5
314.853	3899.5
315.083	3783.5
315.312	3766.5
315.542	3776.5
315.771	3720.5
316.001	3701.5
316.23	3696.5
316.46	3643.5
316.689	3792.5
316.919	3787.5
317.148	3841.5
317.377	3842.5
317.607	3799.5
317.836	3791.5
318.065	3704.5
318.295	3687.5
318.524	3732.5
318.753	3717.5
318.983	3712.5
319.212	3719.5
319.441	3772.5
319.67	3760.5
319.9	3729.5
320.129	3716.5
320.358	3753.5
320.587	3823.5
320.816	3846.5
321.046	3871.5
321.275	3863.5
321.504	3826.5
321.733	3932.5
321.962	3985.5
322.191	4025.5
322.42	4172.5
322.649	4220.5
322.878	4279.5
323.108	4433.5
323.337	4609.5
323.566	4781.5
323.795	5042.5
324.024	5526.5
324.253	7305.5
324.482	11020.5
324.71	15253.5
324.939	15629.5
325.168	13188.5
325.397	6533.5
325.626	5159.5
325.855	4768.5
326.084	4659.5
326.313	4761.5
326.542	4899.5
326.77	5547.5
326.999	6969.5
327.228	10165.5
327.457	14564.5
327.686	13963.5
327.914	7413.5
328.143	5951.5
328.372	5709.5
328.6	5309.5
328.829	5364.5
329.058	5643.5
329.287	5636.5
329.515	5122.5
329.744	4935.5
329.972	4999.5
330.201	5300.5
330.43	5665.5
330.658	5872.5
330.887	6278.5
331.115	5712.5
331.344	5160.5
331.572	4955.5
331.801	5137.5
332.03	5116.5
332.258	5019.5
332.486	4967.5
332.715	5041.5
332.943	5188.5
333.172	5393.5
333.4	5591.5
333.629	5607.5
333.857	5822.5
334.085	5775.5
334.314	5911.5
334.542	6125.5
334.771	6066.5
334.999	5525.5
335.227	5315.5
335.455	5199.5
335.684	5096.5
335.912	5062.5
336.14	4962.5
336.369	4994.5
336.597	5127.5
336.825	5017.5
337.053	4965.5
337.281	4776.5
337.51	4735.5
337.738	4810.5
337.966	4713.5
338.194	4806.5
338.422	4724.5
338.65	4588.5
338.878	4621.5
339.106	4523.5
339.334	4497.5
339.562	4531.5
339.79	4435.5
340.018	4438.5
340.246	4507.5
340.474	4490.5
340.702	4411.5
340.93	4416.5
341.158	4418.5
341.386	4489.5
341.614	4488.5
341.842	4449.5
342.07	4333.5
342.298	4335.5
342.526	4333.5
342.754	4278.5
342.981	4273.5
343.209	4400.5
343.437	4599.5
343.665	4899.5
343.893	5103.5
344.12	5206.5
344.348	5001.5
344.576	4804.5
344.804	4767.5
345.031	4794.5
345.259	4712.5
345.487	4501.5
345.714	4352.5
345.942	4359.5
346.17	4205.5
346.397	4228.5
346.625	4243.5
346.853	4208.5
347.08	4218.5
347.308	4260.5
347.535	4359.5
347.763	4379.5
347.99	4340.5
348.218	4391.5
348.445	4379.5
348.673	4280.5
348.9	4220.5
349.128	4147.5
349.355	4072.5
349.583	4104.5
349.81	4082.5
350.037	4098.5
350.265	4067.5
350.492	4044.5
350.72	4131.5
350.947	4114.5
351.174	4175.5
351.402	4335.5
351.629	4135.5
351.856	4209.5
352.083	4299.5
352.311	4341.5
352.538	4410.5
352.765	4311.5
352.992	4248.5
353.22	4166.5
353.447	4089.5
353.674	4035.5
353.901	3955.5
354.128	3944.5
354.355	3885.5
354.583	3998.5
354.81	3964.5
355.037	3899.5
355.264	3944.5
355.491	3918.5
355.718	3928.5
355.945	3948.5
356.172	3979.5
356.399	3972.5
356.626	4010.5
356.853	3938.5
357.08	3970.5
357.307	3933.5
357.534	3923.5
357.761	3974.5
357.988	3990.5
358.215	3939.5
358.441	3973.5
358.668	4001.5
358.895	4041.5
359.122	4106.5
359.349	4140.5
359.576	4291.5
359.802	4571.5
360.029	4745.5
360.256	4809.5
360.483	4479.5
360.709	4259.5
360.936	4215.5
361.163	4289.5
361.39	4321.5
361.616	4338.5
361.843	4229.5
362.07	4260.5
362.296	4298.5
362.523	4240.5
362.749	4245.5
362.976	4172.5
363.203	4145.5
363.429	4053.5
363.656	4084.5
363.882	4097.5
364.109	4042.5
364.335	4065.5
364.562	4060.5
364.788	4126.5
365.015	4023.5
365.241	3994.5
365.468	4136.5
365.694	4104.5
365.92	4094.5
366.147	4066.5
366.373	4099.5
366.599	4051.5
366.826	4038.5
367.052	4009.5
367.278	4076.5
367.505	4081.5
367.731	4111.5
367.957	4141.5
368.184	4170.5
368.41	4202.5
368.636	4334.5
368.862	4416.5
369.089	4190.5
369.315	4161.5
369.541	4134.5
369.767	4182.5
369.993	4139.5
370.219	4195.5
370.445	4232.5
370.672	4239.5
370.898	4229.5
371.124	4272.5
371.35	4318.5
371.576	4293.5
371.802	4298.5
372.028	4229.5
372.254	4283.5
372.48	4367.5
372.706	4451.5
372.932	4486.5
373.158	4412.5
373.384	4387.5
373.61	4305.5
373.835	4355.5
374.061	4375.5
374.287	4443.5
374.513	4509.5
374.739	4660.5
374.965	4717.5
375.191	4754.5
375.416	4610.5
375.642	4568.5
375.868	4501.5
376.094	4404.5
376.319	4352.5
376.545	4341.5
376.771	4374.5
376.997	4335.5
377.222	4342.5
377.448	4263.5
377.674	4314.5
377.899	4217.5
378.125	4313.5
378.35	4211.5
378.576	4250.5
378.802	4234.5
379.027	4290.5
379.253	4276.5
379.478	4225.5
379.704	4290.5
379.929	4297.5
380.155	4315.5
380.38	4275.5
380.606	4330.5
380.831	4326.5
381.057	4335.5
381.282	4316.5
381.507	4301.5
381.733	4384.5
381.958	4372.5
382.184	4485.5
382.409	4569.5
382.634	4496.5
382.86	4623.5
383.085	4637.5
383.31	4674.5
383.535	4757.5
383.761	4821.5
383.986	4831.5
384.211	5024.5
384.436	5009.5
384.662	5029.5
384.887	5164.5
385.112	5172.5
385.337	5222.5
385.562	5206.5
385.787	5209.5
386.013	5289.5
386.238	5342.5
386.463	5247.5
386.688	5242.5
386.913	5173.5
387.138	5135.5
387.363	5083.5
387.588	5113.5
387.813	5130.5
388.038	5138.5
388.263	5196.5
388.488	5147.5
388.713	5160.5
388.938	5075.5
389.163	5128.5
389.387	5089.5
389.612	5020.5
389.837	5052.5
390.062	4971.5
390.287	5129.5
390.512	5076.5
390.736	5164.5
390.961	5171.5
391.186	5267.5
391.411	5397.5
391.636	5611.5
391.86	5675.5
392.085	5777.5
392.31	5616.5
392.534	5528.5
392.759	5413.5
392.984	5345.5
393.208	5293.5
393.433	5385.5
393.658	5367.5
393.882	5400.5
394.107	5415.5
394.331	5425.5
394.556	5376.5
394.78	5445.5
395.005	5527.5
395.229	5441.5
395.454	5666.5
395.678	5773.5
395.903	5858.5
396.127	5900.5
396.352	5608.5
396.576	5512.5
396.801	5452.5
397.025	5495.5
397.249	5607.5
397.474	5750.5
397.698	5746.5
397.922	5939.5
398.147	5999.5
398.371	6073.5
398.595	6216.5
398.82	6573.5
399.044	7034.5
399.268	7853.5
399.492	8871.5
399.717	9566.5
399.941	9267.5
400.165	8688.5
400.389	7988.5
400.613	7235.5
400.837	6782.5
401.062	6581.5
401.286	6519.5
401.51	6496.5
401.734	6472.5
401.958	6527.5
402.182	6714.5
402.406	6752.5
402.63	6865.5
402.854	6946.5
403.078	7003.5
403.302	7122.5
403.526	7288.5
403.75	7293.5
403.974	7389.5
404.198	7434.5
404.422	7436.5
404.645	7428.5
404.869	7367.5
405.093	7629.5
405.317	7885.5
405.541	7838.5
405.765	7331.5
405.988	7199.5
406.212	7427.5
406.436	7643.5
406.66	7695.5
406.883	7692.5
407.107	8324.5
407.331	8825.5
407.555	9301.5
407.778	9012.5
408.002	8259.5
408.226	7865.5
408.449	7717.5
408.673	7570.5
408.896	7705.5
409.12	7874.5
409.344	7502.5
409.567	7111.5
409.791	7020.5
410.014	6939.5
410.238	6953.5
410.461	6982.5
410.685	6953.5
410.908	7064.5
411.132	7279.5
411.355	7298.5
411.578	6933.5
411.802	6732.5
412.025	6699.5
412.249	6982.5
412.472	7080.5
412.695	7251.5
412.919	6858.5
413.142	6529.5
413.365	6432.5
413.589	6477.5
413.812	6341.5
414.035	6214.5
414.258	6344.5
414.482	6393.5
414.705	6479.5
414.928	6307.5
415.151	6370.5
415.374	6415.5
415.597	6315.5
415.821	6283.5
416.044	6248.5
416.267	6176.5
416.49	6132.5
416.713	6190.5
416.936	6320.5
417.159	6240.5
417.382	6359.5
417.605	6361.5
417.828	6504.5
418.051	6634.5
418.274	6527.5
418.497	6381.5
418.72	6513.5
418.943	6498.5
419.166	6772.5
419.389	7254.5
419.611	7106.5
419.834	6992.5
420.057	6905.5
420.28	6703.5
420.503	6441.5
420.726	6463.5
420.948	6665.5
421.171	7041.5
421.394	6873.5
421.617	6535.5
421.839	6474.5
422.062	6643.5
422.285	6770.5
422.507	7406.5
422.73	7911.5
422.953	7388.5
423.175	6913.5
423.398	6959.5
423.621	7080.5
423.843	7343.5
424.066	7208.5
424.288	7112.5
424.511	7269.5
424.733	7718.5
424.956	8136.5
425.178	7697.5
425.401	7855.5
425.623	7649.5
425.846	6700.5
426.068	6619.5
426.291	6545.5
426.513	6564.5
426.735	6593.5
426.958	7064.5
427.18	7835.5
427.402	9025.5
427.625	9209.5
427.847	7826.5
428.069	7049.5
428.292	6491.5
428.514	6034.5
428.736	5973.5
428.958	5995.5
429.181	5831.5
429.403	5768.5
429.625	6038.5
429.847	6245.5
430.069	6908.5
430.292	6475.5
430.514	5892.5
430.736	5900.5
430.958	5704.5
431.18	5683.5
431.402	5651.5
431.624	5666.5
431.846	5660.5
432.068	5749.5
432.29	5810.5
432.512	5726.5
432.734	5876.5
432.956	5766.5
433.178	5883.5
433.4	5828.5
433.622	5769.5
433.844	5843.5
434.066	5809.5
434.287	5868.5
434.509	6057.5
434.731	6349.5
434.953	6471.5
435.175	6642.5
435.397	6719.5
435.618	6601.5
435.84	6935.5
436.062	7816.5
436.284	7740.5
436.505	6602.5
436.727	6282.5
436.949	5958.5
437.17	5766.5
437.392	5777.5
437.614	6038.5
437.835	6432.5
438.057	7403.5
438.278	7933.5
438.5	7880.5
438.721	8627.5
438.943	7603.5
439.165	6325.5
439.386	6208.5
439.608	6385.5
439.829	6409.5
440.05	6843.5
440.272	7184.5
440.493	6426.5
440.715	6150.5
440.936	6051.5
441.158	6188.5
441.379	6262.5
441.6	6627.5
441.822	6832.5
442.043	7279.5
442.264	8084.5
442.486	7751.5
442.707	6899.5
442.928	6716.5
443.149	7047.5
443.371	7247.5
443.592	7719.5
443.813	8622.5
444.034	8616.5
444.255	7469.5
444.476	7338.5
444.698	7457.5
444.919	7674.5
445.14	7373.5
445.361	7324.5
445.582	7433.5
445.803	8264.5
446.024	8757.5
446.245	8298.5
446.466	7505.5
446.687	6403.5
446.908	6087.5
447.129	5813.5
447.35	5708.5
447.571	5696.5
447.792	5597.5
448.013	5698.5
448.234	5879.5
448.455	6487.5
448.675	7676.5
448.896	8074.5
449.117	6683.5
449.338	6903.5
449.559	8259.5
449.779	8343.5
450	6415.5
450.221	5771.5
450.442	5563.5
450.662	5502.5
450.883	5639.5
451.104	5744.5
451.324	5586.5
451.545	5363.5
451.766	5253.5
451.986	5100.5
452.207	5031.5
452.428	5073.5
452.648	5096.5
452.869	5141.5
453.089	5212.5
453.31	5305.5
453.53	5139.5
453.751	5023.5
453.971	5098.5
454.192	5318.5
454.412	5059.5
454.633	4972.5
454.853	4948.5
455.073	4902.5
455.294	5413.5
455.514	5984.5
455.734	5382.5
455.955	4825.5
456.175	4744.5
456.395	4646.5
456.616	4673.5
456.836	4641.5
457.056	4603.5
457.276	4518.5
457.497	4745.5
457.717	4759.5
457.937	4820.5
458.157	4841.5
458.377	5055.5
458.598	5327.5
458.818	6204.5
459.038	6997.5
459.258	6827.5
459.478	6030.5
459.698	5782.5
459.918	5903.5
460.138	6094.5
460.358	6227.5
460.578	6258.5
460.798	6321.5
461.018	6330.5
461.238	6187.5
461.458	6159.5
461.678	6128.5
461.898	6284.5
462.118	6391.5
462.338	6681.5
462.558	6758.5
462.777	7024.5
462.997	7599.5
463.217	8074.5
463.437	7844.5
463.657	7320.5
463.876	7055.5
464.096	7166.5
464.316	7172.5
464.536	7211.5
464.755	6979.5
464.975	6919.5
465.195	7161.5
465.414	7299.5
465.634	6226.5
465.854	5890.5
466.073	5671.5
466.293	5535.5
466.512	5349.5
466.732	5189.5
466.951	5225.5
467.171	5248.5
467.391	5307.5
467.61	5437.5
467.829	5335.5
468.049	5281.5
468.268	5068.5
468.488	5027.5
468.707	5011.5
468.927	4973.5
469.146	4961.5
469.365	5090.5
469.585	5054.5
469.804	5277.5
470.023	5495.5
470.243	5425.5
470.462	5537.5
470.681	5693.5
470.901	5538.5
471.12	5327.5
471.339	5297.5
471.558	5287.5
471.777	5184.5
471.997	5117.5
472.216	5226.5
472.435	5423.5
472.654	5165.5
472.873	4959.5
473.092	4997.5
473.311	4955.5
473.53	5036.5
473.749	5115.5
473.968	5701.5
474.187	6819.5
474.406	6275.5
474.625	5291.5
474.844	5088.5
475.063	5003.5
475.282	5093.5
475.501	5124.5
475.72	5125.5
475.939	5164.5
476.158	5207.5
476.377	5239.5
476.596	5203.5
476.814	5400.5
477.033	5436.5
477.252	5436.5
477.471	5547.5
477.69	5644.5
477.908	5739.5
478.127	5884.5
478.346	5977.5
478.564	6055.5
478.783	6139.5
479.002	6285.5
479.22	6419.5
479.439	6406.5
479.658	6511.5
479.876	6662.5
480.095	6806.5
480.313	7265.5
480.532	7076.5
480.751	7004.5
480.969	6950.5
481.188	7478.5
481.406	7140.5
481.624	6495.5
481.843	6275.5
482.061	6191.5
482.28	6060.5
482.498	5964.5
482.717	5993.5
482.935	5935.5
483.153	6003.5
483.372	5887.5
483.59	5921.5
483.808	5938.5
484.027	5900.5
484.245	5957.5
484.463	6018.5
484.681	6176.5
484.9	6135.5
485.118	6163.5
485.336	6267.5
485.554	6235.5
485.772	6280.5
485.99	6370.5
486.209	6343.5
486.427	6455.5
486.645	6454.5
486.863	6660.5
487.081	6460.5
487.299	6423.5
487.517	6329.5
487.735	6274.5
487.953	6315.5
488.171	6305.5
488.389	6376.5
488.607	6337.5
488.825	6306.5
489.043	6373.5
489.261	6428.5
489.479	6411.5
489.696	6453.5
489.914	6436.5
490.132	6624.5
490.35	6668.5
490.568	6848.5
490.786	6845.5
491.003	6945.5
491.221	7193.5
491.439	7308.5
491.657	7282.5
491.874	7364.5
492.092	7347.5
492.31	7317.5
492.527	7475.5
492.745	7457.5
492.963	7573.5
493.18	7659.5
493.398	7605.5
493.615	7739.5
493.833	7820.5
494.05	7682.5
494.268	7713.5
494.485	7606.5
494.703	7548.5
494.92	7633.5
495.138	7639.5
495.355	7716.5
495.573	7617.5
495.79	7736.5
496.008	7619.5
496.225	7583.5
496.442	7633.5
496.66	7663.5
496.877	7731.5
497.094	7727.5
497.312	7922.5
497.529	8170.5
497.746	8367.5
497.963	8517.5
498.181	8961.5
498.398	9139.5
498.615	9572.5
498.832	10071.5
499.049	10479.5
499.267	11180.5
499.484	11784.5
499.701	12557.5
499.918	13369.5
500.135	14226.5
500.352	14792.5
500.569	14965.5
500.786	14786.5
501.003	14343.5
501.22	13657.5
501.437	13060.5
501.654	12271.5
501.871	11549.5
502.088	10831.5
502.305	10175.5
502.522	9683.5
502.739	9281.5
502.956	8952.5
503.172	8580.5
503.389	8375.5
503.606	8299.5
