Data from Circ_1981_H10_HRD10591_00036.txt Node
Date: Wed Jan 03 12:34:28 EST 2024
User: Yrep
Spectrometer: HR+D1059
Trigger mode: 1
Integration Time (sec): 1.000000E-1
Scans to average: 1
Electric dark correction enabled: true
Nonlinearity correction enabled: false
Boxcar width: 0
XAxis mode: Wavelengths
Number of Pixels in Spectrum: 2048
>>>>>Begin Spectral Data<<<<<
223.165	6
223.4	6
223.635	6
223.869	-22
224.104	-29
224.338	-17
224.573	-20
224.808	-16
225.042	-14
225.277	0
225.511	-1
225.746	-2
225.98	3
226.215	4
226.449	25
226.683	24
226.918	28
227.152	31
227.387	38
227.621	50
227.856	39
228.09	44
228.324	56
228.559	46
228.793	57
229.027	47
229.262	67
229.496	67
229.73	72
229.964	79
230.199	74
230.433	88
230.667	65
230.901	92
231.136	77
231.37	100
231.604	91
231.838	83
232.072	75
232.306	78
232.541	85
232.775	57
233.009	81
233.243	73
233.477	82
233.711	78
233.945	75
234.179	82
234.413	97
234.647	88
234.881	77
235.115	68
235.349	71
235.583	71
235.817	86
236.051	75
236.285	72
236.519	65
236.753	70
236.987	73
237.221	81
237.455	80
237.689	74
237.922	88
238.156	80
238.39	72
238.624	83
238.858	87
239.091	67
239.325	72
239.559	79
239.793	74
240.027	80
240.26	72
240.494	66
240.728	75
240.961	76
241.195	76
241.429	76
241.662	73
241.896	85
242.13	83
242.363	79
242.597	86
242.83	81
243.064	76
243.298	78
243.531	69
243.765	83
243.998	73
244.232	64
244.465	73
244.699	85
244.932	70
245.166	80
245.399	74
245.633	70
245.866	86
246.099	74
246.333	67
246.566	88
246.8	88
247.033	82
247.266	79
247.5	72
247.733	96
247.966	90
248.2	67
248.433	66
248.666	78
248.899	81
249.133	86
249.366	94
249.599	87
249.832	88
250.066	95
250.299	65
250.532	82
250.765	68
250.998	64
251.231	67
251.465	91
251.698	70
251.931	74
252.164	84
252.397	79
252.63	92
252.863	82
253.096	65
253.329	84
253.562	88
253.795	70
254.028	74
254.261	81
254.494	79
254.727	93
254.96	82
255.193	82
255.426	70
255.659	86
255.892	78
256.124	77
256.357	85
256.59	81
256.823	71
257.056	74
257.289	68
257.521	77
257.754	84
257.987	81
258.22	84
258.452	89
258.685	76
258.918	91
259.151	76
259.383	79
259.616	72
259.849	81
260.081	79
260.314	80
260.547	68
260.779	86
261.012	78
261.244	73
261.477	79
261.71	75
261.942	114
262.175	108
262.407	95
262.64	80
262.872	82
263.105	89
263.337	80
263.57	86
263.802	83
264.035	95
264.267	82
264.499	70
264.732	73
264.964	87
265.197	71
265.429	87
265.661	82
265.894	84
266.126	84
266.358	68
266.591	78
266.823	71
267.055	86
267.287	84
267.52	91
267.752	98
267.984	81
268.216	82
268.448	81
268.681	77
268.913	88
269.145	91
269.377	86
269.609	86
269.841	85
270.073	80
270.306	88
270.538	85
270.77	75
271.002	71
271.234	71
271.466	84
271.698	88
271.93	66
272.162	72
272.394	89
272.626	98
272.858	96
273.09	83
273.322	91
273.553	87
273.785	76
274.017	82
274.249	100
274.481	80
274.713	87
274.945	105
275.176	81
275.408	87
275.64	90
275.872	78
276.104	91
276.335	84
276.567	100
276.799	108
277.031	109
277.262	99
277.494	82
277.726	92
277.957	73
278.189	86
278.421	81
278.652	75
278.884	78
279.115	100
279.347	73
279.579	94
279.81	84
280.042	82
280.273	90
280.505	84
280.736	88
280.968	76
281.199	87
281.431	73
281.662	85
281.894	98
282.125	81
282.356	124
282.588	132
282.819	107
283.051	88
283.282	83
283.513	90
283.745	78
283.976	74
284.207	88
284.439	95
284.67	83
284.901	99
285.132	78
285.364	74
285.595	97
285.826	82
286.057	89
286.288	81
286.52	84
286.751	67
286.982	84
287.213	79
287.444	87
287.675	89
287.906	94
288.138	103
288.369	98
288.6	78
288.831	82
289.062	87
289.293	79
289.524	106
289.755	91
289.986	93
290.217	86
290.448	89
290.679	82
290.91	80
291.141	88
291.371	86
291.602	94
291.833	86
292.064	89
292.295	102
292.526	93
292.757	98
292.987	97
293.218	87
293.449	84
293.68	88
293.91	86
294.141	92
294.372	89
294.603	72
294.833	84
295.064	87
295.295	88
295.525	95
295.756	99
295.987	119
296.217	129
296.448	110
296.679	82
296.909	86
297.14	85
297.37	80
297.601	84
297.831	84
298.062	86
298.292	85
298.523	103
298.753	75
298.984	76
299.214	92
299.445	86
299.675	87
299.905	84
300.136	86
300.366	83
300.597	87
300.827	90
301.057	79
301.288	108
301.518	112
301.748	91
301.979	88
302.209	84
302.439	84
302.669	94
302.9	79
303.13	89
303.36	105
303.59	84
303.82	98
304.051	90
304.281	87
304.511	90
304.741	95
304.971	77
305.201	87
305.431	82
305.661	89
305.891	79
306.121	94
306.352	88
306.582	102
306.812	96
307.042	84
307.272	101
307.502	95
307.731	88
307.961	95
308.191	90
308.421	95
308.651	79
308.881	99
309.111	85
309.341	91
309.571	101
309.8	88
310.03	74
310.26	91
310.49	94
310.72	105
310.949	119
311.179	106
311.409	91
311.639	85
311.868	87
312.098	88
312.328	103
312.557	95
312.787	96
313.017	105
313.246	96
313.476	95
313.706	109
313.935	102
314.165	86
314.394	94
314.624	90
314.853	98
315.083	75
315.312	89
315.542	80
315.771	89
316.001	90
316.23	87
316.46	81
316.689	86
316.919	87
317.148	97
317.377	90
317.607	88
317.836	83
318.065	101
318.295	84
318.524	87
318.753	92
318.983	111
319.212	95
319.441	101
319.67	93
319.9	100
320.129	89
320.358	100
320.587	88
320.816	90
321.046	106
321.275	111
321.504	84
321.733	105
321.962	105
322.191	104
322.42	104
322.649	104
322.878	109
323.108	106
323.337	113
323.566	138
323.795	151
324.024	216
324.253	417
324.482	899
324.71	1918
324.939	2652
325.168	940
325.397	264
325.626	163
325.855	121
326.084	113
326.313	124
326.542	164
326.77	236
326.999	484
327.228	1045
327.457	1982
327.686	1616
327.914	426
328.143	199
328.372	158
328.6	135
328.829	116
329.058	131
329.287	148
329.515	122
329.744	90
329.972	112
330.201	133
330.43	134
330.658	132
330.887	140
331.115	138
331.344	107
331.572	106
331.801	101
332.03	107
332.258	96
332.486	85
332.715	95
332.943	90
333.172	99
333.4	97
333.629	100
333.857	106
334.085	95
334.314	113
334.542	147
334.771	129
334.999	92
335.227	105
335.455	87
335.684	112
335.912	100
336.14	109
336.369	100
336.597	108
336.825	99
337.053	98
337.281	88
337.51	79
337.738	97
337.966	90
338.194	97
338.422	89
338.65	77
338.878	94
339.106	82
339.334	68
339.562	84
339.79	93
340.018	99
340.246	98
340.474	90
340.702	88
340.93	87
341.158	92
341.386	98
341.614	95
341.842	77
342.07	86
342.298	87
342.526	101
342.754	87
342.981	95
343.209	98
343.437	106
343.665	82
343.893	75
344.12	98
344.348	89
344.576	96
344.804	88
345.031	100
345.259	96
345.487	99
345.714	94
345.942	97
346.17	92
346.397	82
346.625	91
346.853	78
347.08	96
347.308	96
347.535	89
347.763	99
347.99	94
348.218	105
348.445	100
348.673	79
348.9	93
349.128	90
349.355	94
349.583	72
349.81	100
350.037	87
350.265	96
350.492	82
350.72	86
350.947	108
351.174	95
351.402	104
351.629	100
351.856	100
352.083	99
352.311	111
352.538	118
352.765	98
352.992	108
353.22	119
353.447	101
353.674	92
353.901	98
354.128	113
354.355	83
354.583	102
354.81	106
355.037	87
355.264	87
355.491	91
355.718	87
355.945	83
356.172	86
356.399	92
356.626	98
356.853	96
357.08	88
357.307	81
357.534	81
357.761	87
357.988	88
358.215	94
358.441	95
358.668	99
358.895	91
359.122	87
359.349	88
359.576	86
359.802	97
360.029	98
360.256	114
360.483	98
360.709	90
360.936	85
361.163	85
361.39	96
361.616	86
361.843	98
362.07	98
362.296	99
362.523	85
362.749	84
362.976	105
363.203	105
363.429	90
363.656	90
363.882	88
364.109	82
364.335	93
364.562	90
364.788	87
365.015	97
365.241	95
365.468	105
365.694	102
365.92	89
366.147	86
366.373	95
366.599	94
366.826	97
367.052	86
367.278	82
367.505	86
367.731	83
367.957	83
368.184	89
368.41	109
368.636	106
368.862	116
369.089	108
369.315	88
369.541	95
369.767	92
369.993	100
370.219	90
370.445	67
370.672	92
370.898	88
371.124	95
371.35	90
371.576	86
371.802	60
372.028	79
372.254	74
372.48	99
372.706	80
372.932	106
373.158	82
373.384	92
373.61	110
373.835	82
374.061	88
374.287	99
374.513	86
374.739	98
374.965	87
375.191	92
375.416	90
375.642	88
375.868	89
376.094	94
376.319	96
376.545	89
376.771	86
376.997	81
377.222	88
377.448	92
377.674	93
377.899	92
378.125	99
378.35	97
378.576	86
378.802	94
379.027	91
379.253	92
379.478	99
379.704	85
379.929	97
380.155	89
380.38	92
380.606	78
380.831	98
381.057	93
381.282	91
381.507	95
381.733	111
381.958	75
382.184	94
382.409	105
382.634	98
382.86	92
383.085	87
383.31	100
383.535	103
383.761	98
383.986	88
384.211	98
384.436	85
384.662	78
384.887	83
385.112	95
385.337	106
385.562	104
385.787	102
386.013	95
386.238	100
386.463	101
386.688	101
386.913	99
387.138	113
387.363	112
387.588	89
387.813	102
388.038	103
388.263	109
388.488	90
388.713	94
388.938	88
389.163	74
389.387	101
389.612	86
389.837	96
390.062	90
390.287	96
390.512	92
390.736	106
390.961	78
391.186	99
391.411	94
391.636	86
391.86	69
392.085	93
392.31	80
392.534	77
392.759	97
392.984	89
393.208	97
393.433	106
393.658	86
393.882	71
394.107	88
394.331	87
394.556	84
394.78	80
395.005	83
395.229	66
395.454	75
395.678	85
395.903	100
396.127	96
396.352	72
396.576	86
396.801	96
397.025	91
397.249	86
397.474	83
397.698	84
397.922	73
398.147	94
398.371	79
398.595	73
398.82	81
399.044	80
399.268	95
399.492	76
399.717	92
399.941	95
400.165	96
400.389	99
400.613	80
400.837	87
401.062	91
401.286	83
401.51	97
401.734	88
401.958	90
402.182	113
402.406	153
402.63	115
402.854	100
403.078	80
403.302	71
403.526	80
403.75	80
403.974	80
404.198	86
404.422	88
404.645	91
404.869	89
405.093	98
405.317	94
405.541	97
405.765	99
405.988	110
406.212	166
406.436	216
406.66	162
406.883	97
407.107	87
407.331	90
407.555	89
407.778	99
408.002	84
408.226	99
408.449	92
408.673	95
408.896	88
409.12	91
409.344	99
409.567	75
409.791	99
410.014	80
410.238	97
410.461	75
410.685	97
410.908	80
411.132	100
411.355	105
411.578	82
411.802	96
412.025	90
412.249	80
412.472	88
412.695	91
412.919	72
413.142	90
413.365	97
413.589	81
413.812	95
414.035	100
414.258	90
414.482	84
414.705	92
414.928	88
415.151	100
415.374	85
415.597	99
415.821	80
416.044	86
416.267	83
416.49	70
416.713	85
416.936	90
417.159	85
417.382	75
417.605	85
417.828	86
418.051	85
418.274	81
418.497	59
418.72	84
418.943	84
419.166	82
419.389	97
419.611	73
419.834	87
420.057	83
420.28	81
420.503	78
420.726	87
420.948	83
421.171	85
421.394	96
421.617	103
421.839	84
422.062	88
422.285	95
422.507	90
422.73	100
422.953	86
423.175	86
423.398	94
423.621	91
423.843	89
424.066	101
424.288	84
424.511	95
424.733	120
424.956	107
425.178	91
425.401	117
425.623	102
425.846	83
426.068	104
426.291	90
426.513	103
426.735	96
426.958	95
427.18	96
427.402	144
427.625	186
427.847	134
428.069	120
428.292	86
428.514	75
428.736	92
428.958	98
429.181	71
429.403	85
429.625	75
429.847	103
430.069	131
430.292	89
430.514	78
430.736	71
430.958	86
431.18	74
431.402	78
431.624	78
431.846	81
432.068	87
432.29	78
432.512	80
432.734	89
432.956	91
433.178	95
433.4	107
433.622	83
433.844	82
434.066	86
434.287	99
434.509	80
434.731	89
434.953	84
435.175	88
435.397	81
435.618	80
435.84	108
436.062	142
436.284	115
436.505	102
436.727	106
436.949	96
437.17	94
437.392	92
437.614	103
437.835	113
438.057	112
438.278	128
438.5	106
438.721	121
438.943	105
439.165	90
439.386	91
439.608	94
439.829	102
440.05	133
440.272	168
440.493	107
440.715	93
440.936	87
441.158	94
441.379	90
441.6	98
441.822	99
442.043	89
442.264	115
442.486	96
442.707	91
442.928	101
443.149	126
443.371	140
443.592	124
443.813	130
444.034	131
444.255	86
444.476	69
444.698	90
444.919	92
445.14	129
445.361	121
445.582	121
445.803	163
446.024	156
446.245	162
446.466	119
446.687	88
446.908	83
447.129	102
447.35	88
447.571	94
447.792	79
448.013	100
448.234	97
448.455	95
448.675	123
448.896	148
449.117	94
449.338	112
449.559	130
449.779	130
450	94
450.221	86
450.442	94
450.662	91
450.883	100
451.104	114
451.324	107
451.545	83
451.766	89
451.986	73
452.207	100
452.428	84
452.648	97
452.869	114
453.089	118
453.31	102
453.53	79
453.751	85
453.971	95
454.192	105
454.412	92
454.633	92
454.853	86
455.073	83
455.294	95
455.514	123
455.734	81
455.955	74
456.175	86
456.395	82
456.616	83
456.836	75
457.056	86
457.276	85
457.497	72
457.717	79
457.937	84
458.157	101
458.377	82
458.598	118
458.818	160
459.038	178
459.258	123
459.478	90
459.698	78
459.918	84
460.138	82
460.358	93
460.578	80
460.798	96
461.018	91
461.238	83
461.458	76
461.678	85
461.898	84
462.118	84
462.338	92
462.558	89
462.777	73
462.997	84
463.217	82
463.437	98
463.657	75
463.876	72
464.096	83
464.316	95
464.536	81
464.755	83
464.975	86
465.195	141
465.414	161
465.634	98
465.854	88
466.073	84
466.293	102
466.512	83
466.732	84
466.951	98
467.171	82
467.391	91
467.61	104
467.829	99
468.049	95
468.268	109
468.488	83
468.707	88
468.927	86
469.146	79
469.365	90
469.585	74
469.804	82
470.023	85
470.243	91
470.462	102
470.681	116
470.901	93
471.12	92
471.339	89
471.558	78
471.777	100
471.997	88
472.216	113
472.435	135
472.654	106
472.873	99
473.092	80
473.311	83
473.53	86
473.749	72
473.968	94
474.187	106
474.406	100
474.625	80
474.844	83
475.063	82
475.282	84
475.501	88
475.72	88
475.939	81
476.158	72
476.377	86
476.596	78
476.814	86
477.033	105
477.252	83
477.471	80
477.69	93
477.908	81
478.127	88
478.346	78
478.564	85
478.783	94
479.002	81
479.22	93
479.439	97
479.658	101
479.876	91
480.095	91
480.313	104
480.532	89
480.751	85
480.969	106
481.188	177
481.406	156
481.624	85
481.843	90
482.061	83
482.28	83
482.498	88
482.717	84
482.935	97
483.153	91
483.372	90
483.59	86
483.808	97
484.027	94
484.245	89
484.463	103
484.681	75
484.9	94
485.118	93
485.336	75
485.554	111
485.772	90
485.99	98
486.209	112
486.427	109
486.645	100
486.863	103
487.081	110
487.299	93
487.517	112
487.735	82
487.953	86
488.171	103
488.389	88
488.607	94
488.825	100
489.043	93
489.261	82
489.479	98
489.696	76
489.914	99
490.132	82
490.35	91
490.568	81
490.786	91
491.003	87
491.221	90
491.439	93
491.657	80
491.874	96
492.092	96
492.31	86
492.527	94
492.745	78
492.963	90
493.18	85
493.398	83
493.615	105
493.833	99
494.05	88
494.268	91
494.485	91
494.703	81
494.92	84
495.138	79
495.355	80
495.573	100
495.79	101
496.008	96
496.225	86
496.442	81
496.66	95
496.877	94
497.094	80
497.312	67
497.529	89
497.746	96
497.963	88
498.181	83
498.398	87
498.615	104
498.832	99
499.049	83
499.267	87
499.484	96
499.701	98
499.918	82
500.135	86
500.352	94
500.569	80
500.786	80
501.003	74
501.22	82
501.437	91
501.654	106
501.871	105
502.088	102
502.305	82
502.522	86
502.739	98
502.956	76
503.172	100
503.389	106
503.606	94
503.823	83
504.04	88
504.256	103
504.473	88
504.69	84
504.907	73
505.123	94
505.34	88
505.557	97
505.773	76
505.99	88
506.207	80
506.423	89
506.64	80
506.856	87
507.073	100
507.289	89
507.506	88
507.722	106
507.939	104
508.155	81
508.372	98
508.588	103
508.805	102
509.021	87
509.238	92
509.454	97
509.67	85
509.887	102
510.103	134
510.319	187
510.536	653
510.752	1978
510.968	549
511.184	143
511.401	110
511.617	106
511.833	87
512.049	98
512.265	92
512.481	97
512.698	85
512.914	79
513.13	90
513.346	91
513.562	88
513.778	111
513.994	101
514.21	98
514.426	122
514.642	135
514.858	128
515.074	170
515.29	405
515.506	1365
515.721	523
515.937	140
516.153	102
516.369	95
516.585	78
516.801	93
517.016	94
517.232	90
517.448	88
517.664	95
517.879	105
518.095	103
518.311	105
518.527	93
518.742	91
518.958	87
519.173	86
519.389	74
519.605	89
519.82	82
520.036	93
520.251	113
520.467	108
520.682	97
520.898	107
521.113	120
521.329	133
521.544	192
521.76	536
521.975	2241
522.19	1358
522.406	301
522.621	108
522.836	105
523.052	94
523.267	82
523.482	99
523.698	100
523.913	118
524.128	104
524.343	94
524.559	107
524.774	91
524.989	91
525.204	102
525.419	97
525.634	79
525.849	85
526.064	99
526.28	85
526.495	101
526.71	83
526.925	89
527.14	98
527.355	87
527.57	99
527.785	91
527.999	91
528.214	75
528.429	102
528.644	82
528.859	86
529.074	93
529.289	133
529.503	193
529.718	95
529.933	95
530.148	94
530.363	89
530.577	93
530.792	98
531.007	89
531.221	88
531.436	88
531.651	84
531.865	101
532.08	94
532.295	94
532.509	96
532.724	100
532.938	95
533.153	105
533.367	96
533.582	92
533.796	82
534.011	91
534.225	74
534.44	88
534.654	92
534.868	89
535.083	84
535.297	94
535.511	110
535.726	102
535.94	90
536.154	85
536.369	87
536.583	83
536.797	79
537.011	93
537.225	90
537.44	87
537.654	88
537.868	97
538.082	96
538.296	71
538.51	93
538.724	93
538.938	82
539.153	90
539.367	106
539.581	95
539.795	86
540.009	89
540.222	87
540.436	84
540.65	94
540.864	97
541.078	85
541.292	82
541.506	81
541.72	79
541.934	81
542.147	92
542.361	100
542.575	87
542.789	81
543.002	80
543.216	97
543.43	103
543.644	94
543.857	99
544.071	94
544.285	94
544.498	89
544.712	86
544.925	95
545.139	99
545.352	82
545.566	75
545.779	90
545.993	86
546.206	82
546.42	91
546.633	89
546.847	100
547.06	84
547.274	97
547.487	87
547.7	72
547.914	97
548.127	87
548.34	83
548.554	92
548.767	93
548.98	71
549.193	76
549.407	81
549.62	88
549.833	73
550.046	87
550.259	91
550.473	98
550.686	86
550.899	83
551.112	103
551.325	85
551.538	87
551.751	80
551.964	80
552.177	92
552.39	90
552.603	100
552.816	98
553.029	85
553.242	99
553.455	107
553.667	99
553.88	96
554.093	94
554.306	95
554.519	72
554.732	74
554.944	88
555.157	82
555.37	91
555.583	104
555.795	71
556.008	90
556.221	82
556.433	95
556.646	92
556.859	83
557.071	89
557.284	87
557.496	83
557.709	82
557.921	86
558.134	90
558.346	75
558.559	97
558.771	82
558.984	89
559.196	90
559.409	85
559.621	88
559.833	84
560.046	79
560.258	86
560.47	91
560.683	73
560.895	94
561.107	70
561.32	77
561.532	69
561.744	74
561.956	96
562.168	94
562.381	93
562.593	96
562.805	75
563.017	87
563.229	80
563.441	88
563.653	81
563.865	92
564.077	90
564.289	87
564.501	90
564.713	68
564.925	97
565.137	98
565.349	84
565.561	90
565.773	81
565.985	71
566.197	87
566.408	85
566.62	94
566.832	86
567.044	79
567.255	89
567.467	95
567.679	74
567.891	98
568.102	89
568.314	92
568.526	82
568.737	96
568.949	86
569.161	80
569.372	87
569.584	82
569.795	86
570.007	98
570.218	188
570.43	123
570.641	77
570.853	87
571.064	87
571.276	82
571.487	92
571.698	90
571.91	85
572.121	90
572.333	91
572.544	83
572.755	81
572.966	84
573.178	90
573.389	82
573.6	80
573.811	71
574.023	89
574.234	62
574.445	76
574.656	79
574.867	90
575.078	87
575.289	90
575.501	102
575.712	72
575.923	80
576.134	98
576.345	97
576.556	94
576.767	85
576.978	84
577.188	85
577.399	81
577.61	86
577.821	91
578.032	119
578.243	247
578.454	612
578.665	175
578.875	83
579.086	103
579.297	86
579.508	88
579.718	90
579.929	77
580.14	71
580.35	98
580.561	78
580.772	73
580.982	88
581.193	84
581.403	91
581.614	85
581.825	78
582.035	73
582.246	91
582.456	88
582.667	91
582.877	94
583.087	98
583.298	78
583.508	80
583.719	75
583.929	82
584.139	84
584.35	86
584.56	92
584.77	71
584.981	84
585.191	92
