Data from Circ_1981_H10_HRD10591_00056.txt Node
Date: Wed Jan 03 12:34:32 EST 2024
User: Yrep
Spectrometer: HR+D1059
Trigger mode: 1
Integration Time (sec): 1.000000E-1
Scans to average: 1
Electric dark correction enabled: true
Nonlinearity correction enabled: false
Boxcar width: 0
XAxis mode: Wavelengths
Number of Pixels in Spectrum: 2048
>>>>>Begin Spectral Data<<<<<
223.165	-26.12
223.4	-26.12
223.635	-26.12
223.869	-22.12
224.104	-21.12
224.338	-14.12
224.573	-14.12
224.808	-11.12
225.042	-11.12
225.277	1.88
225.511	-6.12
225.746	2.88
225.98	8.88
226.215	22.88
226.449	21.88
226.683	25.88
226.918	26.88
227.152	14.88
227.387	34.88
227.621	32.88
227.856	50.88
228.09	44.88
228.324	56.88
228.559	37.88
228.793	57.88
229.027	53.88
229.262	60.88
229.496	71.88
229.73	95.88
229.964	98.88
230.199	83.88
230.433	90.88
230.667	81.88
230.901	85.88
231.136	77.88
231.37	72.88
231.604	84.88
231.838	88.88
232.072	70.88
232.306	75.88
232.541	87.88
232.775	90.88
233.009	82.88
233.243	74.88
233.477	68.88
233.711	70.88
233.945	94.88
234.179	76.88
234.413	74.88
234.647	85.88
234.881	88.88
235.115	73.88
235.349	80.88
235.583	84.88
235.817	79.88
236.051	72.88
236.285	79.88
236.519	64.88
236.753	80.88
236.987	61.88
237.221	104.88
237.455	110.88
237.689	75.88
237.922	80.88
238.156	80.88
238.39	85.88
238.624	84.88
238.858	72.88
239.091	67.88
239.325	74.88
239.559	96.88
239.793	81.88
240.027	83.88
240.26	81.88
240.494	86.88
240.728	68.88
240.961	78.88
241.195	88.88
241.429	75.88
241.662	84.88
241.896	84.88
242.13	81.88
242.363	81.88
242.597	75.88
242.83	78.88
243.064	74.88
243.298	82.88
243.531	83.88
243.765	80.88
243.998	80.88
244.232	75.88
244.465	84.88
244.699	84.88
244.932	76.88
245.166	70.88
245.399	75.88
245.633	73.88
245.866	83.88
246.099	73.88
246.333	78.88
246.566	78.88
246.8	65.88
247.033	74.88
247.266	69.88
247.5	77.88
247.733	76.88
247.966	96.88
248.2	84.88
248.433	82.88
248.666	80.88
248.899	72.88
249.133	92.88
249.366	98.88
249.599	86.88
249.832	80.88
250.066	99.88
250.299	75.88
250.532	85.88
250.765	77.88
250.998	79.88
251.231	80.88
251.465	83.88
251.698	70.88
251.931	91.88
252.164	91.88
252.397	73.88
252.63	81.88
252.863	80.88
253.096	84.88
253.329	78.88
253.562	73.88
253.795	87.88
254.028	77.88
254.261	76.88
254.494	90.88
254.727	78.88
254.96	90.88
255.193	76.88
255.426	84.88
255.659	71.88
255.892	80.88
256.124	68.88
256.357	86.88
256.59	98.88
256.823	75.88
257.056	84.88
257.289	88.88
257.521	88.88
257.754	86.88
257.987	84.88
258.22	89.88
258.452	75.88
258.685	84.88
258.918	80.88
259.151	90.88
259.383	97.88
259.616	69.88
259.849	77.88
260.081	81.88
260.314	82.88
260.547	81.88
260.779	81.88
261.012	86.88
261.244	97.88
261.477	90.88
261.71	88.88
261.942	124.88
262.175	124.88
262.407	100.88
262.64	82.88
262.872	89.88
263.105	93.88
263.337	81.88
263.57	82.88
263.802	81.88
264.035	88.88
264.267	89.88
264.499	81.88
264.732	87.88
264.964	87.88
265.197	85.88
265.429	89.88
265.661	93.88
265.894	75.88
266.126	85.88
266.358	93.88
266.591	82.88
266.823	85.88
267.055	91.88
267.287	84.88
267.52	93.88
267.752	96.88
267.984	80.88
268.216	82.88
268.448	77.88
268.681	84.88
268.913	81.88
269.145	94.88
269.377	77.88
269.609	78.88
269.841	84.88
270.073	74.88
270.306	88.88
270.538	89.88
270.77	83.88
271.002	78.88
271.234	77.88
271.466	92.88
271.698	74.88
271.93	83.88
272.162	90.88
272.394	98.88
272.626	82.88
272.858	89.88
273.09	81.88
273.322	84.88
273.553	73.88
273.785	86.88
274.017	74.88
274.249	81.88
274.481	93.88
274.713	81.88
274.945	92.88
275.176	80.88
275.408	102.88
275.64	102.88
275.872	89.88
276.104	89.88
276.335	98.88
276.567	112.88
276.799	110.88
277.031	104.88
277.262	104.88
277.494	84.88
277.726	82.88
277.957	89.88
278.189	96.88
278.421	90.88
278.652	82.88
278.884	78.88
279.115	74.88
279.347	80.88
279.579	84.88
279.81	80.88
280.042	86.88
280.273	100.88
280.505	80.88
280.736	73.88
280.968	77.88
281.199	77.88
281.431	86.88
281.662	84.88
281.894	78.88
282.125	91.88
282.356	116.88
282.588	155.88
282.819	109.88
283.051	99.88
283.282	83.88
283.513	85.88
283.745	74.88
283.976	83.88
284.207	82.88
284.439	87.88
284.67	79.88
284.901	91.88
285.132	83.88
285.364	109.88
285.595	86.88
285.826	108.88
286.057	76.88
286.288	74.88
286.52	90.88
286.751	87.88
286.982	82.88
287.213	93.88
287.444	85.88
287.675	88.88
287.906	82.88
288.138	79.88
288.369	100.88
288.6	91.88
288.831	97.88
289.062	97.88
289.293	84.88
289.524	90.88
289.755	95.88
289.986	87.88
290.217	88.88
290.448	101.88
290.679	95.88
290.91	89.88
291.141	63.88
291.371	84.88
291.602	106.88
291.833	78.88
292.064	98.88
292.295	95.88
292.526	84.88
292.757	88.88
292.987	88.88
293.218	88.88
293.449	90.88
293.68	96.88
293.91	97.88
294.141	98.88
294.372	72.88
294.603	86.88
294.833	95.88
295.064	86.88
295.295	86.88
295.525	87.88
295.756	106.88
295.987	119.88
296.217	135.88
296.448	146.88
296.679	100.88
296.909	89.88
297.14	104.88
297.37	94.88
297.601	97.88
297.831	89.88
298.062	93.88
298.292	88.88
298.523	99.88
298.753	91.88
298.984	92.88
299.214	91.88
299.445	90.88
299.675	101.88
299.905	96.88
300.136	111.88
300.366	84.88
300.597	100.88
300.827	85.88
301.057	88.88
301.288	108.88
301.518	92.88
301.748	90.88
301.979	95.88
302.209	87.88
302.439	87.88
302.669	100.88
302.9	92.88
303.13	88.88
303.36	99.88
303.59	103.88
303.82	104.88
304.051	96.88
304.281	102.88
304.511	72.88
304.741	96.88
304.971	94.88
305.201	89.88
305.431	86.88
305.661	87.88
305.891	91.88
306.121	85.88
306.352	94.88
306.582	107.88
306.812	96.88
307.042	94.88
307.272	101.88
307.502	106.88
307.731	107.88
307.961	88.88
308.191	82.88
308.421	108.88
308.651	94.88
308.881	81.88
309.111	98.88
309.341	84.88
309.571	112.88
309.8	96.88
310.03	103.88
310.26	104.88
310.49	92.88
310.72	102.88
310.949	94.88
311.179	105.88
311.409	101.88
311.639	92.88
311.868	100.88
312.098	99.88
312.328	109.88
312.557	113.88
312.787	118.88
313.017	108.88
313.246	103.88
313.476	108.88
313.706	104.88
313.935	89.88
314.165	104.88
314.394	129.88
314.624	98.88
314.853	97.88
315.083	93.88
315.312	94.88
315.542	88.88
315.771	94.88
316.001	102.88
316.23	93.88
316.46	98.88
316.689	98.88
316.919	97.88
317.148	105.88
317.377	101.88
317.607	97.88
317.836	92.88
318.065	91.88
318.295	78.88
318.524	81.88
318.753	98.88
318.983	78.88
319.212	102.88
319.441	110.88
319.67	107.88
319.9	99.88
320.129	93.88
320.358	103.88
320.587	103.88
320.816	114.88
321.046	110.88
321.275	93.88
321.504	96.88
321.733	102.88
321.962	102.88
322.191	98.88
322.42	108.88
322.649	109.88
322.878	121.88
323.108	117.88
323.337	132.88
323.566	139.88
323.795	166.88
324.024	210.88
324.253	422.88
324.482	917.88
324.71	1929.88
324.939	2532.88
325.168	898.88
325.397	270.88
325.626	161.88
325.855	134.88
326.084	133.88
326.313	131.88
326.542	152.88
326.77	256.88
326.999	482.88
327.228	1007.88
327.457	1883.88
327.686	1504.88
327.914	420.88
328.143	209.88
328.372	188.88
328.6	141.88
328.829	126.88
329.058	147.88
329.287	147.88
329.515	120.88
329.744	100.88
329.972	107.88
330.201	124.88
330.43	156.88
330.658	140.88
330.887	166.88
331.115	148.88
331.344	111.88
331.572	110.88
331.801	117.88
332.03	109.88
332.258	94.88
332.486	85.88
332.715	83.88
332.943	98.88
333.172	102.88
333.4	91.88
333.629	104.88
333.857	113.88
334.085	109.88
334.314	130.88
334.542	146.88
334.771	136.88
334.999	108.88
335.227	99.88
335.455	99.88
335.684	106.88
335.912	106.88
336.14	104.88
336.369	85.88
336.597	115.88
336.825	104.88
337.053	88.88
337.281	84.88
337.51	104.88
337.738	93.88
337.966	88.88
338.194	104.88
338.422	114.88
338.65	104.88
338.878	101.88
339.106	99.88
339.334	91.88
339.562	80.88
339.79	86.88
340.018	88.88
340.246	89.88
340.474	94.88
340.702	97.88
340.93	97.88
341.158	102.88
341.386	97.88
341.614	102.88
341.842	103.88
342.07	81.88
342.298	100.88
342.526	90.88
342.754	82.88
342.981	88.88
343.209	83.88
343.437	102.88
343.665	86.88
343.893	85.88
344.12	87.88
344.348	84.88
344.576	92.88
344.804	94.88
345.031	112.88
345.259	104.88
345.487	97.88
345.714	102.88
345.942	110.88
346.17	100.88
346.397	92.88
346.625	90.88
346.853	94.88
347.08	98.88
347.308	94.88
347.535	114.88
347.763	108.88
347.99	107.88
348.218	95.88
348.445	109.88
348.673	98.88
348.9	93.88
349.128	102.88
349.355	104.88
349.583	95.88
349.81	91.88
350.037	113.88
350.265	89.88
350.492	96.88
350.72	111.88
350.947	131.88
351.174	119.88
351.402	113.88
351.629	99.88
351.856	96.88
352.083	120.88
352.311	116.88
352.538	128.88
352.765	101.88
352.992	106.88
353.22	115.88
353.447	106.88
353.674	91.88
353.901	92.88
354.128	86.88
354.355	96.88
354.583	106.88
354.81	94.88
355.037	101.88
355.264	97.88
355.491	92.88
355.718	75.88
355.945	93.88
356.172	97.88
356.399	108.88
356.626	88.88
356.853	92.88
357.08	92.88
357.307	94.88
357.534	92.88
357.761	87.88
357.988	98.88
358.215	104.88
358.441	97.88
358.668	94.88
358.895	85.88
359.122	89.88
359.349	81.88
359.576	100.88
359.802	96.88
360.029	139.88
360.256	134.88
360.483	122.88
360.709	104.88
360.936	113.88
361.163	96.88
361.39	91.88
361.616	109.88
361.843	96.88
362.07	89.88
362.296	96.88
362.523	76.88
362.749	107.88
362.976	85.88
363.203	104.88
363.429	96.88
363.656	91.88
363.882	83.88
364.109	93.88
364.335	95.88
364.562	101.88
364.788	92.88
365.015	116.88
365.241	96.88
365.468	108.88
365.694	107.88
365.92	102.88
366.147	97.88
366.373	92.88
366.599	99.88
366.826	90.88
367.052	94.88
367.278	90.88
367.505	92.88
367.731	93.88
367.957	91.88
368.184	114.88
368.41	102.88
368.636	101.88
368.862	120.88
369.089	103.88
369.315	100.88
369.541	108.88
369.767	105.88
369.993	85.88
370.219	94.88
370.445	90.88
370.672	91.88
370.898	90.88
371.124	80.88
371.35	94.88
371.576	96.88
371.802	92.88
372.028	96.88
372.254	88.88
372.48	92.88
372.706	73.88
372.932	106.88
373.158	87.88
373.384	91.88
373.61	96.88
373.835	98.88
374.061	83.88
374.287	95.88
374.513	97.88
374.739	107.88
374.965	82.88
375.191	84.88
375.416	102.88
375.642	90.88
375.868	97.88
376.094	101.88
376.319	91.88
376.545	87.88
376.771	107.88
376.997	86.88
377.222	102.88
377.448	82.88
377.674	87.88
377.899	94.88
378.125	91.88
378.35	98.88
378.576	84.88
378.802	87.88
379.027	91.88
379.253	85.88
379.478	92.88
379.704	82.88
379.929	86.88
380.155	102.88
380.38	90.88
380.606	98.88
380.831	99.88
381.057	102.88
381.282	99.88
381.507	87.88
381.733	107.88
381.958	93.88
382.184	92.88
382.409	95.88
382.634	100.88
382.86	86.88
383.085	109.88
383.31	102.88
383.535	100.88
383.761	90.88
383.986	103.88
384.211	100.88
384.436	96.88
384.662	100.88
384.887	85.88
385.112	112.88
385.337	107.88
385.562	112.88
385.787	101.88
386.013	106.88
386.238	124.88
386.463	101.88
386.688	118.88
386.913	93.88
387.138	105.88
387.363	107.88
387.588	106.88
387.813	105.88
388.038	114.88
388.263	122.88
388.488	100.88
388.713	87.88
388.938	96.88
389.163	86.88
389.387	95.88
389.612	77.88
389.837	83.88
390.062	108.88
390.287	91.88
390.512	89.88
390.736	88.88
390.961	91.88
391.186	75.88
391.411	106.88
391.636	96.88
391.86	83.88
392.085	90.88
392.31	76.88
392.534	76.88
392.759	87.88
392.984	73.88
393.208	86.88
393.433	107.88
393.658	108.88
393.882	93.88
394.107	77.88
394.331	82.88
394.556	92.88
394.78	87.88
395.005	81.88
395.229	72.88
395.454	85.88
395.678	82.88
395.903	80.88
396.127	100.88
396.352	101.88
396.576	87.88
396.801	82.88
397.025	99.88
397.249	80.88
397.474	105.88
397.698	120.88
397.922	81.88
398.147	89.88
398.371	93.88
398.595	77.88
398.82	84.88
399.044	104.88
399.268	90.88
399.492	76.88
399.717	93.88
399.941	91.88
400.165	104.88
400.389	101.88
400.613	96.88
400.837	86.88
401.062	71.88
401.286	94.88
401.51	98.88
401.734	88.88
401.958	106.88
402.182	120.88
402.406	189.88
402.63	129.88
402.854	100.88
403.078	102.88
403.302	88.88
403.526	90.88
403.75	77.88
403.974	86.88
404.198	86.88
404.422	70.88
404.645	89.88
404.869	91.88
405.093	87.88
405.317	116.88
405.541	103.88
405.765	119.88
405.988	131.88
406.212	193.88
406.436	258.88
406.66	172.88
406.883	111.88
407.107	109.88
407.331	116.88
407.555	106.88
407.778	96.88
408.002	86.88
408.226	84.88
408.449	93.88
408.673	93.88
408.896	87.88
409.12	87.88
409.344	92.88
409.567	98.88
409.791	93.88
410.014	87.88
410.238	96.88
410.461	89.88
410.685	108.88
410.908	94.88
411.132	105.88
411.355	98.88
411.578	89.88
411.802	100.88
412.025	90.88
412.249	89.88
412.472	107.88
412.695	101.88
412.919	83.88
413.142	84.88
413.365	90.88
413.589	87.88
413.812	102.88
414.035	82.88
414.258	89.88
414.482	89.88
414.705	91.88
414.928	74.88
415.151	99.88
415.374	88.88
415.597	84.88
415.821	97.88
416.044	108.88
416.267	84.88
416.49	95.88
416.713	86.88
416.936	91.88
417.159	84.88
417.382	77.88
417.605	97.88
417.828	99.88
418.051	98.88
418.274	110.88
418.497	79.88
418.72	98.88
418.943	96.88
419.166	91.88
419.389	95.88
419.611	85.88
419.834	96.88
420.057	82.88
420.28	89.88
420.503	83.88
420.726	89.88
420.948	83.88
421.171	101.88
421.394	108.88
421.617	83.88
421.839	87.88
422.062	97.88
422.285	100.88
422.507	92.88
422.73	106.88
422.953	84.88
423.175	94.88
423.398	88.88
423.621	107.88
423.843	101.88
424.066	85.88
424.288	94.88
424.511	105.88
424.733	108.88
424.956	116.88
425.178	103.88
425.401	128.88
425.623	103.88
425.846	92.88
426.068	85.88
426.291	94.88
426.513	84.88
426.735	88.88
426.958	83.88
427.18	109.88
427.402	164.88
427.625	224.88
427.847	159.88
428.069	125.88
428.292	102.88
428.514	76.88
428.736	93.88
428.958	93.88
429.181	78.88
429.403	88.88
429.625	92.88
429.847	87.88
430.069	113.88
430.292	108.88
430.514	84.88
430.736	92.88
430.958	85.88
431.18	84.88
431.402	113.88
431.624	88.88
431.846	85.88
432.068	93.88
432.29	89.88
432.512	92.88
432.734	91.88
432.956	84.88
433.178	107.88
433.4	107.88
433.622	102.88
433.844	90.88
434.066	77.88
434.287	85.88
434.509	88.88
434.731	84.88
434.953	83.88
435.175	84.88
435.397	97.88
435.618	103.88
435.84	119.88
436.062	133.88
436.284	132.88
436.505	122.88
436.727	108.88
436.949	91.88
437.17	96.88
437.392	71.88
437.614	90.88
437.835	101.88
438.057	140.88
438.278	130.88
438.5	126.88
438.721	147.88
438.943	114.88
439.165	97.88
439.386	107.88
439.608	107.88
439.829	100.88
440.05	142.88
440.272	163.88
440.493	94.88
440.715	84.88
440.936	103.88
441.158	78.88
441.379	86.88
441.6	93.88
441.822	98.88
442.043	106.88
442.264	120.88
442.486	112.88
442.707	95.88
442.928	121.88
443.149	146.88
443.371	159.88
443.592	134.88
443.813	140.88
444.034	133.88
444.255	90.88
444.476	94.88
444.698	76.88
444.919	93.88
445.14	141.88
445.361	120.88
445.582	139.88
445.803	180.88
446.024	180.88
446.245	161.88
446.466	137.88
446.687	90.88
446.908	110.88
447.129	108.88
447.35	86.88
447.571	92.88
447.792	102.88
448.013	92.88
448.234	104.88
448.455	96.88
448.675	134.88
448.896	142.88
449.117	105.88
449.338	104.88
449.559	142.88
449.779	154.88
450	110.88
450.221	93.88
450.442	86.88
450.662	96.88
450.883	95.88
451.104	115.88
451.324	104.88
451.545	98.88
451.766	85.88
451.986	92.88
452.207	100.88
452.428	98.88
452.648	119.88
452.869	111.88
453.089	116.88
453.31	106.88
453.53	89.88
453.751	99.88
453.971	102.88
454.192	142.88
454.412	117.88
454.633	90.88
454.853	106.88
455.073	84.88
455.294	88.88
455.514	114.88
455.734	109.88
455.955	92.88
456.175	82.88
456.395	77.88
456.616	77.88
456.836	92.88
457.056	92.88
457.276	86.88
457.497	88.88
457.717	96.88
457.937	97.88
458.157	92.88
458.377	101.88
458.598	104.88
458.818	173.88
459.038	209.88
459.258	160.88
459.478	86.88
459.698	102.88
459.918	85.88
460.138	99.88
460.358	99.88
460.578	92.88
460.798	91.88
461.018	105.88
461.238	83.88
461.458	85.88
461.678	92.88
461.898	92.88
462.118	89.88
462.338	85.88
462.558	85.88
462.777	86.88
462.997	91.88
463.217	86.88
463.437	83.88
463.657	82.88
463.876	90.88
464.096	104.88
464.316	100.88
464.536	99.88
464.755	84.88
464.975	115.88
465.195	200.88
465.414	180.88
465.634	106.88
465.854	92.88
466.073	72.88
466.293	89.88
466.512	78.88
466.732	80.88
466.951	102.88
467.171	99.88
467.391	107.88
467.61	117.88
467.829	99.88
468.049	100.88
468.268	97.88
468.488	88.88
468.707	88.88
468.927	88.88
469.146	97.88
469.365	71.88
469.585	70.88
469.804	99.88
470.023	104.88
470.243	107.88
470.462	117.88
470.681	124.88
470.901	85.88
471.12	76.88
471.339	89.88
471.558	95.88
471.777	86.88
471.997	73.88
472.216	124.88
472.435	160.88
472.654	92.88
472.873	103.88
473.092	68.88
473.311	65.88
473.53	84.88
473.749	80.88
473.968	103.88
474.187	124.88
474.406	103.88
474.625	94.88
474.844	92.88
475.063	81.88
475.282	61.88
475.501	77.88
475.72	101.88
475.939	94.88
476.158	88.88
476.377	100.88
476.596	91.88
476.814	99.88
477.033	89.88
477.252	98.88
477.471	83.88
477.69	80.88
477.908	94.88
478.127	88.88
478.346	89.88
478.564	104.88
478.783	112.88
479.002	98.88
479.22	99.88
479.439	93.88
479.658	114.88
479.876	109.88
480.095	94.88
480.313	104.88
480.532	89.88
480.751	87.88
480.969	134.88
481.188	218.88
481.406	172.88
481.624	101.88
481.843	103.88
482.061	87.88
482.28	90.88
482.498	89.88
482.717	80.88
482.935	88.88
483.153	88.88
483.372	80.88
483.59	75.88
483.808	80.88
484.027	100.88
484.245	91.88
484.463	81.88
484.681	80.88
484.9	80.88
485.118	76.88
485.336	104.88
485.554	89.88
485.772	114.88
485.99	98.88
486.209	93.88
486.427	103.88
486.645	112.88
486.863	119.88
487.081	102.88
487.299	104.88
487.517	99.88
487.735	94.88
487.953	82.88
488.171	98.88
488.389	85.88
488.607	98.88
488.825	85.88
489.043	84.88
489.261	90.88
489.479	93.88
489.696	90.88
489.914	92.88
490.132	94.88
490.35	84.88
490.568	68.88
490.786	94.88
491.003	87.88
491.221	84.88
491.439	88.88
491.657	93.88
491.874	89.88
492.092	91.88
492.31	96.88
492.527	83.88
492.745	85.88
492.963	96.88
493.18	94.88
493.398	101.88
493.615	99.88
493.833	100.88
494.05	89.88
494.268	77.88
494.485	82.88
494.703	84.88
494.92	98.88
495.138	80.88
495.355	97.88
495.573	90.88
495.79	106.88
496.008	106.88
496.225	95.88
496.442	85.88
496.66	96.88
496.877	96.88
497.094	100.88
497.312	93.88
497.529	100.88
497.746	96.88
497.963	100.88
498.181	102.88
498.398	96.88
498.615	128.88
498.832	102.88
499.049	93.88
499.267	91.88
499.484	89.88
499.701	76.88
499.918	86.88
500.135	102.88
500.352	81.88
500.569	77.88
500.786	88.88
501.003	90.88
501.22	82.88
501.437	90.88
501.654	98.88
501.871	111.88
502.088	103.88
502.305	84.88
502.522	94.88
502.739	83.88
502.956	78.88
503.172	84.88
503.389	100.88
503.606	106.88
503.823	105.88
504.04	84.88
504.256	85.88
504.473	77.88
504.69	75.88
504.907	107.88
505.123	87.88
505.34	99.88
505.557	92.88
505.773	95.88
505.99	85.88
506.207	92.88
506.423	85.88
506.64	96.88
506.856	90.88
507.073	91.88
507.289	101.88
507.506	93.88
507.722	128.88
507.939	119.88
508.155	86.88
508.372	88.88
508.588	92.88
508.805	91.88
509.021	92.88
509.238	91.88
509.454	105.88
509.67	93.88
509.887	114.88
510.103	132.88
510.319	222.88
510.536	792.88
510.752	2584.88
510.968	701.88
511.184	148.88
511.401	126.88
511.617	96.88
511.833	98.88
512.049	84.88
512.265	86.88
512.481	91.88
512.698	94.88
512.914	105.88
513.13	100.88
513.346	100.88
513.562	90.88
513.778	102.88
513.994	84.88
514.21	105.88
