Data from Circ_1981_H10_HRD10591_00066.txt Node
Date: Wed Jan 03 12:34:34 EST 2024
User: Yrep
Spectrometer: HR+D1059
Trigger mode: 1
Integration Time (sec): 1.000000E-1
Scans to average: 1
Electric dark correction enabled: true
Nonlinearity correction enabled: false
Boxcar width: 0
XAxis mode: Wavelengths
Number of Pixels in Spectrum: 2048
>>>>>Begin Spectral Data<<<<<
223.165	-12.12
223.4	-12.12
223.635	-12.12
223.869	-20.12
224.104	-22.12
224.338	-22.12
224.573	-20.12
224.808	-15.12
225.042	-18.12
225.277	-8.12
225.511	4.88
225.746	10.88
225.98	3.88
226.215	18.88
226.449	23.88
226.683	13.88
226.918	19.88
227.152	41.88
227.387	29.88
227.621	33.88
227.856	34.88
228.09	60.88
228.324	52.88
228.559	41.88
228.793	61.88
229.027	55.88
229.262	59.88
229.496	76.88
229.73	87.88
229.964	93.88
230.199	77.88
230.433	69.88
230.667	81.88
230.901	71.88
231.136	75.88
231.37	64.88
231.604	73.88
231.838	74.88
232.072	84.88
232.306	93.88
232.541	68.88
232.775	72.88
233.009	80.88
233.243	81.88
233.477	82.88
233.711	89.88
233.945	80.88
234.179	77.88
234.413	77.88
234.647	79.88
234.881	69.88
235.115	79.88
235.349	79.88
235.583	69.88
235.817	76.88
236.051	72.88
236.285	71.88
236.519	70.88
236.753	71.88
236.987	83.88
237.221	71.88
237.455	99.88
237.689	81.88
237.922	86.88
238.156	89.88
238.39	67.88
238.624	77.88
238.858	71.88
239.091	71.88
239.325	83.88
239.559	82.88
239.793	104.88
240.027	75.88
240.26	68.88
240.494	91.88
240.728	91.88
240.961	85.88
241.195	81.88
241.429	71.88
241.662	82.88
241.896	76.88
242.13	80.88
242.363	72.88
242.597	85.88
242.83	61.88
243.064	75.88
243.298	79.88
243.531	72.88
243.765	66.88
243.998	76.88
244.232	97.88
244.465	89.88
244.699	87.88
244.932	85.88
245.166	87.88
245.399	96.88
245.633	76.88
245.866	72.88
246.099	83.88
246.333	73.88
246.566	77.88
246.8	82.88
247.033	76.88
247.266	68.88
247.5	68.88
247.733	70.88
247.966	72.88
248.2	85.88
248.433	80.88
248.666	80.88
248.899	89.88
249.133	78.88
249.366	103.88
249.599	89.88
249.832	73.88
250.066	78.88
250.299	76.88
250.532	81.88
250.765	76.88
250.998	85.88
251.231	61.88
251.465	71.88
251.698	62.88
251.931	83.88
252.164	76.88
252.397	74.88
252.63	69.88
252.863	81.88
253.096	79.88
253.329	73.88
253.562	92.88
253.795	86.88
254.028	83.88
254.261	82.88
254.494	75.88
254.727	91.88
254.96	68.88
255.193	81.88
255.426	83.88
255.659	82.88
255.892	82.88
256.124	84.88
256.357	83.88
256.59	88.88
256.823	84.88
257.056	79.88
257.289	82.88
257.521	81.88
257.754	86.88
257.987	63.88
258.22	90.88
258.452	80.88
258.685	74.88
258.918	71.88
259.151	73.88
259.383	82.88
259.616	86.88
259.849	75.88
260.081	82.88
260.314	71.88
260.547	82.88
260.779	76.88
261.012	85.88
261.244	81.88
261.477	81.88
261.71	92.88
261.942	123.88
262.175	122.88
262.407	95.88
262.64	83.88
262.872	79.88
263.105	94.88
263.337	84.88
263.57	88.88
263.802	76.88
264.035	85.88
264.267	83.88
264.499	88.88
264.732	76.88
264.964	76.88
265.197	80.88
265.429	96.88
265.661	97.88
265.894	70.88
266.126	75.88
266.358	89.88
266.591	96.88
266.823	86.88
267.055	81.88
267.287	79.88
267.52	79.88
267.752	92.88
267.984	68.88
268.216	88.88
268.448	85.88
268.681	58.88
268.913	79.88
269.145	74.88
269.377	91.88
269.609	76.88
269.841	86.88
270.073	93.88
270.306	75.88
270.538	87.88
270.77	81.88
271.002	82.88
271.234	81.88
271.466	90.88
271.698	81.88
271.93	80.88
272.162	87.88
272.394	79.88
272.626	92.88
272.858	101.88
273.09	89.88
273.322	85.88
273.553	82.88
273.785	82.88
274.017	72.88
274.249	75.88
274.481	84.88
274.713	87.88
274.945	95.88
275.176	92.88
275.408	89.88
275.64	86.88
275.872	67.88
276.104	95.88
276.335	83.88
276.567	102.88
276.799	121.88
277.031	102.88
277.262	101.88
277.494	101.88
277.726	95.88
277.957	85.88
278.189	68.88
278.421	89.88
278.652	88.88
278.884	85.88
279.115	97.88
279.347	91.88
279.579	95.88
279.81	95.88
280.042	90.88
280.273	79.88
280.505	96.88
280.736	86.88
280.968	86.88
281.199	85.88
281.431	83.88
281.662	88.88
281.894	103.88
282.125	93.88
282.356	112.88
282.588	167.88
282.819	117.88
283.051	97.88
283.282	87.88
283.513	97.88
283.745	98.88
283.976	94.88
284.207	87.88
284.439	95.88
284.67	87.88
284.901	88.88
285.132	83.88
285.364	83.88
285.595	91.88
285.826	67.88
286.057	93.88
286.288	81.88
286.52	85.88
286.751	81.88
286.982	92.88
287.213	82.88
287.444	81.88
287.675	92.88
287.906	87.88
288.138	98.88
288.369	93.88
288.6	86.88
288.831	78.88
289.062	87.88
289.293	73.88
289.524	87.88
289.755	73.88
289.986	89.88
290.217	95.88
290.448	75.88
290.679	76.88
290.91	81.88
291.141	93.88
291.371	80.88
291.602	74.88
291.833	84.88
292.064	95.88
292.295	82.88
292.526	94.88
292.757	80.88
292.987	90.88
293.218	83.88
293.449	81.88
293.68	96.88
293.91	101.88
294.141	89.88
294.372	93.88
294.603	87.88
294.833	89.88
295.064	99.88
295.295	83.88
295.525	75.88
295.756	107.88
295.987	115.88
296.217	141.88
296.448	135.88
296.679	95.88
296.909	88.88
297.14	79.88
297.37	82.88
297.601	96.88
297.831	80.88
298.062	83.88
298.292	99.88
298.523	99.88
298.753	83.88
298.984	87.88
299.214	87.88
299.445	96.88
299.675	97.88
299.905	112.88
300.136	89.88
300.366	85.88
300.597	108.88
300.827	99.88
301.057	100.88
301.288	100.88
301.518	92.88
301.748	83.88
301.979	93.88
302.209	90.88
302.439	83.88
302.669	82.88
302.9	101.88
303.13	91.88
303.36	106.88
303.59	103.88
303.82	87.88
304.051	91.88
304.281	85.88
304.511	106.88
304.741	69.88
304.971	72.88
305.201	76.88
305.431	91.88
305.661	87.88
305.891	87.88
306.121	102.88
306.352	100.88
306.582	101.88
306.812	85.88
307.042	86.88
307.272	93.88
307.502	97.88
307.731	79.88
307.961	85.88
308.191	76.88
308.421	81.88
308.651	96.88
308.881	89.88
309.111	101.88
309.341	98.88
309.571	101.88
309.8	84.88
310.03	98.88
310.26	101.88
310.49	96.88
310.72	102.88
310.949	128.88
311.179	106.88
311.409	95.88
311.639	97.88
311.868	97.88
312.098	97.88
312.328	105.88
312.557	107.88
312.787	123.88
313.017	103.88
313.246	87.88
313.476	96.88
313.706	87.88
313.935	93.88
314.165	104.88
314.394	107.88
314.624	105.88
314.853	95.88
315.083	105.88
315.312	104.88
315.542	83.88
315.771	85.88
316.001	95.88
316.23	90.88
316.46	88.88
316.689	93.88
316.919	86.88
317.148	92.88
317.377	91.88
317.607	99.88
317.836	106.88
318.065	100.88
318.295	74.88
318.524	85.88
318.753	78.88
318.983	95.88
319.212	103.88
319.441	106.88
319.67	115.88
319.9	100.88
320.129	95.88
320.358	108.88
320.587	105.88
320.816	105.88
321.046	113.88
321.275	89.88
321.504	104.88
321.733	96.88
321.962	85.88
322.191	124.88
322.42	113.88
322.649	105.88
322.878	112.88
323.108	112.88
323.337	126.88
323.566	148.88
323.795	171.88
324.024	220.88
324.253	463.88
324.482	992.88
324.71	2131.88
324.939	2823.88
325.168	1002.88
325.397	287.88
325.626	162.88
325.855	152.88
326.084	133.88
326.313	151.88
326.542	161.88
326.77	257.88
326.999	497.88
327.228	1087.88
327.457	2043.88
327.686	1630.88
327.914	435.88
328.143	225.88
328.372	179.88
328.6	141.88
328.829	129.88
329.058	143.88
329.287	162.88
329.515	120.88
329.744	104.88
329.972	114.88
330.201	133.88
330.43	157.88
330.658	145.88
330.887	165.88
331.115	148.88
331.344	99.88
331.572	93.88
331.801	108.88
332.03	117.88
332.258	117.88
332.486	95.88
332.715	98.88
332.943	95.88
333.172	86.88
333.4	82.88
333.629	117.88
333.857	118.88
334.085	97.88
334.314	121.88
334.542	139.88
334.771	148.88
334.999	110.88
335.227	92.88
335.455	87.88
335.684	91.88
335.912	96.88
336.14	96.88
336.369	103.88
336.597	107.88
336.825	107.88
337.053	85.88
337.281	92.88
337.51	113.88
337.738	92.88
337.966	91.88
338.194	109.88
338.422	90.88
338.65	93.88
338.878	88.88
339.106	88.88
339.334	99.88
339.562	86.88
339.79	102.88
340.018	92.88
340.246	84.88
340.474	90.88
340.702	92.88
340.93	98.88
341.158	83.88
341.386	95.88
341.614	76.88
341.842	89.88
342.07	91.88
342.298	84.88
342.526	92.88
342.754	84.88
342.981	83.88
343.209	71.88
343.437	85.88
343.665	93.88
343.893	103.88
344.12	81.88
344.348	99.88
344.576	98.88
344.804	81.88
345.031	88.88
345.259	98.88
345.487	102.88
345.714	112.88
345.942	104.88
346.17	95.88
346.397	88.88
346.625	97.88
346.853	101.88
347.08	98.88
347.308	98.88
347.535	117.88
347.763	119.88
347.99	95.88
348.218	102.88
348.445	115.88
348.673	108.88
348.9	106.88
349.128	103.88
349.355	96.88
349.583	86.88
349.81	93.88
350.037	107.88
350.265	93.88
350.492	93.88
350.72	104.88
350.947	111.88
351.174	93.88
351.402	126.88
351.629	117.88
351.856	93.88
352.083	112.88
352.311	113.88
352.538	117.88
352.765	109.88
352.992	101.88
353.22	105.88
353.447	114.88
353.674	95.88
353.901	95.88
354.128	90.88
354.355	100.88
354.583	87.88
354.81	100.88
355.037	97.88
355.264	99.88
355.491	95.88
355.718	86.88
355.945	89.88
356.172	101.88
356.399	90.88
356.626	89.88
356.853	91.88
357.08	101.88
357.307	103.88
357.534	100.88
357.761	86.88
357.988	99.88
358.215	97.88
358.441	96.88
358.668	99.88
358.895	94.88
359.122	83.88
359.349	89.88
359.576	91.88
359.802	107.88
360.029	137.88
360.256	112.88
360.483	125.88
360.709	87.88
360.936	91.88
361.163	86.88
361.39	110.88
361.616	86.88
361.843	85.88
362.07	96.88
362.296	111.88
362.523	86.88
362.749	99.88
362.976	92.88
363.203	99.88
363.429	85.88
363.656	88.88
363.882	102.88
364.109	96.88
364.335	97.88
364.562	93.88
364.788	95.88
365.015	87.88
365.241	97.88
365.468	127.88
365.694	120.88
365.92	118.88
366.147	97.88
366.373	88.88
366.599	96.88
366.826	88.88
367.052	86.88
367.278	92.88
367.505	78.88
367.731	70.88
367.957	101.88
368.184	101.88
368.41	122.88
368.636	117.88
368.862	131.88
369.089	98.88
369.315	105.88
369.541	90.88
369.767	91.88
369.993	86.88
370.219	87.88
370.445	94.88
370.672	103.88
370.898	94.88
371.124	87.88
371.35	83.88
371.576	84.88
371.802	96.88
372.028	95.88
372.254	88.88
372.48	91.88
372.706	83.88
372.932	95.88
373.158	94.88
373.384	100.88
373.61	103.88
373.835	97.88
374.061	100.88
374.287	85.88
374.513	88.88
374.739	81.88
374.965	88.88
375.191	103.88
375.416	88.88
375.642	82.88
375.868	92.88
376.094	103.88
376.319	88.88
376.545	91.88
376.771	80.88
376.997	71.88
377.222	82.88
377.448	109.88
377.674	104.88
377.899	105.88
378.125	86.88
378.35	87.88
378.576	86.88
378.802	85.88
379.027	89.88
379.253	88.88
379.478	83.88
379.704	93.88
379.929	103.88
380.155	99.88
380.38	91.88
380.606	81.88
380.831	87.88
381.057	103.88
381.282	97.88
381.507	97.88
381.733	80.88
381.958	87.88
382.184	90.88
382.409	92.88
382.634	99.88
382.86	96.88
383.085	104.88
383.31	105.88
383.535	100.88
383.761	95.88
383.986	86.88
384.211	101.88
384.436	107.88
384.662	114.88
384.887	101.88
385.112	98.88
385.337	97.88
385.562	92.88
385.787	94.88
386.013	110.88
386.238	112.88
386.463	103.88
386.688	107.88
386.913	94.88
387.138	98.88
387.363	89.88
387.588	91.88
387.813	100.88
388.038	103.88
388.263	111.88
388.488	118.88
388.713	102.88
388.938	88.88
389.163	98.88
389.387	90.88
389.612	93.88
389.837	86.88
390.062	91.88
390.287	88.88
390.512	92.88
390.736	89.88
390.961	98.88
391.186	101.88
391.411	87.88
391.636	91.88
391.86	101.88
392.085	81.88
392.31	85.88
392.534	88.88
392.759	95.88
392.984	70.88
393.208	100.88
393.433	111.88
393.658	91.88
393.882	89.88
394.107	103.88
394.331	88.88
394.556	101.88
394.78	99.88
395.005	90.88
395.229	99.88
395.454	93.88
395.678	85.88
395.903	93.88
396.127	75.88
396.352	90.88
396.576	87.88
396.801	93.88
397.025	95.88
397.249	93.88
397.474	82.88
397.698	79.88
397.922	81.88
398.147	92.88
398.371	95.88
398.595	91.88
398.82	79.88
399.044	81.88
399.268	88.88
399.492	86.88
399.717	87.88
399.941	85.88
400.165	89.88
400.389	86.88
400.613	89.88
400.837	71.88
401.062	82.88
401.286	77.88
401.51	86.88
401.734	77.88
401.958	101.88
402.182	132.88
402.406	185.88
402.63	138.88
402.854	101.88
403.078	92.88
403.302	83.88
403.526	74.88
403.75	91.88
403.974	79.88
404.198	83.88
404.422	81.88
404.645	96.88
404.869	83.88
405.093	99.88
405.317	100.88
405.541	95.88
405.765	96.88
405.988	127.88
406.212	201.88
406.436	281.88
406.66	184.88
406.883	105.88
407.107	97.88
407.331	99.88
407.555	98.88
407.778	104.88
408.002	92.88
408.226	102.88
408.449	92.88
408.673	108.88
408.896	90.88
409.12	104.88
409.344	86.88
409.567	81.88
409.791	88.88
410.014	107.88
410.238	100.88
410.461	99.88
410.685	80.88
410.908	112.88
411.132	101.88
411.355	86.88
411.578	91.88
411.802	80.88
412.025	84.88
412.249	92.88
412.472	94.88
412.695	92.88
412.919	97.88
413.142	79.88
413.365	89.88
413.589	104.88
413.812	91.88
414.035	84.88
414.258	76.88
414.482	73.88
414.705	81.88
414.928	85.88
415.151	88.88
415.374	92.88
415.597	84.88
415.821	88.88
416.044	72.88
416.267	95.88
416.49	89.88
416.713	87.88
416.936	80.88
417.159	82.88
417.382	87.88
417.605	100.88
417.828	91.88
418.051	97.88
418.274	89.88
418.497	81.88
418.72	79.88
418.943	90.88
419.166	92.88
419.389	68.88
419.611	76.88
419.834	99.88
420.057	92.88
420.28	92.88
420.503	84.88
420.726	90.88
420.948	89.88
421.171	104.88
421.394	85.88
421.617	81.88
421.839	76.88
422.062	68.88
422.285	80.88
422.507	96.88
422.73	114.88
422.953	99.88
423.175	82.88
423.398	91.88
423.621	85.88
423.843	96.88
424.066	92.88
424.288	88.88
424.511	88.88
424.733	85.88
424.956	98.88
425.178	111.88
425.401	108.88
425.623	98.88
425.846	94.88
426.068	100.88
426.291	93.88
426.513	107.88
426.735	97.88
426.958	84.88
427.18	115.88
427.402	172.88
427.625	223.88
427.847	161.88
428.069	121.88
428.292	97.88
428.514	87.88
428.736	74.88
428.958	87.88
429.181	94.88
429.403	75.88
429.625	69.88
429.847	99.88
430.069	107.88
430.292	80.88
430.514	81.88
430.736	77.88
430.958	99.88
431.18	88.88
431.402	79.88
431.624	89.88
431.846	104.88
432.068	83.88
432.29	85.88
432.512	84.88
432.734	81.88
432.956	83.88
433.178	99.88
433.4	112.88
433.622	85.88
433.844	93.88
434.066	104.88
434.287	90.88
434.509	92.88
434.731	97.88
434.953	82.88
435.175	86.88
435.397	87.88
435.618	92.88
435.84	112.88
436.062	143.88
436.284	109.88
436.505	96.88
436.727	112.88
436.949	90.88
437.17	93.88
437.392	88.88
437.614	95.88
437.835	119.88
438.057	135.88
438.278	126.88
438.5	120.88
438.721	142.88
438.943	101.88
439.165	81.88
439.386	81.88
439.608	95.88
439.829	104.88
440.05	130.88
440.272	160.88
440.493	110.88
440.715	83.88
440.936	86.88
441.158	90.88
441.379	86.88
441.6	95.88
441.822	103.88
442.043	77.88
442.264	110.88
442.486	99.88
442.707	98.88
442.928	123.88
443.149	152.88
443.371	157.88
443.592	120.88
443.813	135.88
444.034	108.88
444.255	90.88
444.476	91.88
444.698	89.88
444.919	95.88
445.14	128.88
445.361	126.88
445.582	141.88
445.803	181.88
446.024	180.88
446.245	161.88
446.466	111.88
446.687	110.88
446.908	97.88
447.129	85.88
447.35	102.88
447.571	97.88
447.792	85.88
448.013	98.88
448.234	119.88
448.455	106.88
448.675	121.88
448.896	118.88
449.117	109.88
449.338	112.88
449.559	144.88
449.779	131.88
450	108.88
450.221	97.88
450.442	87.88
450.662	107.88
450.883	105.88
451.104	126.88
451.324	113.88
451.545	85.88
451.766	58.88
451.986	72.88
452.207	92.88
452.428	91.88
452.648	123.88
452.869	112.88
453.089	136.88
453.31	106.88
453.53	95.88
453.751	90.88
453.971	119.88
454.192	117.88
454.412	96.88
454.633	83.88
454.853	94.88
455.073	84.88
455.294	100.88
455.514	108.88
455.734	90.88
455.955	73.88
456.175	83.88
456.395	93.88
456.616	95.88
456.836	92.88
457.056	87.88
457.276	80.88
457.497	85.88
457.717	83.88
457.937	82.88
458.157	88.88
458.377	99.88
458.598	121.88
458.818	187.88
459.038	211.88
459.258	127.88
459.478	83.88
459.698	92.88
459.918	91.88
460.138	83.88
460.358	89.88
460.578	80.88
460.798	91.88
461.018	91.88
461.238	82.88
461.458	96.88
461.678	67.88
461.898	89.88
462.118	83.88
462.338	86.88
462.558	79.88
462.777	88.88
462.997	87.88
463.217	82.88
463.437	88.88
463.657	88.88
463.876	101.88
464.096	85.88
464.316	84.88
464.536	94.88
464.755	103.88
464.975	115.88
465.195	201.88
465.414	223.88
465.634	93.88
465.854	92.88
466.073	98.88
466.293	85.88
466.512	83.88
466.732	89.88
466.951	91.88
467.171	95.88
467.391	101.88
467.61	124.88
467.829	98.88
468.049	92.88
468.268	83.88
468.488	91.88
468.707	79.88
468.927	76.88
469.146	75.88
469.365	93.88
469.585	92.88
469.804	88.88
470.023	102.88
470.243	89.88
470.462	116.88
470.681	116.88
470.901	93.88
471.12	92.88
471.339	77.88
471.558	74.88
471.777	82.88
471.997	88.88
472.216	96.88
472.435	164.88
472.654	95.88
472.873	88.88
473.092	88.88
473.311	84.88
473.53	90.88
473.749	89.88
473.968	84.88
474.187	115.88
474.406	106.88
474.625	84.88
474.844	79.88
475.063	81.88
475.282	89.88
475.501	83.88
475.72	84.88
475.939	99.88
476.158	66.88
476.377	93.88
476.596	95.88
476.814	91.88
477.033	108.88
477.252	97.88
477.471	77.88
477.69	85.88
477.908	97.88
478.127	89.88
478.346	94.88
478.564	87.88
478.783	104.88
479.002	93.88
479.22	91.88
479.439	113.88
479.658	109.88
479.876	98.88
480.095	79.88
480.313	95.88
480.532	76.88
480.751	95.88
480.969	121.88
481.188	237.88
481.406	179.88
481.624	101.88
481.843	81.88
482.061	88.88
482.28	89.88
482.498	101.88
482.717	85.88
482.935	84.88
483.153	88.88
483.372	89.88
483.59	88.88
483.808	81.88
484.027	100.88
484.245	79.88
484.463	82.88
484.681	93.88
484.9	97.88
485.118	83.88
485.336	107.88
485.554	104.88
485.772	103.88
485.99	93.88
486.209	106.88
486.427	106.88
486.645	118.88
486.863	113.88
487.081	100.88
487.299	104.88
487.517	98.88
487.735	89.88
487.953	92.88
488.171	91.88
488.389	88.88
488.607	97.88
488.825	92.88
489.043	88.88
489.261	95.88
489.479	103.88
489.696	88.88
489.914	96.88
490.132	98.88
490.35	82.88
490.568	91.88
490.786	96.88
491.003	87.88
491.221	79.88
491.439	85.88
491.657	97.88
491.874	95.88
492.092	97.88
492.31	78.88
492.527	85.88
492.745	87.88
492.963	93.88
493.18	93.88
493.398	75.88
493.615	82.88
493.833	89.88
494.05	92.88
494.268	90.88
494.485	100.88
494.703	80.88
494.92	93.88
495.138	103.88
495.355	105.88
495.573	104.88
495.79	91.88
496.008	91.88
496.225	60.88
496.442	71.88
496.66	83.88
496.877	81.88
497.094	102.88
497.312	87.88
497.529	81.88
497.746	101.88
497.963	96.88
498.181	96.88
498.398	99.88
498.615	109.88
498.832	91.88
499.049	95.88
499.267	100.88
499.484	88.88
499.701	100.88
499.918	90.88
500.135	85.88
500.352	90.88
500.569	100.88
500.786	99.88
501.003	82.88
501.22	85.88
501.437	99.88
501.654	91.88
501.871	122.88
502.088	91.88
502.305	100.88
502.522	95.88
502.739	93.88
502.956	91.88
503.172	96.88
503.389	91.88
503.606	108.88
503.823	98.88
504.04	87.88
504.256	73.88
504.473	89.88
504.69	72.88
504.907	91.88
505.123	86.88
505.34	91.88
505.557	79.88
505.773	81.88
505.99	91.88
506.207	79.88
506.423	87.88
506.64	95.88
506.856	98.88
507.073	104.88
507.289	85.88
507.506	105.88
507.722	118.88
507.939	104.88
508.155	94.88
508.372	86.88
508.588	93.88
508.805	91.88
509.021	96.88
509.238	92.88
509.454	101.88
509.67	103.88
509.887	105.88
510.103	138.88
510.319	244.88
510.536	889.88
510.752	2940.88
510.968	739.88
511.184	152.88
511.401	120.88
511.617	97.88
511.833	94.88
512.049	108.88
512.265	94.88
512.481	91.88
512.698	100.88
512.914	102.88
513.13	90.88
513.346	84.88
513.562	103.88
513.778	108.88
513.994	92.88
514.21	96.88
514.426	128.88
514.642	160.88
514.858	150.88
515.074	205.88
