Data from Circ_1981_H10_HRD10591_00068.txt Node
Date: Wed Jan 03 12:34:34 EST 2024
User: Yrep
Spectrometer: HR+D1059
Trigger mode: 1
Integration Time (sec): 1.000000E-1
Scans to average: 1
Electric dark correction enabled: true
Nonlinearity correction enabled: false
Boxcar width: 0
XAxis mode: Wavelengths
Number of Pixels in Spectrum: 2048
>>>>>Begin Spectral Data<<<<<
223.165	-15.38
223.4	-15.38
223.635	-15.38
223.869	-6.38
224.104	-26.38
224.338	-19.38
224.573	-8.38
224.808	-1.38
225.042	-9.38
225.277	0.62
225.511	-4.38
225.746	-3.38
225.98	11.62
226.215	4.62
226.449	-0.38
226.683	27.62
226.918	20.62
227.152	29.62
227.387	38.62
227.621	40.62
227.856	30.62
228.09	48.62
228.324	45.62
228.559	48.62
228.793	55.62
229.027	69.62
229.262	76.62
229.496	94.62
229.73	101.62
229.964	88.62
230.199	84.62
230.433	91.62
230.667	81.62
230.901	83.62
231.136	93.62
231.37	79.62
231.604	87.62
231.838	88.62
232.072	71.62
232.306	70.62
232.541	82.62
232.775	86.62
233.009	78.62
233.243	85.62
233.477	66.62
233.711	94.62
233.945	84.62
234.179	79.62
234.413	74.62
234.647	87.62
234.881	95.62
235.115	89.62
235.349	86.62
235.583	74.62
235.817	83.62
236.051	86.62
236.285	77.62
236.519	63.62
236.753	68.62
236.987	86.62
237.221	86.62
237.455	97.62
237.689	71.62
237.922	63.62
238.156	72.62
238.39	76.62
238.624	68.62
238.858	75.62
239.091	77.62
239.325	92.62
239.559	91.62
239.793	82.62
240.027	92.62
240.26	80.62
240.494	83.62
240.728	89.62
240.961	86.62
241.195	73.62
241.429	74.62
241.662	91.62
241.896	81.62
242.13	82.62
242.363	78.62
242.597	87.62
242.83	86.62
243.064	80.62
243.298	80.62
243.531	68.62
243.765	85.62
243.998	78.62
244.232	99.62
244.465	89.62
244.699	93.62
244.932	86.62
245.166	78.62
245.399	66.62
245.633	78.62
245.866	84.62
246.099	77.62
246.333	86.62
246.566	77.62
246.8	102.62
247.033	83.62
247.266	87.62
247.5	87.62
247.733	79.62
247.966	94.62
248.2	72.62
248.433	83.62
248.666	93.62
248.899	90.62
249.133	95.62
249.366	107.62
249.599	107.62
249.832	86.62
250.066	101.62
250.299	88.62
250.532	68.62
250.765	95.62
250.998	96.62
251.231	91.62
251.465	81.62
251.698	85.62
251.931	86.62
252.164	82.62
252.397	69.62
252.63	87.62
252.863	84.62
253.096	85.62
253.329	75.62
253.562	85.62
253.795	92.62
254.028	84.62
254.261	66.62
254.494	72.62
254.727	79.62
254.96	95.62
255.193	77.62
255.426	97.62
255.659	92.62
255.892	93.62
256.124	90.62
256.357	78.62
256.59	95.62
256.823	86.62
257.056	96.62
257.289	84.62
257.521	83.62
257.754	86.62
257.987	83.62
258.22	77.62
258.452	88.62
258.685	90.62
258.918	85.62
259.151	94.62
259.383	82.62
259.616	63.62
259.849	85.62
260.081	94.62
260.314	94.62
260.547	88.62
260.779	93.62
261.012	77.62
261.244	85.62
261.477	107.62
261.71	93.62
261.942	111.62
262.175	131.62
262.407	118.62
262.64	90.62
262.872	86.62
263.105	94.62
263.337	91.62
263.57	87.62
263.802	83.62
264.035	88.62
264.267	83.62
264.499	87.62
264.732	93.62
264.964	86.62
265.197	89.62
265.429	76.62
265.661	74.62
265.894	86.62
266.126	83.62
266.358	79.62
266.591	87.62
266.823	90.62
267.055	92.62
267.287	93.62
267.52	68.62
267.752	94.62
267.984	93.62
268.216	95.62
268.448	92.62
268.681	84.62
268.913	97.62
269.145	72.62
269.377	82.62
269.609	92.62
269.841	90.62
270.073	79.62
270.306	92.62
270.538	92.62
270.77	87.62
271.002	86.62
271.234	93.62
271.466	86.62
271.698	96.62
271.93	86.62
272.162	90.62
272.394	87.62
272.626	84.62
272.858	103.62
273.09	74.62
273.322	84.62
273.553	106.62
273.785	97.62
274.017	94.62
274.249	97.62
274.481	74.62
274.713	86.62
274.945	88.62
275.176	77.62
275.408	90.62
275.64	90.62
275.872	97.62
276.104	96.62
276.335	104.62
276.567	105.62
276.799	126.62
277.031	107.62
277.262	100.62
277.494	96.62
277.726	100.62
277.957	84.62
278.189	89.62
278.421	93.62
278.652	76.62
278.884	98.62
279.115	94.62
279.347	101.62
279.579	73.62
279.81	89.62
280.042	88.62
280.273	95.62
280.505	87.62
280.736	96.62
280.968	92.62
281.199	98.62
281.431	85.62
281.662	99.62
281.894	90.62
282.125	106.62
282.356	109.62
282.588	165.62
282.819	128.62
283.051	100.62
283.282	88.62
283.513	87.62
283.745	85.62
283.976	86.62
284.207	91.62
284.439	91.62
284.67	101.62
284.901	98.62
285.132	88.62
285.364	93.62
285.595	94.62
285.826	87.62
286.057	85.62
286.288	87.62
286.52	82.62
286.751	85.62
286.982	77.62
287.213	81.62
287.444	94.62
287.675	87.62
287.906	80.62
288.138	98.62
288.369	74.62
288.6	90.62
288.831	85.62
289.062	91.62
289.293	96.62
289.524	87.62
289.755	100.62
289.986	96.62
290.217	88.62
290.448	83.62
290.679	79.62
290.91	94.62
291.141	103.62
291.371	83.62
291.602	99.62
291.833	86.62
292.064	81.62
292.295	88.62
292.526	87.62
292.757	85.62
292.987	95.62
293.218	98.62
293.449	98.62
293.68	87.62
293.91	87.62
294.141	77.62
294.372	88.62
294.603	82.62
294.833	94.62
295.064	87.62
295.295	90.62
295.525	88.62
295.756	118.62
295.987	110.62
296.217	179.62
296.448	151.62
296.679	97.62
296.909	96.62
297.14	88.62
297.37	88.62
297.601	77.62
297.831	109.62
298.062	90.62
298.292	84.62
298.523	100.62
298.753	95.62
298.984	84.62
299.214	102.62
299.445	75.62
299.675	98.62
299.905	111.62
300.136	95.62
300.366	92.62
300.597	95.62
300.827	103.62
301.057	93.62
301.288	108.62
301.518	111.62
301.748	100.62
301.979	106.62
302.209	90.62
302.439	102.62
302.669	93.62
302.9	93.62
303.13	85.62
303.36	90.62
303.59	101.62
303.82	107.62
304.051	110.62
304.281	98.62
304.511	118.62
304.741	92.62
304.971	92.62
305.201	92.62
305.431	106.62
305.661	98.62
305.891	78.62
306.121	109.62
306.352	108.62
306.582	110.62
306.812	91.62
307.042	103.62
307.272	90.62
307.502	94.62
307.731	94.62
307.961	102.62
308.191	78.62
308.421	85.62
308.651	86.62
308.881	104.62
309.111	106.62
309.341	115.62
309.571	107.62
309.8	115.62
310.03	107.62
310.26	104.62
310.49	110.62
310.72	99.62
310.949	112.62
311.179	114.62
311.409	111.62
311.639	88.62
311.868	102.62
312.098	95.62
312.328	108.62
312.557	110.62
312.787	133.62
313.017	115.62
313.246	94.62
313.476	106.62
313.706	93.62
313.935	99.62
314.165	112.62
314.394	115.62
314.624	99.62
314.853	106.62
315.083	99.62
315.312	92.62
315.542	99.62
315.771	94.62
316.001	91.62
316.23	93.62
316.46	93.62
316.689	82.62
316.919	98.62
317.148	91.62
317.377	103.62
317.607	87.62
317.836	95.62
318.065	94.62
318.295	91.62
318.524	98.62
318.753	102.62
318.983	103.62
319.212	100.62
319.441	130.62
319.67	109.62
319.9	95.62
320.129	103.62
320.358	86.62
320.587	103.62
320.816	129.62
321.046	106.62
321.275	95.62
321.504	110.62
321.733	102.62
321.962	95.62
322.191	108.62
322.42	111.62
322.649	127.62
322.878	124.62
323.108	137.62
323.337	125.62
323.566	148.62
323.795	184.62
324.024	240.62
324.253	457.62
324.482	1030.62
324.71	2190.62
324.939	3026.62
325.168	1065.62
325.397	288.62
325.626	168.62
325.855	143.62
326.084	144.62
326.313	153.62
326.542	160.62
326.77	276.62
326.999	543.62
327.228	1131.62
327.457	2143.62
327.686	1768.62
327.914	441.62
328.143	248.62
328.372	194.62
328.6	173.62
328.829	139.62
329.058	158.62
329.287	170.62
329.515	123.62
329.744	119.62
329.972	105.62
330.201	138.62
330.43	173.62
330.658	170.62
330.887	193.62
331.115	162.62
331.344	104.62
331.572	115.62
331.801	116.62
332.03	107.62
332.258	108.62
332.486	88.62
332.715	104.62
332.943	109.62
333.172	94.62
333.4	105.62
333.629	128.62
333.857	124.62
334.085	122.62
334.314	128.62
334.542	159.62
334.771	164.62
334.999	106.62
335.227	111.62
335.455	98.62
335.684	109.62
335.912	95.62
336.14	119.62
336.369	105.62
336.597	113.62
336.825	101.62
337.053	87.62
337.281	86.62
337.51	90.62
337.738	108.62
337.966	108.62
338.194	113.62
338.422	106.62
338.65	99.62
338.878	100.62
339.106	92.62
339.334	93.62
339.562	101.62
339.79	95.62
340.018	96.62
340.246	93.62
340.474	114.62
340.702	100.62
340.93	97.62
341.158	107.62
341.386	111.62
341.614	105.62
341.842	89.62
342.07	104.62
342.298	94.62
342.526	96.62
342.754	96.62
342.981	94.62
343.209	75.62
343.437	109.62
343.665	88.62
343.893	88.62
344.12	94.62
344.348	90.62
344.576	89.62
344.804	85.62
345.031	111.62
345.259	104.62
345.487	92.62
345.714	103.62
345.942	106.62
346.17	99.62
346.397	94.62
346.625	112.62
346.853	98.62
347.08	86.62
347.308	111.62
347.535	95.62
347.763	121.62
347.99	106.62
348.218	116.62
348.445	123.62
348.673	116.62
348.9	116.62
349.128	106.62
349.355	100.62
349.583	86.62
349.81	95.62
350.037	91.62
350.265	87.62
350.492	102.62
350.72	115.62
350.947	97.62
351.174	120.62
351.402	111.62
351.629	117.62
351.856	113.62
352.083	112.62
352.311	128.62
352.538	133.62
352.765	115.62
352.992	106.62
353.22	109.62
353.447	111.62
353.674	98.62
353.901	99.62
354.128	77.62
354.355	94.62
354.583	109.62
354.81	77.62
355.037	98.62
355.264	108.62
355.491	101.62
355.718	99.62
355.945	82.62
356.172	96.62
356.399	105.62
356.626	88.62
356.853	115.62
357.08	99.62
357.307	84.62
357.534	95.62
357.761	103.62
357.988	106.62
358.215	104.62
358.441	102.62
358.668	95.62
358.895	101.62
359.122	107.62
359.349	86.62
359.576	104.62
359.802	103.62
360.029	134.62
360.256	128.62
360.483	112.62
360.709	95.62
360.936	112.62
361.163	102.62
361.39	93.62
361.616	104.62
361.843	89.62
362.07	89.62
362.296	108.62
362.523	100.62
362.749	93.62
362.976	91.62
363.203	100.62
363.429	88.62
363.656	106.62
363.882	102.62
364.109	104.62
364.335	101.62
364.562	98.62
364.788	104.62
365.015	101.62
365.241	106.62
365.468	118.62
365.694	118.62
365.92	92.62
366.147	105.62
366.373	87.62
366.599	102.62
366.826	91.62
367.052	100.62
367.278	86.62
367.505	87.62
367.731	100.62
367.957	88.62
368.184	116.62
368.41	121.62
368.636	111.62
368.862	119.62
369.089	106.62
369.315	98.62
369.541	108.62
369.767	100.62
369.993	93.62
370.219	102.62
370.445	102.62
370.672	86.62
370.898	101.62
371.124	99.62
371.35	93.62
371.576	88.62
371.802	82.62
372.028	92.62
372.254	86.62
372.48	87.62
372.706	86.62
372.932	87.62
373.158	87.62
373.384	88.62
373.61	87.62
373.835	88.62
374.061	96.62
374.287	110.62
374.513	93.62
374.739	86.62
374.965	78.62
375.191	103.62
375.416	94.62
375.642	91.62
375.868	92.62
376.094	93.62
376.319	102.62
376.545	97.62
376.771	109.62
376.997	103.62
377.222	90.62
377.448	107.62
377.674	96.62
377.899	95.62
378.125	99.62
378.35	77.62
378.576	98.62
378.802	87.62
379.027	97.62
379.253	98.62
379.478	84.62
379.704	80.62
379.929	103.62
380.155	101.62
380.38	97.62
380.606	96.62
380.831	91.62
381.057	101.62
381.282	101.62
381.507	101.62
381.733	92.62
381.958	104.62
382.184	107.62
382.409	106.62
382.634	122.62
382.86	108.62
383.085	105.62
383.31	103.62
383.535	111.62
383.761	100.62
383.986	87.62
384.211	108.62
384.436	104.62
384.662	100.62
384.887	102.62
385.112	88.62
385.337	107.62
385.562	87.62
385.787	104.62
386.013	108.62
386.238	118.62
386.463	110.62
386.688	115.62
386.913	104.62
387.138	98.62
387.363	92.62
387.588	96.62
387.813	88.62
388.038	101.62
388.263	107.62
388.488	106.62
388.713	100.62
388.938	98.62
389.163	94.62
389.387	101.62
389.612	91.62
389.837	99.62
390.062	101.62
390.287	99.62
390.512	99.62
390.736	109.62
390.961	100.62
391.186	104.62
391.411	94.62
391.636	106.62
391.86	95.62
392.085	91.62
392.31	91.62
392.534	91.62
392.759	88.62
392.984	101.62
393.208	88.62
393.433	99.62
393.658	91.62
393.882	99.62
394.107	79.62
394.331	97.62
394.556	77.62
394.78	95.62
395.005	94.62
395.229	84.62
395.454	93.62
395.678	83.62
395.903	98.62
396.127	95.62
396.352	97.62
396.576	116.62
396.801	105.62
397.025	110.62
397.249	86.62
397.474	92.62
397.698	95.62
397.922	82.62
398.147	86.62
398.371	92.62
398.595	87.62
398.82	94.62
399.044	82.62
399.268	88.62
399.492	91.62
399.717	88.62
399.941	88.62
400.165	96.62
400.389	106.62
400.613	92.62
400.837	94.62
401.062	90.62
401.286	91.62
401.51	83.62
401.734	93.62
401.958	113.62
402.182	137.62
402.406	194.62
402.63	143.62
402.854	103.62
403.078	106.62
403.302	91.62
403.526	90.62
403.75	95.62
403.974	83.62
404.198	93.62
404.422	94.62
404.645	104.62
404.869	107.62
405.093	98.62
405.317	107.62
405.541	100.62
405.765	104.62
405.988	131.62
406.212	226.62
406.436	302.62
406.66	182.62
406.883	120.62
407.107	98.62
407.331	109.62
407.555	115.62
407.778	102.62
408.002	92.62
408.226	83.62
408.449	100.62
408.673	106.62
408.896	78.62
409.12	103.62
409.344	93.62
409.567	73.62
409.791	90.62
410.014	101.62
410.238	92.62
410.461	106.62
410.685	90.62
410.908	90.62
411.132	90.62
411.355	99.62
411.578	89.62
411.802	98.62
412.025	94.62
412.249	96.62
412.472	103.62
412.695	109.62
412.919	86.62
413.142	98.62
413.365	94.62
413.589	99.62
413.812	84.62
414.035	94.62
414.258	95.62
414.482	99.62
414.705	98.62
414.928	76.62
415.151	78.62
415.374	97.62
415.597	85.62
415.821	91.62
416.044	101.62
416.267	85.62
416.49	74.62
416.713	102.62
416.936	97.62
417.159	88.62
417.382	96.62
417.605	84.62
417.828	105.62
418.051	100.62
418.274	91.62
418.497	87.62
418.72	80.62
418.943	92.62
419.166	92.62
419.389	95.62
419.611	94.62
419.834	91.62
420.057	102.62
420.28	86.62
420.503	77.62
420.726	92.62
420.948	82.62
421.171	104.62
421.394	108.62
421.617	105.62
421.839	99.62
422.062	100.62
422.285	104.62
422.507	110.62
422.73	102.62
422.953	111.62
423.175	85.62
423.398	95.62
423.621	100.62
423.843	95.62
424.066	86.62
424.288	98.62
424.511	91.62
424.733	106.62
424.956	126.62
425.178	108.62
425.401	100.62
425.623	110.62
425.846	86.62
426.068	90.62
426.291	95.62
426.513	95.62
426.735	90.62
426.958	77.62
427.18	107.62
427.402	162.62
427.625	232.62
427.847	169.62
428.069	115.62
428.292	91.62
428.514	75.62
428.736	86.62
428.958	86.62
429.181	90.62
429.403	89.62
429.625	90.62
429.847	100.62
430.069	120.62
430.292	110.62
430.514	93.62
430.736	78.62
430.958	84.62
431.18	74.62
431.402	88.62
431.624	95.62
431.846	98.62
432.068	83.62
432.29	98.62
432.512	84.62
432.734	83.62
432.956	98.62
433.178	107.62
433.4	114.62
433.622	93.62
433.844	78.62
434.066	104.62
434.287	87.62
434.509	105.62
434.731	103.62
434.953	88.62
435.175	72.62
435.397	100.62
435.618	98.62
435.84	112.62
436.062	129.62
436.284	124.62
436.505	100.62
436.727	102.62
436.949	95.62
437.17	96.62
437.392	100.62
437.614	108.62
437.835	119.62
438.057	154.62
438.278	125.62
438.5	101.62
438.721	139.62
438.943	110.62
439.165	90.62
439.386	87.62
439.608	96.62
439.829	111.62
440.05	162.62
440.272	186.62
440.493	118.62
440.715	105.62
440.936	102.62
441.158	94.62
441.379	88.62
441.6	97.62
441.822	111.62
442.043	103.62
442.264	127.62
442.486	106.62
442.707	108.62
442.928	128.62
443.149	159.62
443.371	163.62
443.592	122.62
443.813	138.62
444.034	120.62
444.255	100.62
444.476	107.62
444.698	94.62
444.919	95.62
445.14	141.62
445.361	131.62
445.582	130.62
445.803	172.62
446.024	162.62
446.245	162.62
446.466	145.62
446.687	85.62
446.908	107.62
447.129	86.62
447.35	91.62
447.571	90.62
447.792	95.62
448.013	99.62
448.234	114.62
448.455	111.62
448.675	123.62
448.896	133.62
449.117	98.62
449.338	106.62
449.559	143.62
449.779	136.62
450	102.62
450.221	82.62
450.442	89.62
450.662	104.62
450.883	120.62
451.104	122.62
451.324	108.62
451.545	93.62
451.766	84.62
451.986	100.62
452.207	102.62
452.428	100.62
452.648	108.62
452.869	126.62
453.089	125.62
453.31	146.62
453.53	99.62
453.751	102.62
453.971	119.62
454.192	134.62
454.412	98.62
454.633	83.62
454.853	81.62
455.073	95.62
455.294	104.62
455.514	106.62
455.734	99.62
455.955	86.62
456.175	95.62
456.395	74.62
456.616	72.62
456.836	88.62
457.056	66.62
457.276	82.62
457.497	99.62
457.717	79.62
457.937	77.62
458.157	97.62
458.377	89.62
458.598	138.62
458.818	192.62
459.038	210.62
459.258	137.62
459.478	98.62
459.698	98.62
459.918	92.62
460.138	92.62
460.358	89.62
460.578	80.62
460.798	95.62
461.018	94.62
461.238	88.62
461.458	81.62
461.678	84.62
461.898	69.62
462.118	79.62
462.338	76.62
462.558	90.62
462.777	90.62
462.997	81.62
463.217	83.62
463.437	88.62
463.657	83.62
463.876	91.62
464.096	93.62
464.316	91.62
464.536	92.62
464.755	101.62
464.975	108.62
465.195	220.62
465.414	220.62
465.634	126.62
465.854	94.62
466.073	89.62
466.293	83.62
466.512	93.62
466.732	91.62
466.951	80.62
467.171	98.62
467.391	93.62
467.61	112.62
467.829	104.62
468.049	117.62
468.268	101.62
468.488	91.62
468.707	82.62
468.927	63.62
469.146	88.62
469.365	96.62
469.585	97.62
469.804	105.62
470.023	119.62
470.243	103.62
470.462	118.62
470.681	134.62
470.901	82.62
471.12	93.62
471.339	88.62
471.558	97.62
471.777	102.62
471.997	88.62
472.216	123.62
472.435	168.62
472.654	108.62
472.873	100.62
473.092	98.62
473.311	83.62
473.53	74.62
473.749	85.62
473.968	108.62
474.187	115.62
474.406	94.62
474.625	95.62
474.844	98.62
475.063	85.62
475.282	88.62
475.501	84.62
475.72	112.62
475.939	77.62
476.158	90.62
476.377	94.62
476.596	87.62
476.814	86.62
477.033	115.62
477.252	89.62
477.471	90.62
477.69	102.62
477.908	90.62
478.127	83.62
478.346	84.62
478.564	100.62
478.783	117.62
479.002	118.62
479.22	105.62
479.439	111.62
479.658	133.62
479.876	111.62
480.095	90.62
480.313	94.62
480.532	94.62
480.751	102.62
480.969	126.62
481.188	232.62
481.406	187.62
481.624	95.62
481.843	85.62
482.061	91.62
482.28	88.62
482.498	100.62
482.717	97.62
482.935	84.62
483.153	86.62
483.372	85.62
483.59	106.62
483.808	82.62
484.027	107.62
484.245	84.62
484.463	95.62
484.681	100.62
484.9	110.62
485.118	90.62
485.336	88.62
485.554	101.62
485.772	91.62
485.99	83.62
486.209	105.62
486.427	99.62
486.645	109.62
486.863	127.62
487.081	114.62
487.299	102.62
487.517	96.62
487.735	76.62
487.953	96.62
488.171	95.62
488.389	94.62
488.607	108.62
488.825	90.62
489.043	90.62
489.261	87.62
489.479	101.62
489.696	82.62
489.914	88.62
490.132	94.62
490.35	76.62
490.568	80.62
490.786	83.62
491.003	98.62
491.221	97.62
491.439	95.62
491.657	99.62
491.874	81.62
492.092	90.62
492.31	91.62
492.527	87.62
492.745	84.62
492.963	96.62
493.18	93.62
493.398	105.62
493.615	104.62
493.833	102.62
494.05	87.62
494.268	89.62
494.485	100.62
494.703	78.62
494.92	87.62
495.138	84.62
495.355	94.62
495.573	97.62
495.79	102.62
496.008	99.62
496.225	99.62
496.442	97.62
496.66	95.62
496.877	87.62
497.094	105.62
497.312	92.62
497.529	87.62
497.746	92.62
497.963	106.62
498.181	85.62
498.398	90.62
498.615	103.62
498.832	107.62
499.049	82.62
499.267	80.62
499.484	89.62
499.701	92.62
499.918	84.62
500.135	95.62
500.352	98.62
500.569	96.62
500.786	111.62
501.003	98.62
501.22	98.62
501.437	90.62
501.654	102.62
501.871	141.62
502.088	110.62
502.305	105.62
502.522	95.62
502.739	91.62
502.956	82.62
503.172	90.62
503.389	90.62
503.606	109.62
503.823	97.62
504.04	92.62
504.256	89.62
504.473	110.62
504.69	103.62
504.907	90.62
505.123	95.62
505.34	94.62
505.557	93.62
505.773	114.62
505.99	90.62
506.207	96.62
506.423	85.62
506.64	89.62
506.856	75.62
507.073	87.62
507.289	90.62
507.506	101.62
507.722	128.62
507.939	141.62
508.155	101.62
508.372	95.62
508.588	106.62
508.805	77.62
509.021	118.62
509.238	95.62
509.454	99.62
509.67	102.62
509.887	105.62
510.103	143.62
510.319	228.62
510.536	874.62
510.752	2927.62
510.968	772.62
511.184	175.62
511.401	112.62
511.617	102.62
511.833	99.62
512.049	98.62
512.265	93.62
512.481	107.62
512.698	77.62
512.914	85.62
513.13	106.62
