Data from Circ_1981_H10_HRD10591_00093.txt Node
Date: Wed Jan 03 12:34:39 EST 2024
User: Yrep
Spectrometer: HR+D1059
Trigger mode: 1
Integration Time (sec): 1.000000E-1
Scans to average: 1
Electric dark correction enabled: true
Nonlinearity correction enabled: false
Boxcar width: 0
XAxis mode: Wavelengths
Number of Pixels in Spectrum: 2048
>>>>>Begin Spectral Data<<<<<
223.165	-15.38
223.4	-15.38
223.635	-15.38
223.869	-29.38
224.104	-7.38
224.338	-19.38
224.573	-19.38
224.808	-14.38
225.042	-4.38
225.277	-9.38
225.511	7.62
225.746	-4.38
225.98	6.62
226.215	21.62
226.449	13.62
226.683	21.62
226.918	24.62
227.152	27.62
227.387	25.62
227.621	40.62
227.856	33.62
228.09	46.62
228.324	36.62
228.559	47.62
228.793	40.62
229.027	75.62
229.262	71.62
229.496	70.62
229.73	89.62
229.964	86.62
230.199	74.62
230.433	69.62
230.667	82.62
230.901	77.62
231.136	73.62
231.37	68.62
231.604	76.62
231.838	75.62
232.072	73.62
232.306	80.62
232.541	80.62
232.775	65.62
233.009	77.62
233.243	83.62
233.477	83.62
233.711	85.62
233.945	82.62
234.179	71.62
234.413	72.62
234.647	66.62
234.881	88.62
235.115	81.62
235.349	67.62
235.583	77.62
235.817	84.62
236.051	72.62
236.285	86.62
236.519	77.62
236.753	69.62
236.987	74.62
237.221	78.62
237.455	99.62
237.689	84.62
237.922	75.62
238.156	72.62
238.39	77.62
238.624	81.62
238.858	63.62
239.091	61.62
239.325	74.62
239.559	71.62
239.793	92.62
240.027	78.62
240.26	68.62
240.494	81.62
240.728	88.62
240.961	71.62
241.195	64.62
241.429	84.62
241.662	72.62
241.896	85.62
242.13	77.62
242.363	76.62
242.597	68.62
242.83	92.62
243.064	70.62
243.298	76.62
243.531	72.62
243.765	77.62
243.998	83.62
244.232	96.62
244.465	73.62
244.699	79.62
244.932	84.62
245.166	87.62
245.399	65.62
245.633	86.62
245.866	91.62
246.099	91.62
246.333	82.62
246.566	86.62
246.8	75.62
247.033	69.62
247.266	81.62
247.5	88.62
247.733	72.62
247.966	86.62
248.2	75.62
248.433	69.62
248.666	72.62
248.899	77.62
249.133	85.62
249.366	103.62
249.599	97.62
249.832	82.62
250.066	93.62
250.299	77.62
250.532	67.62
250.765	70.62
250.998	91.62
251.231	66.62
251.465	80.62
251.698	81.62
251.931	87.62
252.164	68.62
252.397	73.62
252.63	83.62
252.863	75.62
253.096	73.62
253.329	84.62
253.562	81.62
253.795	74.62
254.028	84.62
254.261	77.62
254.494	75.62
254.727	89.62
254.96	87.62
255.193	77.62
255.426	80.62
255.659	74.62
255.892	81.62
256.124	75.62
256.357	76.62
256.59	84.62
256.823	76.62
257.056	92.62
257.289	85.62
257.521	92.62
257.754	87.62
257.987	76.62
258.22	73.62
258.452	70.62
258.685	83.62
258.918	80.62
259.151	77.62
259.383	83.62
259.616	79.62
259.849	83.62
260.081	82.62
260.314	86.62
260.547	83.62
260.779	76.62
261.012	77.62
261.244	84.62
261.477	78.62
261.71	96.62
261.942	118.62
262.175	134.62
262.407	85.62
262.64	80.62
262.872	80.62
263.105	88.62
263.337	93.62
263.57	73.62
263.802	77.62
264.035	84.62
264.267	92.62
264.499	83.62
264.732	81.62
264.964	77.62
265.197	85.62
265.429	83.62
265.661	88.62
265.894	89.62
266.126	76.62
266.358	83.62
266.591	57.62
266.823	67.62
267.055	76.62
267.287	89.62
267.52	74.62
267.752	78.62
267.984	73.62
268.216	83.62
268.448	75.62
268.681	72.62
268.913	89.62
269.145	92.62
269.377	73.62
269.609	66.62
269.841	83.62
270.073	74.62
270.306	93.62
270.538	84.62
270.77	74.62
271.002	77.62
271.234	72.62
271.466	86.62
271.698	105.62
271.93	90.62
272.162	89.62
272.394	78.62
272.626	71.62
272.858	88.62
273.09	95.62
273.322	91.62
273.553	74.62
273.785	84.62
274.017	93.62
274.249	93.62
274.481	88.62
274.713	92.62
274.945	78.62
275.176	74.62
275.408	89.62
275.64	92.62
275.872	88.62
276.104	90.62
276.335	105.62
276.567	99.62
276.799	109.62
277.031	94.62
277.262	91.62
277.494	84.62
277.726	88.62
277.957	78.62
278.189	91.62
278.421	92.62
278.652	96.62
278.884	97.62
279.115	76.62
279.347	96.62
279.579	77.62
279.81	88.62
280.042	92.62
280.273	87.62
280.505	86.62
280.736	92.62
280.968	85.62
281.199	83.62
281.431	91.62
281.662	100.62
281.894	96.62
282.125	98.62
282.356	138.62
282.588	140.62
282.819	131.62
283.051	80.62
283.282	81.62
283.513	76.62
283.745	88.62
283.976	94.62
284.207	86.62
284.439	84.62
284.67	92.62
284.901	78.62
285.132	84.62
285.364	86.62
285.595	89.62
285.826	85.62
286.057	100.62
286.288	76.62
286.52	82.62
286.751	78.62
286.982	80.62
287.213	68.62
287.444	77.62
287.675	92.62
287.906	81.62
288.138	90.62
288.369	84.62
288.6	99.62
288.831	84.62
289.062	81.62
289.293	76.62
289.524	72.62
289.755	88.62
289.986	91.62
290.217	88.62
290.448	82.62
290.679	99.62
290.91	104.62
291.141	71.62
291.371	80.62
291.602	91.62
291.833	88.62
292.064	95.62
292.295	92.62
292.526	88.62
292.757	84.62
292.987	78.62
293.218	86.62
293.449	80.62
293.68	85.62
293.91	93.62
294.141	86.62
294.372	83.62
294.603	86.62
294.833	88.62
295.064	73.62
295.295	76.62
295.525	101.62
295.756	106.62
295.987	112.62
296.217	138.62
296.448	139.62
296.679	107.62
296.909	108.62
297.14	84.62
297.37	88.62
297.601	86.62
297.831	89.62
298.062	90.62
298.292	88.62
298.523	82.62
298.753	93.62
298.984	91.62
299.214	86.62
299.445	89.62
299.675	88.62
299.905	104.62
300.136	90.62
300.366	82.62
300.597	82.62
300.827	93.62
301.057	94.62
301.288	115.62
301.518	90.62
301.748	79.62
301.979	94.62
302.209	89.62
302.439	89.62
302.669	89.62
302.9	85.62
303.13	86.62
303.36	101.62
303.59	103.62
303.82	95.62
304.051	95.62
304.281	94.62
304.511	100.62
304.741	94.62
304.971	96.62
305.201	92.62
305.431	90.62
305.661	104.62
305.891	78.62
306.121	92.62
306.352	97.62
306.582	109.62
306.812	101.62
307.042	92.62
307.272	92.62
307.502	86.62
307.731	89.62
307.961	92.62
308.191	98.62
308.421	93.62
308.651	106.62
308.881	96.62
309.111	96.62
309.341	97.62
309.571	93.62
309.8	83.62
310.03	114.62
310.26	116.62
310.49	104.62
310.72	100.62
310.949	107.62
311.179	108.62
311.409	85.62
311.639	88.62
311.868	116.62
312.098	86.62
312.328	99.62
312.557	106.62
312.787	100.62
313.017	102.62
313.246	101.62
313.476	90.62
313.706	100.62
313.935	86.62
314.165	107.62
314.394	117.62
314.624	108.62
314.853	111.62
315.083	106.62
315.312	103.62
315.542	76.62
315.771	93.62
316.001	96.62
316.23	106.62
316.46	89.62
316.689	106.62
316.919	104.62
317.148	96.62
317.377	97.62
317.607	105.62
317.836	102.62
318.065	85.62
318.295	99.62
318.524	80.62
318.753	93.62
318.983	85.62
319.212	109.62
319.441	110.62
319.67	98.62
319.9	89.62
320.129	99.62
320.358	94.62
320.587	89.62
320.816	105.62
321.046	115.62
321.275	99.62
321.504	96.62
321.733	87.62
321.962	101.62
322.191	96.62
322.42	102.62
322.649	126.62
322.878	117.62
323.108	136.62
323.337	139.62
323.566	140.62
323.795	157.62
324.024	220.62
324.253	444.62
324.482	1025.62
324.71	2144.62
324.939	2933.62
325.168	1037.62
325.397	276.62
325.626	165.62
325.855	149.62
326.084	135.62
326.313	147.62
326.542	162.62
326.77	253.62
326.999	524.62
327.228	1110.62
327.457	2142.62
327.686	1786.62
327.914	453.62
328.143	217.62
328.372	196.62
328.6	148.62
328.829	134.62
329.058	154.62
329.287	142.62
329.515	123.62
329.744	108.62
329.972	108.62
330.201	128.62
330.43	148.62
330.658	132.62
330.887	162.62
331.115	158.62
331.344	97.62
331.572	104.62
331.801	104.62
332.03	102.62
332.258	99.62
332.486	87.62
332.715	91.62
332.943	97.62
333.172	97.62
333.4	93.62
333.629	109.62
333.857	116.62
334.085	132.62
334.314	116.62
334.542	146.62
334.771	151.62
334.999	101.62
335.227	90.62
335.455	112.62
335.684	90.62
335.912	90.62
336.14	102.62
336.369	94.62
336.597	117.62
336.825	97.62
337.053	92.62
337.281	104.62
337.51	90.62
337.738	103.62
337.966	104.62
338.194	89.62
338.422	105.62
338.65	108.62
338.878	86.62
339.106	94.62
339.334	99.62
339.562	88.62
339.79	85.62
340.018	92.62
340.246	90.62
340.474	103.62
340.702	91.62
340.93	82.62
341.158	99.62
341.386	99.62
341.614	92.62
341.842	89.62
342.07	89.62
342.298	93.62
342.526	94.62
342.754	91.62
342.981	76.62
343.209	89.62
343.437	105.62
343.665	99.62
343.893	98.62
344.12	96.62
344.348	85.62
344.576	86.62
344.804	93.62
345.031	99.62
345.259	102.62
345.487	95.62
345.714	96.62
345.942	102.62
346.17	91.62
346.397	92.62
346.625	99.62
346.853	97.62
347.08	92.62
347.308	100.62
347.535	106.62
347.763	101.62
347.99	100.62
348.218	100.62
348.445	105.62
348.673	110.62
348.9	99.62
349.128	90.62
349.355	73.62
349.583	84.62
349.81	96.62
350.037	93.62
350.265	113.62
350.492	89.62
350.72	87.62
350.947	101.62
351.174	114.62
351.402	117.62
351.629	118.62
351.856	104.62
352.083	97.62
352.311	109.62
352.538	119.62
352.765	109.62
352.992	127.62
353.22	127.62
353.447	111.62
353.674	107.62
353.901	91.62
354.128	91.62
354.355	96.62
354.583	94.62
354.81	91.62
355.037	94.62
355.264	88.62
355.491	90.62
355.718	82.62
355.945	98.62
356.172	95.62
356.399	91.62
356.626	103.62
356.853	105.62
357.08	102.62
357.307	103.62
357.534	102.62
357.761	83.62
357.988	106.62
358.215	94.62
358.441	92.62
358.668	100.62
358.895	100.62
359.122	96.62
359.349	81.62
359.576	96.62
359.802	103.62
360.029	126.62
360.256	116.62
360.483	105.62
360.709	89.62
360.936	98.62
361.163	101.62
361.39	92.62
361.616	90.62
361.843	76.62
362.07	92.62
362.296	97.62
362.523	98.62
362.749	99.62
362.976	86.62
363.203	93.62
363.429	88.62
363.656	86.62
363.882	77.62
364.109	88.62
364.335	81.62
364.562	84.62
364.788	90.62
365.015	90.62
365.241	118.62
365.468	117.62
365.694	96.62
365.92	105.62
366.147	86.62
366.373	96.62
366.599	97.62
366.826	91.62
367.052	106.62
367.278	86.62
367.505	74.62
367.731	90.62
367.957	84.62
368.184	106.62
368.41	112.62
368.636	104.62
368.862	117.62
369.089	114.62
369.315	90.62
369.541	100.62
369.767	109.62
369.993	95.62
370.219	99.62
370.445	107.62
370.672	84.62
370.898	90.62
371.124	90.62
371.35	88.62
371.576	85.62
371.802	85.62
372.028	84.62
372.254	88.62
372.48	91.62
372.706	91.62
372.932	85.62
373.158	90.62
373.384	92.62
373.61	100.62
373.835	97.62
374.061	78.62
374.287	98.62
374.513	104.62
374.739	84.62
374.965	87.62
375.191	90.62
375.416	84.62
375.642	84.62
375.868	96.62
376.094	94.62
376.319	93.62
376.545	85.62
376.771	85.62
376.997	81.62
377.222	89.62
377.448	94.62
377.674	93.62
377.899	94.62
378.125	97.62
378.35	82.62
378.576	88.62
378.802	83.62
379.027	94.62
379.253	93.62
379.478	97.62
379.704	84.62
379.929	100.62
380.155	91.62
380.38	99.62
380.606	94.62
380.831	97.62
381.057	107.62
381.282	93.62
381.507	84.62
381.733	81.62
381.958	90.62
382.184	91.62
382.409	85.62
382.634	77.62
382.86	90.62
383.085	89.62
383.31	95.62
383.535	95.62
383.761	91.62
383.986	118.62
384.211	93.62
384.436	96.62
384.662	95.62
384.887	97.62
385.112	89.62
385.337	80.62
385.562	95.62
385.787	98.62
386.013	116.62
386.238	94.62
386.463	106.62
386.688	104.62
386.913	87.62
387.138	100.62
387.363	96.62
387.588	108.62
387.813	96.62
388.038	94.62
388.263	112.62
388.488	99.62
388.713	97.62
388.938	96.62
389.163	99.62
389.387	91.62
389.612	80.62
389.837	91.62
390.062	87.62
390.287	90.62
390.512	100.62
390.736	92.62
390.961	87.62
391.186	89.62
391.411	85.62
391.636	88.62
391.86	88.62
392.085	99.62
392.31	85.62
392.534	81.62
392.759	91.62
392.984	92.62
393.208	97.62
393.433	96.62
393.658	88.62
393.882	87.62
394.107	86.62
394.331	88.62
394.556	84.62
394.78	87.62
395.005	92.62
395.229	85.62
395.454	92.62
395.678	90.62
395.903	96.62
396.127	80.62
396.352	93.62
396.576	78.62
396.801	105.62
397.025	92.62
397.249	84.62
397.474	91.62
397.698	77.62
397.922	87.62
398.147	86.62
398.371	90.62
398.595	109.62
398.82	90.62
399.044	89.62
399.268	100.62
399.492	86.62
399.717	99.62
399.941	85.62
400.165	93.62
400.389	116.62
400.613	92.62
400.837	97.62
401.062	93.62
401.286	88.62
401.51	91.62
401.734	101.62
401.958	117.62
402.182	129.62
402.406	169.62
402.63	126.62
402.854	105.62
403.078	97.62
403.302	96.62
403.526	93.62
403.75	68.62
403.974	85.62
404.198	91.62
404.422	90.62
404.645	93.62
404.869	82.62
405.093	107.62
405.317	111.62
405.541	104.62
405.765	99.62
405.988	120.62
406.212	193.62
406.436	276.62
406.66	156.62
406.883	94.62
407.107	101.62
407.331	105.62
407.555	107.62
407.778	107.62
408.002	91.62
408.226	86.62
408.449	101.62
408.673	102.62
408.896	96.62
409.12	104.62
409.344	92.62
409.567	85.62
409.791	97.62
410.014	94.62
410.238	98.62
410.461	93.62
410.685	86.62
410.908	91.62
411.132	97.62
411.355	100.62
411.578	84.62
411.802	89.62
412.025	80.62
412.249	94.62
412.472	90.62
412.695	114.62
412.919	93.62
413.142	92.62
413.365	78.62
413.589	75.62
413.812	89.62
414.035	72.62
414.258	88.62
414.482	93.62
414.705	90.62
414.928	99.62
415.151	90.62
415.374	96.62
415.597	82.62
415.821	96.62
416.044	85.62
416.267	84.62
416.49	92.62
416.713	86.62
416.936	87.62
417.159	88.62
417.382	97.62
417.605	75.62
417.828	103.62
418.051	85.62
418.274	84.62
418.497	96.62
418.72	85.62
418.943	99.62
419.166	84.62
419.389	76.62
419.611	94.62
419.834	76.62
420.057	91.62
420.28	91.62
420.503	90.62
420.726	88.62
420.948	85.62
421.171	113.62
421.394	91.62
421.617	82.62
421.839	81.62
422.062	81.62
422.285	102.62
422.507	97.62
422.73	101.62
422.953	93.62
423.175	81.62
423.398	104.62
423.621	89.62
423.843	82.62
424.066	83.62
424.288	102.62
424.511	102.62
424.733	114.62
424.956	109.62
425.178	82.62
425.401	98.62
425.623	105.62
425.846	80.62
426.068	91.62
426.291	92.62
426.513	98.62
426.735	102.62
426.958	89.62
427.18	106.62
427.402	170.62
427.625	194.62
427.847	154.62
428.069	130.62
428.292	96.62
428.514	86.62
428.736	84.62
428.958	91.62
429.181	82.62
429.403	73.62
429.625	88.62
429.847	114.62
430.069	108.62
430.292	104.62
430.514	97.62
430.736	82.62
430.958	107.62
431.18	86.62
431.402	98.62
431.624	86.62
431.846	90.62
432.068	78.62
432.29	94.62
432.512	86.62
432.734	97.62
432.956	83.62
433.178	91.62
433.4	97.62
433.622	78.62
433.844	93.62
434.066	100.62
434.287	87.62
434.509	98.62
434.731	84.62
434.953	92.62
435.175	82.62
435.397	90.62
435.618	106.62
435.84	114.62
436.062	136.62
436.284	127.62
436.505	107.62
436.727	102.62
436.949	91.62
437.17	87.62
437.392	93.62
437.614	90.62
437.835	113.62
438.057	129.62
438.278	126.62
438.5	124.62
438.721	145.62
438.943	114.62
439.165	79.62
439.386	102.62
439.608	111.62
439.829	110.62
440.05	135.62
440.272	181.62
440.493	104.62
440.715	89.62
440.936	82.62
441.158	92.62
441.379	91.62
441.6	89.62
441.822	103.62
442.043	97.62
442.264	123.62
442.486	111.62
442.707	102.62
442.928	114.62
443.149	156.62
443.371	171.62
443.592	132.62
443.813	134.62
444.034	130.62
444.255	81.62
444.476	87.62
444.698	81.62
444.919	100.62
445.14	135.62
445.361	136.62
445.582	133.62
445.803	177.62
446.024	175.62
446.245	186.62
446.466	138.62
446.687	106.62
446.908	98.62
447.129	85.62
447.35	82.62
447.571	72.62
447.792	103.62
448.013	98.62
448.234	108.62
448.455	103.62
448.675	133.62
448.896	139.62
449.117	103.62
449.338	127.62
449.559	153.62
449.779	160.62
450	92.62
450.221	89.62
450.442	69.62
450.662	99.62
450.883	107.62
451.104	117.62
451.324	110.62
451.545	100.62
451.766	87.62
451.986	89.62
452.207	89.62
452.428	87.62
452.648	93.62
452.869	105.62
453.089	118.62
453.31	113.62
453.53	104.62
453.751	98.62
453.971	117.62
454.192	129.62
454.412	100.62
454.633	88.62
454.853	90.62
455.073	99.62
455.294	104.62
455.514	105.62
455.734	100.62
455.955	84.62
456.175	92.62
456.395	81.62
456.616	82.62
456.836	84.62
457.056	92.62
457.276	84.62
457.497	85.62
457.717	89.62
457.937	88.62
458.157	96.62
458.377	96.62
458.598	109.62
458.818	182.62
459.038	181.62
459.258	138.62
459.478	92.62
459.698	86.62
459.918	91.62
460.138	89.62
460.358	91.62
460.578	90.62
460.798	100.62
461.018	80.62
461.238	88.62
461.458	82.62
461.678	88.62
461.898	89.62
462.118	89.62
462.338	83.62
462.558	82.62
462.777	76.62
462.997	84.62
463.217	81.62
463.437	90.62
463.657	84.62
463.876	92.62
464.096	102.62
464.316	91.62
464.536	84.62
464.755	88.62
464.975	123.62
465.195	199.62
465.414	190.62
465.634	99.62
465.854	86.62
466.073	97.62
466.293	98.62
466.512	90.62
466.732	86.62
466.951	82.62
467.171	93.62
467.391	105.62
467.61	103.62
467.829	105.62
468.049	106.62
468.268	117.62
468.488	89.62
468.707	81.62
468.927	80.62
469.146	75.62
469.365	80.62
469.585	91.62
469.804	96.62
470.023	101.62
470.243	97.62
470.462	109.62
470.681	114.62
470.901	96.62
471.12	89.62
471.339	82.62
471.558	84.62
471.777	81.62
471.997	99.62
472.216	107.62
472.435	160.62
472.654	97.62
472.873	84.62
473.092	84.62
473.311	91.62
473.53	75.62
473.749	86.62
473.968	104.62
474.187	112.62
474.406	105.62
474.625	94.62
474.844	95.62
475.063	86.62
475.282	81.62
475.501	85.62
475.72	88.62
475.939	82.62
476.158	77.62
476.377	80.62
476.596	76.62
476.814	96.62
477.033	96.62
477.252	93.62
477.471	102.62
477.69	80.62
477.908	97.62
478.127	83.62
478.346	86.62
478.564	87.62
478.783	82.62
479.002	93.62
479.22	100.62
479.439	112.62
479.658	117.62
479.876	91.62
480.095	98.62
480.313	97.62
480.532	94.62
480.751	82.62
480.969	121.62
481.188	245.62
481.406	169.62
481.624	106.62
481.843	105.62
482.061	77.62
482.28	92.62
482.498	94.62
482.717	86.62
482.935	94.62
483.153	99.62
483.372	86.62
483.59	90.62
483.808	74.62
484.027	89.62
484.245	92.62
484.463	104.62
484.681	100.62
484.9	93.62
485.118	99.62
485.336	90.62
485.554	89.62
485.772	96.62
485.99	108.62
486.209	108.62
486.427	96.62
486.645	105.62
486.863	128.62
487.081	105.62
487.299	104.62
487.517	92.62
487.735	82.62
487.953	81.62
488.171	93.62
488.389	94.62
488.607	96.62
488.825	88.62
489.043	92.62
489.261	83.62
489.479	86.62
489.696	91.62
489.914	84.62
490.132	83.62
490.35	86.62
490.568	75.62
490.786	104.62
491.003	89.62
491.221	83.62
491.439	81.62
491.657	89.62
491.874	81.62
492.092	92.62
492.31	91.62
492.527	92.62
492.745	85.62
492.963	85.62
493.18	86.62
493.398	84.62
493.615	90.62
493.833	92.62
494.05	85.62
494.268	90.62
494.485	89.62
494.703	86.62
494.92	84.62
495.138	82.62
495.355	88.62
495.573	96.62
495.79	97.62
496.008	89.62
496.225	87.62
496.442	93.62
496.66	82.62
496.877	93.62
497.094	86.62
497.312	84.62
497.529	95.62
497.746	106.62
497.963	88.62
498.181	100.62
498.398	99.62
498.615	108.62
498.832	110.62
499.049	108.62
499.267	95.62
499.484	92.62
499.701	86.62
499.918	88.62
500.135	87.62
500.352	104.62
500.569	90.62
500.786	89.62
501.003	75.62
501.22	93.62
501.437	83.62
501.654	107.62
501.871	116.62
502.088	90.62
502.305	93.62
502.522	96.62
502.739	86.62
502.956	88.62
503.172	80.62
503.389	114.62
503.606	105.62
503.823	89.62
504.04	83.62
504.256	93.62
504.473	99.62
504.69	80.62
504.907	96.62
505.123	92.62
505.34	86.62
505.557	92.62
505.773	104.62
505.99	92.62
506.207	105.62
506.423	94.62
506.64	90.62
506.856	88.62
507.073	88.62
507.289	105.62
507.506	107.62
507.722	103.62
507.939	114.62
508.155	91.62
508.372	86.62
508.588	94.62
508.805	81.62
509.021	96.62
509.238	98.62
509.454	96.62
509.67	103.62
509.887	110.62
510.103	128.62
510.319	202.62
510.536	775.62
510.752	2587.62
510.968	693.62
511.184	174.62
511.401	112.62
511.617	90.62
511.833	96.62
512.049	89.62
512.265	86.62
512.481	92.62
512.698	92.62
512.914	90.62
513.13	97.62
513.346	88.62
513.562	84.62
513.778	90.62
513.994	106.62
514.21	106.62
514.426	134.62
514.642	150.62
514.858	138.62
515.074	200.62
