Data from Circ_1981_H10_HRD10591_00071.txt Node
Date: Wed Jan 03 12:34:35 EST 2024
User: Yrep
Spectrometer: HR+D1059
Trigger mode: 1
Integration Time (sec): 1.000000E-1
Scans to average: 1
Electric dark correction enabled: true
Nonlinearity correction enabled: false
Boxcar width: 0
XAxis mode: Wavelengths
Number of Pixels in Spectrum: 2048
>>>>>Begin Spectral Data<<<<<
223.165	-11.38
223.4	-11.38
223.635	-11.38
223.869	-25.38
224.104	-20.38
224.338	-18.38
224.573	-23.38
224.808	-8.38
225.042	-5.38
225.277	-13.38
225.511	5.62
225.746	11.62
225.98	11.62
226.215	3.62
226.449	11.62
226.683	15.62
226.918	33.62
227.152	32.62
227.387	34.62
227.621	36.62
227.856	37.62
228.09	38.62
228.324	51.62
228.559	58.62
228.793	56.62
229.027	69.62
229.262	70.62
229.496	86.62
229.73	76.62
229.964	76.62
230.199	82.62
230.433	84.62
230.667	87.62
230.901	92.62
231.136	76.62
231.37	87.62
231.604	82.62
231.838	80.62
232.072	85.62
232.306	88.62
232.541	70.62
232.775	89.62
233.009	85.62
233.243	74.62
233.477	77.62
233.711	75.62
233.945	85.62
234.179	76.62
234.413	84.62
234.647	78.62
234.881	84.62
235.115	77.62
235.349	79.62
235.583	77.62
235.817	79.62
236.051	86.62
236.285	78.62
236.519	74.62
236.753	84.62
236.987	84.62
237.221	94.62
237.455	85.62
237.689	67.62
237.922	62.62
238.156	78.62
238.39	73.62
238.624	71.62
238.858	88.62
239.091	79.62
239.325	82.62
239.559	89.62
239.793	80.62
240.027	74.62
240.26	73.62
240.494	82.62
240.728	79.62
240.961	61.62
241.195	80.62
241.429	77.62
241.662	75.62
241.896	75.62
242.13	70.62
242.363	76.62
242.597	71.62
242.83	83.62
243.064	75.62
243.298	79.62
243.531	90.62
243.765	88.62
243.998	91.62
244.232	85.62
244.465	96.62
244.699	82.62
244.932	82.62
245.166	88.62
245.399	71.62
245.633	71.62
245.866	78.62
246.099	79.62
246.333	65.62
246.566	84.62
246.8	81.62
247.033	87.62
247.266	76.62
247.5	75.62
247.733	73.62
247.966	83.62
248.2	100.62
248.433	82.62
248.666	75.62
248.899	90.62
249.133	92.62
249.366	101.62
249.599	94.62
249.832	77.62
250.066	102.62
250.299	96.62
250.532	83.62
250.765	78.62
250.998	82.62
251.231	80.62
251.465	78.62
251.698	85.62
251.931	86.62
252.164	80.62
252.397	91.62
252.63	82.62
252.863	66.62
253.096	81.62
253.329	77.62
253.562	73.62
253.795	88.62
254.028	76.62
254.261	91.62
254.494	88.62
254.727	85.62
254.96	90.62
255.193	85.62
255.426	82.62
255.659	84.62
255.892	83.62
256.124	91.62
256.357	90.62
256.59	79.62
256.823	72.62
257.056	86.62
257.289	86.62
257.521	81.62
257.754	71.62
257.987	78.62
258.22	86.62
258.452	92.62
258.685	86.62
258.918	87.62
259.151	73.62
259.383	77.62
259.616	82.62
259.849	79.62
260.081	70.62
260.314	98.62
260.547	96.62
260.779	92.62
261.012	81.62
261.244	74.62
261.477	82.62
261.71	84.62
261.942	108.62
262.175	119.62
262.407	103.62
262.64	84.62
262.872	92.62
263.105	74.62
263.337	86.62
263.57	70.62
263.802	79.62
264.035	89.62
264.267	82.62
264.499	79.62
264.732	76.62
264.964	83.62
265.197	75.62
265.429	90.62
265.661	92.62
265.894	101.62
266.126	84.62
266.358	80.62
266.591	82.62
266.823	75.62
267.055	73.62
267.287	78.62
267.52	75.62
267.752	91.62
267.984	90.62
268.216	80.62
268.448	82.62
268.681	88.62
268.913	96.62
269.145	91.62
269.377	86.62
269.609	75.62
269.841	84.62
270.073	86.62
270.306	96.62
270.538	77.62
270.77	85.62
271.002	90.62
271.234	92.62
271.466	79.62
271.698	91.62
271.93	81.62
272.162	82.62
272.394	92.62
272.626	86.62
272.858	92.62
273.09	100.62
273.322	90.62
273.553	87.62
273.785	88.62
274.017	84.62
274.249	96.62
274.481	84.62
274.713	73.62
274.945	74.62
275.176	91.62
275.408	71.62
275.64	94.62
275.872	86.62
276.104	89.62
276.335	82.62
276.567	104.62
276.799	120.62
277.031	92.62
277.262	82.62
277.494	83.62
277.726	102.62
277.957	86.62
278.189	83.62
278.421	83.62
278.652	85.62
278.884	83.62
279.115	94.62
279.347	92.62
279.579	92.62
279.81	95.62
280.042	100.62
280.273	88.62
280.505	86.62
280.736	99.62
280.968	73.62
281.199	76.62
281.431	86.62
281.662	86.62
281.894	106.62
282.125	119.62
282.356	121.62
282.588	138.62
282.819	109.62
283.051	104.62
283.282	83.62
283.513	88.62
283.745	87.62
283.976	85.62
284.207	82.62
284.439	94.62
284.67	102.62
284.901	73.62
285.132	88.62
285.364	86.62
285.595	72.62
285.826	74.62
286.057	84.62
286.288	91.62
286.52	84.62
286.751	95.62
286.982	104.62
287.213	91.62
287.444	97.62
287.675	86.62
287.906	80.62
288.138	87.62
288.369	99.62
288.6	85.62
288.831	91.62
289.062	100.62
289.293	92.62
289.524	91.62
289.755	90.62
289.986	87.62
290.217	80.62
290.448	83.62
290.679	86.62
290.91	94.62
291.141	87.62
291.371	92.62
291.602	77.62
291.833	84.62
292.064	92.62
292.295	74.62
292.526	73.62
292.757	91.62
292.987	97.62
293.218	89.62
293.449	85.62
293.68	92.62
293.91	92.62
294.141	85.62
294.372	104.62
294.603	91.62
294.833	75.62
295.064	101.62
295.295	84.62
295.525	86.62
295.756	103.62
295.987	104.62
296.217	131.62
296.448	117.62
296.679	111.62
296.909	107.62
297.14	94.62
297.37	92.62
297.601	90.62
297.831	93.62
298.062	112.62
298.292	83.62
298.523	89.62
298.753	95.62
298.984	86.62
299.214	104.62
299.445	94.62
299.675	82.62
299.905	95.62
300.136	112.62
300.366	95.62
300.597	85.62
300.827	91.62
301.057	112.62
301.288	110.62
301.518	94.62
301.748	76.62
301.979	109.62
302.209	91.62
302.439	83.62
302.669	88.62
302.9	108.62
303.13	96.62
303.36	98.62
303.59	100.62
303.82	118.62
304.051	92.62
304.281	94.62
304.511	89.62
304.741	91.62
304.971	95.62
305.201	95.62
305.431	95.62
305.661	84.62
305.891	86.62
306.121	80.62
306.352	98.62
306.582	103.62
306.812	95.62
307.042	96.62
307.272	99.62
307.502	84.62
307.731	97.62
307.961	111.62
308.191	80.62
308.421	83.62
308.651	87.62
308.881	89.62
309.111	98.62
309.341	104.62
309.571	96.62
309.8	85.62
310.03	96.62
310.26	98.62
310.49	103.62
310.72	98.62
310.949	117.62
311.179	112.62
311.409	95.62
311.639	104.62
311.868	98.62
312.098	93.62
312.328	81.62
312.557	107.62
312.787	100.62
313.017	104.62
313.246	90.62
313.476	104.62
313.706	92.62
313.935	90.62
314.165	90.62
314.394	105.62
314.624	100.62
314.853	97.62
315.083	89.62
315.312	88.62
315.542	87.62
315.771	88.62
316.001	84.62
316.23	107.62
316.46	101.62
316.689	92.62
316.919	90.62
317.148	104.62
317.377	103.62
317.607	97.62
317.836	86.62
318.065	96.62
318.295	98.62
318.524	87.62
318.753	87.62
318.983	97.62
319.212	124.62
319.441	107.62
319.67	110.62
319.9	93.62
320.129	87.62
320.358	109.62
320.587	92.62
320.816	103.62
321.046	95.62
321.275	95.62
321.504	101.62
321.733	105.62
321.962	101.62
322.191	103.62
322.42	99.62
322.649	112.62
322.878	108.62
323.108	122.62
323.337	141.62
323.566	142.62
323.795	172.62
324.024	219.62
324.253	433.62
324.482	907.62
324.71	1930.62
324.939	2673.62
325.168	948.62
325.397	278.62
325.626	147.62
325.855	142.62
326.084	126.62
326.313	143.62
326.542	163.62
326.77	250.62
326.999	479.62
327.228	1068.62
327.457	2002.62
327.686	1585.62
327.914	400.62
328.143	215.62
328.372	170.62
328.6	139.62
328.829	109.62
329.058	124.62
329.287	131.62
329.515	112.62
329.744	108.62
329.972	106.62
330.201	127.62
330.43	135.62
330.658	141.62
330.887	148.62
331.115	133.62
331.344	112.62
331.572	103.62
331.801	101.62
332.03	107.62
332.258	116.62
332.486	111.62
332.715	100.62
332.943	91.62
333.172	93.62
333.4	99.62
333.629	107.62
333.857	115.62
334.085	104.62
334.314	118.62
334.542	127.62
334.771	140.62
334.999	103.62
335.227	95.62
335.455	98.62
335.684	102.62
335.912	104.62
336.14	112.62
336.369	95.62
336.597	77.62
336.825	110.62
337.053	94.62
337.281	104.62
337.51	102.62
337.738	103.62
337.966	103.62
338.194	100.62
338.422	98.62
338.65	91.62
338.878	93.62
339.106	84.62
339.334	96.62
339.562	91.62
339.79	103.62
340.018	90.62
340.246	91.62
340.474	93.62
340.702	102.62
340.93	93.62
341.158	100.62
341.386	105.62
341.614	109.62
341.842	102.62
342.07	108.62
342.298	98.62
342.526	90.62
342.754	89.62
342.981	97.62
343.209	87.62
343.437	102.62
343.665	107.62
343.893	103.62
344.12	95.62
344.348	94.62
344.576	88.62
344.804	92.62
345.031	91.62
345.259	105.62
345.487	110.62
345.714	95.62
345.942	88.62
346.17	99.62
346.397	86.62
346.625	91.62
346.853	91.62
347.08	80.62
347.308	111.62
347.535	94.62
347.763	97.62
347.99	109.62
348.218	104.62
348.445	106.62
348.673	107.62
348.9	90.62
349.128	93.62
349.355	87.62
349.583	106.62
349.81	95.62
350.037	107.62
350.265	85.62
350.492	100.62
350.72	90.62
350.947	95.62
351.174	107.62
351.402	115.62
351.629	105.62
351.856	113.62
352.083	110.62
352.311	115.62
352.538	108.62
352.765	103.62
352.992	113.62
353.22	108.62
353.447	105.62
353.674	97.62
353.901	101.62
354.128	102.62
354.355	92.62
354.583	107.62
354.81	105.62
355.037	95.62
355.264	82.62
355.491	83.62
355.718	98.62
355.945	105.62
356.172	104.62
356.399	95.62
356.626	88.62
356.853	100.62
357.08	94.62
357.307	91.62
357.534	84.62
357.761	82.62
357.988	99.62
358.215	101.62
358.441	103.62
358.668	91.62
358.895	85.62
359.122	92.62
359.349	105.62
359.576	106.62
359.802	114.62
360.029	120.62
360.256	118.62
360.483	98.62
360.709	82.62
360.936	97.62
361.163	95.62
361.39	105.62
361.616	93.62
361.843	107.62
362.07	93.62
362.296	96.62
362.523	102.62
362.749	90.62
362.976	96.62
363.203	108.62
363.429	90.62
363.656	98.62
363.882	92.62
364.109	79.62
364.335	103.62
364.562	83.62
364.788	91.62
365.015	103.62
365.241	97.62
365.468	117.62
365.694	122.62
365.92	106.62
366.147	103.62
366.373	98.62
366.599	96.62
366.826	92.62
367.052	85.62
367.278	92.62
367.505	106.62
367.731	88.62
367.957	86.62
368.184	97.62
368.41	104.62
368.636	114.62
368.862	113.62
369.089	102.62
369.315	101.62
369.541	100.62
369.767	109.62
369.993	111.62
370.219	96.62
370.445	84.62
370.672	107.62
370.898	98.62
371.124	100.62
371.35	91.62
371.576	103.62
371.802	66.62
372.028	91.62
372.254	91.62
372.48	76.62
372.706	86.62
372.932	92.62
373.158	90.62
373.384	100.62
373.61	93.62
373.835	89.62
374.061	91.62
374.287	98.62
374.513	99.62
374.739	84.62
374.965	97.62
375.191	86.62
375.416	84.62
375.642	94.62
375.868	102.62
376.094	88.62
376.319	95.62
376.545	96.62
376.771	87.62
376.997	86.62
377.222	86.62
377.448	117.62
377.674	94.62
377.899	88.62
378.125	99.62
378.35	91.62
378.576	93.62
378.802	84.62
379.027	72.62
379.253	84.62
379.478	90.62
379.704	108.62
379.929	85.62
380.155	96.62
380.38	101.62
380.606	86.62
380.831	97.62
381.057	98.62
381.282	107.62
381.507	86.62
381.733	84.62
381.958	106.62
382.184	85.62
382.409	98.62
382.634	110.62
382.86	100.62
383.085	96.62
383.31	105.62
383.535	100.62
383.761	107.62
383.986	95.62
384.211	107.62
384.436	95.62
384.662	93.62
384.887	77.62
385.112	89.62
385.337	95.62
385.562	87.62
385.787	100.62
386.013	121.62
386.238	93.62
386.463	111.62
386.688	98.62
386.913	107.62
387.138	110.62
387.363	99.62
387.588	98.62
387.813	100.62
388.038	103.62
388.263	114.62
388.488	104.62
388.713	99.62
388.938	99.62
389.163	111.62
389.387	75.62
389.612	92.62
389.837	87.62
390.062	98.62
390.287	95.62
390.512	94.62
390.736	92.62
390.961	94.62
391.186	99.62
391.411	84.62
391.636	98.62
391.86	79.62
392.085	87.62
392.31	68.62
392.534	105.62
392.759	83.62
392.984	101.62
393.208	98.62
393.433	102.62
393.658	90.62
393.882	90.62
394.107	82.62
394.331	69.62
394.556	101.62
394.78	100.62
395.005	88.62
395.229	103.62
395.454	84.62
395.678	83.62
395.903	90.62
396.127	100.62
396.352	78.62
396.576	76.62
396.801	86.62
397.025	97.62
397.249	99.62
397.474	88.62
397.698	84.62
397.922	90.62
398.147	93.62
398.371	84.62
398.595	88.62
398.82	96.62
399.044	82.62
399.268	94.62
399.492	82.62
399.717	101.62
399.941	94.62
400.165	102.62
400.389	90.62
400.613	87.62
400.837	88.62
401.062	80.62
401.286	91.62
401.51	93.62
401.734	105.62
401.958	114.62
402.182	134.62
402.406	167.62
402.63	126.62
402.854	75.62
403.078	79.62
403.302	90.62
403.526	92.62
403.75	80.62
403.974	72.62
404.198	93.62
404.422	72.62
404.645	94.62
404.869	93.62
405.093	102.62
405.317	101.62
405.541	94.62
405.765	84.62
405.988	119.62
406.212	180.62
406.436	248.62
406.66	144.62
406.883	95.62
407.107	95.62
407.331	102.62
407.555	112.62
407.778	99.62
408.002	87.62
408.226	90.62
408.449	93.62
408.673	93.62
408.896	90.62
409.12	100.62
409.344	90.62
409.567	88.62
409.791	82.62
410.014	106.62
410.238	86.62
410.461	99.62
410.685	96.62
410.908	120.62
411.132	114.62
411.355	100.62
411.578	99.62
411.802	87.62
412.025	105.62
412.249	90.62
412.472	101.62
412.695	100.62
412.919	93.62
413.142	89.62
413.365	93.62
413.589	86.62
413.812	101.62
414.035	96.62
414.258	77.62
414.482	103.62
414.705	100.62
414.928	95.62
415.151	99.62
415.374	93.62
415.597	98.62
415.821	103.62
416.044	81.62
416.267	100.62
416.49	67.62
416.713	92.62
416.936	99.62
417.159	85.62
417.382	82.62
417.605	98.62
417.828	86.62
418.051	75.62
418.274	93.62
418.497	86.62
418.72	100.62
418.943	96.62
419.166	77.62
419.389	93.62
419.611	92.62
419.834	90.62
420.057	77.62
420.28	88.62
420.503	96.62
420.726	91.62
420.948	87.62
421.171	91.62
421.394	99.62
421.617	89.62
421.839	84.62
422.062	82.62
422.285	89.62
422.507	89.62
422.73	106.62
422.953	106.62
423.175	93.62
423.398	87.62
423.621	97.62
423.843	93.62
424.066	76.62
424.288	101.62
424.511	90.62
424.733	94.62
424.956	113.62
425.178	100.62
425.401	91.62
425.623	113.62
425.846	88.62
426.068	97.62
426.291	86.62
426.513	91.62
426.735	86.62
426.958	104.62
427.18	121.62
427.402	130.62
427.625	181.62
427.847	138.62
428.069	105.62
428.292	96.62
428.514	85.62
428.736	86.62
428.958	96.62
429.181	96.62
429.403	80.62
429.625	95.62
429.847	86.62
430.069	112.62
430.292	109.62
430.514	87.62
430.736	72.62
430.958	96.62
431.18	85.62
431.402	82.62
431.624	84.62
431.846	87.62
432.068	88.62
432.29	75.62
432.512	99.62
432.734	90.62
432.956	82.62
433.178	102.62
433.4	89.62
433.622	98.62
433.844	93.62
434.066	96.62
434.287	84.62
434.509	86.62
434.731	98.62
434.953	97.62
435.175	82.62
435.397	94.62
435.618	93.62
435.84	95.62
436.062	133.62
436.284	130.62
436.505	111.62
436.727	106.62
436.949	76.62
437.17	77.62
437.392	89.62
437.614	102.62
437.835	88.62
438.057	130.62
438.278	121.62
438.5	100.62
438.721	122.62
438.943	108.62
439.165	94.62
439.386	90.62
439.608	86.62
439.829	96.62
440.05	135.62
440.272	159.62
440.493	109.62
440.715	92.62
440.936	81.62
441.158	88.62
441.379	100.62
441.6	101.62
441.822	94.62
442.043	92.62
442.264	106.62
442.486	104.62
442.707	104.62
442.928	113.62
443.149	146.62
443.371	140.62
443.592	115.62
443.813	119.62
444.034	113.62
444.255	103.62
444.476	84.62
444.698	89.62
444.919	71.62
445.14	130.62
445.361	111.62
445.582	122.62
445.803	149.62
446.024	159.62
446.245	155.62
446.466	118.62
446.687	92.62
446.908	88.62
447.129	83.62
447.35	95.62
447.571	78.62
447.792	81.62
448.013	102.62
448.234	109.62
448.455	109.62
448.675	118.62
448.896	111.62
449.117	110.62
449.338	101.62
449.559	125.62
449.779	136.62
450	87.62
450.221	114.62
450.442	101.62
450.662	117.62
450.883	111.62
451.104	116.62
451.324	90.62
451.545	93.62
451.766	88.62
451.986	90.62
452.207	98.62
452.428	95.62
452.648	98.62
452.869	97.62
453.089	115.62
453.31	127.62
453.53	89.62
453.751	97.62
453.971	109.62
454.192	127.62
454.412	92.62
454.633	84.62
454.853	91.62
455.073	79.62
455.294	77.62
455.514	103.62
455.734	90.62
455.955	98.62
456.175	79.62
456.395	88.62
456.616	87.62
456.836	79.62
457.056	93.62
457.276	103.62
457.497	75.62
457.717	76.62
457.937	72.62
458.157	79.62
458.377	83.62
458.598	104.62
458.818	153.62
459.038	165.62
459.258	122.62
459.478	88.62
459.698	80.62
459.918	103.62
460.138	80.62
460.358	102.62
460.578	93.62
460.798	85.62
461.018	82.62
461.238	82.62
461.458	92.62
461.678	76.62
461.898	76.62
462.118	94.62
462.338	84.62
462.558	77.62
462.777	89.62
462.997	87.62
463.217	83.62
463.437	85.62
463.657	94.62
463.876	94.62
464.096	97.62
464.316	96.62
464.536	114.62
464.755	100.62
464.975	108.62
465.195	163.62
465.414	172.62
465.634	102.62
465.854	110.62
466.073	89.62
466.293	88.62
466.512	86.62
466.732	93.62
466.951	77.62
467.171	90.62
467.391	105.62
467.61	97.62
467.829	114.62
468.049	107.62
468.268	110.62
468.488	106.62
468.707	86.62
468.927	89.62
469.146	91.62
469.365	87.62
469.585	88.62
469.804	91.62
470.023	102.62
470.243	89.62
470.462	92.62
470.681	111.62
470.901	88.62
471.12	85.62
471.339	109.62
471.558	86.62
471.777	93.62
471.997	98.62
472.216	121.62
472.435	147.62
472.654	92.62
472.873	77.62
473.092	83.62
473.311	93.62
473.53	93.62
473.749	90.62
473.968	98.62
474.187	109.62
474.406	104.62
474.625	93.62
474.844	84.62
475.063	79.62
475.282	98.62
475.501	86.62
475.72	91.62
475.939	88.62
476.158	99.62
476.377	87.62
476.596	89.62
476.814	87.62
477.033	90.62
477.252	100.62
477.471	90.62
477.69	98.62
477.908	83.62
478.127	95.62
478.346	100.62
478.564	91.62
478.783	90.62
479.002	79.62
479.22	88.62
479.439	98.62
479.658	114.62
479.876	80.62
480.095	92.62
480.313	90.62
480.532	80.62
480.751	92.62
480.969	115.62
481.188	226.62
481.406	158.62
481.624	98.62
481.843	92.62
482.061	90.62
482.28	105.62
482.498	88.62
482.717	85.62
482.935	89.62
483.153	90.62
483.372	90.62
483.59	92.62
483.808	107.62
484.027	100.62
484.245	97.62
484.463	88.62
484.681	102.62
484.9	104.62
485.118	100.62
485.336	99.62
485.554	94.62
485.772	105.62
485.99	106.62
486.209	97.62
486.427	101.62
486.645	93.62
486.863	121.62
487.081	109.62
487.299	101.62
487.517	92.62
487.735	97.62
487.953	83.62
488.171	96.62
488.389	96.62
488.607	97.62
488.825	95.62
489.043	91.62
489.261	83.62
489.479	78.62
489.696	104.62
489.914	99.62
490.132	95.62
490.35	112.62
490.568	87.62
490.786	84.62
491.003	107.62
491.221	102.62
491.439	92.62
491.657	90.62
491.874	100.62
492.092	86.62
492.31	92.62
492.527	89.62
492.745	98.62
492.963	109.62
493.18	114.62
493.398	98.62
493.615	96.62
493.833	92.62
494.05	74.62
494.268	101.62
494.485	103.62
494.703	97.62
494.92	90.62
495.138	94.62
495.355	100.62
495.573	76.62
495.79	92.62
496.008	103.62
496.225	108.62
496.442	96.62
496.66	94.62
496.877	102.62
497.094	102.62
497.312	89.62
497.529	80.62
497.746	97.62
497.963	83.62
498.181	104.62
498.398	98.62
498.615	100.62
498.832	110.62
499.049	92.62
499.267	94.62
499.484	94.62
499.701	103.62
499.918	99.62
500.135	97.62
500.352	87.62
500.569	78.62
500.786	92.62
501.003	78.62
501.22	88.62
501.437	94.62
501.654	88.62
501.871	104.62
502.088	84.62
502.305	82.62
502.522	90.62
502.739	80.62
502.956	86.62
503.172	93.62
503.389	102.62
503.606	118.62
503.823	99.62
504.04	98.62
504.256	87.62
504.473	101.62
504.69	77.62
504.907	90.62
505.123	79.62
505.34	93.62
505.557	90.62
505.773	93.62
505.99	91.62
506.207	94.62
506.423	82.62
506.64	83.62
506.856	103.62
507.073	90.62
507.289	103.62
507.506	103.62
507.722	112.62
507.939	105.62
508.155	91.62
508.372	101.62
508.588	97.62
508.805	114.62
509.021	93.62
509.238	101.62
509.454	93.62
509.67	109.62
509.887	102.62
510.103	139.62
510.319	213.62
510.536	737.62
510.752	2406.62
510.968	644.62
511.184	160.62
511.401	111.62
511.617	92.62
511.833	101.62
512.049	91.62
512.265	94.62
512.481	94.62
512.698	88.62
512.914	95.62
513.13	93.62
513.346	98.62
513.562	88.62
513.778	94.62
513.994	112.62
514.21	122.62
