Data from Circ_1981_H10_HRD10591_00065.txt Node
Date: Wed Jan 03 12:34:34 EST 2024
User: Yrep
Spectrometer: HR+D1059
Trigger mode: 1
Integration Time (sec): 1.000000E-1
Scans to average: 1
Electric dark correction enabled: true
Nonlinearity correction enabled: false
Boxcar width: 0
XAxis mode: Wavelengths
Number of Pixels in Spectrum: 2048
>>>>>Begin Spectral Data<<<<<
223.165	-16.88
223.4	-16.88
223.635	-16.88
223.869	-25.88
224.104	-22.88
224.338	-18.88
224.573	-5.88
224.808	-2.88
225.042	2.12
225.277	-10.88
225.511	-16.88
225.746	19.12
225.98	6.12
226.215	-3.88
226.449	17.12
226.683	21.12
226.918	24.12
227.152	35.12
227.387	33.12
227.621	37.12
227.856	36.12
228.09	40.12
228.324	33.12
228.559	44.12
228.793	61.12
229.027	55.12
229.262	51.12
229.496	71.12
229.73	97.12
229.964	91.12
230.199	79.12
230.433	71.12
230.667	68.12
230.901	77.12
231.136	83.12
231.37	84.12
231.604	91.12
231.838	82.12
232.072	84.12
232.306	83.12
232.541	85.12
232.775	83.12
233.009	82.12
233.243	74.12
233.477	71.12
233.711	67.12
233.945	73.12
234.179	69.12
234.413	84.12
234.647	80.12
234.881	80.12
235.115	85.12
235.349	77.12
235.583	83.12
235.817	81.12
236.051	80.12
236.285	87.12
236.519	88.12
236.753	69.12
236.987	81.12
237.221	93.12
237.455	94.12
237.689	69.12
237.922	74.12
238.156	87.12
238.39	85.12
238.624	83.12
238.858	76.12
239.091	87.12
239.325	81.12
239.559	77.12
239.793	88.12
240.027	79.12
240.26	65.12
240.494	84.12
240.728	83.12
240.961	70.12
241.195	76.12
241.429	65.12
241.662	80.12
241.896	67.12
242.13	72.12
242.363	90.12
242.597	61.12
242.83	89.12
243.064	88.12
243.298	75.12
243.531	79.12
243.765	60.12
243.998	81.12
244.232	91.12
244.465	87.12
244.699	82.12
244.932	80.12
245.166	72.12
245.399	69.12
245.633	75.12
245.866	80.12
246.099	68.12
246.333	77.12
246.566	67.12
246.8	67.12
247.033	59.12
247.266	67.12
247.5	81.12
247.733	91.12
247.966	93.12
248.2	84.12
248.433	92.12
248.666	81.12
248.899	71.12
249.133	97.12
249.366	102.12
249.599	99.12
249.832	75.12
250.066	87.12
250.299	83.12
250.532	85.12
250.765	89.12
250.998	82.12
251.231	81.12
251.465	75.12
251.698	65.12
251.931	67.12
252.164	78.12
252.397	83.12
252.63	81.12
252.863	95.12
253.096	76.12
253.329	77.12
253.562	87.12
253.795	88.12
254.028	98.12
254.261	106.12
254.494	73.12
254.727	70.12
254.96	70.12
255.193	85.12
255.426	70.12
255.659	73.12
255.892	88.12
256.124	76.12
256.357	84.12
256.59	76.12
256.823	67.12
257.056	85.12
257.289	83.12
257.521	83.12
257.754	78.12
257.987	70.12
258.22	87.12
258.452	101.12
258.685	76.12
258.918	96.12
259.151	98.12
259.383	95.12
259.616	86.12
259.849	72.12
260.081	81.12
260.314	79.12
260.547	83.12
260.779	66.12
261.012	84.12
261.244	96.12
261.477	92.12
261.71	95.12
261.942	124.12
262.175	130.12
262.407	97.12
262.64	95.12
262.872	83.12
263.105	84.12
263.337	88.12
263.57	83.12
263.802	90.12
264.035	95.12
264.267	67.12
264.499	79.12
264.732	92.12
264.964	75.12
265.197	77.12
265.429	84.12
265.661	86.12
265.894	79.12
266.126	84.12
266.358	82.12
266.591	76.12
266.823	68.12
267.055	94.12
267.287	91.12
267.52	71.12
267.752	84.12
267.984	90.12
268.216	90.12
268.448	96.12
268.681	84.12
268.913	98.12
269.145	84.12
269.377	92.12
269.609	83.12
269.841	76.12
270.073	86.12
270.306	96.12
270.538	77.12
270.77	88.12
271.002	76.12
271.234	79.12
271.466	89.12
271.698	91.12
271.93	80.12
272.162	95.12
272.394	87.12
272.626	80.12
272.858	79.12
273.09	82.12
273.322	80.12
273.553	83.12
273.785	82.12
274.017	76.12
274.249	85.12
274.481	83.12
274.713	80.12
274.945	85.12
275.176	84.12
275.408	96.12
275.64	108.12
275.872	96.12
276.104	94.12
276.335	101.12
276.567	108.12
276.799	128.12
277.031	129.12
277.262	94.12
277.494	92.12
277.726	94.12
277.957	74.12
278.189	71.12
278.421	83.12
278.652	84.12
278.884	82.12
279.115	96.12
279.347	86.12
279.579	105.12
279.81	80.12
280.042	77.12
280.273	93.12
280.505	83.12
280.736	93.12
280.968	76.12
281.199	82.12
281.431	87.12
281.662	89.12
281.894	89.12
282.125	106.12
282.356	120.12
282.588	167.12
282.819	129.12
283.051	93.12
283.282	97.12
283.513	98.12
283.745	89.12
283.976	99.12
284.207	97.12
284.439	79.12
284.67	85.12
284.901	87.12
285.132	69.12
285.364	73.12
285.595	87.12
285.826	88.12
286.057	80.12
286.288	99.12
286.52	77.12
286.751	93.12
286.982	99.12
287.213	92.12
287.444	78.12
287.675	87.12
287.906	81.12
288.138	92.12
288.369	98.12
288.6	91.12
288.831	91.12
289.062	83.12
289.293	94.12
289.524	94.12
289.755	87.12
289.986	98.12
290.217	97.12
290.448	85.12
290.679	89.12
290.91	77.12
291.141	92.12
291.371	80.12
291.602	97.12
291.833	72.12
292.064	84.12
292.295	78.12
292.526	91.12
292.757	86.12
292.987	90.12
293.218	81.12
293.449	79.12
293.68	99.12
293.91	95.12
294.141	93.12
294.372	97.12
294.603	85.12
294.833	96.12
295.064	85.12
295.295	86.12
295.525	100.12
295.756	107.12
295.987	126.12
296.217	163.12
296.448	128.12
296.679	111.12
296.909	101.12
297.14	89.12
297.37	92.12
297.601	92.12
297.831	69.12
298.062	97.12
298.292	94.12
298.523	98.12
298.753	104.12
298.984	101.12
299.214	103.12
299.445	102.12
299.675	93.12
299.905	99.12
300.136	80.12
300.366	89.12
300.597	89.12
300.827	102.12
301.057	107.12
301.288	109.12
301.518	102.12
301.748	99.12
301.979	97.12
302.209	94.12
302.439	92.12
302.669	86.12
302.9	86.12
303.13	95.12
303.36	91.12
303.59	108.12
303.82	111.12
304.051	93.12
304.281	84.12
304.511	92.12
304.741	80.12
304.971	102.12
305.201	89.12
305.431	101.12
305.661	90.12
305.891	87.12
306.121	94.12
306.352	105.12
306.582	109.12
306.812	90.12
307.042	98.12
307.272	101.12
307.502	88.12
307.731	91.12
307.961	87.12
308.191	85.12
308.421	91.12
308.651	98.12
308.881	86.12
309.111	102.12
309.341	114.12
309.571	98.12
309.8	105.12
310.03	111.12
310.26	113.12
310.49	96.12
310.72	99.12
310.949	119.12
311.179	124.12
311.409	110.12
311.639	110.12
311.868	109.12
312.098	106.12
312.328	84.12
312.557	113.12
312.787	119.12
313.017	114.12
313.246	100.12
313.476	87.12
313.706	111.12
313.935	107.12
314.165	97.12
314.394	101.12
314.624	101.12
314.853	106.12
315.083	85.12
315.312	92.12
315.542	89.12
315.771	87.12
316.001	94.12
316.23	95.12
316.46	80.12
316.689	101.12
316.919	100.12
317.148	107.12
317.377	93.12
317.607	100.12
317.836	98.12
318.065	95.12
318.295	92.12
318.524	101.12
318.753	85.12
318.983	82.12
319.212	114.12
319.441	104.12
319.67	103.12
319.9	100.12
320.129	96.12
320.358	81.12
320.587	97.12
320.816	117.12
321.046	102.12
321.275	112.12
321.504	96.12
321.733	104.12
321.962	104.12
322.191	105.12
322.42	122.12
322.649	123.12
322.878	109.12
323.108	128.12
323.337	140.12
323.566	153.12
323.795	171.12
324.024	247.12
324.253	471.12
324.482	989.12
324.71	2072.12
324.939	2709.12
325.168	991.12
325.397	295.12
325.626	162.12
325.855	151.12
326.084	131.12
326.313	139.12
326.542	168.12
326.77	250.12
326.999	507.12
327.228	1050.12
327.457	1927.12
327.686	1524.12
327.914	434.12
328.143	248.12
328.372	196.12
328.6	150.12
328.829	137.12
329.058	151.12
329.287	181.12
329.515	123.12
329.744	115.12
329.972	105.12
330.201	128.12
330.43	171.12
330.658	177.12
330.887	216.12
331.115	179.12
331.344	120.12
331.572	117.12
331.801	119.12
332.03	119.12
332.258	99.12
332.486	105.12
332.715	95.12
332.943	85.12
333.172	89.12
333.4	86.12
333.629	131.12
333.857	122.12
334.085	126.12
334.314	136.12
334.542	161.12
334.771	165.12
334.999	104.12
335.227	116.12
335.455	97.12
335.684	81.12
335.912	80.12
336.14	99.12
336.369	100.12
336.597	107.12
336.825	100.12
337.053	96.12
337.281	99.12
337.51	94.12
337.738	88.12
337.966	90.12
338.194	115.12
338.422	114.12
338.65	96.12
338.878	100.12
339.106	102.12
339.334	94.12
339.562	81.12
339.79	84.12
340.018	80.12
340.246	100.12
340.474	93.12
340.702	106.12
340.93	97.12
341.158	113.12
341.386	97.12
341.614	90.12
341.842	91.12
342.07	105.12
342.298	86.12
342.526	95.12
342.754	91.12
342.981	87.12
343.209	82.12
343.437	92.12
343.665	82.12
343.893	88.12
344.12	85.12
344.348	91.12
344.576	90.12
344.804	89.12
345.031	101.12
345.259	97.12
345.487	86.12
345.714	104.12
345.942	103.12
346.17	103.12
346.397	88.12
346.625	80.12
346.853	94.12
347.08	91.12
347.308	89.12
347.535	93.12
347.763	108.12
347.99	107.12
348.218	115.12
348.445	108.12
348.673	106.12
348.9	104.12
349.128	99.12
349.355	77.12
349.583	92.12
349.81	98.12
350.037	90.12
350.265	89.12
350.492	99.12
350.72	99.12
350.947	111.12
351.174	118.12
351.402	130.12
351.629	119.12
351.856	115.12
352.083	98.12
352.311	113.12
352.538	119.12
352.765	137.12
352.992	128.12
353.22	119.12
353.447	113.12
353.674	96.12
353.901	91.12
354.128	87.12
354.355	86.12
354.583	85.12
354.81	84.12
355.037	86.12
355.264	88.12
355.491	101.12
355.718	93.12
355.945	71.12
356.172	76.12
356.399	83.12
356.626	83.12
356.853	104.12
357.08	95.12
357.307	86.12
357.534	102.12
357.761	83.12
357.988	94.12
358.215	85.12
358.441	91.12
358.668	89.12
358.895	99.12
359.122	93.12
359.349	100.12
359.576	91.12
359.802	106.12
360.029	140.12
360.256	137.12
360.483	120.12
360.709	76.12
360.936	97.12
361.163	108.12
361.39	110.12
361.616	114.12
361.843	102.12
362.07	108.12
362.296	101.12
362.523	93.12
362.749	97.12
362.976	87.12
363.203	94.12
363.429	90.12
363.656	97.12
363.882	81.12
364.109	91.12
364.335	89.12
364.562	79.12
364.788	88.12
365.015	100.12
365.241	107.12
365.468	121.12
365.694	108.12
365.92	111.12
366.147	86.12
366.373	90.12
366.599	88.12
366.826	102.12
367.052	87.12
367.278	90.12
367.505	103.12
367.731	103.12
367.957	93.12
368.184	99.12
368.41	109.12
368.636	117.12
368.862	144.12
369.089	119.12
369.315	106.12
369.541	87.12
369.767	96.12
369.993	94.12
370.219	100.12
370.445	80.12
370.672	90.12
370.898	88.12
371.124	83.12
371.35	93.12
371.576	92.12
371.802	85.12
372.028	91.12
372.254	85.12
372.48	92.12
372.706	81.12
372.932	90.12
373.158	92.12
373.384	84.12
373.61	99.12
373.835	86.12
374.061	83.12
374.287	82.12
374.513	80.12
374.739	97.12
374.965	89.12
375.191	89.12
375.416	80.12
375.642	87.12
375.868	93.12
376.094	90.12
376.319	87.12
376.545	85.12
376.771	86.12
376.997	78.12
377.222	85.12
377.448	91.12
377.674	85.12
377.899	100.12
378.125	75.12
378.35	93.12
378.576	97.12
378.802	72.12
379.027	79.12
379.253	81.12
379.478	87.12
379.704	92.12
379.929	96.12
380.155	106.12
380.38	90.12
380.606	83.12
380.831	78.12
381.057	90.12
381.282	95.12
381.507	95.12
381.733	95.12
381.958	96.12
382.184	90.12
382.409	97.12
382.634	100.12
382.86	95.12
383.085	103.12
383.31	91.12
383.535	98.12
383.761	88.12
383.986	84.12
384.211	86.12
384.436	75.12
384.662	80.12
384.887	81.12
385.112	92.12
385.337	91.12
385.562	101.12
385.787	114.12
386.013	101.12
386.238	113.12
386.463	102.12
386.688	87.12
386.913	79.12
387.138	91.12
387.363	96.12
387.588	97.12
387.813	89.12
388.038	100.12
388.263	92.12
388.488	99.12
388.713	95.12
388.938	91.12
389.163	101.12
389.387	97.12
389.612	79.12
389.837	109.12
390.062	96.12
390.287	84.12
390.512	85.12
390.736	84.12
390.961	82.12
391.186	105.12
391.411	88.12
391.636	76.12
391.86	95.12
392.085	86.12
392.31	73.12
392.534	91.12
392.759	93.12
392.984	79.12
393.208	97.12
393.433	100.12
393.658	114.12
393.882	83.12
394.107	88.12
394.331	93.12
394.556	90.12
394.78	81.12
395.005	97.12
395.229	83.12
395.454	73.12
395.678	71.12
395.903	92.12
396.127	82.12
396.352	89.12
396.576	92.12
396.801	87.12
397.025	104.12
397.249	103.12
397.474	86.12
397.698	69.12
397.922	81.12
398.147	89.12
398.371	84.12
398.595	80.12
398.82	88.12
399.044	93.12
399.268	82.12
399.492	73.12
399.717	90.12
399.941	98.12
400.165	87.12
400.389	96.12
400.613	94.12
400.837	98.12
401.062	82.12
401.286	76.12
401.51	87.12
401.734	89.12
401.958	87.12
402.182	136.12
402.406	201.12
402.63	140.12
402.854	93.12
403.078	96.12
403.302	86.12
403.526	77.12
403.75	81.12
403.974	92.12
404.198	90.12
404.422	99.12
404.645	81.12
404.869	98.12
405.093	87.12
405.317	118.12
405.541	105.12
405.765	106.12
405.988	132.12
406.212	230.12
406.436	325.12
406.66	211.12
406.883	127.12
407.107	92.12
407.331	95.12
407.555	114.12
407.778	84.12
408.002	84.12
408.226	88.12
408.449	95.12
408.673	91.12
408.896	84.12
409.12	109.12
409.344	96.12
409.567	97.12
409.791	91.12
410.014	85.12
410.238	100.12
410.461	91.12
410.685	85.12
410.908	92.12
411.132	108.12
411.355	99.12
411.578	81.12
411.802	90.12
412.025	100.12
412.249	92.12
412.472	103.12
412.695	105.12
412.919	90.12
413.142	83.12
413.365	83.12
413.589	79.12
413.812	77.12
414.035	94.12
414.258	89.12
414.482	96.12
414.705	96.12
414.928	71.12
415.151	88.12
415.374	79.12
415.597	77.12
415.821	83.12
416.044	95.12
416.267	82.12
416.49	101.12
416.713	80.12
416.936	84.12
417.159	92.12
417.382	93.12
417.605	79.12
417.828	95.12
418.051	100.12
418.274	81.12
418.497	96.12
418.72	85.12
418.943	85.12
419.166	92.12
419.389	76.12
419.611	92.12
419.834	110.12
420.057	89.12
420.28	103.12
420.503	87.12
420.726	92.12
420.948	87.12
421.171	99.12
421.394	96.12
421.617	93.12
421.839	83.12
422.062	75.12
422.285	89.12
422.507	111.12
422.73	112.12
422.953	96.12
423.175	75.12
423.398	74.12
423.621	99.12
423.843	85.12
424.066	87.12
424.288	100.12
424.511	104.12
424.733	105.12
424.956	124.12
425.178	105.12
425.401	111.12
425.623	97.12
425.846	97.12
426.068	104.12
426.291	83.12
426.513	85.12
426.735	86.12
426.958	101.12
427.18	114.12
427.402	177.12
427.625	224.12
427.847	184.12
428.069	119.12
428.292	97.12
428.514	76.12
428.736	83.12
428.958	74.12
429.181	89.12
429.403	97.12
429.625	79.12
429.847	97.12
430.069	110.12
430.292	99.12
430.514	84.12
430.736	89.12
430.958	81.12
431.18	76.12
431.402	90.12
431.624	80.12
431.846	76.12
432.068	85.12
432.29	68.12
432.512	96.12
432.734	75.12
432.956	92.12
433.178	117.12
433.4	102.12
433.622	92.12
433.844	87.12
434.066	96.12
434.287	105.12
434.509	92.12
434.731	104.12
434.953	92.12
435.175	82.12
435.397	93.12
435.618	79.12
435.84	107.12
436.062	130.12
436.284	127.12
436.505	107.12
436.727	96.12
436.949	98.12
437.17	98.12
437.392	93.12
437.614	87.12
437.835	123.12
438.057	158.12
438.278	131.12
438.5	101.12
438.721	143.12
438.943	102.12
439.165	87.12
439.386	92.12
439.608	90.12
439.829	110.12
440.05	145.12
440.272	177.12
440.493	116.12
440.715	79.12
440.936	93.12
441.158	97.12
441.379	93.12
441.6	93.12
441.822	103.12
442.043	111.12
442.264	117.12
442.486	116.12
442.707	93.12
442.928	125.12
443.149	166.12
443.371	177.12
443.592	124.12
443.813	132.12
444.034	116.12
444.255	90.12
444.476	101.12
444.698	97.12
444.919	88.12
445.14	137.12
445.361	138.12
445.582	117.12
445.803	181.12
446.024	166.12
446.245	161.12
446.466	123.12
446.687	112.12
446.908	84.12
447.129	84.12
447.35	116.12
447.571	97.12
447.792	99.12
448.013	117.12
448.234	128.12
448.455	113.12
448.675	129.12
448.896	133.12
449.117	109.12
449.338	115.12
449.559	147.12
449.779	147.12
450	96.12
450.221	91.12
450.442	87.12
450.662	99.12
450.883	136.12
451.104	124.12
451.324	113.12
451.545	91.12
451.766	83.12
451.986	93.12
452.207	98.12
452.428	107.12
452.648	109.12
452.869	126.12
453.089	126.12
453.31	133.12
453.53	108.12
453.751	95.12
453.971	111.12
454.192	146.12
454.412	105.12
454.633	86.12
454.853	87.12
455.073	74.12
455.294	86.12
455.514	109.12
455.734	96.12
455.955	83.12
456.175	74.12
456.395	99.12
456.616	87.12
456.836	79.12
457.056	70.12
457.276	76.12
457.497	76.12
457.717	83.12
457.937	87.12
458.157	90.12
458.377	86.12
458.598	114.12
458.818	194.12
459.038	238.12
459.258	149.12
459.478	98.12
459.698	77.12
459.918	89.12
460.138	91.12
460.358	95.12
460.578	91.12
460.798	95.12
461.018	83.12
461.238	81.12
461.458	90.12
461.678	93.12
461.898	81.12
462.118	91.12
462.338	97.12
462.558	93.12
462.777	86.12
462.997	82.12
463.217	92.12
463.437	93.12
463.657	86.12
463.876	80.12
464.096	92.12
464.316	101.12
464.536	101.12
464.755	96.12
464.975	124.12
465.195	236.12
465.414	255.12
465.634	114.12
465.854	97.12
466.073	105.12
466.293	82.12
466.512	87.12
466.732	82.12
466.951	95.12
467.171	104.12
467.391	101.12
467.61	122.12
467.829	99.12
468.049	99.12
468.268	95.12
468.488	75.12
468.707	83.12
468.927	82.12
469.146	86.12
469.365	97.12
469.585	87.12
469.804	100.12
470.023	97.12
470.243	101.12
470.462	107.12
470.681	149.12
470.901	87.12
471.12	82.12
471.339	105.12
471.558	97.12
471.777	87.12
471.997	90.12
472.216	129.12
472.435	171.12
472.654	91.12
472.873	79.12
473.092	95.12
473.311	81.12
473.53	102.12
473.749	98.12
473.968	76.12
474.187	121.12
474.406	110.12
474.625	89.12
474.844	91.12
475.063	68.12
475.282	81.12
475.501	107.12
475.72	95.12
475.939	82.12
476.158	92.12
476.377	94.12
476.596	79.12
476.814	95.12
477.033	99.12
477.252	86.12
477.471	99.12
477.69	73.12
477.908	104.12
478.127	93.12
478.346	88.12
478.564	95.12
478.783	106.12
479.002	112.12
479.22	93.12
479.439	115.12
479.658	130.12
479.876	94.12
480.095	92.12
480.313	97.12
480.532	89.12
480.751	99.12
480.969	132.12
481.188	268.12
481.406	189.12
481.624	100.12
481.843	107.12
482.061	77.12
482.28	79.12
482.498	81.12
482.717	78.12
482.935	83.12
483.153	96.12
483.372	91.12
483.59	85.12
483.808	91.12
484.027	100.12
484.245	97.12
484.463	103.12
484.681	98.12
484.9	91.12
485.118	85.12
485.336	94.12
485.554	103.12
485.772	93.12
485.99	96.12
486.209	117.12
486.427	103.12
486.645	124.12
486.863	110.12
487.081	111.12
487.299	94.12
487.517	102.12
487.735	104.12
487.953	88.12
488.171	85.12
488.389	83.12
488.607	103.12
488.825	76.12
489.043	91.12
489.261	96.12
489.479	86.12
489.696	100.12
489.914	86.12
490.132	95.12
490.35	72.12
490.568	79.12
490.786	97.12
491.003	95.12
491.221	96.12
491.439	84.12
491.657	87.12
491.874	98.12
492.092	89.12
492.31	88.12
492.527	80.12
492.745	80.12
492.963	100.12
493.18	86.12
493.398	89.12
493.615	90.12
493.833	89.12
494.05	87.12
494.268	74.12
494.485	97.12
494.703	91.12
494.92	91.12
495.138	93.12
495.355	97.12
495.573	97.12
495.79	91.12
496.008	91.12
496.225	91.12
496.442	104.12
496.66	90.12
496.877	79.12
497.094	97.12
497.312	68.12
497.529	102.12
497.746	97.12
497.963	84.12
498.181	92.12
498.398	95.12
498.615	112.12
498.832	111.12
499.049	85.12
499.267	113.12
499.484	89.12
499.701	107.12
499.918	86.12
500.135	72.12
500.352	80.12
500.569	93.12
500.786	87.12
501.003	101.12
501.22	91.12
501.437	75.12
501.654	98.12
501.871	123.12
502.088	117.12
502.305	79.12
502.522	94.12
502.739	101.12
502.956	100.12
503.172	109.12
503.389	97.12
503.606	121.12
503.823	107.12
504.04	99.12
504.256	99.12
504.473	87.12
504.69	97.12
504.907	92.12
505.123	84.12
505.34	73.12
505.557	87.12
505.773	81.12
505.99	87.12
506.207	92.12
506.423	85.12
506.64	100.12
506.856	95.12
507.073	86.12
507.289	91.12
507.506	111.12
507.722	131.12
507.939	119.12
508.155	93.12
508.372	97.12
508.588	95.12
508.805	96.12
509.021	95.12
509.238	107.12
509.454	107.12
509.67	96.12
509.887	129.12
510.103	140.12
510.319	256.12
510.536	962.12
510.752	3364.12
510.968	868.12
511.184	184.12
511.401	127.12
511.617	105.12
511.833	94.12
512.049	93.12
512.265	91.12
512.481	96.12
512.698	100.12
512.914	106.12
513.13	106.12
513.346	88.12
513.562	104.12
513.778	97.12
513.994	115.12
514.21	124.12
514.426	138.12
514.642	172.12
