Data from Circ_1981_H10_HRD10591_00032.txt Node
Date: Wed Jan 03 12:34:27 EST 2024
User: Yrep
Spectrometer: HR+D1059
Trigger mode: 1
Integration Time (sec): 1.000000E-1
Scans to average: 1
Electric dark correction enabled: true
Nonlinearity correction enabled: false
Boxcar width: 0
XAxis mode: Wavelengths
Number of Pixels in Spectrum: 2048
>>>>>Begin Spectral Data<<<<<
223.165	-16.94
223.4	-16.94
223.635	-16.94
223.869	-21.94
224.104	-20.94
224.338	-35.94
224.573	-16.94
224.808	-8.94
225.042	11.06
225.277	-4.94
225.511	-12.94
225.746	2.06
225.98	0.06
226.215	11.06
226.449	20.06
226.683	26.06
226.918	34.06
227.152	35.06
227.387	35.06
227.621	40.06
227.856	38.06
228.09	34.06
228.324	51.06
228.559	61.06
228.793	65.06
229.027	52.06
229.262	71.06
229.496	78.06
229.73	91.06
229.964	96.06
230.199	71.06
230.433	82.06
230.667	89.06
230.901	83.06
231.136	77.06
231.37	82.06
231.604	67.06
231.838	75.06
232.072	76.06
232.306	75.06
232.541	83.06
232.775	86.06
233.009	66.06
233.243	88.06
233.477	88.06
233.711	83.06
233.945	76.06
234.179	80.06
234.413	83.06
234.647	82.06
234.881	81.06
235.115	90.06
235.349	86.06
235.583	82.06
235.817	79.06
236.051	80.06
236.285	79.06
236.519	84.06
236.753	83.06
236.987	90.06
237.221	86.06
237.455	105.06
237.689	66.06
237.922	70.06
238.156	75.06
238.39	75.06
238.624	68.06
238.858	69.06
239.091	70.06
239.325	83.06
239.559	87.06
239.793	74.06
240.027	86.06
240.26	85.06
240.494	90.06
240.728	102.06
240.961	83.06
241.195	75.06
241.429	81.06
241.662	73.06
241.896	72.06
242.13	77.06
242.363	74.06
242.597	84.06
242.83	74.06
243.064	78.06
243.298	75.06
243.531	71.06
243.765	68.06
243.998	94.06
244.232	92.06
244.465	86.06
244.699	71.06
244.932	86.06
245.166	76.06
245.399	78.06
245.633	70.06
245.866	85.06
246.099	75.06
246.333	71.06
246.566	100.06
246.8	92.06
247.033	84.06
247.266	78.06
247.5	84.06
247.733	88.06
247.966	77.06
248.2	81.06
248.433	82.06
248.666	75.06
248.899	99.06
249.133	96.06
249.366	111.06
249.599	112.06
249.832	95.06
250.066	96.06
250.299	81.06
250.532	88.06
250.765	74.06
250.998	58.06
251.231	71.06
251.465	85.06
251.698	88.06
251.931	83.06
252.164	79.06
252.397	79.06
252.63	85.06
252.863	74.06
253.096	82.06
253.329	86.06
253.562	75.06
253.795	88.06
254.028	74.06
254.261	66.06
254.494	76.06
254.727	88.06
254.96	87.06
255.193	84.06
255.426	87.06
255.659	88.06
255.892	87.06
256.124	90.06
256.357	71.06
256.59	66.06
256.823	74.06
257.056	69.06
257.289	106.06
257.521	75.06
257.754	87.06
257.987	86.06
258.22	88.06
258.452	84.06
258.685	88.06
258.918	86.06
259.151	93.06
259.383	78.06
259.616	86.06
259.849	75.06
260.081	87.06
260.314	87.06
260.547	86.06
260.779	106.06
261.012	88.06
261.244	88.06
261.477	95.06
261.71	102.06
261.942	116.06
262.175	136.06
262.407	90.06
262.64	94.06
262.872	94.06
263.105	87.06
263.337	96.06
263.57	95.06
263.802	90.06
264.035	87.06
264.267	73.06
264.499	85.06
264.732	86.06
264.964	82.06
265.197	90.06
265.429	96.06
265.661	86.06
265.894	95.06
266.126	90.06
266.358	99.06
266.591	81.06
266.823	83.06
267.055	86.06
267.287	91.06
267.52	95.06
267.752	94.06
267.984	89.06
268.216	91.06
268.448	93.06
268.681	91.06
268.913	86.06
269.145	94.06
269.377	71.06
269.609	78.06
269.841	84.06
270.073	87.06
270.306	84.06
270.538	94.06
270.77	92.06
271.002	83.06
271.234	83.06
271.466	100.06
271.698	91.06
271.93	94.06
272.162	83.06
272.394	88.06
272.626	88.06
272.858	79.06
273.09	90.06
273.322	102.06
273.553	84.06
273.785	91.06
274.017	92.06
274.249	90.06
274.481	83.06
274.713	79.06
274.945	80.06
275.176	101.06
275.408	86.06
275.64	86.06
275.872	85.06
276.104	89.06
276.335	93.06
276.567	106.06
276.799	119.06
277.031	119.06
277.262	111.06
277.494	98.06
277.726	76.06
277.957	75.06
278.189	93.06
278.421	101.06
278.652	91.06
278.884	93.06
279.115	93.06
279.347	101.06
279.579	98.06
279.81	84.06
280.042	90.06
280.273	103.06
280.505	98.06
280.736	92.06
280.968	73.06
281.199	92.06
281.431	92.06
281.662	97.06
281.894	107.06
282.125	98.06
282.356	127.06
282.588	150.06
282.819	131.06
283.051	96.06
283.282	86.06
283.513	100.06
283.745	82.06
283.976	94.06
284.207	99.06
284.439	84.06
284.67	78.06
284.901	95.06
285.132	89.06
285.364	87.06
285.595	87.06
285.826	95.06
286.057	76.06
286.288	95.06
286.52	95.06
286.751	87.06
286.982	99.06
287.213	83.06
287.444	83.06
287.675	71.06
287.906	90.06
288.138	97.06
288.369	93.06
288.6	103.06
288.831	91.06
289.062	92.06
289.293	89.06
289.524	75.06
289.755	95.06
289.986	86.06
290.217	95.06
290.448	97.06
290.679	91.06
290.91	80.06
291.141	95.06
291.371	97.06
291.602	96.06
291.833	81.06
292.064	86.06
292.295	90.06
292.526	98.06
292.757	86.06
292.987	94.06
293.218	93.06
293.449	85.06
293.68	103.06
293.91	107.06
294.141	94.06
294.372	90.06
294.603	98.06
294.833	100.06
295.064	83.06
295.295	99.06
295.525	94.06
295.756	102.06
295.987	135.06
296.217	176.06
296.448	158.06
296.679	95.06
296.909	95.06
297.14	103.06
297.37	96.06
297.601	95.06
297.831	87.06
298.062	97.06
298.292	99.06
298.523	101.06
298.753	84.06
298.984	98.06
299.214	78.06
299.445	99.06
299.675	102.06
299.905	107.06
300.136	99.06
300.366	86.06
300.597	93.06
300.827	102.06
301.057	109.06
301.288	115.06
301.518	101.06
301.748	98.06
301.979	118.06
302.209	90.06
302.439	99.06
302.669	90.06
302.9	88.06
303.13	84.06
303.36	82.06
303.59	105.06
303.82	118.06
304.051	94.06
304.281	92.06
304.511	103.06
304.741	86.06
304.971	92.06
305.201	97.06
305.431	90.06
305.661	98.06
305.891	93.06
306.121	99.06
306.352	101.06
306.582	120.06
306.812	88.06
307.042	95.06
307.272	98.06
307.502	100.06
307.731	93.06
307.961	93.06
308.191	85.06
308.421	107.06
308.651	111.06
308.881	99.06
309.111	103.06
309.341	99.06
309.571	108.06
309.8	107.06
310.03	110.06
310.26	111.06
310.49	100.06
310.72	130.06
310.949	117.06
311.179	109.06
311.409	105.06
311.639	91.06
311.868	120.06
312.098	99.06
312.328	97.06
312.557	112.06
312.787	112.06
313.017	102.06
313.246	99.06
313.476	99.06
313.706	100.06
313.935	103.06
314.165	109.06
314.394	120.06
314.624	102.06
314.853	101.06
315.083	115.06
315.312	89.06
315.542	106.06
315.771	95.06
316.001	106.06
316.23	91.06
316.46	90.06
316.689	95.06
316.919	104.06
317.148	105.06
317.377	110.06
317.607	112.06
317.836	115.06
318.065	98.06
318.295	103.06
318.524	105.06
318.753	100.06
318.983	102.06
319.212	97.06
319.441	110.06
319.67	126.06
319.9	107.06
320.129	98.06
320.358	103.06
320.587	112.06
320.816	103.06
321.046	115.06
321.275	100.06
321.504	104.06
321.733	103.06
321.962	91.06
322.191	118.06
322.42	110.06
322.649	131.06
322.878	133.06
323.108	131.06
323.337	140.06
323.566	160.06
323.795	190.06
324.024	240.06
324.253	454.06
324.482	1029.06
324.71	2109.06
324.939	2884.06
325.168	1050.06
325.397	294.06
325.626	174.06
325.855	153.06
326.084	129.06
326.313	148.06
326.542	169.06
326.77	249.06
326.999	508.06
327.228	1094.06
327.457	2061.06
327.686	1640.06
327.914	446.06
328.143	238.06
328.372	192.06
328.6	162.06
328.829	145.06
329.058	165.06
329.287	169.06
329.515	129.06
329.744	118.06
329.972	121.06
330.201	125.06
330.43	168.06
330.658	178.06
330.887	205.06
331.115	163.06
331.344	119.06
331.572	115.06
331.801	108.06
332.03	118.06
332.258	117.06
332.486	101.06
332.715	103.06
332.943	92.06
333.172	100.06
333.4	98.06
333.629	118.06
333.857	127.06
334.085	126.06
334.314	131.06
334.542	164.06
334.771	162.06
334.999	131.06
335.227	100.06
335.455	93.06
335.684	108.06
335.912	90.06
336.14	99.06
336.369	101.06
336.597	113.06
336.825	98.06
337.053	90.06
337.281	112.06
337.51	108.06
337.738	92.06
337.966	98.06
338.194	102.06
338.422	116.06
338.65	111.06
338.878	98.06
339.106	102.06
339.334	91.06
339.562	93.06
339.79	89.06
340.018	93.06
340.246	97.06
340.474	106.06
340.702	103.06
340.93	97.06
341.158	114.06
341.386	116.06
341.614	112.06
341.842	118.06
342.07	116.06
342.298	102.06
342.526	110.06
342.754	102.06
342.981	85.06
343.209	83.06
343.437	95.06
343.665	81.06
343.893	107.06
344.12	92.06
344.348	95.06
344.576	97.06
344.804	96.06
345.031	114.06
345.259	98.06
345.487	94.06
345.714	106.06
345.942	108.06
346.17	94.06
346.397	84.06
346.625	107.06
346.853	106.06
347.08	106.06
347.308	112.06
347.535	117.06
347.763	96.06
347.99	99.06
348.218	94.06
348.445	120.06
348.673	119.06
348.9	95.06
349.128	105.06
349.355	90.06
349.583	103.06
349.81	80.06
350.037	111.06
350.265	94.06
350.492	96.06
350.72	109.06
350.947	108.06
351.174	109.06
351.402	125.06
351.629	117.06
351.856	86.06
352.083	110.06
352.311	114.06
352.538	120.06
352.765	133.06
352.992	133.06
353.22	129.06
353.447	118.06
353.674	112.06
353.901	111.06
354.128	106.06
354.355	104.06
354.583	115.06
354.81	113.06
355.037	105.06
355.264	98.06
355.491	108.06
355.718	79.06
355.945	96.06
356.172	103.06
356.399	94.06
356.626	88.06
356.853	103.06
357.08	95.06
357.307	80.06
357.534	72.06
357.761	95.06
357.988	103.06
358.215	87.06
358.441	116.06
358.668	94.06
358.895	96.06
359.122	89.06
359.349	109.06
359.576	91.06
359.802	111.06
360.029	134.06
360.256	139.06
360.483	112.06
360.709	87.06
360.936	114.06
361.163	102.06
361.39	102.06
361.616	120.06
361.843	101.06
362.07	104.06
362.296	108.06
362.523	105.06
362.749	92.06
362.976	102.06
363.203	99.06
363.429	81.06
363.656	88.06
363.882	98.06
364.109	90.06
364.335	103.06
364.562	95.06
364.788	109.06
365.015	101.06
365.241	113.06
365.468	113.06
365.694	110.06
365.92	103.06
366.147	88.06
366.373	92.06
366.599	95.06
366.826	101.06
367.052	83.06
367.278	89.06
367.505	103.06
367.731	99.06
367.957	105.06
368.184	111.06
368.41	111.06
368.636	125.06
368.862	134.06
369.089	121.06
369.315	103.06
369.541	95.06
369.767	107.06
369.993	98.06
370.219	89.06
370.445	77.06
370.672	97.06
370.898	85.06
371.124	103.06
371.35	86.06
371.576	92.06
371.802	82.06
372.028	106.06
372.254	103.06
372.48	98.06
372.706	94.06
372.932	104.06
373.158	94.06
373.384	95.06
373.61	99.06
373.835	87.06
374.061	101.06
374.287	102.06
374.513	104.06
374.739	102.06
374.965	99.06
375.191	83.06
375.416	100.06
375.642	91.06
375.868	94.06
376.094	93.06
376.319	100.06
376.545	77.06
376.771	88.06
376.997	99.06
377.222	104.06
377.448	90.06
377.674	89.06
377.899	84.06
378.125	92.06
378.35	94.06
378.576	89.06
378.802	100.06
379.027	98.06
379.253	85.06
379.478	93.06
379.704	84.06
379.929	94.06
380.155	98.06
380.38	99.06
380.606	108.06
380.831	106.06
381.057	97.06
381.282	98.06
381.507	83.06
381.733	96.06
381.958	95.06
382.184	107.06
382.409	107.06
382.634	95.06
382.86	88.06
383.085	103.06
383.31	100.06
383.535	119.06
383.761	95.06
383.986	114.06
384.211	95.06
384.436	93.06
384.662	90.06
384.887	116.06
385.112	101.06
385.337	110.06
385.562	109.06
385.787	110.06
386.013	109.06
386.238	112.06
386.463	116.06
386.688	105.06
386.913	110.06
387.138	100.06
387.363	110.06
387.588	105.06
387.813	102.06
388.038	113.06
388.263	117.06
388.488	106.06
388.713	87.06
388.938	87.06
389.163	103.06
389.387	94.06
389.612	92.06
389.837	90.06
390.062	100.06
390.287	94.06
390.512	85.06
390.736	80.06
390.961	86.06
391.186	82.06
391.411	85.06
391.636	100.06
391.86	86.06
392.085	94.06
392.31	91.06
392.534	87.06
392.759	97.06
392.984	104.06
393.208	101.06
393.433	106.06
393.658	99.06
393.882	85.06
394.107	80.06
394.331	88.06
394.556	94.06
394.78	81.06
395.005	84.06
395.229	93.06
395.454	86.06
395.678	79.06
395.903	88.06
396.127	84.06
396.352	87.06
396.576	79.06
396.801	94.06
397.025	92.06
397.249	90.06
397.474	82.06
397.698	90.06
397.922	78.06
398.147	97.06
398.371	94.06
398.595	99.06
398.82	75.06
399.044	72.06
399.268	86.06
399.492	90.06
399.717	83.06
399.941	98.06
400.165	94.06
400.389	91.06
400.613	78.06
400.837	100.06
401.062	79.06
401.286	85.06
401.51	100.06
401.734	95.06
401.958	118.06
402.182	155.06
402.406	218.06
402.63	137.06
402.854	116.06
403.078	106.06
403.302	102.06
403.526	97.06
403.75	83.06
403.974	98.06
404.198	82.06
404.422	89.06
404.645	109.06
404.869	96.06
405.093	109.06
405.317	114.06
405.541	122.06
405.765	109.06
405.988	128.06
406.212	220.06
406.436	299.06
406.66	200.06
406.883	108.06
407.107	112.06
407.331	103.06
407.555	115.06
407.778	111.06
408.002	84.06
408.226	92.06
408.449	100.06
408.673	100.06
408.896	124.06
409.12	97.06
409.344	94.06
409.567	93.06
409.791	90.06
410.014	105.06
410.238	91.06
410.461	94.06
410.685	90.06
410.908	93.06
411.132	112.06
411.355	101.06
411.578	93.06
411.802	97.06
412.025	84.06
412.249	103.06
412.472	93.06
412.695	103.06
412.919	102.06
413.142	101.06
413.365	86.06
413.589	95.06
413.812	90.06
414.035	91.06
414.258	93.06
414.482	92.06
414.705	84.06
414.928	103.06
415.151	87.06
415.374	86.06
415.597	98.06
415.821	89.06
416.044	90.06
416.267	89.06
416.49	79.06
416.713	80.06
416.936	78.06
417.159	90.06
417.382	86.06
417.605	95.06
417.828	102.06
418.051	99.06
418.274	90.06
418.497	88.06
418.72	77.06
418.943	86.06
419.166	74.06
419.389	71.06
419.611	90.06
419.834	100.06
420.057	87.06
420.28	89.06
420.503	87.06
420.726	93.06
420.948	92.06
421.171	93.06
421.394	73.06
421.617	93.06
421.839	74.06
422.062	85.06
422.285	105.06
422.507	107.06
422.73	118.06
422.953	92.06
423.175	90.06
423.398	100.06
423.621	94.06
423.843	95.06
424.066	85.06
424.288	86.06
424.511	95.06
424.733	99.06
424.956	133.06
425.178	121.06
425.401	100.06
425.623	131.06
425.846	100.06
426.068	108.06
426.291	106.06
426.513	99.06
426.735	102.06
426.958	100.06
427.18	117.06
427.402	172.06
427.625	228.06
427.847	173.06
428.069	122.06
428.292	101.06
428.514	83.06
428.736	96.06
428.958	95.06
429.181	85.06
429.403	83.06
429.625	86.06
429.847	105.06
430.069	115.06
430.292	90.06
430.514	95.06
430.736	91.06
430.958	98.06
431.18	83.06
431.402	92.06
431.624	87.06
431.846	78.06
432.068	86.06
432.29	84.06
432.512	96.06
432.734	91.06
432.956	88.06
433.178	108.06
433.4	111.06
433.622	110.06
433.844	118.06
434.066	96.06
434.287	91.06
434.509	94.06
434.731	102.06
434.953	77.06
435.175	94.06
435.397	96.06
435.618	101.06
435.84	111.06
436.062	135.06
436.284	132.06
436.505	106.06
436.727	111.06
436.949	90.06
437.17	92.06
437.392	95.06
437.614	112.06
437.835	136.06
438.057	166.06
438.278	144.06
438.5	132.06
438.721	147.06
438.943	109.06
439.165	84.06
439.386	98.06
439.608	101.06
439.829	105.06
440.05	148.06
440.272	188.06
440.493	109.06
440.715	90.06
440.936	103.06
441.158	110.06
441.379	86.06
441.6	101.06
441.822	103.06
442.043	101.06
442.264	122.06
442.486	117.06
442.707	107.06
442.928	117.06
443.149	172.06
443.371	171.06
443.592	109.06
443.813	124.06
444.034	130.06
444.255	98.06
444.476	95.06
444.698	93.06
444.919	95.06
445.14	139.06
445.361	143.06
445.582	130.06
445.803	185.06
446.024	199.06
446.245	179.06
446.466	118.06
446.687	87.06
446.908	86.06
447.129	90.06
447.35	95.06
447.571	99.06
447.792	94.06
448.013	113.06
448.234	120.06
448.455	109.06
448.675	124.06
448.896	136.06
449.117	106.06
449.338	121.06
449.559	154.06
449.779	165.06
450	104.06
450.221	89.06
450.442	100.06
450.662	104.06
450.883	119.06
451.104	130.06
451.324	106.06
451.545	87.06
451.766	92.06
451.986	91.06
452.207	75.06
452.428	87.06
452.648	108.06
452.869	120.06
453.089	136.06
453.31	144.06
453.53	108.06
453.751	88.06
453.971	119.06
454.192	133.06
454.412	96.06
454.633	94.06
454.853	90.06
455.073	90.06
455.294	98.06
455.514	107.06
455.734	107.06
455.955	95.06
456.175	87.06
456.395	76.06
456.616	91.06
456.836	89.06
457.056	85.06
457.276	98.06
457.497	83.06
457.717	90.06
457.937	80.06
458.157	90.06
458.377	102.06
458.598	128.06
458.818	205.06
459.038	234.06
459.258	147.06
459.478	111.06
459.698	94.06
459.918	87.06
460.138	85.06
460.358	90.06
460.578	99.06
460.798	88.06
461.018	100.06
461.238	103.06
461.458	92.06
461.678	92.06
461.898	73.06
462.118	95.06
462.338	75.06
462.558	96.06
462.777	98.06
462.997	72.06
463.217	102.06
463.437	95.06
463.657	84.06
463.876	87.06
464.096	100.06
464.316	94.06
464.536	99.06
464.755	114.06
464.975	134.06
465.195	234.06
465.414	239.06
465.634	91.06
465.854	97.06
466.073	91.06
466.293	87.06
466.512	87.06
466.732	88.06
466.951	72.06
467.171	92.06
467.391	90.06
467.61	104.06
467.829	110.06
468.049	117.06
468.268	111.06
468.488	92.06
468.707	86.06
468.927	95.06
469.146	102.06
469.365	95.06
469.585	87.06
469.804	107.06
470.023	104.06
470.243	99.06
470.462	110.06
470.681	120.06
470.901	95.06
471.12	89.06
471.339	98.06
471.558	94.06
471.777	84.06
471.997	92.06
472.216	113.06
472.435	161.06
472.654	102.06
472.873	88.06
473.092	84.06
473.311	100.06
473.53	76.06
473.749	82.06
473.968	102.06
474.187	123.06
474.406	113.06
474.625	98.06
474.844	90.06
475.063	88.06
475.282	91.06
475.501	85.06
475.72	80.06
475.939	86.06
476.158	95.06
476.377	87.06
476.596	88.06
476.814	85.06
477.033	108.06
477.252	91.06
477.471	86.06
477.69	78.06
477.908	103.06
478.127	91.06
478.346	73.06
478.564	92.06
478.783	95.06
479.002	79.06
479.22	95.06
479.439	87.06
479.658	104.06
479.876	109.06
480.095	108.06
480.313	98.06
480.532	90.06
480.751	99.06
480.969	121.06
481.188	222.06
481.406	191.06
481.624	103.06
481.843	92.06
482.061	87.06
482.28	86.06
482.498	99.06
482.717	83.06
482.935	100.06
483.153	87.06
483.372	99.06
483.59	72.06
483.808	94.06
484.027	94.06
484.245	92.06
484.463	104.06
484.681	103.06
484.9	108.06
485.118	87.06
485.336	88.06
485.554	78.06
485.772	94.06
485.99	112.06
486.209	112.06
486.427	110.06
486.645	110.06
486.863	110.06
487.081	109.06
487.299	101.06
487.517	91.06
487.735	88.06
487.953	96.06
488.171	91.06
488.389	98.06
488.607	101.06
488.825	98.06
489.043	93.06
489.261	102.06
489.479	92.06
489.696	98.06
489.914	92.06
490.132	95.06
490.35	91.06
490.568	86.06
490.786	94.06
491.003	101.06
491.221	82.06
491.439	91.06
491.657	86.06
491.874	94.06
492.092	95.06
492.31	87.06
492.527	97.06
492.745	100.06
492.963	91.06
493.18	102.06
493.398	74.06
493.615	93.06
493.833	84.06
494.05	88.06
494.268	85.06
494.485	89.06
494.703	87.06
494.92	92.06
495.138	103.06
495.355	86.06
495.573	106.06
495.79	94.06
496.008	97.06
496.225	94.06
496.442	94.06
496.66	102.06
496.877	94.06
497.094	89.06
497.312	97.06
497.529	86.06
497.746	88.06
497.963	106.06
498.181	112.06
498.398	98.06
498.615	109.06
498.832	106.06
499.049	83.06
499.267	99.06
499.484	94.06
499.701	102.06
499.918	105.06
500.135	85.06
500.352	100.06
500.569	86.06
500.786	91.06
501.003	90.06
501.22	82.06
501.437	99.06
501.654	102.06
501.871	124.06
502.088	119.06
502.305	108.06
502.522	98.06
502.739	92.06
502.956	95.06
503.172	87.06
503.389	99.06
503.606	122.06
503.823	112.06
504.04	99.06
504.256	87.06
504.473	83.06
504.69	84.06
504.907	91.06
505.123	90.06
505.34	93.06
505.557	101.06
505.773	96.06
505.99	99.06
506.207	91.06
506.423	86.06
506.64	84.06
506.856	86.06
507.073	83.06
507.289	91.06
507.506	115.06
507.722	126.06
507.939	127.06
508.155	97.06
508.372	86.06
508.588	94.06
508.805	99.06
509.021	95.06
509.238	94.06
509.454	94.06
509.67	109.06
509.887	107.06
510.103	155.06
510.319	228.06
510.536	887.06
510.752	3051.06
510.968	810.06
511.184	189.06
511.401	136.06
511.617	110.06
511.833	104.06
512.049	108.06
512.265	88.06
512.481	88.06
512.698	93.06
512.914	83.06
