Data from Circ_1981_H10_HRD10591_00094.txt Node
Date: Wed Jan 03 12:34:39 EST 2024
User: Yrep
Spectrometer: HR+D1059
Trigger mode: 1
Integration Time (sec): 1.000000E-1
Scans to average: 1
Electric dark correction enabled: true
Nonlinearity correction enabled: false
Boxcar width: 0
XAxis mode: Wavelengths
Number of Pixels in Spectrum: 2048
>>>>>Begin Spectral Data<<<<<
223.165	-24.5
223.4	-24.5
223.635	-24.5
223.869	-28.5
224.104	-15.5
224.338	1.5
224.573	-9.5
224.808	-6.5
225.042	-3.5
225.277	-3.5
225.511	-8.5
225.746	13.5
225.98	1.5
226.215	20.5
226.449	10.5
226.683	-1.5
226.918	30.5
227.152	23.5
227.387	35.5
227.621	39.5
227.856	51.5
228.09	32.5
228.324	56.5
228.559	47.5
228.793	67.5
229.027	59.5
229.262	70.5
229.496	61.5
229.73	83.5
229.964	76.5
230.199	67.5
230.433	83.5
230.667	79.5
230.901	79.5
231.136	86.5
231.37	75.5
231.604	80.5
231.838	79.5
232.072	73.5
232.306	93.5
232.541	80.5
232.775	77.5
233.009	75.5
233.243	76.5
233.477	69.5
233.711	80.5
233.945	85.5
234.179	83.5
234.413	89.5
234.647	69.5
234.881	83.5
235.115	70.5
235.349	70.5
235.583	75.5
235.817	90.5
236.051	86.5
236.285	89.5
236.519	78.5
236.753	87.5
236.987	72.5
237.221	105.5
237.455	90.5
237.689	88.5
237.922	88.5
238.156	73.5
238.39	78.5
238.624	78.5
238.858	77.5
239.091	78.5
239.325	85.5
239.559	91.5
239.793	91.5
240.027	85.5
240.26	67.5
240.494	78.5
240.728	76.5
240.961	71.5
241.195	78.5
241.429	88.5
241.662	77.5
241.896	86.5
242.13	60.5
242.363	85.5
242.597	84.5
242.83	81.5
243.064	85.5
243.298	85.5
243.531	78.5
243.765	79.5
243.998	79.5
244.232	85.5
244.465	79.5
244.699	83.5
244.932	93.5
245.166	70.5
245.399	87.5
245.633	87.5
245.866	78.5
246.099	87.5
246.333	76.5
246.566	83.5
246.8	63.5
247.033	86.5
247.266	91.5
247.5	80.5
247.733	85.5
247.966	84.5
248.2	83.5
248.433	87.5
248.666	70.5
248.899	76.5
249.133	87.5
249.366	89.5
249.599	96.5
249.832	78.5
250.066	94.5
250.299	75.5
250.532	92.5
250.765	81.5
250.998	72.5
251.231	83.5
251.465	75.5
251.698	83.5
251.931	68.5
252.164	77.5
252.397	99.5
252.63	84.5
252.863	90.5
253.096	77.5
253.329	76.5
253.562	86.5
253.795	91.5
254.028	81.5
254.261	87.5
254.494	72.5
254.727	77.5
254.96	83.5
255.193	73.5
255.426	83.5
255.659	80.5
255.892	98.5
256.124	71.5
256.357	72.5
256.59	84.5
256.823	88.5
257.056	85.5
257.289	100.5
257.521	89.5
257.754	68.5
257.987	90.5
258.22	103.5
258.452	85.5
258.685	75.5
258.918	90.5
259.151	90.5
259.383	83.5
259.616	97.5
259.849	95.5
260.081	76.5
260.314	96.5
260.547	97.5
260.779	87.5
261.012	78.5
261.244	75.5
261.477	86.5
261.71	91.5
261.942	85.5
262.175	120.5
262.407	89.5
262.64	90.5
262.872	89.5
263.105	87.5
263.337	77.5
263.57	83.5
263.802	79.5
264.035	79.5
264.267	83.5
264.499	94.5
264.732	95.5
264.964	83.5
265.197	84.5
265.429	85.5
265.661	88.5
265.894	86.5
266.126	80.5
266.358	78.5
266.591	84.5
266.823	89.5
267.055	87.5
267.287	93.5
267.52	78.5
267.752	83.5
267.984	96.5
268.216	85.5
268.448	84.5
268.681	77.5
268.913	95.5
269.145	91.5
269.377	84.5
269.609	78.5
269.841	89.5
270.073	88.5
270.306	79.5
270.538	86.5
270.77	91.5
271.002	91.5
271.234	88.5
271.466	88.5
271.698	84.5
271.93	80.5
272.162	93.5
272.394	88.5
272.626	83.5
272.858	104.5
273.09	87.5
273.322	80.5
273.553	92.5
273.785	83.5
274.017	76.5
274.249	84.5
274.481	84.5
274.713	86.5
274.945	94.5
275.176	81.5
275.408	88.5
275.64	93.5
275.872	88.5
276.104	88.5
276.335	79.5
276.567	106.5
276.799	108.5
277.031	99.5
277.262	97.5
277.494	88.5
277.726	99.5
277.957	89.5
278.189	65.5
278.421	78.5
278.652	94.5
278.884	93.5
279.115	88.5
279.347	95.5
279.579	94.5
279.81	79.5
280.042	94.5
280.273	63.5
280.505	95.5
280.736	83.5
280.968	84.5
281.199	91.5
281.431	88.5
281.662	83.5
281.894	76.5
282.125	107.5
282.356	119.5
282.588	161.5
282.819	130.5
283.051	89.5
283.282	78.5
283.513	95.5
283.745	93.5
283.976	91.5
284.207	96.5
284.439	75.5
284.67	87.5
284.901	101.5
285.132	93.5
285.364	88.5
285.595	87.5
285.826	98.5
286.057	93.5
286.288	79.5
286.52	87.5
286.751	88.5
286.982	93.5
287.213	90.5
287.444	77.5
287.675	99.5
287.906	98.5
288.138	85.5
288.369	104.5
288.6	105.5
288.831	86.5
289.062	94.5
289.293	90.5
289.524	93.5
289.755	93.5
289.986	85.5
290.217	90.5
290.448	89.5
290.679	89.5
290.91	92.5
291.141	84.5
291.371	72.5
291.602	78.5
291.833	83.5
292.064	99.5
292.295	95.5
292.526	90.5
292.757	75.5
292.987	89.5
293.218	90.5
293.449	102.5
293.68	88.5
293.91	100.5
294.141	97.5
294.372	91.5
294.603	87.5
294.833	92.5
295.064	85.5
295.295	97.5
295.525	85.5
295.756	105.5
295.987	133.5
296.217	137.5
296.448	129.5
296.679	83.5
296.909	74.5
297.14	92.5
297.37	83.5
297.601	91.5
297.831	102.5
298.062	96.5
298.292	96.5
298.523	84.5
298.753	88.5
298.984	84.5
299.214	96.5
299.445	106.5
299.675	99.5
299.905	91.5
300.136	88.5
300.366	98.5
300.597	80.5
300.827	99.5
301.057	88.5
301.288	105.5
301.518	95.5
301.748	99.5
301.979	103.5
302.209	104.5
302.439	100.5
302.669	93.5
302.9	99.5
303.13	101.5
303.36	100.5
303.59	99.5
303.82	108.5
304.051	96.5
304.281	95.5
304.511	101.5
304.741	95.5
304.971	89.5
305.201	101.5
305.431	101.5
305.661	100.5
305.891	101.5
306.121	98.5
306.352	100.5
306.582	106.5
306.812	85.5
307.042	102.5
307.272	99.5
307.502	110.5
307.731	91.5
307.961	99.5
308.191	104.5
308.421	89.5
308.651	102.5
308.881	102.5
309.111	101.5
309.341	111.5
309.571	105.5
309.8	99.5
310.03	98.5
310.26	101.5
310.49	87.5
310.72	94.5
310.949	108.5
311.179	90.5
311.409	100.5
311.639	92.5
311.868	104.5
312.098	99.5
312.328	96.5
312.557	104.5
312.787	109.5
313.017	93.5
313.246	96.5
313.476	84.5
313.706	110.5
313.935	108.5
314.165	108.5
314.394	109.5
314.624	93.5
314.853	108.5
315.083	94.5
315.312	97.5
315.542	95.5
315.771	91.5
316.001	98.5
316.23	86.5
316.46	95.5
316.689	74.5
316.919	95.5
317.148	102.5
317.377	101.5
317.607	109.5
317.836	90.5
318.065	99.5
318.295	103.5
318.524	95.5
318.753	92.5
318.983	110.5
319.212	103.5
319.441	116.5
319.67	103.5
319.9	91.5
320.129	102.5
320.358	100.5
320.587	100.5
320.816	102.5
321.046	110.5
321.275	103.5
321.504	95.5
321.733	102.5
321.962	103.5
322.191	111.5
322.42	107.5
322.649	116.5
322.878	117.5
323.108	117.5
323.337	141.5
323.566	134.5
323.795	177.5
324.024	225.5
324.253	425.5
324.482	927.5
324.71	1979.5
324.939	2742.5
325.168	963.5
325.397	274.5
325.626	169.5
325.855	139.5
326.084	130.5
326.313	149.5
326.542	163.5
326.77	248.5
326.999	501.5
327.228	1065.5
327.457	2035.5
327.686	1644.5
327.914	418.5
328.143	224.5
328.372	171.5
328.6	129.5
328.829	125.5
329.058	143.5
329.287	151.5
329.515	114.5
329.744	101.5
329.972	107.5
330.201	116.5
330.43	142.5
330.658	152.5
330.887	168.5
331.115	133.5
331.344	97.5
331.572	98.5
331.801	101.5
332.03	111.5
332.258	103.5
332.486	95.5
332.715	88.5
332.943	105.5
333.172	102.5
333.4	93.5
333.629	104.5
333.857	106.5
334.085	120.5
334.314	119.5
334.542	138.5
334.771	135.5
334.999	107.5
335.227	103.5
335.455	100.5
335.684	89.5
335.912	96.5
336.14	92.5
336.369	105.5
336.597	99.5
336.825	95.5
337.053	93.5
337.281	107.5
337.51	103.5
337.738	103.5
337.966	102.5
338.194	85.5
338.422	105.5
338.65	96.5
338.878	110.5
339.106	101.5
339.334	82.5
339.562	91.5
339.79	95.5
340.018	92.5
340.246	88.5
340.474	96.5
340.702	104.5
340.93	85.5
341.158	100.5
341.386	99.5
341.614	101.5
341.842	101.5
342.07	97.5
342.298	91.5
342.526	104.5
342.754	87.5
342.981	101.5
343.209	95.5
343.437	105.5
343.665	106.5
343.893	91.5
344.12	104.5
344.348	89.5
344.576	86.5
344.804	105.5
345.031	90.5
345.259	91.5
345.487	107.5
345.714	108.5
345.942	87.5
346.17	102.5
346.397	90.5
346.625	96.5
346.853	98.5
347.08	85.5
347.308	97.5
347.535	99.5
347.763	106.5
347.99	84.5
348.218	112.5
348.445	107.5
348.673	102.5
348.9	112.5
349.128	88.5
349.355	98.5
349.583	95.5
349.81	81.5
350.037	81.5
350.265	95.5
350.492	102.5
350.72	109.5
350.947	108.5
351.174	114.5
351.402	136.5
351.629	96.5
351.856	102.5
352.083	115.5
352.311	110.5
352.538	115.5
352.765	130.5
352.992	110.5
353.22	105.5
353.447	108.5
353.674	117.5
353.901	102.5
354.128	104.5
354.355	95.5
354.583	96.5
354.81	99.5
355.037	109.5
355.264	85.5
355.491	88.5
355.718	95.5
355.945	81.5
356.172	92.5
356.399	107.5
356.626	90.5
356.853	105.5
357.08	91.5
357.307	94.5
357.534	98.5
357.761	93.5
357.988	82.5
358.215	106.5
358.441	98.5
358.668	84.5
358.895	100.5
359.122	90.5
359.349	92.5
359.576	107.5
359.802	104.5
360.029	112.5
360.256	118.5
360.483	112.5
360.709	96.5
360.936	91.5
361.163	97.5
361.39	79.5
361.616	111.5
361.843	94.5
362.07	97.5
362.296	101.5
362.523	101.5
362.749	110.5
362.976	110.5
363.203	102.5
363.429	94.5
363.656	109.5
363.882	96.5
364.109	99.5
364.335	91.5
364.562	106.5
364.788	102.5
365.015	95.5
365.241	105.5
365.468	103.5
365.694	102.5
365.92	104.5
366.147	87.5
366.373	92.5
366.599	78.5
366.826	94.5
367.052	98.5
367.278	88.5
367.505	99.5
367.731	92.5
367.957	88.5
368.184	93.5
368.41	105.5
368.636	112.5
368.862	119.5
369.089	105.5
369.315	106.5
369.541	87.5
369.767	105.5
369.993	90.5
370.219	93.5
370.445	81.5
370.672	74.5
370.898	76.5
371.124	88.5
371.35	92.5
371.576	87.5
371.802	99.5
372.028	87.5
372.254	92.5
372.48	95.5
372.706	79.5
372.932	94.5
373.158	86.5
373.384	88.5
373.61	91.5
373.835	102.5
374.061	93.5
374.287	91.5
374.513	91.5
374.739	87.5
374.965	98.5
375.191	100.5
375.416	111.5
375.642	99.5
375.868	94.5
376.094	104.5
376.319	93.5
376.545	92.5
376.771	85.5
376.997	91.5
377.222	80.5
377.448	80.5
377.674	92.5
377.899	85.5
378.125	92.5
378.35	99.5
378.576	82.5
378.802	91.5
379.027	94.5
379.253	85.5
379.478	86.5
379.704	95.5
379.929	100.5
380.155	108.5
380.38	102.5
380.606	87.5
380.831	116.5
381.057	97.5
381.282	90.5
381.507	97.5
381.733	93.5
381.958	88.5
382.184	113.5
382.409	107.5
382.634	97.5
382.86	105.5
383.085	95.5
383.31	112.5
383.535	104.5
383.761	108.5
383.986	106.5
384.211	97.5
384.436	97.5
384.662	95.5
384.887	116.5
385.112	94.5
385.337	90.5
385.562	102.5
385.787	103.5
386.013	107.5
386.238	107.5
386.463	105.5
386.688	117.5
386.913	108.5
387.138	110.5
387.363	102.5
387.588	98.5
387.813	104.5
388.038	103.5
388.263	102.5
388.488	105.5
388.713	82.5
388.938	82.5
389.163	99.5
389.387	107.5
389.612	101.5
389.837	78.5
390.062	85.5
390.287	84.5
390.512	85.5
390.736	93.5
390.961	90.5
391.186	92.5
391.411	93.5
391.636	104.5
391.86	97.5
392.085	99.5
392.31	100.5
392.534	103.5
392.759	92.5
392.984	92.5
393.208	84.5
393.433	99.5
393.658	97.5
393.882	94.5
394.107	97.5
394.331	81.5
394.556	71.5
394.78	92.5
395.005	72.5
395.229	71.5
395.454	83.5
395.678	82.5
395.903	105.5
396.127	81.5
396.352	97.5
396.576	106.5
396.801	97.5
397.025	94.5
397.249	73.5
397.474	103.5
397.698	87.5
397.922	79.5
398.147	85.5
398.371	86.5
398.595	96.5
398.82	89.5
399.044	83.5
399.268	91.5
399.492	83.5
399.717	102.5
399.941	110.5
400.165	96.5
400.389	96.5
400.613	81.5
400.837	82.5
401.062	88.5
401.286	97.5
401.51	97.5
401.734	90.5
401.958	92.5
402.182	127.5
402.406	155.5
402.63	131.5
402.854	83.5
403.078	91.5
403.302	79.5
403.526	82.5
403.75	90.5
403.974	85.5
404.198	81.5
404.422	95.5
404.645	82.5
404.869	103.5
405.093	100.5
405.317	94.5
405.541	104.5
405.765	110.5
405.988	112.5
406.212	181.5
406.436	243.5
406.66	162.5
406.883	103.5
407.107	93.5
407.331	107.5
407.555	104.5
407.778	94.5
408.002	91.5
408.226	90.5
408.449	99.5
408.673	88.5
408.896	93.5
409.12	88.5
409.344	91.5
409.567	83.5
409.791	94.5
410.014	95.5
410.238	79.5
410.461	86.5
410.685	105.5
410.908	107.5
411.132	100.5
411.355	112.5
411.578	80.5
411.802	91.5
412.025	99.5
412.249	102.5
412.472	80.5
412.695	105.5
412.919	99.5
413.142	100.5
413.365	99.5
413.589	101.5
413.812	96.5
414.035	87.5
414.258	75.5
414.482	91.5
414.705	95.5
414.928	88.5
415.151	85.5
415.374	88.5
415.597	107.5
415.821	96.5
416.044	83.5
416.267	95.5
416.49	91.5
416.713	87.5
416.936	79.5
417.159	86.5
417.382	89.5
417.605	105.5
417.828	97.5
418.051	93.5
418.274	104.5
418.497	96.5
418.72	81.5
418.943	101.5
419.166	96.5
419.389	79.5
419.611	105.5
419.834	107.5
420.057	86.5
420.28	94.5
420.503	80.5
420.726	81.5
420.948	93.5
421.171	102.5
421.394	92.5
421.617	83.5
421.839	94.5
422.062	96.5
422.285	100.5
422.507	124.5
422.73	107.5
422.953	85.5
423.175	100.5
423.398	95.5
423.621	86.5
423.843	88.5
424.066	94.5
424.288	84.5
424.511	91.5
424.733	93.5
424.956	123.5
425.178	104.5
425.401	119.5
425.623	111.5
425.846	94.5
426.068	87.5
426.291	92.5
426.513	89.5
426.735	93.5
426.958	91.5
427.18	119.5
427.402	147.5
427.625	181.5
427.847	162.5
428.069	121.5
428.292	91.5
428.514	78.5
428.736	83.5
428.958	76.5
429.181	96.5
429.403	103.5
429.625	100.5
429.847	97.5
430.069	102.5
430.292	87.5
430.514	89.5
430.736	101.5
430.958	86.5
431.18	81.5
431.402	83.5
431.624	94.5
431.846	92.5
432.068	89.5
432.29	87.5
432.512	94.5
432.734	85.5
432.956	95.5
433.178	91.5
433.4	120.5
433.622	106.5
433.844	96.5
434.066	100.5
434.287	97.5
434.509	84.5
434.731	85.5
434.953	99.5
435.175	100.5
435.397	101.5
435.618	103.5
435.84	114.5
436.062	138.5
436.284	117.5
436.505	95.5
436.727	97.5
436.949	83.5
437.17	90.5
437.392	91.5
437.614	99.5
437.835	122.5
438.057	139.5
438.278	124.5
438.5	123.5
438.721	135.5
438.943	103.5
439.165	88.5
439.386	89.5
439.608	95.5
439.829	93.5
440.05	130.5
440.272	161.5
440.493	122.5
440.715	82.5
440.936	91.5
441.158	93.5
441.379	74.5
441.6	96.5
441.822	107.5
442.043	92.5
442.264	96.5
442.486	107.5
442.707	102.5
442.928	111.5
443.149	138.5
443.371	149.5
443.592	132.5
443.813	122.5
444.034	117.5
444.255	82.5
444.476	89.5
444.698	95.5
444.919	92.5
445.14	144.5
445.361	116.5
445.582	118.5
445.803	152.5
446.024	160.5
446.245	152.5
446.466	109.5
446.687	98.5
446.908	99.5
447.129	86.5
447.35	92.5
447.571	76.5
447.792	96.5
448.013	106.5
448.234	107.5
448.455	107.5
448.675	119.5
448.896	126.5
449.117	102.5
449.338	121.5
449.559	134.5
449.779	139.5
450	99.5
450.221	75.5
450.442	89.5
450.662	98.5
450.883	112.5
451.104	112.5
451.324	105.5
451.545	89.5
451.766	90.5
451.986	88.5
452.207	102.5
452.428	89.5
452.648	115.5
452.869	121.5
453.089	111.5
453.31	112.5
453.53	92.5
453.751	81.5
453.971	107.5
454.192	107.5
454.412	96.5
454.633	87.5
454.853	99.5
455.073	87.5
455.294	88.5
455.514	87.5
455.734	84.5
455.955	84.5
456.175	81.5
456.395	78.5
456.616	76.5
456.836	79.5
457.056	81.5
457.276	86.5
457.497	106.5
457.717	79.5
457.937	81.5
458.157	80.5
458.377	93.5
458.598	103.5
458.818	150.5
459.038	181.5
459.258	129.5
459.478	101.5
459.698	88.5
459.918	72.5
460.138	76.5
460.358	87.5
460.578	93.5
460.798	104.5
461.018	83.5
461.238	86.5
461.458	93.5
461.678	86.5
461.898	86.5
462.118	93.5
462.338	81.5
462.558	101.5
462.777	85.5
462.997	89.5
463.217	82.5
463.437	91.5
463.657	79.5
463.876	97.5
464.096	93.5
464.316	105.5
464.536	92.5
464.755	94.5
464.975	107.5
465.195	178.5
465.414	173.5
465.634	114.5
465.854	103.5
466.073	100.5
466.293	100.5
466.512	92.5
466.732	87.5
466.951	99.5
467.171	83.5
467.391	87.5
467.61	92.5
467.829	98.5
468.049	103.5
468.268	112.5
468.488	83.5
468.707	85.5
468.927	97.5
469.146	99.5
469.365	90.5
469.585	102.5
469.804	101.5
470.023	97.5
470.243	91.5
470.462	108.5
470.681	109.5
470.901	88.5
471.12	94.5
471.339	91.5
471.558	99.5
471.777	90.5
471.997	88.5
472.216	109.5
472.435	144.5
472.654	110.5
472.873	100.5
473.092	82.5
473.311	91.5
473.53	97.5
473.749	83.5
473.968	109.5
474.187	109.5
474.406	103.5
474.625	100.5
474.844	99.5
475.063	95.5
475.282	75.5
475.501	68.5
475.72	89.5
475.939	91.5
476.158	92.5
476.377	75.5
476.596	97.5
476.814	104.5
477.033	86.5
477.252	89.5
477.471	85.5
477.69	77.5
477.908	76.5
478.127	90.5
478.346	97.5
478.564	106.5
478.783	101.5
479.002	101.5
479.22	93.5
479.439	114.5
479.658	101.5
479.876	92.5
480.095	88.5
480.313	103.5
480.532	103.5
480.751	92.5
480.969	115.5
481.188	211.5
481.406	175.5
481.624	102.5
481.843	101.5
482.061	89.5
482.28	68.5
482.498	85.5
482.717	91.5
482.935	92.5
483.153	91.5
483.372	92.5
483.59	88.5
483.808	87.5
484.027	93.5
484.245	97.5
484.463	103.5
484.681	99.5
484.9	97.5
485.118	96.5
485.336	88.5
485.554	87.5
485.772	109.5
485.99	97.5
486.209	95.5
486.427	103.5
486.645	108.5
486.863	111.5
487.081	92.5
487.299	100.5
487.517	98.5
487.735	93.5
487.953	84.5
488.171	90.5
488.389	102.5
488.607	103.5
488.825	86.5
489.043	89.5
489.261	95.5
489.479	100.5
489.696	108.5
489.914	99.5
490.132	86.5
490.35	93.5
490.568	100.5
490.786	85.5
491.003	86.5
491.221	90.5
491.439	79.5
491.657	96.5
491.874	88.5
492.092	98.5
492.31	91.5
492.527	73.5
492.745	77.5
492.963	88.5
493.18	84.5
493.398	93.5
493.615	94.5
493.833	80.5
494.05	94.5
494.268	96.5
494.485	86.5
494.703	92.5
494.92	89.5
495.138	90.5
495.355	86.5
495.573	87.5
495.79	99.5
496.008	87.5
496.225	100.5
496.442	90.5
496.66	91.5
496.877	96.5
497.094	91.5
497.312	93.5
497.529	79.5
497.746	81.5
497.963	80.5
498.181	100.5
498.398	103.5
498.615	110.5
498.832	99.5
499.049	91.5
499.267	99.5
499.484	92.5
499.701	81.5
499.918	103.5
500.135	88.5
500.352	97.5
500.569	85.5
500.786	104.5
501.003	93.5
501.22	94.5
501.437	92.5
501.654	102.5
501.871	109.5
502.088	107.5
502.305	90.5
502.522	86.5
502.739	80.5
502.956	106.5
503.172	91.5
503.389	96.5
503.606	101.5
503.823	96.5
504.04	101.5
504.256	93.5
504.473	70.5
504.69	68.5
504.907	101.5
505.123	89.5
505.34	98.5
505.557	103.5
505.773	102.5
505.99	97.5
506.207	100.5
506.423	91.5
506.64	87.5
506.856	79.5
507.073	99.5
507.289	105.5
507.506	100.5
507.722	121.5
507.939	119.5
508.155	84.5
508.372	92.5
508.588	108.5
508.805	106.5
509.021	102.5
509.238	104.5
509.454	97.5
509.67	107.5
509.887	106.5
510.103	125.5
510.319	216.5
510.536	697.5
510.752	2254.5
510.968	613.5
511.184	143.5
511.401	118.5
511.617	94.5
511.833	94.5
512.049	90.5
512.265	84.5
512.481	93.5
512.698	94.5
512.914	90.5
513.13	90.5
513.346	102.5
513.562	108.5
513.778	80.5
513.994	99.5
514.21	102.5
514.426	121.5
514.642	133.5
514.858	138.5
515.074	164.5
515.29	461.5
515.506	1615.5
515.721	587.5
515.937	156.5
516.153	117.5
516.369	104.5
516.585	91.5
516.801	97.5
517.016	100.5
517.232	94.5
517.448	100.5
517.664	95.5
517.879	95.5
518.095	102.5
518.311	104.5
518.527	79.5
518.742	99.5
518.958	96.5
519.173	87.5
519.389	103.5
519.605	101.5
519.82	103.5
520.036	122.5
520.251	121.5
520.467	116.5
520.682	107.5
520.898	106.5
521.113	113.5
521.329	150.5
521.544	216.5
521.76	598.5
521.975	2673.5
522.19	1616.5
522.406	334.5
522.621	142.5
522.836	102.5
523.052	84.5
523.267	89.5
523.482	102.5
523.698	98.5
523.913	127.5
524.128	105.5
524.343	100.5
524.559	90.5
524.774	102.5
524.989	101.5
525.204	106.5
525.419	99.5
525.634	94.5
525.849	94.5
526.064	94.5
526.28	96.5
526.495	96.5
526.71	96.5
526.925	100.5
527.14	93.5
527.355	92.5
527.57	96.5
527.785	100.5
527.999	94.5
528.214	79.5
528.429	91.5
528.644	91.5
528.859	87.5
529.074	92.5
529.289	118.5
529.503	176.5
529.718	103.5
529.933	88.5
530.148	96.5
530.363	89.5
530.577	93.5
530.792	97.5
531.007	91.5
531.221	108.5
531.436	96.5
531.651	89.5
531.865	75.5
532.08	94.5
532.295	105.5
532.509	99.5
532.724	84.5
532.938	99.5
533.153	108.5
