Data from Circ_1981_H10_HRD10591_00078.txt Node
Date: Wed Jan 03 12:34:36 EST 2024
User: Yrep
Spectrometer: HR+D1059
Trigger mode: 1
Integration Time (sec): 1.000000E-1
Scans to average: 1
Electric dark correction enabled: true
Nonlinearity correction enabled: false
Boxcar width: 0
XAxis mode: Wavelengths
Number of Pixels in Spectrum: 2048
>>>>>Begin Spectral Data<<<<<
223.165	-21.62
223.4	-21.62
223.635	-21.62
223.869	-25.62
224.104	-18.62
224.338	-31.62
224.573	-17.62
224.808	-6.62
225.042	-8.62
225.277	-0.62
225.511	2.38
225.746	5.38
225.98	10.38
226.215	21.38
226.449	18.38
226.683	19.38
226.918	26.38
227.152	27.38
227.387	33.38
227.621	29.38
227.856	41.38
228.09	44.38
228.324	46.38
228.559	54.38
228.793	57.38
229.027	62.38
229.262	75.38
229.496	76.38
229.73	90.38
229.964	85.38
230.199	77.38
230.433	93.38
230.667	80.38
230.901	75.38
231.136	89.38
231.37	81.38
231.604	58.38
231.838	88.38
232.072	74.38
232.306	87.38
232.541	83.38
232.775	67.38
233.009	82.38
233.243	84.38
233.477	74.38
233.711	80.38
233.945	82.38
234.179	93.38
234.413	83.38
234.647	67.38
234.881	75.38
235.115	72.38
235.349	77.38
235.583	72.38
235.817	69.38
236.051	86.38
236.285	85.38
236.519	92.38
236.753	80.38
236.987	82.38
237.221	73.38
237.455	88.38
237.689	69.38
237.922	75.38
238.156	74.38
238.39	73.38
238.624	66.38
238.858	85.38
239.091	83.38
239.325	80.38
239.559	82.38
239.793	97.38
240.027	76.38
240.26	76.38
240.494	77.38
240.728	74.38
240.961	69.38
241.195	66.38
241.429	69.38
241.662	82.38
241.896	81.38
242.13	75.38
242.363	77.38
242.597	73.38
242.83	70.38
243.064	75.38
243.298	68.38
243.531	81.38
243.765	86.38
243.998	80.38
244.232	87.38
244.465	86.38
244.699	83.38
244.932	69.38
245.166	78.38
245.399	69.38
245.633	88.38
245.866	74.38
246.099	76.38
246.333	67.38
246.566	77.38
246.8	73.38
247.033	68.38
247.266	82.38
247.5	88.38
247.733	73.38
247.966	82.38
248.2	71.38
248.433	86.38
248.666	75.38
248.899	62.38
249.133	72.38
249.366	92.38
249.599	110.38
249.832	78.38
250.066	92.38
250.299	86.38
250.532	73.38
250.765	77.38
250.998	72.38
251.231	74.38
251.465	88.38
251.698	76.38
251.931	91.38
252.164	69.38
252.397	74.38
252.63	77.38
252.863	86.38
253.096	88.38
253.329	89.38
253.562	83.38
253.795	96.38
254.028	86.38
254.261	72.38
254.494	77.38
254.727	85.38
254.96	76.38
255.193	86.38
255.426	71.38
255.659	86.38
255.892	82.38
256.124	84.38
256.357	86.38
256.59	88.38
256.823	98.38
257.056	81.38
257.289	77.38
257.521	82.38
257.754	84.38
257.987	74.38
258.22	82.38
258.452	74.38
258.685	68.38
258.918	78.38
259.151	78.38
259.383	81.38
259.616	72.38
259.849	93.38
260.081	81.38
260.314	73.38
260.547	80.38
260.779	80.38
261.012	85.38
261.244	85.38
261.477	85.38
261.71	92.38
261.942	130.38
262.175	144.38
262.407	103.38
262.64	82.38
262.872	86.38
263.105	84.38
263.337	75.38
263.57	94.38
263.802	86.38
264.035	81.38
264.267	80.38
264.499	81.38
264.732	86.38
264.964	84.38
265.197	86.38
265.429	97.38
265.661	74.38
265.894	85.38
266.126	84.38
266.358	85.38
266.591	75.38
266.823	76.38
267.055	82.38
267.287	80.38
267.52	86.38
267.752	97.38
267.984	77.38
268.216	82.38
268.448	93.38
268.681	80.38
268.913	79.38
269.145	89.38
269.377	91.38
269.609	93.38
269.841	77.38
270.073	79.38
270.306	82.38
270.538	83.38
270.77	80.38
271.002	75.38
271.234	78.38
271.466	92.38
271.698	78.38
271.93	86.38
272.162	85.38
272.394	84.38
272.626	81.38
272.858	89.38
273.09	89.38
273.322	73.38
273.553	87.38
273.785	71.38
274.017	87.38
274.249	91.38
274.481	87.38
274.713	85.38
274.945	86.38
275.176	72.38
275.408	91.38
275.64	92.38
275.872	84.38
276.104	86.38
276.335	91.38
276.567	111.38
276.799	118.38
277.031	110.38
277.262	103.38
277.494	79.38
277.726	83.38
277.957	73.38
278.189	74.38
278.421	89.38
278.652	95.38
278.884	89.38
279.115	95.38
279.347	86.38
279.579	82.38
279.81	83.38
280.042	80.38
280.273	92.38
280.505	105.38
280.736	83.38
280.968	78.38
281.199	100.38
281.431	92.38
281.662	73.38
281.894	85.38
282.125	105.38
282.356	128.38
282.588	173.38
282.819	129.38
283.051	90.38
283.282	80.38
283.513	84.38
283.745	91.38
283.976	101.38
284.207	72.38
284.439	72.38
284.67	84.38
284.901	72.38
285.132	88.38
285.364	86.38
285.595	83.38
285.826	82.38
286.057	88.38
286.288	94.38
286.52	104.38
286.751	88.38
286.982	84.38
287.213	81.38
287.444	90.38
287.675	92.38
287.906	86.38
288.138	89.38
288.369	108.38
288.6	93.38
288.831	93.38
289.062	82.38
289.293	94.38
289.524	70.38
289.755	73.38
289.986	93.38
290.217	76.38
290.448	86.38
290.679	86.38
290.91	75.38
291.141	77.38
291.371	96.38
291.602	84.38
291.833	91.38
292.064	81.38
292.295	90.38
292.526	89.38
292.757	96.38
292.987	85.38
293.218	100.38
293.449	87.38
293.68	82.38
293.91	97.38
294.141	92.38
294.372	96.38
294.603	83.38
294.833	98.38
295.064	98.38
295.295	91.38
295.525	83.38
295.756	101.38
295.987	112.38
296.217	148.38
296.448	149.38
296.679	92.38
296.909	73.38
297.14	101.38
297.37	89.38
297.601	93.38
297.831	80.38
298.062	100.38
298.292	85.38
298.523	85.38
298.753	101.38
298.984	93.38
299.214	97.38
299.445	92.38
299.675	97.38
299.905	93.38
300.136	99.38
300.366	76.38
300.597	89.38
300.827	89.38
301.057	103.38
301.288	110.38
301.518	102.38
301.748	81.38
301.979	108.38
302.209	91.38
302.439	114.38
302.669	104.38
302.9	82.38
303.13	92.38
303.36	90.38
303.59	100.38
303.82	107.38
304.051	94.38
304.281	107.38
304.511	94.38
304.741	88.38
304.971	93.38
305.201	93.38
305.431	81.38
305.661	86.38
305.891	89.38
306.121	95.38
306.352	113.38
306.582	110.38
306.812	93.38
307.042	99.38
307.272	98.38
307.502	96.38
307.731	101.38
307.961	95.38
308.191	85.38
308.421	94.38
308.651	89.38
308.881	87.38
309.111	95.38
309.341	88.38
309.571	105.38
309.8	107.38
310.03	102.38
310.26	103.38
310.49	81.38
310.72	100.38
310.949	106.38
311.179	88.38
311.409	90.38
311.639	100.38
311.868	97.38
312.098	106.38
312.328	87.38
312.557	108.38
312.787	118.38
313.017	111.38
313.246	102.38
313.476	84.38
313.706	87.38
313.935	106.38
314.165	116.38
314.394	101.38
314.624	102.38
314.853	96.38
315.083	105.38
315.312	106.38
315.542	82.38
315.771	97.38
316.001	81.38
316.23	84.38
316.46	88.38
316.689	97.38
316.919	88.38
317.148	91.38
317.377	99.38
317.607	92.38
317.836	91.38
318.065	83.38
318.295	85.38
318.524	88.38
318.753	100.38
318.983	100.38
319.212	104.38
319.441	97.38
319.67	109.38
319.9	93.38
320.129	100.38
320.358	107.38
320.587	105.38
320.816	101.38
321.046	111.38
321.275	90.38
321.504	101.38
321.733	107.38
321.962	100.38
322.191	110.38
322.42	118.38
322.649	101.38
322.878	100.38
323.108	115.38
323.337	138.38
323.566	149.38
323.795	173.38
324.024	217.38
324.253	448.38
324.482	976.38
324.71	2016.38
324.939	2764.38
325.168	1034.38
325.397	293.38
325.626	160.38
325.855	136.38
326.084	119.38
326.313	145.38
326.542	170.38
326.77	266.38
326.999	497.38
327.228	1031.38
327.457	1964.38
327.686	1592.38
327.914	428.38
328.143	226.38
328.372	206.38
328.6	139.38
328.829	131.38
329.058	172.38
329.287	164.38
329.515	137.38
329.744	113.38
329.972	116.38
330.201	133.38
330.43	157.38
330.658	169.38
330.887	199.38
331.115	154.38
331.344	121.38
331.572	108.38
331.801	111.38
332.03	135.38
332.258	103.38
332.486	100.38
332.715	97.38
332.943	84.38
333.172	110.38
333.4	95.38
333.629	122.38
333.857	124.38
334.085	123.38
334.314	125.38
334.542	144.38
334.771	158.38
334.999	109.38
335.227	105.38
335.455	102.38
335.684	103.38
335.912	100.38
336.14	104.38
336.369	122.38
336.597	113.38
336.825	105.38
337.053	101.38
337.281	94.38
337.51	98.38
337.738	83.38
337.966	104.38
338.194	89.38
338.422	94.38
338.65	91.38
338.878	76.38
339.106	91.38
339.334	102.38
339.562	87.38
339.79	92.38
340.018	95.38
340.246	96.38
340.474	115.38
340.702	93.38
340.93	93.38
341.158	95.38
341.386	93.38
341.614	109.38
341.842	100.38
342.07	93.38
342.298	100.38
342.526	80.38
342.754	75.38
342.981	93.38
343.209	105.38
343.437	96.38
343.665	92.38
343.893	86.38
344.12	102.38
344.348	93.38
344.576	88.38
344.804	89.38
345.031	90.38
345.259	106.38
345.487	112.38
345.714	79.38
345.942	91.38
346.17	83.38
346.397	102.38
346.625	92.38
346.853	90.38
347.08	104.38
347.308	104.38
347.535	98.38
347.763	99.38
347.99	91.38
348.218	105.38
348.445	109.38
348.673	100.38
348.9	101.38
349.128	102.38
349.355	98.38
349.583	92.38
349.81	92.38
350.037	88.38
350.265	84.38
350.492	86.38
350.72	112.38
350.947	111.38
351.174	113.38
351.402	124.38
351.629	118.38
351.856	113.38
352.083	105.38
352.311	117.38
352.538	101.38
352.765	115.38
352.992	123.38
353.22	123.38
353.447	112.38
353.674	82.38
353.901	105.38
354.128	102.38
354.355	102.38
354.583	107.38
354.81	105.38
355.037	92.38
355.264	93.38
355.491	107.38
355.718	93.38
355.945	83.38
356.172	95.38
356.399	96.38
356.626	103.38
356.853	88.38
357.08	99.38
357.307	83.38
357.534	104.38
357.761	84.38
357.988	96.38
358.215	115.38
358.441	99.38
358.668	99.38
358.895	89.38
359.122	78.38
359.349	104.38
359.576	92.38
359.802	119.38
360.029	130.38
360.256	135.38
360.483	103.38
360.709	95.38
360.936	96.38
361.163	90.38
361.39	100.38
361.616	99.38
361.843	91.38
362.07	101.38
362.296	106.38
362.523	99.38
362.749	93.38
362.976	88.38
363.203	73.38
363.429	88.38
363.656	91.38
363.882	89.38
364.109	96.38
364.335	92.38
364.562	100.38
364.788	99.38
365.015	105.38
365.241	108.38
365.468	126.38
365.694	136.38
365.92	117.38
366.147	105.38
366.373	82.38
366.599	100.38
366.826	89.38
367.052	108.38
367.278	104.38
367.505	104.38
367.731	89.38
367.957	80.38
368.184	104.38
368.41	114.38
368.636	104.38
368.862	139.38
369.089	131.38
369.315	96.38
369.541	101.38
369.767	91.38
369.993	105.38
370.219	83.38
370.445	84.38
370.672	86.38
370.898	76.38
371.124	104.38
371.35	104.38
371.576	94.38
371.802	84.38
372.028	93.38
372.254	98.38
372.48	92.38
372.706	96.38
372.932	108.38
373.158	102.38
373.384	87.38
373.61	91.38
373.835	74.38
374.061	97.38
374.287	96.38
374.513	98.38
374.739	82.38
374.965	84.38
375.191	84.38
375.416	85.38
375.642	91.38
375.868	98.38
376.094	87.38
376.319	89.38
376.545	88.38
376.771	89.38
376.997	97.38
377.222	105.38
377.448	92.38
377.674	85.38
377.899	93.38
378.125	81.38
378.35	85.38
378.576	90.38
378.802	85.38
379.027	90.38
379.253	96.38
379.478	95.38
379.704	88.38
379.929	101.38
380.155	106.38
380.38	91.38
380.606	82.38
380.831	89.38
381.057	93.38
381.282	91.38
381.507	90.38
381.733	83.38
381.958	96.38
382.184	112.38
382.409	108.38
382.634	102.38
382.86	94.38
383.085	91.38
383.31	94.38
383.535	90.38
383.761	98.38
383.986	107.38
384.211	92.38
384.436	106.38
384.662	96.38
384.887	107.38
385.112	105.38
385.337	100.38
385.562	106.38
385.787	96.38
386.013	103.38
386.238	114.38
386.463	99.38
386.688	106.38
386.913	96.38
387.138	113.38
387.363	94.38
387.588	100.38
387.813	103.38
388.038	85.38
388.263	116.38
388.488	98.38
388.713	93.38
388.938	106.38
389.163	97.38
389.387	92.38
389.612	99.38
389.837	96.38
390.062	84.38
390.287	88.38
390.512	97.38
390.736	73.38
390.961	84.38
391.186	106.38
391.411	100.38
391.636	91.38
391.86	85.38
392.085	106.38
392.31	89.38
392.534	86.38
392.759	74.38
392.984	93.38
393.208	100.38
393.433	98.38
393.658	93.38
393.882	74.38
394.107	73.38
394.331	88.38
394.556	102.38
394.78	105.38
395.005	78.38
395.229	89.38
395.454	85.38
395.678	94.38
395.903	100.38
396.127	96.38
396.352	85.38
396.576	92.38
396.801	86.38
397.025	100.38
397.249	75.38
397.474	102.38
397.698	88.38
397.922	82.38
398.147	83.38
398.371	92.38
398.595	83.38
398.82	86.38
399.044	86.38
399.268	91.38
399.492	100.38
399.717	104.38
399.941	85.38
400.165	105.38
400.389	92.38
400.613	93.38
400.837	90.38
401.062	86.38
401.286	96.38
401.51	93.38
401.734	89.38
401.958	107.38
402.182	145.38
402.406	206.38
402.63	141.38
402.854	93.38
403.078	87.38
403.302	84.38
403.526	88.38
403.75	89.38
403.974	76.38
404.198	78.38
404.422	101.38
404.645	96.38
404.869	105.38
405.093	97.38
405.317	109.38
405.541	107.38
405.765	116.38
405.988	123.38
406.212	205.38
406.436	325.38
406.66	197.38
406.883	104.38
407.107	107.38
407.331	109.38
407.555	118.38
407.778	98.38
408.002	88.38
408.226	98.38
408.449	86.38
408.673	82.38
408.896	99.38
409.12	93.38
409.344	93.38
409.567	89.38
409.791	96.38
410.014	90.38
410.238	91.38
410.461	83.38
410.685	89.38
410.908	98.38
411.132	100.38
411.355	98.38
411.578	104.38
411.802	81.38
412.025	97.38
412.249	93.38
412.472	93.38
412.695	90.38
412.919	76.38
413.142	90.38
413.365	98.38
413.589	87.38
413.812	87.38
414.035	87.38
414.258	83.38
414.482	86.38
414.705	75.38
414.928	90.38
415.151	92.38
415.374	89.38
415.597	84.38
415.821	91.38
416.044	75.38
416.267	84.38
416.49	76.38
416.713	74.38
416.936	81.38
417.159	78.38
417.382	93.38
417.605	93.38
417.828	106.38
418.051	87.38
418.274	91.38
418.497	75.38
418.72	85.38
418.943	83.38
419.166	66.38
419.389	95.38
419.611	80.38
419.834	89.38
420.057	85.38
420.28	87.38
420.503	86.38
420.726	89.38
420.948	91.38
421.171	94.38
421.394	90.38
421.617	97.38
421.839	92.38
422.062	95.38
422.285	76.38
422.507	86.38
422.73	96.38
422.953	90.38
423.175	100.38
423.398	96.38
423.621	97.38
423.843	87.38
424.066	88.38
424.288	83.38
424.511	87.38
424.733	90.38
424.956	110.38
425.178	103.38
425.401	106.38
425.623	107.38
425.846	90.38
426.068	109.38
426.291	101.38
426.513	97.38
426.735	96.38
426.958	92.38
427.18	95.38
427.402	173.38
427.625	248.38
427.847	173.38
428.069	112.38
428.292	84.38
428.514	83.38
428.736	77.38
428.958	101.38
429.181	82.38
429.403	88.38
429.625	80.38
429.847	79.38
430.069	111.38
430.292	87.38
430.514	81.38
430.736	93.38
430.958	86.38
431.18	84.38
431.402	76.38
431.624	80.38
431.846	84.38
432.068	86.38
432.29	94.38
432.512	93.38
432.734	96.38
432.956	100.38
433.178	94.38
433.4	99.38
433.622	104.38
433.844	90.38
434.066	84.38
434.287	94.38
434.509	80.38
434.731	92.38
434.953	93.38
435.175	88.38
435.397	95.38
435.618	109.38
435.84	110.38
436.062	145.38
436.284	124.38
436.505	95.38
436.727	98.38
436.949	94.38
437.17	82.38
437.392	89.38
437.614	104.38
437.835	129.38
438.057	145.38
438.278	130.38
438.5	119.38
438.721	139.38
438.943	130.38
439.165	82.38
439.386	98.38
439.608	88.38
439.829	123.38
440.05	137.38
440.272	174.38
440.493	113.38
440.715	92.38
440.936	74.38
441.158	89.38
441.379	105.38
441.6	114.38
441.822	103.38
442.043	99.38
442.264	118.38
442.486	118.38
442.707	88.38
442.928	109.38
443.149	169.38
443.371	171.38
443.592	129.38
443.813	132.38
444.034	99.38
444.255	97.38
444.476	63.38
444.698	85.38
444.919	65.38
445.14	124.38
445.361	114.38
445.582	136.38
445.803	180.38
446.024	170.38
446.245	171.38
446.466	125.38
446.687	96.38
446.908	91.38
447.129	92.38
447.35	94.38
447.571	84.38
447.792	89.38
448.013	92.38
448.234	113.38
448.455	93.38
448.675	120.38
448.896	131.38
449.117	102.38
449.338	110.38
449.559	144.38
449.779	155.38
450	85.38
450.221	96.38
450.442	91.38
450.662	107.38
450.883	123.38
451.104	130.38
451.324	110.38
451.545	86.38
451.766	96.38
451.986	72.38
452.207	84.38
452.428	94.38
452.648	104.38
452.869	118.38
453.089	123.38
453.31	138.38
453.53	93.38
453.751	105.38
453.971	112.38
454.192	124.38
454.412	106.38
454.633	89.38
454.853	84.38
455.073	71.38
455.294	102.38
455.514	112.38
455.734	93.38
455.955	91.38
456.175	93.38
456.395	84.38
456.616	88.38
456.836	92.38
457.056	92.38
457.276	82.38
457.497	84.38
457.717	81.38
457.937	84.38
458.157	79.38
458.377	113.38
458.598	122.38
458.818	189.38
459.038	239.38
459.258	152.38
459.478	93.38
459.698	93.38
459.918	90.38
460.138	87.38
460.358	85.38
460.578	85.38
460.798	82.38
461.018	96.38
461.238	76.38
461.458	87.38
461.678	88.38
461.898	75.38
462.118	82.38
462.338	101.38
462.558	89.38
462.777	82.38
462.997	83.38
463.217	92.38
463.437	78.38
463.657	71.38
463.876	93.38
464.096	98.38
464.316	99.38
464.536	106.38
464.755	92.38
464.975	120.38
465.195	213.38
465.414	230.38
465.634	101.38
465.854	95.38
466.073	88.38
466.293	86.38
466.512	84.38
466.732	80.38
466.951	97.38
467.171	88.38
467.391	100.38
467.61	114.38
467.829	111.38
468.049	103.38
468.268	106.38
468.488	96.38
468.707	86.38
468.927	84.38
469.146	88.38
469.365	71.38
469.585	82.38
469.804	92.38
470.023	115.38
470.243	102.38
470.462	110.38
470.681	122.38
470.901	100.38
471.12	94.38
471.339	61.38
471.558	76.38
471.777	98.38
471.997	102.38
472.216	105.38
472.435	164.38
472.654	104.38
472.873	100.38
473.092	89.38
473.311	73.38
473.53	87.38
473.749	91.38
473.968	96.38
474.187	121.38
474.406	123.38
474.625	78.38
474.844	96.38
475.063	85.38
475.282	75.38
475.501	78.38
475.72	84.38
475.939	81.38
476.158	73.38
476.377	98.38
476.596	91.38
476.814	86.38
477.033	85.38
477.252	85.38
477.471	89.38
477.69	97.38
477.908	100.38
478.127	88.38
478.346	93.38
478.564	89.38
478.783	96.38
479.002	93.38
479.22	92.38
479.439	116.38
479.658	125.38
479.876	108.38
480.095	91.38
480.313	91.38
480.532	101.38
480.751	90.38
480.969	126.38
481.188	260.38
481.406	180.38
481.624	106.38
481.843	105.38
482.061	96.38
482.28	88.38
482.498	89.38
482.717	96.38
482.935	78.38
483.153	90.38
483.372	103.38
483.59	88.38
483.808	75.38
484.027	71.38
484.245	88.38
484.463	83.38
484.681	102.38
484.9	81.38
485.118	75.38
485.336	87.38
485.554	93.38
485.772	108.38
485.99	116.38
486.209	114.38
486.427	105.38
486.645	109.38
486.863	108.38
487.081	90.38
487.299	101.38
487.517	86.38
487.735	106.38
487.953	85.38
488.171	89.38
488.389	105.38
488.607	95.38
488.825	88.38
489.043	89.38
489.261	88.38
489.479	95.38
489.696	91.38
489.914	96.38
490.132	87.38
490.35	90.38
490.568	77.38
490.786	86.38
491.003	68.38
491.221	88.38
491.439	90.38
491.657	96.38
491.874	93.38
492.092	89.38
492.31	108.38
492.527	89.38
492.745	81.38
492.963	85.38
493.18	82.38
493.398	86.38
493.615	102.38
493.833	89.38
494.05	85.38
494.268	92.38
494.485	86.38
494.703	94.38
494.92	100.38
495.138	93.38
495.355	82.38
495.573	96.38
495.79	99.38
496.008	86.38
496.225	76.38
496.442	93.38
496.66	82.38
496.877	86.38
497.094	91.38
497.312	90.38
497.529	98.38
497.746	91.38
497.963	88.38
498.181	101.38
498.398	107.38
498.615	116.38
498.832	107.38
499.049	100.38
499.267	91.38
499.484	92.38
499.701	77.38
499.918	97.38
500.135	82.38
500.352	89.38
500.569	78.38
500.786	87.38
501.003	84.38
501.22	83.38
501.437	93.38
501.654	94.38
501.871	122.38
502.088	96.38
502.305	85.38
502.522	96.38
502.739	75.38
502.956	90.38
503.172	82.38
503.389	82.38
503.606	119.38
503.823	101.38
504.04	104.38
504.256	98.38
504.473	95.38
504.69	80.38
504.907	86.38
505.123	81.38
505.34	75.38
505.557	96.38
505.773	92.38
505.99	86.38
506.207	82.38
506.423	89.38
506.64	86.38
506.856	95.38
507.073	83.38
507.289	93.38
507.506	95.38
507.722	125.38
507.939	132.38
508.155	102.38
508.372	82.38
508.588	93.38
508.805	91.38
509.021	107.38
509.238	93.38
509.454	104.38
509.67	104.38
509.887	124.38
510.103	135.38
510.319	233.38
510.536	871.38
510.752	3198.38
510.968	837.38
511.184	180.38
511.401	123.38
511.617	107.38
511.833	87.38
512.049	98.38
512.265	96.38
512.481	91.38
512.698	76.38
512.914	81.38
513.13	96.38
513.346	89.38
513.562	93.38
513.778	117.38
513.994	112.38
514.21	96.38
514.426	146.38
