Data from Circ_1981_H10_HRD10591_00018.txt Node
Date: Wed Jan 03 12:34:24 EST 2024
User: Yrep
Spectrometer: HR+D1059
Trigger mode: 1
Integration Time (sec): 1.000000E-1
Scans to average: 1
Electric dark correction enabled: true
Nonlinearity correction enabled: false
Boxcar width: 0
XAxis mode: Wavelengths
Number of Pixels in Spectrum: 2048
>>>>>Begin Spectral Data<<<<<
223.165	-9.69
223.4	-9.69
223.635	-9.69
223.869	-6.69
224.104	-25.69
224.338	-27.69
224.573	-21.69
224.808	-4.69
225.042	-21.69
225.277	-13.69
225.511	11.31
225.746	3.31
225.98	0.31
226.215	4.31
226.449	15.31
226.683	36.31
226.918	32.31
227.152	28.31
227.387	35.31
227.621	41.31
227.856	42.31
228.09	50.31
228.324	67.31
228.559	53.31
228.793	161.31
229.027	453.31
229.262	532.31
229.496	600.31
229.73	810.31
229.964	838.31
230.199	546.31
230.433	483.31
230.667	489.31
230.901	467.31
231.136	439.31
231.37	474.31
231.604	444.31
231.838	478.31
232.072	480.31
232.306	448.31
232.541	469.31
232.775	483.31
233.009	463.31
233.243	465.31
233.477	487.31
233.711	502.31
233.945	518.31
234.179	511.31
234.413	493.31
234.647	520.31
234.881	511.31
235.115	555.31
235.349	558.31
235.583	563.31
235.817	603.31
236.051	660.31
236.285	628.31
236.519	631.31
236.753	697.31
236.987	894.31
237.221	1314.31
237.455	1483.31
237.689	902.31
237.922	765.31
238.156	758.31
238.39	688.31
238.624	686.31
238.858	652.31
239.091	687.31
239.325	642.31
239.559	696.31
239.793	700.31
240.027	763.31
240.26	938.31
240.494	989.31
240.728	966.31
240.961	927.31
241.195	837.31
241.429	810.31
241.662	789.31
241.896	780.31
242.13	783.31
242.363	780.31
242.597	814.31
242.83	838.31
243.064	824.31
243.298	847.31
243.531	865.31
243.765	852.31
243.998	839.31
244.232	882.31
244.465	930.31
244.699	920.31
244.932	930.31
245.166	922.31
245.399	908.31
245.633	942.31
245.866	927.31
246.099	931.31
246.333	962.31
246.566	986.31
246.8	1007.31
247.033	1015.31
247.266	1058.31
247.5	1140.31
247.733	1164.31
247.966	1165.31
248.2	1151.31
248.433	1203.31
248.666	1242.31
248.899	1381.31
249.133	1472.31
249.366	1496.31
249.599	1379.31
249.832	1232.31
250.066	1284.31
250.299	1379.31
250.532	1481.31
250.765	1636.31
250.998	1799.31
251.231	1710.31
251.465	1529.31
251.698	1450.31
251.931	1465.31
252.164	1445.31
252.397	1462.31
252.63	1504.31
252.863	1577.31
253.096	1709.31
253.329	1792.31
253.562	1717.31
253.795	1574.31
254.028	1566.31
254.261	1644.31
254.494	1858.31
254.727	2213.31
254.96	2295.31
255.193	1988.31
255.426	1773.31
255.659	1712.31
255.892	1786.31
256.124	1814.31
256.357	1794.31
256.59	1677.31
256.823	1594.31
257.056	1534.31
257.289	1568.31
257.521	1576.31
257.754	1615.31
257.987	1553.31
258.22	1568.31
258.452	1562.31
258.685	1608.31
258.918	1613.31
259.151	1645.31
259.383	1699.31
259.616	1730.31
259.849	1817.31
260.081	1970.31
260.314	2165.31
260.547	2070.31
260.779	1909.31
261.012	1808.31
261.244	1776.31
261.477	1706.31
261.71	1694.31
261.942	1768.31
262.175	1847.31
262.407	1750.31
262.64	1670.31
262.872	1686.31
263.105	1666.31
263.337	1695.31
263.57	1700.31
263.802	1694.31
264.035	1669.31
264.267	1714.31
264.499	1677.31
264.732	1704.31
264.964	1717.31
265.197	1706.31
265.429	1730.31
265.661	1698.31
265.894	1751.31
266.126	1760.31
266.358	1788.31
266.591	1779.31
266.823	1864.31
267.055	1884.31
267.287	1898.31
267.52	1821.31
267.752	1872.31
267.984	1935.31
268.216	1910.31
268.448	1923.31
268.681	1970.31
268.913	2151.31
269.145	2378.31
269.377	2381.31
269.609	2274.31
269.841	2294.31
270.073	2431.31
270.306	2642.31
270.538	2846.31
270.77	2656.31
271.002	2519.31
271.234	2464.31
271.466	2656.31
271.698	2791.31
271.93	2788.31
272.162	2746.31
272.394	2670.31
272.626	2516.31
272.858	2418.31
273.09	2282.31
273.322	2271.31
273.553	2268.31
273.785	2270.31
274.017	2294.31
274.249	2267.31
274.481	2267.31
274.713	2311.31
274.945	2335.31
275.176	2355.31
275.408	2277.31
275.64	2301.31
275.872	2269.31
276.104	2277.31
276.335	2318.31
276.567	2445.31
276.799	2606.31
277.031	2839.31
277.262	2964.31
277.494	2780.31
277.726	2642.31
277.957	2500.31
278.189	2438.31
278.421	2426.31
278.652	2402.31
278.884	2412.31
279.115	2396.31
279.347	2432.31
279.579	2351.31
279.81	2398.31
280.042	2380.31
280.273	2419.31
280.505	2449.31
280.736	2402.31
280.968	2445.31
281.199	2452.31
281.431	2466.31
281.662	2473.31
281.894	2534.31
282.125	2519.31
282.356	2707.31
282.588	2823.31
282.819	2727.31
283.051	2571.31
283.282	2546.31
283.513	2558.31
283.745	2658.31
283.976	2686.31
284.207	2631.31
284.439	2627.31
284.67	2637.31
284.901	2665.31
285.132	2632.31
285.364	2665.31
285.595	2642.31
285.826	2618.31
286.057	2655.31
286.288	2692.31
286.52	2707.31
286.751	2702.31
286.982	2698.31
287.213	2756.31
287.444	2754.31
287.675	2864.31
287.906	2882.31
288.138	2995.31
288.369	2962.31
288.6	2941.31
288.831	2872.31
289.062	2791.31
289.293	2816.31
289.524	2807.31
289.755	2840.31
289.986	2791.31
290.217	2791.31
290.448	2814.31
290.679	2836.31
290.91	2812.31
291.141	2804.31
291.371	2782.31
291.602	2814.31
291.833	2804.31
292.064	2815.31
292.295	2836.31
292.526	2896.31
292.757	2829.31
292.987	2784.31
293.218	2810.31
293.449	2850.31
293.68	2870.31
293.91	2812.31
294.141	2845.31
294.372	2804.31
294.603	2860.31
294.833	2846.31
295.064	2846.31
295.295	2902.31
295.525	2893.31
295.756	2960.31
295.987	2979.31
296.217	3240.31
296.448	3159.31
296.679	2955.31
296.909	2952.31
297.14	2984.31
297.37	3023.31
297.601	3050.31
297.831	3023.31
298.062	3054.31
298.292	3083.31
298.523	3151.31
298.753	3123.31
298.984	3061.31
299.214	3116.31
299.445	3099.31
299.675	3075.31
299.905	3195.31
300.136	3134.31
300.366	3142.31
300.597	3186.31
300.827	3272.31
301.057	3369.31
301.288	3327.31
301.518	3337.31
301.748	3359.31
301.979	3378.31
302.209	3391.31
302.439	3388.31
302.669	3314.31
302.9	3354.31
303.13	3325.31
303.36	3289.31
303.59	3341.31
303.82	3362.31
304.051	3336.31
304.281	3336.31
304.511	3252.31
304.741	3274.31
304.971	3272.31
305.201	3332.31
305.431	3268.31
305.661	3266.31
305.891	3226.31
306.121	3307.31
306.352	3268.31
306.582	3299.31
306.812	3167.31
307.042	3269.31
307.272	3302.31
307.502	3222.31
307.731	3275.31
307.961	3274.31
308.191	3231.31
308.421	3246.31
308.651	3264.31
308.881	3284.31
309.111	3323.31
309.341	3386.31
309.571	3476.31
309.8	3454.31
310.03	3541.31
310.26	3580.31
310.49	3576.31
310.72	3690.31
310.949	3750.31
311.179	3734.31
311.409	3638.31
311.639	3625.31
311.868	3610.31
312.098	3662.31
312.328	3731.31
312.557	3922.31
312.787	4008.31
313.017	3821.31
313.246	3754.31
313.476	3661.31
313.706	3738.31
313.935	3854.31
314.165	3897.31
314.394	3956.31
314.624	3906.31
314.853	3770.31
315.083	3780.31
315.312	3766.31
315.542	3735.31
315.771	3688.31
316.001	3601.31
316.23	3674.31
316.46	3628.31
316.689	3685.31
316.919	3714.31
317.148	3837.31
317.377	3722.31
317.607	3677.31
317.836	3692.31
318.065	3667.31
318.295	3609.31
318.524	3627.31
318.753	3574.31
318.983	3652.31
319.212	3692.31
319.441	3681.31
319.67	3707.31
319.9	3631.31
320.129	3659.31
320.358	3699.31
320.587	3696.31
320.816	3780.31
321.046	3812.31
321.275	3794.31
321.504	3784.31
321.733	3798.31
321.962	3863.31
322.191	3934.31
322.42	4119.31
322.649	4150.31
322.878	4158.31
323.108	4262.31
323.337	4505.31
323.566	4607.31
323.795	4852.31
324.024	5382.31
324.253	6883.31
324.482	10246.31
324.71	14818.31
324.939	15632.31
325.168	12488.31
325.397	6212.31
325.626	5001.31
325.855	4679.31
326.084	4535.31
326.313	4642.31
326.542	4791.31
326.77	5353.31
326.999	6644.31
327.228	9570.31
327.457	13990.31
327.686	13402.31
327.914	7138.31
328.143	5774.31
328.372	5549.31
328.6	5258.31
328.829	5122.31
329.058	5416.31
329.287	5386.31
329.515	4997.31
329.744	4804.31
329.972	4841.31
330.201	5091.31
330.43	5393.31
330.658	5602.31
330.887	5974.31
331.115	5481.31
331.344	4990.31
331.572	4849.31
331.801	4991.31
332.03	5011.31
332.258	4906.31
332.486	4932.31
332.715	4995.31
332.943	5131.31
333.172	5287.31
333.4	5418.31
333.629	5569.31
333.857	5648.31
334.085	5732.31
334.314	5746.31
334.542	6028.31
334.771	5890.31
334.999	5435.31
335.227	5310.31
335.455	5113.31
335.684	5069.31
335.912	5014.31
336.14	4855.31
336.369	4900.31
336.597	5002.31
336.825	4888.31
337.053	4871.31
337.281	4683.31
337.51	4704.31
337.738	4642.31
337.966	4643.31
338.194	4694.31
338.422	4591.31
338.65	4592.31
338.878	4503.31
339.106	4487.31
339.334	4529.31
339.562	4441.31
339.79	4351.31
340.018	4373.31
340.246	4388.31
340.474	4399.31
340.702	4410.31
340.93	4355.31
341.158	4342.31
341.386	4430.31
341.614	4387.31
341.842	4318.31
342.07	4250.31
342.298	4236.31
342.526	4244.31
342.754	4271.31
342.981	4233.31
343.209	4342.31
343.437	4634.31
343.665	4797.31
343.893	5081.31
344.12	5082.31
344.348	4854.31
344.576	4734.31
344.804	4690.31
345.031	4631.31
345.259	4637.31
345.487	4430.31
345.714	4353.31
345.942	4214.31
346.17	4160.31
346.397	4178.31
346.625	4236.31
346.853	4164.31
347.08	4174.31
347.308	4194.31
347.535	4266.31
347.763	4374.31
347.99	4229.31
348.218	4306.31
348.445	4314.31
348.673	4213.31
348.9	4124.31
349.128	4115.31
349.355	4006.31
349.583	4037.31
349.81	4086.31
350.037	4010.31
350.265	3999.31
350.492	3997.31
350.72	4024.31
350.947	4071.31
351.174	4141.31
351.402	4211.31
351.629	4108.31
351.856	4163.31
352.083	4232.31
352.311	4236.31
352.538	4199.31
352.765	4185.31
352.992	4175.31
353.22	4090.31
353.447	4030.31
353.674	4054.31
353.901	3940.31
354.128	3902.31
354.355	3948.31
354.583	3967.31
354.81	3934.31
355.037	3928.31
355.264	3919.31
355.491	3911.31
355.718	3878.31
355.945	3967.31
356.172	3947.31
356.399	3944.31
356.626	3935.31
356.853	3993.31
357.08	3881.31
357.307	3874.31
357.534	3942.31
357.761	3914.31
357.988	3920.31
358.215	3888.31
358.441	3973.31
358.668	3992.31
358.895	4033.31
359.122	4029.31
359.349	4130.31
359.576	4187.31
359.802	4514.31
360.029	4644.31
360.256	4664.31
360.483	4358.31
360.709	4206.31
360.936	4115.31
361.163	4214.31
361.39	4176.31
361.616	4179.31
361.843	4139.31
362.07	4173.31
362.296	4208.31
362.523	4124.31
362.749	4161.31
362.976	4103.31
363.203	4034.31
363.429	3998.31
363.656	4122.31
363.882	3976.31
364.109	4010.31
364.335	3986.31
364.562	4001.31
364.788	4034.31
365.015	4053.31
365.241	4076.31
365.468	4034.31
365.694	4047.31
365.92	4109.31
366.147	4000.31
366.373	3976.31
366.599	3990.31
366.826	4009.31
367.052	4040.31
367.278	3995.31
367.505	4012.31
367.731	4066.31
367.957	3990.31
368.184	4060.31
368.41	4148.31
368.636	4207.31
368.862	4252.31
369.089	4095.31
369.315	4098.31
369.541	4058.31
369.767	4151.31
369.993	4197.31
370.219	4154.31
370.445	4122.31
370.672	4150.31
370.898	4118.31
371.124	4234.31
371.35	4321.31
371.576	4303.31
371.802	4248.31
372.028	4248.31
372.254	4296.31
372.48	4295.31
372.706	4400.31
372.932	4438.31
373.158	4376.31
373.384	4345.31
373.61	4266.31
373.835	4306.31
374.061	4300.31
374.287	4441.31
374.513	4485.31
374.739	4586.31
374.965	4650.31
375.191	4739.31
375.416	4611.31
375.642	4472.31
375.868	4417.31
376.094	4347.31
376.319	4336.31
376.545	4295.31
376.771	4336.31
376.997	4309.31
377.222	4298.31
377.448	4285.31
377.674	4352.31
377.899	4245.31
378.125	4173.31
378.35	4229.31
378.576	4258.31
378.802	4292.31
379.027	4246.31
379.253	4259.31
379.478	4265.31
379.704	4278.31
379.929	4272.31
380.155	4330.31
380.38	4275.31
380.606	4315.31
380.831	4268.31
381.057	4270.31
381.282	4289.31
381.507	4335.31
381.733	4324.31
381.958	4406.31
382.184	4405.31
382.409	4486.31
382.634	4481.31
382.86	4568.31
383.085	4532.31
383.31	4642.31
383.535	4751.31
383.761	4751.31
383.986	4831.31
384.211	4931.31
384.436	4999.31
384.662	5004.31
384.887	5144.31
385.112	5094.31
385.337	5208.31
385.562	5194.31
385.787	5208.31
386.013	5253.31
386.238	5292.31
386.463	5330.31
386.688	5211.31
386.913	5146.31
387.138	5095.31
387.363	5126.31
387.588	5061.31
387.813	5076.31
388.038	4982.31
388.263	5155.31
388.488	5206.31
388.713	5089.31
388.938	5130.31
389.163	5072.31
389.387	5083.31
389.612	4955.31
389.837	5038.31
390.062	4983.31
390.287	5067.31
390.512	5042.31
390.736	5123.31
390.961	5184.31
391.186	5199.31
391.411	5374.31
391.636	5499.31
391.86	5769.31
392.085	5707.31
392.31	5631.31
392.534	5480.31
392.759	5376.31
392.984	5378.31
393.208	5305.31
393.433	5286.31
393.658	5335.31
393.882	5276.31
394.107	5265.31
394.331	5389.31
394.556	5375.31
394.78	5373.31
395.005	5440.31
395.229	5474.31
395.454	5622.31
395.678	5736.31
395.903	5666.31
396.127	5855.31
396.352	5592.31
396.576	5429.31
396.801	5392.31
397.025	5515.31
397.249	5641.31
397.474	5683.31
397.698	5727.31
397.922	5891.31
398.147	5942.31
398.371	6071.31
398.595	6130.31
398.82	6400.31
399.044	6999.31
399.268	7711.31
399.492	8839.31
399.717	9327.31
399.941	9156.31
400.165	8562.31
400.389	7811.31
400.613	7068.31
400.837	6748.31
401.062	6514.31
401.286	6406.31
401.51	6390.31
401.734	6322.31
401.958	6516.31
402.182	6620.31
402.406	6782.31
402.63	6851.31
402.854	6907.31
403.078	6982.31
403.302	7154.31
403.526	7269.31
403.75	7260.31
403.974	7355.31
404.198	7229.31
404.422	7393.31
404.645	7378.31
404.869	7250.31
405.093	7500.31
405.317	7726.31
405.541	7726.31
405.765	7321.31
405.988	7104.31
406.212	7385.31
406.436	7495.31
406.66	7700.31
406.883	7593.31
407.107	8278.31
407.331	8598.31
407.555	9182.31
407.778	8877.31
408.002	8174.31
408.226	7787.31
408.449	7634.31
408.673	7539.31
408.896	7640.31
409.12	7830.31
409.344	7343.31
409.567	7037.31
409.791	7058.31
410.014	6909.31
410.238	6771.31
410.461	6889.31
410.685	6941.31
410.908	6956.31
411.132	7236.31
411.355	7201.31
411.578	6927.31
411.802	6684.31
412.025	6647.31
412.249	6812.31
412.472	7030.31
412.695	7138.31
412.919	6664.31
413.142	6522.31
413.365	6388.31
413.589	6495.31
413.812	6336.31
414.035	6226.31
414.258	6304.31
414.482	6371.31
414.705	6396.31
414.928	6311.31
415.151	6330.31
415.374	6350.31
415.597	6292.31
415.821	6106.31
416.044	6192.31
416.267	6135.31
416.49	6141.31
416.713	6110.31
416.936	6182.31
417.159	6164.31
417.382	6286.31
417.605	6263.31
417.828	6418.31
418.051	6662.31
418.274	6406.31
418.497	6291.31
418.72	6506.31
418.943	6386.31
419.166	6766.31
419.389	7155.31
419.611	7041.31
419.834	6861.31
420.057	6729.31
420.28	6605.31
420.503	6350.31
420.726	6394.31
420.948	6591.31
421.171	6868.31
421.394	6871.31
421.617	6399.31
421.839	6365.31
422.062	6464.31
422.285	6667.31
422.507	7252.31
422.73	7794.31
422.953	7184.31
423.175	6849.31
423.398	6838.31
423.621	6858.31
423.843	7122.31
424.066	7063.31
424.288	7017.31
424.511	7156.31
424.733	7534.31
424.956	8063.31
425.178	7539.31
425.401	7784.31
425.623	7505.31
425.846	6661.31
426.068	6490.31
426.291	6420.31
426.513	6467.31
426.735	6526.31
426.958	6887.31
427.18	7669.31
427.402	8644.31
427.625	8918.31
427.847	7665.31
428.069	6918.31
428.292	6349.31
428.514	6025.31
428.736	5900.31
428.958	5869.31
429.181	5726.31
429.403	5715.31
429.625	5920.31
429.847	6257.31
430.069	6710.31
430.292	6251.31
430.514	5737.31
430.736	5792.31
430.958	5605.31
431.18	5599.31
431.402	5598.31
431.624	5540.31
431.846	5634.31
432.068	5648.31
432.29	5789.31
432.512	5709.31
432.734	5794.31
432.956	5720.31
433.178	5799.31
433.4	5734.31
433.622	5690.31
433.844	5771.31
434.066	5677.31
434.287	5900.31
434.509	5970.31
434.731	6222.31
434.953	6292.31
435.175	6527.31
435.397	6599.31
435.618	6523.31
435.84	6918.31
436.062	7610.31
436.284	7524.31
436.505	6422.31
436.727	6172.31
436.949	5959.31
437.17	5813.31
437.392	5690.31
437.614	5829.31
437.835	6246.31
438.057	7155.31
438.278	7756.31
438.5	7618.31
438.721	8420.31
438.943	7354.31
439.165	6411.31
439.386	6211.31
439.608	6216.31
439.829	6350.31
440.05	6632.31
440.272	7002.31
440.493	6366.31
440.715	6064.31
440.936	5978.31
441.158	6027.31
441.379	6144.31
441.6	6438.31
441.822	6677.31
442.043	7177.31
442.264	7830.31
442.486	7615.31
442.707	6677.31
442.928	6682.31
443.149	6925.31
443.371	7036.31
443.592	7613.31
443.813	8429.31
444.034	8345.31
444.255	7408.31
444.476	7178.31
444.698	7373.31
444.919	7451.31
445.14	7258.31
445.361	7188.31
445.582	7349.31
445.803	7962.31
446.024	8515.31
446.245	8048.31
446.466	7252.31
446.687	6314.31
446.908	6142.31
447.129	5778.31
447.35	5619.31
447.571	5530.31
447.792	5501.31
448.013	5658.31
448.234	5772.31
448.455	6368.31
448.675	7489.31
448.896	7914.31
449.117	6549.31
449.338	6692.31
449.559	8046.31
449.779	8185.31
450	6268.31
450.221	5714.31
450.442	5430.31
450.662	5410.31
450.883	5500.31
451.104	5662.31
451.324	5444.31
451.545	5258.31
451.766	5175.31
451.986	5035.31
452.207	5005.31
452.428	5026.31
452.648	5099.31
452.869	5120.31
453.089	5142.31
453.31	5225.31
453.53	5060.31
453.751	4984.31
453.971	5011.31
454.192	5171.31
454.412	4877.31
454.633	4854.31
454.853	4876.31
455.073	4894.31
455.294	5286.31
455.514	5868.31
455.734	5302.31
455.955	4704.31
456.175	4660.31
456.395	4610.31
456.616	4623.31
456.836	4608.31
457.056	4597.31
457.276	4547.31
457.497	4678.31
457.717	4655.31
457.937	4778.31
458.157	4907.31
458.377	4962.31
458.598	5271.31
458.818	6022.31
459.038	6674.31
459.258	6691.31
459.478	5878.31
459.698	5757.31
459.918	5822.31
460.138	5970.31
460.358	6193.31
460.578	6251.31
460.798	6290.31
461.018	6217.31
461.238	6193.31
461.458	6083.31
461.678	6116.31
461.898	6218.31
462.118	6276.31
462.338	6640.31
462.558	6746.31
462.777	7009.31
462.997	7579.31
463.217	8035.31
463.437	7730.31
463.657	7177.31
463.876	7005.31
464.096	7053.31
464.316	7032.31
464.536	7093.31
464.755	6865.31
464.975	6770.31
465.195	6998.31
465.414	7204.31
465.634	6196.31
465.854	5778.31
466.073	5548.31
466.293	5412.31
466.512	5268.31
466.732	5145.31
466.951	5130.31
467.171	5225.31
467.391	5267.31
467.61	5275.31
467.829	5259.31
468.049	5182.31
468.268	5129.31
468.488	4908.31
468.707	4920.31
468.927	4904.31
469.146	4972.31
469.365	4913.31
469.585	4958.31
469.804	5209.31
470.023	5408.31
470.243	5386.31
470.462	5432.31
470.681	5620.31
470.901	5435.31
471.12	5304.31
471.339	5239.31
471.558	5186.31
471.777	5174.31
471.997	5084.31
472.216	5055.31
472.435	5269.31
472.654	5128.31
472.873	4974.31
473.092	4946.31
473.311	4928.31
473.53	4997.31
473.749	5090.31
473.968	5600.31
474.187	6669.31
474.406	6122.31
474.625	5153.31
474.844	5015.31
475.063	4929.31
475.282	5010.31
475.501	5002.31
475.72	5143.31
475.939	5138.31
476.158	5129.31
476.377	5232.31
476.596	5140.31
476.814	5293.31
477.033	5370.31
477.252	5464.31
477.471	5482.31
477.69	5635.31
477.908	5780.31
478.127	5852.31
478.346	5826.31
478.564	6081.31
478.783	6130.31
479.002	6276.31
479.22	6327.31
479.439	6299.31
479.658	6491.31
479.876	6640.31
480.095	6706.31
480.313	7210.31
480.532	6914.31
480.751	6921.31
480.969	6844.31
481.188	7245.31
481.406	7062.31
481.624	6493.31
481.843	6197.31
482.061	6070.31
482.28	5947.31
482.498	5914.31
482.717	5862.31
482.935	5868.31
483.153	5829.31
483.372	5875.31
483.59	5897.31
483.808	5876.31
484.027	5836.31
484.245	5937.31
484.463	5912.31
484.681	6053.31
484.9	6125.31
485.118	6091.31
485.336	6192.31
485.554	6157.31
485.772	6265.31
485.99	6283.31
486.209	6364.31
486.427	6347.31
486.645	6406.31
486.863	6477.31
487.081	6402.31
487.299	6398.31
487.517	6261.31
487.735	6307.31
487.953	6337.31
