Data from Circ_1981_H10_HRD10591_00046.txt Node
Date: Wed Jan 03 12:34:30 EST 2024
User: Yrep
Spectrometer: HR+D1059
Trigger mode: 1
Integration Time (sec): 1.000000E-1
Scans to average: 1
Electric dark correction enabled: true
Nonlinearity correction enabled: false
Boxcar width: 0
XAxis mode: Wavelengths
Number of Pixels in Spectrum: 2048
>>>>>Begin Spectral Data<<<<<
223.165	-18
223.4	-18
223.635	-18
223.869	-21
224.104	-26
224.338	-11
224.573	-27
224.808	-3
225.042	-9
225.277	-9
225.511	-14
225.746	6
225.98	14
226.215	22
226.449	22
226.683	15
226.918	26
227.152	33
227.387	32
227.621	24
227.856	53
228.09	50
228.324	50
228.559	63
228.793	50
229.027	56
229.262	68
229.496	91
229.73	89
229.964	88
230.199	65
230.433	67
230.667	90
230.901	67
231.136	77
231.37	86
231.604	88
231.838	90
232.072	80
232.306	78
232.541	84
232.775	82
233.009	86
233.243	89
233.477	81
233.711	78
233.945	60
234.179	89
234.413	88
234.647	75
234.881	86
235.115	76
235.349	99
235.583	66
235.817	73
236.051	84
236.285	80
236.519	81
236.753	75
236.987	89
237.221	95
237.455	96
237.689	70
237.922	66
238.156	78
238.39	72
238.624	75
238.858	64
239.091	77
239.325	83
239.559	96
239.793	75
240.027	63
240.26	77
240.494	88
240.728	82
240.961	66
241.195	75
241.429	73
241.662	84
241.896	91
242.13	82
242.363	73
242.597	79
242.83	74
243.064	82
243.298	85
243.531	76
243.765	88
243.998	72
244.232	92
244.465	85
244.699	78
244.932	82
245.166	80
245.399	77
245.633	87
245.866	73
246.099	76
246.333	90
246.566	86
246.8	92
247.033	85
247.266	75
247.5	67
247.733	75
247.966	75
248.2	84
248.433	78
248.666	96
248.899	83
249.133	92
249.366	102
249.599	103
249.832	86
250.066	74
250.299	74
250.532	88
250.765	74
250.998	75
251.231	72
251.465	86
251.698	82
251.931	76
252.164	66
252.397	83
252.63	77
252.863	72
253.096	88
253.329	94
253.562	80
253.795	88
254.028	84
254.261	90
254.494	81
254.727	86
254.96	76
255.193	75
255.426	92
255.659	89
255.892	78
256.124	88
256.357	80
256.59	82
256.823	90
257.056	72
257.289	78
257.521	78
257.754	78
257.987	75
258.22	80
258.452	80
258.685	88
258.918	98
259.151	83
259.383	87
259.616	89
259.849	97
260.081	72
260.314	74
260.547	92
260.779	78
261.012	81
261.244	89
261.477	86
261.71	99
261.942	118
262.175	128
262.407	95
262.64	81
262.872	87
263.105	97
263.337	89
263.57	73
263.802	89
264.035	77
264.267	85
264.499	89
264.732	87
264.964	89
265.197	75
265.429	77
265.661	76
265.894	99
266.126	82
266.358	94
266.591	97
266.823	85
267.055	91
267.287	79
267.52	84
267.752	84
267.984	85
268.216	72
268.448	66
268.681	91
268.913	94
269.145	75
269.377	92
269.609	72
269.841	88
270.073	77
270.306	84
270.538	104
270.77	89
271.002	87
271.234	96
271.466	84
271.698	93
271.93	73
272.162	93
272.394	83
272.626	90
272.858	90
273.09	94
273.322	76
273.553	95
273.785	94
274.017	80
274.249	92
274.481	89
274.713	76
274.945	84
275.176	80
275.408	105
275.64	92
275.872	108
276.104	81
276.335	100
276.567	120
276.799	116
277.031	105
277.262	92
277.494	91
277.726	80
277.957	82
278.189	83
278.421	91
278.652	85
278.884	75
279.115	82
279.347	84
279.579	85
279.81	80
280.042	87
280.273	90
280.505	92
280.736	92
280.968	89
281.199	93
281.431	88
281.662	97
281.894	85
282.125	102
282.356	124
282.588	164
282.819	117
283.051	76
283.282	93
283.513	106
283.745	99
283.976	93
284.207	94
284.439	90
284.67	81
284.901	90
285.132	89
285.364	81
285.595	82
285.826	78
286.057	97
286.288	88
286.52	89
286.751	70
286.982	92
287.213	89
287.444	90
287.675	80
287.906	82
288.138	85
288.369	107
288.6	99
288.831	76
289.062	92
289.293	86
289.524	90
289.755	78
289.986	70
290.217	97
290.448	87
290.679	103
290.91	90
291.141	99
291.371	100
291.602	110
291.833	91
292.064	85
292.295	96
292.526	98
292.757	91
292.987	82
293.218	80
293.449	85
293.68	90
293.91	76
294.141	71
294.372	91
294.603	96
294.833	85
295.064	82
295.295	94
295.525	93
295.756	93
295.987	124
296.217	153
296.448	146
296.679	106
296.909	94
297.14	100
297.37	97
297.601	88
297.831	70
298.062	91
298.292	98
298.523	85
298.753	83
298.984	85
299.214	96
299.445	105
299.675	98
299.905	95
300.136	97
300.366	90
300.597	84
300.827	99
301.057	98
301.288	88
301.518	82
301.748	86
301.979	109
302.209	100
302.439	90
302.669	98
302.9	87
303.13	97
303.36	100
303.59	101
303.82	114
304.051	108
304.281	90
304.511	76
304.741	88
304.971	105
305.201	90
305.431	81
305.661	99
305.891	90
306.121	93
306.352	108
306.582	103
306.812	80
307.042	87
307.272	102
307.502	101
307.731	96
307.961	90
308.191	86
308.421	91
308.651	92
308.881	86
309.111	98
309.341	99
309.571	108
309.8	85
310.03	116
310.26	97
310.49	94
310.72	111
310.949	104
311.179	102
311.409	87
311.639	98
311.868	113
312.098	94
312.328	82
312.557	95
312.787	131
313.017	110
313.246	101
313.476	86
313.706	91
313.935	104
314.165	108
314.394	94
314.624	112
314.853	107
315.083	107
315.312	84
315.542	96
315.771	96
316.001	89
316.23	70
316.46	96
316.689	92
316.919	94
317.148	107
317.377	98
317.607	100
317.836	105
318.065	91
318.295	97
318.524	92
318.753	98
318.983	94
319.212	119
319.441	110
319.67	120
319.9	101
320.129	101
320.358	99
320.587	98
320.816	102
321.046	112
321.275	103
321.504	94
321.733	94
321.962	100
322.191	105
322.42	119
322.649	116
322.878	125
323.108	118
323.337	132
323.566	129
323.795	188
324.024	245
324.253	495
324.482	989
324.71	2180
324.939	2987
325.168	1066
325.397	305
325.626	155
325.855	158
326.084	130
326.313	155
326.542	158
326.77	267
326.999	529
327.228	1130
327.457	2216
327.686	1778
327.914	446
328.143	227
328.372	180
328.6	148
328.829	152
329.058	181
329.287	180
329.515	117
329.744	100
329.972	123
330.201	137
330.43	155
330.658	157
330.887	198
331.115	165
331.344	120
331.572	120
331.801	110
332.03	115
332.258	103
332.486	95
332.715	109
332.943	104
333.172	98
333.4	92
333.629	106
333.857	117
334.085	108
334.314	125
334.542	156
334.771	144
334.999	116
335.227	96
335.455	101
335.684	97
335.912	104
336.14	99
336.369	104
336.597	97
336.825	108
337.053	104
337.281	93
337.51	93
337.738	98
337.966	90
338.194	99
338.422	106
338.65	95
338.878	94
339.106	75
339.334	90
339.562	89
339.79	97
340.018	98
340.246	97
340.474	109
340.702	113
340.93	83
341.158	97
341.386	96
341.614	93
341.842	92
342.07	102
342.298	101
342.526	109
342.754	92
342.981	95
343.209	109
343.437	109
343.665	80
343.893	84
344.12	84
344.348	91
344.576	100
344.804	95
345.031	101
345.259	110
345.487	109
345.714	103
345.942	90
346.17	85
346.397	92
346.625	97
346.853	102
347.08	101
347.308	89
347.535	102
347.763	115
347.99	107
348.218	100
348.445	109
348.673	97
348.9	95
349.128	100
349.355	91
349.583	81
349.81	99
350.037	103
350.265	93
350.492	101
350.72	90
350.947	118
351.174	107
351.402	134
351.629	121
351.856	110
352.083	114
352.311	108
352.538	114
352.765	114
352.992	128
353.22	110
353.447	130
353.674	103
353.901	96
354.128	105
354.355	110
354.583	94
354.81	96
355.037	75
355.264	103
355.491	93
355.718	89
355.945	105
356.172	83
356.399	99
356.626	96
356.853	101
357.08	96
357.307	96
357.534	83
357.761	90
357.988	83
358.215	104
358.441	93
358.668	82
358.895	102
359.122	91
359.349	89
359.576	91
359.802	105
360.029	120
360.256	129
360.483	107
360.709	88
360.936	101
361.163	105
361.39	105
361.616	91
361.843	90
362.07	95
362.296	109
362.523	99
362.749	88
362.976	109
363.203	100
363.429	91
363.656	94
363.882	87
364.109	96
364.335	74
364.562	107
364.788	101
365.015	94
365.241	115
365.468	96
365.694	118
365.92	114
366.147	95
366.373	84
366.599	88
366.826	93
367.052	96
367.278	101
367.505	91
367.731	85
367.957	85
368.184	80
368.41	102
368.636	128
368.862	122
369.089	114
369.315	105
369.541	98
369.767	89
369.993	82
370.219	104
370.445	78
370.672	94
370.898	84
371.124	83
371.35	82
371.576	88
371.802	76
372.028	92
372.254	93
372.48	93
372.706	90
372.932	98
373.158	92
373.384	102
373.61	111
373.835	84
374.061	98
374.287	96
374.513	88
374.739	85
374.965	78
375.191	89
375.416	72
375.642	85
375.868	94
376.094	97
376.319	103
376.545	99
376.771	89
376.997	103
377.222	85
377.448	92
377.674	83
377.899	98
378.125	72
378.35	100
378.576	92
378.802	78
379.027	86
379.253	84
379.478	87
379.704	102
379.929	94
380.155	92
380.38	101
380.606	106
380.831	95
381.057	109
381.282	94
381.507	91
381.733	102
381.958	105
382.184	108
382.409	101
382.634	117
382.86	100
383.085	96
383.31	95
383.535	85
383.761	100
383.986	91
384.211	96
384.436	98
384.662	109
384.887	108
385.112	102
385.337	110
385.562	99
385.787	105
386.013	107
386.238	121
386.463	113
386.688	97
386.913	95
387.138	97
387.363	89
387.588	108
387.813	116
388.038	87
388.263	101
388.488	102
388.713	85
388.938	102
389.163	104
389.387	93
389.612	94
389.837	101
390.062	75
390.287	85
390.512	98
390.736	100
390.961	100
391.186	88
391.411	85
391.636	90
391.86	80
392.085	75
392.31	71
392.534	90
392.759	78
392.984	99
393.208	85
393.433	90
393.658	101
393.882	97
394.107	83
394.331	83
394.556	76
394.78	90
395.005	90
395.229	92
395.454	78
395.678	80
395.903	88
396.127	80
396.352	91
396.576	78
396.801	103
397.025	90
397.249	95
397.474	105
397.698	89
397.922	76
398.147	77
398.371	91
398.595	85
398.82	93
399.044	80
399.268	77
399.492	84
399.717	80
399.941	102
400.165	101
400.389	105
400.613	82
400.837	105
401.062	88
401.286	94
401.51	89
401.734	93
401.958	100
402.182	123
402.406	170
402.63	128
402.854	96
403.078	91
403.302	88
403.526	91
403.75	81
403.974	100
404.198	87
404.422	89
404.645	86
404.869	99
405.093	107
405.317	96
405.541	108
405.765	102
405.988	117
406.212	183
406.436	262
406.66	176
406.883	115
407.107	95
407.331	118
407.555	113
407.778	99
408.002	85
408.226	96
408.449	91
408.673	84
408.896	93
409.12	110
409.344	90
409.567	105
409.791	99
410.014	96
410.238	93
410.461	103
410.685	91
410.908	95
411.132	108
411.355	94
411.578	91
411.802	88
412.025	104
412.249	101
412.472	101
412.695	88
412.919	92
413.142	75
413.365	111
413.589	90
413.812	97
414.035	82
414.258	94
414.482	84
414.705	108
414.928	75
415.151	90
415.374	92
415.597	89
415.821	78
416.044	87
416.267	88
416.49	82
416.713	83
416.936	81
417.159	94
417.382	90
417.605	87
417.828	104
418.051	80
418.274	110
418.497	74
418.72	99
418.943	89
419.166	86
419.389	87
419.611	68
419.834	86
420.057	93
420.28	88
420.503	86
420.726	98
420.948	84
421.171	92
421.394	101
421.617	86
421.839	74
422.062	82
422.285	90
422.507	104
422.73	112
422.953	92
423.175	95
423.398	86
423.621	81
423.843	75
424.066	104
424.288	106
424.511	96
424.733	103
424.956	121
425.178	106
425.401	120
425.623	118
425.846	98
426.068	100
426.291	81
426.513	88
426.735	96
426.958	96
427.18	129
427.402	170
427.625	228
427.847	152
428.069	116
428.292	87
428.514	103
428.736	81
428.958	83
429.181	89
429.403	84
429.625	102
429.847	88
430.069	116
430.292	98
430.514	96
430.736	95
430.958	82
431.18	80
431.402	88
431.624	83
431.846	89
432.068	88
432.29	83
432.512	84
432.734	85
432.956	81
433.178	109
433.4	104
433.622	96
433.844	95
434.066	91
434.287	94
434.509	79
434.731	87
434.953	84
435.175	102
435.397	96
435.618	94
435.84	106
436.062	148
436.284	129
436.505	105
436.727	94
436.949	80
437.17	100
437.392	93
437.614	108
437.835	119
438.057	129
438.278	130
438.5	126
438.721	169
438.943	125
439.165	107
439.386	95
439.608	87
439.829	116
440.05	146
440.272	202
440.493	128
440.715	92
440.936	88
441.158	73
441.379	85
441.6	93
441.822	101
442.043	115
442.264	114
442.486	114
442.707	106
442.928	120
443.149	151
443.371	162
443.592	129
443.813	131
444.034	124
444.255	85
444.476	75
444.698	83
444.919	109
445.14	125
445.361	121
445.582	140
445.803	186
446.024	184
446.245	183
446.466	121
446.687	100
446.908	86
447.129	87
447.35	106
447.571	88
447.792	95
448.013	101
448.234	121
448.455	116
448.675	137
448.896	149
449.117	124
449.338	109
449.559	151
449.779	152
450	93
450.221	100
450.442	84
450.662	91
450.883	118
451.104	121
451.324	100
451.545	82
451.766	86
451.986	100
452.207	96
452.428	96
452.648	115
452.869	109
453.089	123
453.31	122
453.53	105
453.751	85
453.971	114
454.192	131
454.412	88
454.633	92
454.853	97
455.073	89
455.294	108
455.514	108
455.734	94
455.955	90
456.175	86
456.395	97
456.616	84
456.836	78
457.056	88
457.276	68
457.497	84
457.717	91
457.937	87
458.157	85
458.377	82
458.598	118
458.818	197
459.038	229
459.258	138
459.478	107
459.698	84
459.918	82
460.138	92
460.358	89
460.578	71
460.798	88
461.018	84
461.238	90
461.458	90
461.678	75
461.898	90
462.118	97
462.338	89
462.558	92
462.777	88
462.997	88
463.217	91
463.437	87
463.657	91
463.876	93
464.096	89
464.316	97
464.536	102
464.755	101
464.975	117
465.195	219
465.414	218
465.634	103
465.854	98
466.073	91
466.293	89
466.512	82
466.732	83
466.951	84
467.171	89
467.391	109
467.61	117
467.829	99
468.049	102
468.268	110
468.488	86
468.707	97
468.927	88
469.146	74
469.365	91
469.585	111
469.804	97
470.023	99
470.243	99
470.462	109
470.681	121
470.901	102
471.12	85
471.339	84
471.558	96
471.777	81
471.997	92
472.216	121
472.435	166
472.654	103
472.873	81
473.092	81
473.311	85
473.53	85
473.749	84
473.968	92
474.187	119
474.406	112
474.625	99
474.844	91
475.063	79
475.282	99
475.501	91
475.72	84
475.939	70
476.158	80
476.377	77
476.596	100
476.814	104
477.033	104
477.252	83
477.471	96
477.69	94
477.908	79
478.127	86
478.346	80
478.564	93
478.783	103
479.002	100
479.22	90
479.439	96
479.658	99
479.876	97
480.095	96
480.313	101
480.532	90
480.751	107
480.969	121
481.188	243
481.406	165
481.624	102
481.843	81
482.061	86
482.28	88
482.498	98
482.717	84
482.935	83
483.153	80
483.372	104
483.59	78
483.808	70
484.027	71
484.245	94
484.463	76
484.681	90
484.9	90
485.118	101
485.336	110
485.554	98
485.772	84
485.99	96
486.209	104
486.427	103
486.645	127
486.863	133
487.081	97
487.299	90
487.517	92
487.735	88
487.953	82
488.171	97
488.389	97
488.607	98
488.825	97
489.043	93
489.261	86
489.479	83
489.696	90
489.914	97
490.132	86
490.35	89
490.568	82
490.786	63
491.003	86
491.221	78
491.439	76
491.657	88
491.874	78
492.092	84
492.31	86
492.527	103
492.745	77
492.963	96
493.18	84
493.398	86
493.615	104
493.833	98
494.05	88
494.268	97
494.485	98
494.703	84
494.92	75
495.138	82
495.355	99
495.573	90
495.79	99
496.008	81
496.225	100
496.442	91
496.66	93
496.877	102
497.094	90
497.312	93
497.529	85
497.746	92
497.963	96
498.181	81
498.398	107
498.615	110
498.832	92
499.049	80
499.267	91
499.484	85
499.701	100
499.918	96
500.135	85
500.352	88
500.569	83
500.786	73
501.003	86
501.22	97
501.437	105
501.654	91
501.871	123
502.088	89
502.305	94
502.522	86
502.739	89
502.956	98
503.172	101
503.389	97
503.606	114
503.823	96
504.04	95
504.256	92
504.473	85
504.69	80
504.907	81
505.123	76
505.34	94
505.557	102
505.773	82
505.99	92
506.207	77
506.423	78
506.64	81
506.856	92
507.073	89
507.289	101
507.506	91
507.722	123
507.939	130
508.155	90
508.372	92
508.588	83
508.805	93
509.021	107
509.238	105
509.454	103
509.67	87
509.887	120
510.103	129
510.319	205
510.536	750
510.752	2593
510.968	704
511.184	160
511.401	135
511.617	99
511.833	94
512.049	85
512.265	93
512.481	84
512.698	90
512.914	84
513.13	94
513.346	101
513.562	93
513.778	118
513.994	117
514.21	108
514.426	122
514.642	163
514.858	145
515.074	204
515.29	612
515.506	1967
515.721	706
515.937	183
516.153	118
516.369	107
516.585	103
516.801	85
517.016	92
517.232	96
517.448	106
517.664	94
517.879	87
518.095	93
518.311	93
518.527	107
518.742	83
518.958	97
519.173	90
519.389	100
519.605	102
519.82	107
520.036	108
520.251	134
520.467	115
520.682	116
520.898	124
521.113	137
521.329	172
521.544	243
521.76	746
521.975	3395
522.19	1977
522.406	416
522.621	144
522.836	108
523.052	103
523.267	102
523.482	93
523.698	100
523.913	137
524.128	122
524.343	96
524.559	86
524.774	85
524.989	99
525.204	112
525.419	107
525.634	94
525.849	84
526.064	82
526.28	92
526.495	97
526.71	96
526.925	98
527.14	75
527.355	99
527.57	91
527.785	85
527.999	108
528.214	94
528.429	98
528.644	91
528.859	97
529.074	109
529.289	147
529.503	251
529.718	114
529.933	104
530.148	95
530.363	93
530.577	93
530.792	104
531.007	82
531.221	95
531.436	83
531.651	94
531.865	86
532.08	93
532.295	97
532.509	94
532.724	91
532.938	88
533.153	90
533.367	84
533.582	93
533.796	87
534.011	89
534.225	101
534.44	97
534.654	92
534.868	82
535.083	81
535.297	91
535.511	93
535.726	113
535.94	98
536.154	87
536.369	90
536.583	91
536.797	94
537.011	100
537.225	91
537.44	81
537.654	92
537.868	95
538.082	72
538.296	87
538.51	83
538.724	85
538.938	94
539.153	104
539.367	113
539.581	120
539.795	107
540.009	77
540.222	91
540.436	91
540.65	82
540.864	94
541.078	102
541.292	96
541.506	85
541.72	109
541.934	93
542.147	88
542.361	86
542.575	89
542.789	82
543.002	92
543.216	96
543.43	108
543.644	97
543.857	97
544.071	93
544.285	76
544.498	86
544.712	92
544.925	84
545.139	85
545.352	91
545.566	97
545.779	98
545.993	100
546.206	96
546.42	97
546.633	80
546.847	90
547.06	105
547.274	93
547.487	86
547.7	85
547.914	83
548.127	83
548.34	81
548.554	100
548.767	99
548.98	75
549.193	82
549.407	92
549.62	91
549.833	81
550.046	112
550.259	67
550.473	84
550.686	93
550.899	74
551.112	87
551.325	95
551.538	90
551.751	96
551.964	82
552.177	91
552.39	86
552.603	89
552.816	102
553.029	102
553.242	105
553.455	114
553.667	115
553.88	113
554.093	90
554.306	83
554.519	93
554.732	89
554.944	93
555.157	91
555.37	96
555.583	98
555.795	94
556.008	102
556.221	92
556.433	106
556.646	89
556.859	76
557.071	92
557.284	92
557.496	95
557.709	93
557.921	86
558.134	94
558.346	82
558.559	77
558.771	96
558.984	99
559.196	87
559.409	78
559.621	83
559.833	96
560.046	90
560.258	93
560.47	74
560.683	87
560.895	86
561.107	88
561.32	77
561.532	85
561.744	85
561.956	94
562.168	82
562.381	85
562.593	81
562.805	91
563.017	82
563.229	95
563.441	95
563.653	76
563.865	100
564.077	102
564.289	86
564.501	80
564.713	100
564.925	104
565.137	107
565.349	89
565.561	89
565.773	87
565.985	85
566.197	95
566.408	84
566.62	86
566.832	84
567.044	79
567.255	80
567.467	84
567.679	85
567.891	87
568.102	98
568.314	92
568.526	73
568.737	95
568.949	87
569.161	94
569.372	87
569.584	72
569.795	100
570.007	128
570.218	256
570.43	150
570.641	73
570.853	82
571.064	88
571.276	90
571.487	96
571.698	85
571.91	99
572.121	88
572.333	91
572.544	95
572.755	88
572.966	92
573.178	83
573.389	92
573.6	81
573.811	84
574.023	92
574.234	87
574.445	81
574.656	96
574.867	83
575.078	88
575.289	72
575.501	84
575.712	94
575.923	86
576.134	98
576.345	90
576.556	98
576.767	101
576.978	85
577.188	101
577.399	84
577.61	81
577.821	94
578.032	108
578.243	278
578.454	778
578.665	212
578.875	94
579.086	93
579.297	85
579.508	93
579.718	89
579.929	91
580.14	91
580.35	91
580.561	67
580.772	89
580.982	84
581.193	77
581.403	89
581.614	87
581.825	85
582.035	92
582.246	92
