Data from Circ_1981_H10_HRD10591_00003.txt Node
Date: Wed Jan 03 12:34:21 EST 2024
User: Yrep
Spectrometer: HR+D1059
Trigger mode: 1
Integration Time (sec): 1.000000E-1
Scans to average: 1
Electric dark correction enabled: true
Nonlinearity correction enabled: false
Boxcar width: 0
XAxis mode: Wavelengths
Number of Pixels in Spectrum: 2048
>>>>>Begin Spectral Data<<<<<
223.165	-11.38
223.4	-11.38
223.635	-11.38
223.869	-19.38
224.104	-24.38
224.338	-24.38
224.573	-9.38
224.808	-23.38
225.042	3.62
225.277	12.62
225.511	2.62
225.746	14.62
225.98	3.62
226.215	7.62
226.449	8.62
226.683	23.62
226.918	22.62
227.152	12.62
227.387	26.62
227.621	23.62
227.856	46.62
228.09	42.62
228.324	52.62
228.559	42.62
228.793	64.62
229.027	67.62
229.262	67.62
229.496	65.62
229.73	86.62
229.964	66.62
230.199	80.62
230.433	80.62
230.667	76.62
230.901	78.62
231.136	63.62
231.37	84.62
231.604	62.62
231.838	66.62
232.072	82.62
232.306	83.62
232.541	90.62
232.775	73.62
233.009	80.62
233.243	72.62
233.477	69.62
233.711	82.62
233.945	74.62
234.179	82.62
234.413	87.62
234.647	78.62
234.881	84.62
235.115	67.62
235.349	79.62
235.583	90.62
235.817	69.62
236.051	63.62
236.285	80.62
236.519	74.62
236.753	69.62
236.987	79.62
237.221	76.62
237.455	73.62
237.689	94.62
237.922	81.62
238.156	78.62
238.39	90.62
238.624	81.62
238.858	68.62
239.091	74.62
239.325	82.62
239.559	73.62
239.793	84.62
240.027	76.62
240.26	79.62
240.494	67.62
240.728	74.62
240.961	69.62
241.195	80.62
241.429	63.62
241.662	76.62
241.896	90.62
242.13	54.62
242.363	69.62
242.597	88.62
242.83	85.62
243.064	73.62
243.298	71.62
243.531	55.62
243.765	67.62
243.998	66.62
244.232	83.62
244.465	69.62
244.699	82.62
244.932	83.62
245.166	80.62
245.399	74.62
245.633	81.62
245.866	82.62
246.099	79.62
246.333	86.62
246.566	74.62
246.8	71.62
247.033	86.62
247.266	64.62
247.5	67.62
247.733	89.62
247.966	84.62
248.2	79.62
248.433	84.62
248.666	70.62
248.899	78.62
249.133	84.62
249.366	90.62
249.599	76.62
249.832	90.62
250.066	74.62
250.299	63.62
250.532	80.62
250.765	95.62
250.998	71.62
251.231	78.62
251.465	84.62
251.698	74.62
251.931	72.62
252.164	68.62
252.397	81.62
252.63	78.62
252.863	82.62
253.096	67.62
253.329	80.62
253.562	73.62
253.795	71.62
254.028	73.62
254.261	70.62
254.494	75.62
254.727	87.62
254.96	71.62
255.193	69.62
255.426	84.62
255.659	78.62
255.892	72.62
256.124	74.62
256.357	81.62
256.59	70.62
256.823	78.62
257.056	68.62
257.289	84.62
257.521	74.62
257.754	88.62
257.987	74.62
258.22	78.62
258.452	77.62
258.685	75.62
258.918	99.62
259.151	78.62
259.383	58.62
259.616	91.62
259.849	90.62
260.081	101.62
260.314	91.62
260.547	84.62
260.779	78.62
261.012	76.62
261.244	91.62
261.477	72.62
261.71	92.62
261.942	132.62
262.175	123.62
262.407	83.62
262.64	80.62
262.872	85.62
263.105	84.62
263.337	83.62
263.57	72.62
263.802	78.62
264.035	74.62
264.267	86.62
264.499	82.62
264.732	80.62
264.964	78.62
265.197	74.62
265.429	74.62
265.661	88.62
265.894	80.62
266.126	80.62
266.358	82.62
266.591	66.62
266.823	75.62
267.055	80.62
267.287	84.62
267.52	72.62
267.752	75.62
267.984	75.62
268.216	76.62
268.448	87.62
268.681	86.62
268.913	93.62
269.145	81.62
269.377	82.62
269.609	78.62
269.841	94.62
270.073	96.62
270.306	94.62
270.538	93.62
270.77	71.62
271.002	71.62
271.234	81.62
271.466	76.62
271.698	87.62
271.93	96.62
272.162	86.62
272.394	86.62
272.626	68.62
272.858	78.62
273.09	94.62
273.322	79.62
273.553	94.62
273.785	73.62
274.017	80.62
274.249	84.62
274.481	90.62
274.713	99.62
274.945	107.62
275.176	92.62
275.408	86.62
275.64	89.62
275.872	87.62
276.104	84.62
276.335	94.62
276.567	109.62
276.799	114.62
277.031	126.62
277.262	93.62
277.494	84.62
277.726	82.62
277.957	83.62
278.189	86.62
278.421	82.62
278.652	82.62
278.884	91.62
279.115	90.62
279.347	80.62
279.579	97.62
279.81	85.62
280.042	92.62
280.273	102.62
280.505	83.62
280.736	70.62
280.968	82.62
281.199	76.62
281.431	84.62
281.662	84.62
281.894	98.62
282.125	94.62
282.356	112.62
282.588	140.62
282.819	108.62
283.051	94.62
283.282	76.62
283.513	78.62
283.745	85.62
283.976	82.62
284.207	86.62
284.439	95.62
284.67	101.62
284.901	79.62
285.132	83.62
285.364	90.62
285.595	101.62
285.826	86.62
286.057	69.62
286.288	71.62
286.52	75.62
286.751	81.62
286.982	75.62
287.213	81.62
287.444	82.62
287.675	77.62
287.906	83.62
288.138	90.62
288.369	95.62
288.6	93.62
288.831	94.62
289.062	79.62
289.293	89.62
289.524	80.62
289.755	77.62
289.986	79.62
290.217	90.62
290.448	83.62
290.679	92.62
290.91	84.62
291.141	74.62
291.371	90.62
291.602	89.62
291.833	84.62
292.064	95.62
292.295	80.62
292.526	87.62
292.757	88.62
292.987	76.62
293.218	90.62
293.449	91.62
293.68	90.62
293.91	72.62
294.141	90.62
294.372	94.62
294.603	75.62
294.833	88.62
295.064	86.62
295.295	94.62
295.525	86.62
295.756	113.62
295.987	127.62
296.217	162.62
296.448	126.62
296.679	88.62
296.909	110.62
297.14	82.62
297.37	88.62
297.601	93.62
297.831	88.62
298.062	98.62
298.292	104.62
298.523	97.62
298.753	84.62
298.984	91.62
299.214	88.62
299.445	89.62
299.675	82.62
299.905	93.62
300.136	91.62
300.366	78.62
300.597	88.62
300.827	91.62
301.057	87.62
301.288	105.62
301.518	94.62
301.748	81.62
301.979	118.62
302.209	99.62
302.439	91.62
302.669	79.62
302.9	75.62
303.13	96.62
303.36	86.62
303.59	116.62
303.82	101.62
304.051	99.62
304.281	83.62
304.511	99.62
304.741	80.62
304.971	81.62
305.201	86.62
305.431	90.62
305.661	84.62
305.891	83.62
306.121	103.62
306.352	108.62
306.582	104.62
306.812	107.62
307.042	81.62
307.272	89.62
307.502	110.62
307.731	112.62
307.961	80.62
308.191	89.62
308.421	90.62
308.651	88.62
308.881	83.62
309.111	103.62
309.341	89.62
309.571	98.62
309.8	96.62
310.03	86.62
310.26	105.62
310.49	81.62
310.72	102.62
310.949	112.62
311.179	93.62
311.409	91.62
311.639	93.62
311.868	96.62
312.098	99.62
312.328	101.62
312.557	98.62
312.787	123.62
313.017	110.62
313.246	93.62
313.476	92.62
313.706	100.62
313.935	109.62
314.165	108.62
314.394	116.62
314.624	92.62
314.853	98.62
315.083	102.62
315.312	103.62
315.542	79.62
315.771	102.62
316.001	89.62
316.23	101.62
316.46	82.62
316.689	97.62
316.919	98.62
317.148	100.62
317.377	83.62
317.607	91.62
317.836	97.62
318.065	99.62
318.295	88.62
318.524	90.62
318.753	96.62
318.983	98.62
319.212	109.62
319.441	114.62
319.67	103.62
319.9	88.62
320.129	86.62
320.358	95.62
320.587	91.62
320.816	97.62
321.046	84.62
321.275	110.62
321.504	89.62
321.733	101.62
321.962	97.62
322.191	91.62
322.42	101.62
322.649	101.62
322.878	108.62
323.108	131.62
323.337	134.62
323.566	148.62
323.795	148.62
324.024	203.62
324.253	372.62
324.482	776.62
324.71	1546.62
324.939	2069.62
325.168	764.62
325.397	245.62
325.626	143.62
325.855	119.62
326.084	120.62
326.313	123.62
326.542	156.62
326.77	224.62
326.999	416.62
327.228	788.62
327.457	1456.62
327.686	1213.62
327.914	358.62
328.143	208.62
328.372	171.62
328.6	130.62
328.829	135.62
329.058	148.62
329.287	142.62
329.515	111.62
329.744	105.62
329.972	115.62
330.201	123.62
330.43	151.62
330.658	147.62
330.887	188.62
331.115	150.62
331.344	112.62
331.572	113.62
331.801	110.62
332.03	98.62
332.258	85.62
332.486	89.62
332.715	79.62
332.943	93.62
333.172	88.62
333.4	92.62
333.629	100.62
333.857	121.62
334.085	127.62
334.314	116.62
334.542	144.62
334.771	149.62
334.999	108.62
335.227	98.62
335.455	87.62
335.684	83.62
335.912	92.62
336.14	105.62
336.369	85.62
336.597	110.62
336.825	92.62
337.053	81.62
337.281	100.62
337.51	85.62
337.738	82.62
337.966	82.62
338.194	91.62
338.422	102.62
338.65	98.62
338.878	112.62
339.106	99.62
339.334	86.62
339.562	99.62
339.79	85.62
340.018	90.62
340.246	100.62
340.474	106.62
340.702	94.62
340.93	81.62
341.158	97.62
341.386	115.62
341.614	92.62
341.842	98.62
342.07	83.62
342.298	97.62
342.526	98.62
342.754	97.62
342.981	91.62
343.209	90.62
343.437	116.62
343.665	85.62
343.893	84.62
344.12	84.62
344.348	92.62
344.576	74.62
344.804	84.62
345.031	103.62
345.259	105.62
345.487	80.62
345.714	86.62
345.942	78.62
346.17	91.62
346.397	96.62
346.625	96.62
346.853	82.62
347.08	77.62
347.308	90.62
347.535	104.62
347.763	105.62
347.99	110.62
348.218	103.62
348.445	100.62
348.673	108.62
348.9	105.62
349.128	94.62
349.355	89.62
349.583	95.62
349.81	115.62
350.037	103.62
350.265	112.62
350.492	108.62
350.72	99.62
350.947	96.62
351.174	118.62
351.402	109.62
351.629	88.62
351.856	88.62
352.083	95.62
352.311	111.62
352.538	110.62
352.765	118.62
352.992	105.62
353.22	102.62
353.447	95.62
353.674	101.62
353.901	102.62
354.128	89.62
354.355	106.62
354.583	90.62
354.81	88.62
355.037	89.62
355.264	108.62
355.491	84.62
355.718	97.62
355.945	89.62
356.172	94.62
356.399	88.62
356.626	100.62
356.853	102.62
357.08	100.62
357.307	88.62
357.534	94.62
357.761	90.62
357.988	87.62
358.215	87.62
358.441	98.62
358.668	84.62
358.895	103.62
359.122	88.62
359.349	92.62
359.576	83.62
359.802	98.62
360.029	130.62
360.256	117.62
360.483	107.62
360.709	84.62
360.936	87.62
361.163	105.62
361.39	105.62
361.616	108.62
361.843	98.62
362.07	89.62
362.296	102.62
362.523	91.62
362.749	81.62
362.976	89.62
363.203	92.62
363.429	84.62
363.656	85.62
363.882	81.62
364.109	89.62
364.335	82.62
364.562	97.62
364.788	96.62
365.015	99.62
365.241	94.62
365.468	128.62
365.694	107.62
365.92	108.62
366.147	95.62
366.373	90.62
366.599	98.62
366.826	83.62
367.052	92.62
367.278	87.62
367.505	93.62
367.731	91.62
367.957	88.62
368.184	101.62
368.41	105.62
368.636	111.62
368.862	129.62
369.089	110.62
369.315	98.62
369.541	87.62
369.767	86.62
369.993	80.62
370.219	95.62
370.445	100.62
370.672	95.62
370.898	78.62
371.124	78.62
371.35	84.62
371.576	94.62
371.802	78.62
372.028	66.62
372.254	97.62
372.48	86.62
372.706	86.62
372.932	101.62
373.158	98.62
373.384	72.62
373.61	107.62
373.835	99.62
374.061	86.62
374.287	82.62
374.513	88.62
374.739	96.62
374.965	93.62
375.191	81.62
375.416	83.62
375.642	84.62
375.868	91.62
376.094	85.62
376.319	84.62
376.545	95.62
376.771	96.62
376.997	100.62
377.222	91.62
377.448	73.62
377.674	87.62
377.899	92.62
378.125	85.62
378.35	94.62
378.576	84.62
378.802	95.62
379.027	98.62
379.253	95.62
379.478	83.62
379.704	97.62
379.929	102.62
380.155	96.62
380.38	97.62
380.606	88.62
380.831	98.62
381.057	98.62
381.282	94.62
381.507	91.62
381.733	96.62
381.958	113.62
382.184	102.62
382.409	99.62
382.634	96.62
382.86	91.62
383.085	103.62
383.31	109.62
383.535	108.62
383.761	102.62
383.986	95.62
384.211	103.62
384.436	97.62
384.662	102.62
384.887	103.62
385.112	110.62
385.337	99.62
385.562	116.62
385.787	109.62
386.013	114.62
386.238	129.62
386.463	99.62
386.688	107.62
386.913	113.62
387.138	121.62
387.363	117.62
387.588	117.62
387.813	104.62
388.038	111.62
388.263	128.62
388.488	114.62
388.713	98.62
388.938	94.62
389.163	83.62
389.387	90.62
389.612	76.62
389.837	94.62
390.062	87.62
390.287	86.62
390.512	84.62
390.736	78.62
390.961	96.62
391.186	91.62
391.411	88.62
391.636	90.62
391.86	87.62
392.085	74.62
392.31	82.62
392.534	99.62
392.759	90.62
392.984	81.62
393.208	95.62
393.433	131.62
393.658	117.62
393.882	87.62
394.107	92.62
394.331	87.62
394.556	94.62
394.78	97.62
395.005	80.62
395.229	84.62
395.454	98.62
395.678	85.62
395.903	97.62
396.127	86.62
396.352	95.62
396.576	94.62
396.801	87.62
397.025	106.62
397.249	95.62
397.474	99.62
397.698	78.62
397.922	95.62
398.147	80.62
398.371	75.62
398.595	84.62
398.82	90.62
399.044	80.62
399.268	74.62
399.492	92.62
399.717	101.62
399.941	82.62
400.165	82.62
400.389	82.62
400.613	99.62
400.837	102.62
401.062	88.62
401.286	86.62
401.51	87.62
401.734	83.62
401.958	96.62
402.182	132.62
402.406	170.62
402.63	122.62
402.854	83.62
403.078	99.62
403.302	95.62
403.526	87.62
403.75	89.62
403.974	81.62
404.198	90.62
404.422	83.62
404.645	81.62
404.869	85.62
405.093	92.62
405.317	98.62
405.541	93.62
405.765	109.62
405.988	125.62
406.212	191.62
406.436	273.62
406.66	187.62
406.883	104.62
407.107	98.62
407.331	98.62
407.555	88.62
407.778	103.62
408.002	86.62
408.226	99.62
408.449	95.62
408.673	86.62
408.896	88.62
409.12	107.62
409.344	84.62
409.567	81.62
409.791	99.62
410.014	91.62
410.238	87.62
410.461	88.62
410.685	94.62
410.908	90.62
411.132	97.62
411.355	94.62
411.578	94.62
411.802	96.62
412.025	92.62
412.249	83.62
412.472	94.62
412.695	89.62
412.919	91.62
413.142	82.62
413.365	92.62
413.589	84.62
413.812	86.62
414.035	101.62
414.258	94.62
414.482	89.62
414.705	78.62
414.928	78.62
415.151	81.62
415.374	94.62
415.597	84.62
415.821	95.62
416.044	79.62
416.267	89.62
416.49	90.62
416.713	90.62
416.936	82.62
417.159	88.62
417.382	102.62
417.605	90.62
417.828	100.62
418.051	82.62
418.274	85.62
418.497	85.62
418.72	85.62
418.943	86.62
419.166	86.62
419.389	87.62
419.611	87.62
419.834	84.62
420.057	88.62
420.28	84.62
420.503	111.62
420.726	82.62
420.948	91.62
421.171	103.62
421.394	79.62
421.617	81.62
421.839	101.62
422.062	91.62
422.285	82.62
422.507	99.62
422.73	126.62
422.953	92.62
423.175	92.62
423.398	83.62
423.621	80.62
423.843	90.62
424.066	82.62
424.288	90.62
424.511	86.62
424.733	102.62
424.956	104.62
425.178	85.62
425.401	91.62
425.623	90.62
425.846	92.62
426.068	97.62
426.291	86.62
426.513	75.62
426.735	80.62
426.958	95.62
427.18	121.62
427.402	148.62
427.625	193.62
427.847	150.62
428.069	109.62
428.292	98.62
428.514	82.62
428.736	96.62
428.958	95.62
429.181	72.62
429.403	84.62
429.625	76.62
429.847	89.62
430.069	106.62
430.292	102.62
430.514	83.62
430.736	82.62
430.958	84.62
431.18	94.62
431.402	73.62
431.624	81.62
431.846	80.62
432.068	99.62
432.29	83.62
432.512	88.62
432.734	81.62
432.956	93.62
433.178	88.62
433.4	82.62
433.622	73.62
433.844	75.62
434.066	86.62
434.287	78.62
434.509	82.62
434.731	81.62
434.953	95.62
435.175	75.62
435.397	81.62
435.618	79.62
435.84	86.62
436.062	126.62
436.284	107.62
436.505	93.62
436.727	82.62
436.949	88.62
437.17	94.62
437.392	91.62
437.614	101.62
437.835	114.62
438.057	134.62
438.278	106.62
438.5	108.62
438.721	128.62
438.943	96.62
439.165	103.62
439.386	93.62
439.608	82.62
439.829	82.62
440.05	123.62
440.272	140.62
440.493	90.62
440.715	80.62
440.936	80.62
441.158	98.62
441.379	91.62
441.6	102.62
441.822	107.62
442.043	101.62
442.264	110.62
442.486	98.62
442.707	89.62
442.928	99.62
443.149	154.62
443.371	129.62
443.592	110.62
443.813	116.62
444.034	115.62
444.255	84.62
444.476	79.62
444.698	91.62
444.919	92.62
445.14	126.62
445.361	114.62
445.582	112.62
445.803	164.62
446.024	148.62
446.245	115.62
446.466	91.62
446.687	98.62
446.908	86.62
447.129	87.62
447.35	92.62
447.571	97.62
447.792	96.62
448.013	90.62
448.234	99.62
448.455	98.62
448.675	121.62
448.896	126.62
449.117	105.62
449.338	97.62
449.559	123.62
449.779	133.62
450	98.62
450.221	90.62
450.442	84.62
450.662	95.62
450.883	97.62
451.104	126.62
451.324	81.62
451.545	72.62
451.766	82.62
451.986	78.62
452.207	82.62
452.428	91.62
452.648	89.62
452.869	112.62
453.089	126.62
453.31	116.62
453.53	96.62
453.751	103.62
453.971	94.62
454.192	109.62
454.412	107.62
454.633	95.62
454.853	84.62
455.073	71.62
455.294	100.62
455.514	113.62
455.734	103.62
455.955	68.62
456.175	74.62
456.395	75.62
456.616	81.62
456.836	96.62
457.056	80.62
457.276	72.62
457.497	82.62
457.717	90.62
457.937	85.62
458.157	81.62
458.377	92.62
458.598	120.62
458.818	176.62
459.038	199.62
459.258	130.62
459.478	94.62
459.698	89.62
459.918	91.62
460.138	78.62
460.358	85.62
460.578	92.62
460.798	94.62
461.018	84.62
461.238	82.62
461.458	96.62
461.678	94.62
461.898	75.62
462.118	89.62
462.338	87.62
462.558	82.62
462.777	79.62
462.997	87.62
463.217	88.62
463.437	86.62
463.657	98.62
463.876	89.62
464.096	96.62
464.316	103.62
464.536	108.62
464.755	90.62
464.975	106.62
465.195	201.62
465.414	200.62
465.634	102.62
465.854	75.62
466.073	102.62
466.293	82.62
466.512	79.62
466.732	80.62
466.951	85.62
467.171	103.62
467.391	99.62
467.61	107.62
467.829	89.62
468.049	96.62
468.268	99.62
468.488	90.62
468.707	96.62
468.927	75.62
469.146	86.62
469.365	100.62
469.585	104.62
469.804	98.62
470.023	90.62
470.243	92.62
470.462	89.62
470.681	110.62
470.901	94.62
471.12	84.62
471.339	80.62
471.558	71.62
471.777	84.62
471.997	91.62
472.216	121.62
472.435	162.62
472.654	99.62
472.873	78.62
473.092	77.62
473.311	70.62
473.53	82.62
473.749	82.62
473.968	79.62
474.187	118.62
474.406	95.62
474.625	84.62
474.844	96.62
475.063	86.62
475.282	68.62
475.501	72.62
475.72	70.62
475.939	79.62
476.158	72.62
476.377	86.62
476.596	94.62
476.814	108.62
477.033	87.62
477.252	76.62
477.471	84.62
477.69	87.62
477.908	86.62
478.127	85.62
478.346	84.62
478.564	78.62
478.783	92.62
479.002	107.62
479.22	95.62
479.439	87.62
479.658	107.62
479.876	90.62
480.095	101.62
480.313	93.62
480.532	85.62
480.751	90.62
480.969	101.62
481.188	233.62
481.406	170.62
481.624	94.62
481.843	81.62
482.061	101.62
482.28	84.62
482.498	82.62
482.717	88.62
482.935	78.62
483.153	87.62
483.372	80.62
483.59	90.62
483.808	77.62
484.027	80.62
484.245	93.62
484.463	97.62
484.681	80.62
484.9	87.62
485.118	93.62
485.336	92.62
485.554	99.62
485.772	79.62
485.99	104.62
486.209	115.62
486.427	108.62
486.645	118.62
486.863	114.62
487.081	92.62
487.299	97.62
487.517	110.62
487.735	94.62
487.953	92.62
488.171	99.62
488.389	95.62
488.607	97.62
488.825	80.62
489.043	84.62
489.261	88.62
489.479	71.62
489.696	92.62
489.914	90.62
490.132	83.62
490.35	86.62
490.568	85.62
490.786	98.62
491.003	76.62
491.221	99.62
491.439	87.62
491.657	94.62
491.874	76.62
492.092	78.62
492.31	80.62
492.527	95.62
492.745	90.62
492.963	65.62
493.18	80.62
493.398	96.62
493.615	94.62
493.833	94.62
494.05	76.62
494.268	73.62
494.485	91.62
494.703	86.62
494.92	89.62
495.138	80.62
495.355	86.62
495.573	94.62
495.79	98.62
496.008	101.62
496.225	111.62
496.442	88.62
496.66	80.62
496.877	90.62
497.094	96.62
497.312	88.62
497.529	90.62
497.746	84.62
497.963	102.62
498.181	89.62
498.398	100.62
498.615	117.62
498.832	106.62
499.049	89.62
499.267	72.62
499.484	75.62
499.701	72.62
499.918	91.62
500.135	84.62
500.352	84.62
500.569	95.62
500.786	88.62
501.003	84.62
501.22	95.62
501.437	81.62
501.654	90.62
501.871	112.62
502.088	88.62
502.305	88.62
502.522	88.62
502.739	99.62
502.956	79.62
503.172	83.62
503.389	84.62
503.606	105.62
503.823	105.62
504.04	85.62
504.256	78.62
504.473	87.62
504.69	86.62
504.907	97.62
505.123	96.62
505.34	84.62
505.557	99.62
505.773	71.62
505.99	92.62
506.207	86.62
506.423	86.62
506.64	99.62
506.856	92.62
507.073	87.62
507.289	96.62
507.506	92.62
507.722	130.62
507.939	123.62
508.155	98.62
508.372	85.62
508.588	94.62
508.805	90.62
509.021	80.62
509.238	102.62
509.454	100.62
509.67	111.62
509.887	114.62
510.103	123.62
510.319	211.62
510.536	815.62
510.752	2774.62
510.968	757.62
511.184	170.62
511.401	119.62
511.617	93.62
511.833	88.62
512.049	76.62
512.265	79.62
512.481	96.62
512.698	83.62
512.914	98.62
513.13	83.62
513.346	94.62
513.562	98.62
513.778	85.62
513.994	85.62
514.21	108.62
514.426	134.62
514.642	155.62
514.858	144.62
515.074	187.62
515.29	560.62
515.506	2093.62
515.721	723.62
