Data from Circ_1981_H10_HRD10591_00038.txt Node
Date: Wed Jan 03 12:34:28 EST 2024
User: Yrep
Spectrometer: HR+D1059
Trigger mode: 1
Integration Time (sec): 1.000000E-1
Scans to average: 1
Electric dark correction enabled: true
Nonlinearity correction enabled: false
Boxcar width: 0
XAxis mode: Wavelengths
Number of Pixels in Spectrum: 2048
>>>>>Begin Spectral Data<<<<<
223.165	-4.25
223.4	-4.25
223.635	-4.25
223.869	-16.25
224.104	-19.25
224.338	-14.25
224.573	-19.25
224.808	-11.25
225.042	-8.25
225.277	-3.25
225.511	-2.25
225.746	8.75
225.98	0.75
226.215	0.75
226.449	25.75
226.683	12.75
226.918	18.75
227.152	30.75
227.387	28.75
227.621	38.75
227.856	46.75
228.09	52.75
228.324	48.75
228.559	53.75
228.793	47.75
229.027	71.75
229.262	80.75
229.496	67.75
229.73	76.75
229.964	90.75
230.199	72.75
230.433	75.75
230.667	70.75
230.901	67.75
231.136	61.75
231.37	79.75
231.604	79.75
231.838	83.75
232.072	90.75
232.306	79.75
232.541	97.75
232.775	83.75
233.009	95.75
233.243	78.75
233.477	77.75
233.711	97.75
233.945	65.75
234.179	74.75
234.413	70.75
234.647	86.75
234.881	91.75
235.115	86.75
235.349	94.75
235.583	99.75
235.817	75.75
236.051	70.75
236.285	78.75
236.519	80.75
236.753	84.75
236.987	90.75
237.221	90.75
237.455	96.75
237.689	86.75
237.922	67.75
238.156	84.75
238.39	71.75
238.624	74.75
238.858	83.75
239.091	84.75
239.325	91.75
239.559	72.75
239.793	82.75
240.027	73.75
240.26	78.75
240.494	86.75
240.728	85.75
240.961	91.75
241.195	71.75
241.429	77.75
241.662	84.75
241.896	76.75
242.13	77.75
242.363	69.75
242.597	85.75
242.83	75.75
243.064	62.75
243.298	69.75
243.531	90.75
243.765	70.75
243.998	88.75
244.232	90.75
244.465	94.75
244.699	83.75
244.932	93.75
245.166	62.75
245.399	78.75
245.633	82.75
245.866	77.75
246.099	71.75
246.333	77.75
246.566	81.75
246.8	85.75
247.033	80.75
247.266	76.75
247.5	77.75
247.733	70.75
247.966	77.75
248.2	82.75
248.433	77.75
248.666	83.75
248.899	84.75
249.133	81.75
249.366	98.75
249.599	87.75
249.832	91.75
250.066	82.75
250.299	71.75
250.532	92.75
250.765	84.75
250.998	71.75
251.231	86.75
251.465	82.75
251.698	86.75
251.931	74.75
252.164	75.75
252.397	86.75
252.63	91.75
252.863	82.75
253.096	86.75
253.329	83.75
253.562	83.75
253.795	75.75
254.028	90.75
254.261	72.75
254.494	92.75
254.727	92.75
254.96	86.75
255.193	89.75
255.426	78.75
255.659	74.75
255.892	86.75
256.124	88.75
256.357	69.75
256.59	90.75
256.823	68.75
257.056	84.75
257.289	90.75
257.521	94.75
257.754	86.75
257.987	77.75
258.22	86.75
258.452	83.75
258.685	75.75
258.918	82.75
259.151	90.75
259.383	78.75
259.616	90.75
259.849	83.75
260.081	90.75
260.314	71.75
260.547	77.75
260.779	79.75
261.012	83.75
261.244	89.75
261.477	86.75
261.71	101.75
261.942	124.75
262.175	112.75
262.407	88.75
262.64	90.75
262.872	77.75
263.105	80.75
263.337	89.75
263.57	82.75
263.802	101.75
264.035	88.75
264.267	92.75
264.499	95.75
264.732	75.75
264.964	82.75
265.197	76.75
265.429	90.75
265.661	78.75
265.894	79.75
266.126	90.75
266.358	107.75
266.591	82.75
266.823	78.75
267.055	97.75
267.287	74.75
267.52	76.75
267.752	94.75
267.984	75.75
268.216	73.75
268.448	75.75
268.681	84.75
268.913	78.75
269.145	64.75
269.377	68.75
269.609	87.75
269.841	73.75
270.073	79.75
270.306	94.75
270.538	91.75
270.77	91.75
271.002	95.75
271.234	91.75
271.466	87.75
271.698	99.75
271.93	99.75
272.162	90.75
272.394	90.75
272.626	78.75
272.858	78.75
273.09	81.75
273.322	80.75
273.553	85.75
273.785	92.75
274.017	84.75
274.249	83.75
274.481	83.75
274.713	94.75
274.945	92.75
275.176	96.75
275.408	93.75
275.64	87.75
275.872	100.75
276.104	102.75
276.335	111.75
276.567	116.75
276.799	120.75
277.031	101.75
277.262	105.75
277.494	103.75
277.726	88.75
277.957	94.75
278.189	79.75
278.421	82.75
278.652	101.75
278.884	100.75
279.115	85.75
279.347	95.75
279.579	83.75
279.81	94.75
280.042	93.75
280.273	87.75
280.505	104.75
280.736	102.75
280.968	94.75
281.199	93.75
281.431	76.75
281.662	73.75
281.894	86.75
282.125	101.75
282.356	121.75
282.588	157.75
282.819	130.75
283.051	92.75
283.282	96.75
283.513	84.75
283.745	84.75
283.976	92.75
284.207	94.75
284.439	87.75
284.67	104.75
284.901	89.75
285.132	96.75
285.364	77.75
285.595	92.75
285.826	86.75
286.057	87.75
286.288	98.75
286.52	92.75
286.751	79.75
286.982	102.75
287.213	94.75
287.444	84.75
287.675	90.75
287.906	98.75
288.138	73.75
288.369	88.75
288.6	91.75
288.831	88.75
289.062	90.75
289.293	82.75
289.524	95.75
289.755	99.75
289.986	77.75
290.217	85.75
290.448	104.75
290.679	84.75
290.91	94.75
291.141	75.75
291.371	75.75
291.602	73.75
291.833	97.75
292.064	84.75
292.295	83.75
292.526	88.75
292.757	86.75
292.987	86.75
293.218	83.75
293.449	86.75
293.68	88.75
293.91	90.75
294.141	103.75
294.372	94.75
294.603	97.75
294.833	85.75
295.064	85.75
295.295	99.75
295.525	95.75
295.756	105.75
295.987	115.75
296.217	125.75
296.448	125.75
296.679	90.75
296.909	87.75
297.14	84.75
297.37	92.75
297.601	88.75
297.831	80.75
298.062	103.75
298.292	95.75
298.523	104.75
298.753	97.75
298.984	107.75
299.214	95.75
299.445	84.75
299.675	78.75
299.905	99.75
300.136	91.75
300.366	77.75
300.597	98.75
300.827	100.75
301.057	106.75
301.288	117.75
301.518	90.75
301.748	83.75
301.979	94.75
302.209	103.75
302.439	103.75
302.669	86.75
302.9	72.75
303.13	106.75
303.36	102.75
303.59	88.75
303.82	99.75
304.051	100.75
304.281	102.75
304.511	101.75
304.741	92.75
304.971	94.75
305.201	97.75
305.431	100.75
305.661	82.75
305.891	83.75
306.121	95.75
306.352	102.75
306.582	115.75
306.812	103.75
307.042	83.75
307.272	91.75
307.502	100.75
307.731	104.75
307.961	95.75
308.191	82.75
308.421	91.75
308.651	104.75
308.881	90.75
309.111	95.75
309.341	110.75
309.571	92.75
309.8	88.75
310.03	93.75
310.26	105.75
310.49	99.75
310.72	111.75
310.949	106.75
311.179	117.75
311.409	97.75
311.639	94.75
311.868	112.75
312.098	91.75
312.328	96.75
312.557	84.75
312.787	120.75
313.017	115.75
313.246	94.75
313.476	98.75
313.706	87.75
313.935	93.75
314.165	102.75
314.394	112.75
314.624	97.75
314.853	95.75
315.083	82.75
315.312	98.75
315.542	93.75
315.771	109.75
316.001	101.75
316.23	82.75
316.46	76.75
316.689	88.75
316.919	100.75
317.148	120.75
317.377	113.75
317.607	100.75
317.836	95.75
318.065	88.75
318.295	94.75
318.524	96.75
318.753	94.75
318.983	103.75
319.212	113.75
319.441	119.75
319.67	102.75
319.9	98.75
320.129	88.75
320.358	91.75
320.587	106.75
320.816	106.75
321.046	107.75
321.275	106.75
321.504	93.75
321.733	105.75
321.962	93.75
322.191	104.75
322.42	117.75
322.649	118.75
322.878	111.75
323.108	129.75
323.337	140.75
323.566	141.75
323.795	170.75
324.024	228.75
324.253	450.75
324.482	967.75
324.71	2069.75
324.939	2848.75
325.168	1024.75
325.397	293.75
325.626	168.75
325.855	146.75
326.084	133.75
326.313	146.75
326.542	162.75
326.77	261.75
326.999	531.75
327.228	1082.75
327.457	2160.75
327.686	1722.75
327.914	438.75
328.143	216.75
328.372	186.75
328.6	152.75
328.829	137.75
329.058	155.75
329.287	159.75
329.515	111.75
329.744	118.75
329.972	97.75
330.201	127.75
330.43	147.75
330.658	148.75
330.887	186.75
331.115	155.75
331.344	104.75
331.572	107.75
331.801	112.75
332.03	114.75
332.258	107.75
332.486	88.75
332.715	90.75
332.943	88.75
333.172	99.75
333.4	106.75
333.629	112.75
333.857	108.75
334.085	123.75
334.314	116.75
334.542	155.75
334.771	138.75
334.999	106.75
335.227	87.75
335.455	103.75
335.684	111.75
335.912	115.75
336.14	112.75
336.369	95.75
336.597	102.75
336.825	106.75
337.053	72.75
337.281	110.75
337.51	98.75
337.738	102.75
337.966	109.75
338.194	110.75
338.422	95.75
338.65	112.75
338.878	91.75
339.106	86.75
339.334	92.75
339.562	92.75
339.79	90.75
340.018	86.75
340.246	106.75
340.474	84.75
340.702	110.75
340.93	94.75
341.158	96.75
341.386	98.75
341.614	110.75
341.842	103.75
342.07	93.75
342.298	104.75
342.526	96.75
342.754	91.75
342.981	84.75
343.209	88.75
343.437	98.75
343.665	82.75
343.893	93.75
344.12	91.75
344.348	99.75
344.576	103.75
344.804	87.75
345.031	95.75
345.259	104.75
345.487	100.75
345.714	112.75
345.942	104.75
346.17	89.75
346.397	98.75
346.625	108.75
346.853	106.75
347.08	91.75
347.308	100.75
347.535	103.75
347.763	95.75
347.99	108.75
348.218	108.75
348.445	109.75
348.673	99.75
348.9	96.75
349.128	93.75
349.355	91.75
349.583	110.75
349.81	84.75
350.037	95.75
350.265	106.75
350.492	96.75
350.72	100.75
350.947	101.75
351.174	120.75
351.402	126.75
351.629	96.75
351.856	115.75
352.083	117.75
352.311	122.75
352.538	118.75
352.765	136.75
352.992	119.75
353.22	134.75
353.447	104.75
353.674	125.75
353.901	102.75
354.128	100.75
354.355	98.75
354.583	104.75
354.81	104.75
355.037	107.75
355.264	89.75
355.491	95.75
355.718	99.75
355.945	92.75
356.172	93.75
356.399	112.75
356.626	85.75
356.853	89.75
357.08	95.75
357.307	97.75
357.534	95.75
357.761	107.75
357.988	101.75
358.215	102.75
358.441	101.75
358.668	82.75
358.895	104.75
359.122	96.75
359.349	89.75
359.576	95.75
359.802	124.75
360.029	131.75
360.256	122.75
360.483	109.75
360.709	99.75
360.936	93.75
361.163	104.75
361.39	104.75
361.616	102.75
361.843	103.75
362.07	110.75
362.296	110.75
362.523	94.75
362.749	88.75
362.976	96.75
363.203	95.75
363.429	98.75
363.656	94.75
363.882	102.75
364.109	106.75
364.335	95.75
364.562	100.75
364.788	96.75
365.015	101.75
365.241	93.75
365.468	116.75
365.694	114.75
365.92	110.75
366.147	97.75
366.373	79.75
366.599	92.75
366.826	85.75
367.052	100.75
367.278	101.75
367.505	106.75
367.731	103.75
367.957	98.75
368.184	96.75
368.41	102.75
368.636	120.75
368.862	123.75
369.089	112.75
369.315	111.75
369.541	107.75
369.767	106.75
369.993	106.75
370.219	107.75
370.445	87.75
370.672	91.75
370.898	82.75
371.124	94.75
371.35	91.75
371.576	93.75
371.802	104.75
372.028	107.75
372.254	86.75
372.48	106.75
372.706	94.75
372.932	98.75
373.158	86.75
373.384	101.75
373.61	88.75
373.835	84.75
374.061	95.75
374.287	103.75
374.513	84.75
374.739	101.75
374.965	96.75
375.191	86.75
375.416	93.75
375.642	98.75
375.868	91.75
376.094	82.75
376.319	94.75
376.545	97.75
376.771	83.75
376.997	78.75
377.222	80.75
377.448	92.75
377.674	81.75
377.899	84.75
378.125	86.75
378.35	85.75
378.576	85.75
378.802	101.75
379.027	96.75
379.253	84.75
379.478	100.75
379.704	93.75
379.929	111.75
380.155	114.75
380.38	89.75
380.606	100.75
380.831	92.75
381.057	94.75
381.282	99.75
381.507	102.75
381.733	100.75
381.958	84.75
382.184	97.75
382.409	105.75
382.634	107.75
382.86	101.75
383.085	116.75
383.31	98.75
383.535	102.75
383.761	100.75
383.986	106.75
384.211	105.75
384.436	122.75
384.662	104.75
384.887	106.75
385.112	106.75
385.337	103.75
385.562	111.75
385.787	110.75
386.013	112.75
386.238	116.75
386.463	99.75
386.688	103.75
386.913	109.75
387.138	96.75
387.363	102.75
387.588	99.75
387.813	102.75
388.038	124.75
388.263	109.75
388.488	99.75
388.713	86.75
388.938	94.75
389.163	110.75
389.387	97.75
389.612	92.75
389.837	92.75
390.062	94.75
390.287	92.75
390.512	98.75
390.736	92.75
390.961	92.75
391.186	100.75
391.411	91.75
391.636	85.75
391.86	91.75
392.085	77.75
392.31	82.75
392.534	98.75
392.759	87.75
392.984	79.75
393.208	114.75
393.433	94.75
393.658	98.75
393.882	98.75
394.107	93.75
394.331	90.75
394.556	94.75
394.78	86.75
395.005	77.75
395.229	88.75
395.454	102.75
395.678	92.75
395.903	86.75
396.127	89.75
396.352	85.75
396.576	86.75
396.801	106.75
397.025	93.75
397.249	89.75
397.474	90.75
397.698	83.75
397.922	93.75
398.147	84.75
398.371	97.75
398.595	83.75
398.82	85.75
399.044	69.75
399.268	84.75
399.492	89.75
399.717	84.75
399.941	88.75
400.165	82.75
400.389	110.75
400.613	91.75
400.837	92.75
401.062	84.75
401.286	102.75
401.51	89.75
401.734	86.75
401.958	98.75
402.182	115.75
402.406	174.75
402.63	144.75
402.854	90.75
403.078	86.75
403.302	101.75
403.526	107.75
403.75	92.75
403.974	82.75
404.198	93.75
404.422	92.75
404.645	92.75
404.869	108.75
405.093	124.75
405.317	103.75
405.541	120.75
405.765	105.75
405.988	101.75
406.212	201.75
406.436	248.75
406.66	164.75
406.883	125.75
407.107	104.75
407.331	101.75
407.555	109.75
407.778	106.75
408.002	106.75
408.226	89.75
408.449	84.75
408.673	94.75
408.896	99.75
409.12	108.75
409.344	85.75
409.567	84.75
409.791	80.75
410.014	97.75
410.238	76.75
410.461	90.75
410.685	91.75
410.908	115.75
411.132	103.75
411.355	115.75
411.578	86.75
411.802	95.75
412.025	98.75
412.249	95.75
412.472	82.75
412.695	111.75
412.919	87.75
413.142	98.75
413.365	87.75
413.589	105.75
413.812	101.75
414.035	86.75
414.258	82.75
414.482	94.75
414.705	95.75
414.928	83.75
415.151	95.75
415.374	94.75
415.597	97.75
415.821	97.75
416.044	98.75
416.267	94.75
416.49	86.75
416.713	90.75
416.936	86.75
417.159	92.75
417.382	84.75
417.605	91.75
417.828	104.75
418.051	72.75
418.274	77.75
418.497	99.75
418.72	83.75
418.943	103.75
419.166	98.75
419.389	90.75
419.611	97.75
419.834	97.75
420.057	85.75
420.28	95.75
420.503	77.75
420.726	82.75
420.948	93.75
421.171	98.75
421.394	107.75
421.617	86.75
421.839	91.75
422.062	95.75
422.285	98.75
422.507	111.75
422.73	124.75
422.953	96.75
423.175	98.75
423.398	91.75
423.621	96.75
423.843	103.75
424.066	89.75
424.288	89.75
424.511	98.75
424.733	101.75
424.956	116.75
425.178	100.75
425.401	112.75
425.623	120.75
425.846	108.75
426.068	97.75
426.291	101.75
426.513	103.75
426.735	103.75
426.958	95.75
427.18	123.75
427.402	160.75
427.625	214.75
427.847	159.75
428.069	118.75
428.292	90.75
428.514	95.75
428.736	94.75
428.958	95.75
429.181	93.75
429.403	80.75
429.625	96.75
429.847	99.75
430.069	118.75
430.292	101.75
430.514	78.75
430.736	95.75
430.958	98.75
431.18	88.75
431.402	75.75
431.624	85.75
431.846	94.75
432.068	84.75
432.29	87.75
432.512	88.75
432.734	80.75
432.956	105.75
433.178	108.75
433.4	112.75
433.622	96.75
433.844	92.75
434.066	95.75
434.287	105.75
434.509	112.75
434.731	71.75
434.953	102.75
435.175	90.75
435.397	96.75
435.618	89.75
435.84	108.75
436.062	149.75
436.284	122.75
436.505	113.75
436.727	106.75
436.949	102.75
437.17	87.75
437.392	94.75
437.614	103.75
437.835	115.75
438.057	142.75
438.278	118.75
438.5	117.75
438.721	151.75
438.943	111.75
439.165	89.75
439.386	96.75
439.608	92.75
439.829	110.75
440.05	156.75
440.272	190.75
440.493	117.75
440.715	104.75
440.936	89.75
441.158	92.75
441.379	97.75
441.6	91.75
441.822	87.75
442.043	101.75
442.264	115.75
442.486	123.75
442.707	90.75
442.928	113.75
443.149	150.75
443.371	142.75
443.592	125.75
443.813	115.75
444.034	131.75
444.255	109.75
444.476	87.75
444.698	100.75
444.919	92.75
445.14	131.75
445.361	133.75
445.582	138.75
445.803	186.75
446.024	164.75
446.245	171.75
446.466	125.75
446.687	100.75
446.908	86.75
447.129	90.75
447.35	95.75
447.571	104.75
447.792	99.75
448.013	107.75
448.234	105.75
448.455	115.75
448.675	131.75
448.896	143.75
449.117	111.75
449.338	109.75
449.559	152.75
449.779	174.75
450	102.75
450.221	94.75
450.442	98.75
450.662	115.75
450.883	120.75
451.104	138.75
451.324	103.75
451.545	83.75
451.766	87.75
451.986	94.75
452.207	94.75
452.428	84.75
452.648	101.75
452.869	108.75
453.089	138.75
453.31	133.75
453.53	95.75
453.751	95.75
453.971	120.75
454.192	124.75
454.412	92.75
454.633	95.75
454.853	93.75
455.073	84.75
455.294	99.75
455.514	102.75
455.734	97.75
455.955	84.75
456.175	104.75
456.395	88.75
456.616	83.75
456.836	86.75
457.056	81.75
457.276	88.75
457.497	87.75
457.717	86.75
457.937	77.75
458.157	97.75
458.377	104.75
458.598	119.75
458.818	171.75
459.038	198.75
459.258	141.75
459.478	98.75
459.698	89.75
459.918	98.75
460.138	93.75
460.358	93.75
460.578	96.75
460.798	102.75
461.018	94.75
461.238	106.75
461.458	78.75
461.678	95.75
461.898	90.75
462.118	91.75
462.338	86.75
462.558	82.75
462.777	81.75
462.997	90.75
463.217	88.75
463.437	92.75
463.657	95.75
463.876	84.75
464.096	92.75
464.316	96.75
464.536	114.75
464.755	103.75
464.975	119.75
465.195	203.75
465.414	195.75
465.634	92.75
465.854	87.75
466.073	82.75
466.293	96.75
466.512	110.75
466.732	92.75
466.951	91.75
467.171	82.75
467.391	107.75
467.61	112.75
467.829	95.75
468.049	106.75
468.268	115.75
468.488	78.75
468.707	79.75
468.927	85.75
469.146	82.75
469.365	96.75
469.585	90.75
469.804	107.75
470.023	109.75
470.243	94.75
470.462	101.75
470.681	110.75
470.901	102.75
471.12	96.75
471.339	94.75
471.558	100.75
471.777	77.75
471.997	91.75
472.216	110.75
472.435	141.75
472.654	94.75
472.873	79.75
473.092	84.75
473.311	92.75
473.53	97.75
473.749	107.75
473.968	104.75
474.187	130.75
474.406	102.75
474.625	98.75
474.844	91.75
475.063	98.75
475.282	87.75
475.501	99.75
475.72	89.75
475.939	94.75
476.158	82.75
476.377	95.75
476.596	100.75
476.814	89.75
477.033	100.75
477.252	79.75
477.471	89.75
477.69	94.75
477.908	96.75
478.127	98.75
478.346	100.75
478.564	93.75
478.783	106.75
479.002	96.75
479.22	78.75
479.439	92.75
479.658	100.75
479.876	105.75
480.095	104.75
480.313	98.75
480.532	98.75
480.751	102.75
480.969	123.75
481.188	240.75
481.406	151.75
481.624	101.75
481.843	88.75
482.061	77.75
482.28	90.75
482.498	92.75
482.717	86.75
482.935	106.75
483.153	103.75
483.372	99.75
483.59	85.75
483.808	90.75
484.027	97.75
484.245	96.75
484.463	91.75
484.681	101.75
484.9	89.75
485.118	95.75
485.336	104.75
485.554	106.75
485.772	93.75
485.99	109.75
486.209	88.75
486.427	108.75
486.645	115.75
486.863	123.75
487.081	106.75
487.299	100.75
487.517	97.75
487.735	101.75
487.953	109.75
488.171	93.75
488.389	101.75
488.607	111.75
488.825	92.75
489.043	96.75
489.261	100.75
489.479	91.75
489.696	91.75
489.914	100.75
490.132	93.75
490.35	86.75
490.568	81.75
490.786	93.75
491.003	95.75
491.221	91.75
491.439	87.75
491.657	95.75
491.874	87.75
492.092	86.75
492.31	88.75
492.527	80.75
492.745	74.75
492.963	80.75
493.18	102.75
493.398	104.75
493.615	94.75
493.833	100.75
494.05	85.75
494.268	106.75
494.485	88.75
494.703	101.75
494.92	76.75
495.138	99.75
495.355	95.75
495.573	107.75
495.79	80.75
496.008	89.75
496.225	83.75
496.442	92.75
496.66	97.75
496.877	96.75
497.094	88.75
497.312	85.75
497.529	88.75
497.746	93.75
497.963	93.75
498.181	102.75
498.398	91.75
498.615	118.75
498.832	109.75
499.049	116.75
499.267	87.75
499.484	86.75
499.701	88.75
499.918	89.75
500.135	88.75
500.352	98.75
500.569	79.75
500.786	103.75
501.003	101.75
501.22	90.75
501.437	87.75
501.654	114.75
501.871	126.75
502.088	87.75
502.305	90.75
502.522	90.75
502.739	88.75
502.956	94.75
503.172	78.75
503.389	99.75
503.606	124.75
503.823	102.75
504.04	89.75
504.256	89.75
504.473	87.75
504.69	96.75
504.907	92.75
505.123	90.75
505.34	93.75
505.557	93.75
505.773	103.75
505.99	100.75
506.207	95.75
506.423	91.75
506.64	78.75
506.856	96.75
507.073	86.75
507.289	86.75
507.506	92.75
507.722	117.75
507.939	126.75
508.155	94.75
508.372	94.75
508.588	104.75
508.805	112.75
509.021	97.75
509.238	89.75
509.454	91.75
509.67	104.75
509.887	110.75
510.103	148.75
510.319	195.75
510.536	743.75
510.752	2433.75
510.968	643.75
511.184	125.75
511.401	127.75
511.617	91.75
511.833	98.75
512.049	95.75
512.265	92.75
512.481	78.75
512.698	78.75
512.914	76.75
513.13	82.75
513.346	82.75
513.562	97.75
