Data from Circ_1981_H10_HRD10591_00035.txt Node
Date: Wed Jan 03 12:34:28 EST 2024
User: Yrep
Spectrometer: HR+D1059
Trigger mode: 1
Integration Time (sec): 1.000000E-1
Scans to average: 1
Electric dark correction enabled: true
Nonlinearity correction enabled: false
Boxcar width: 0
XAxis mode: Wavelengths
Number of Pixels in Spectrum: 2048
>>>>>Begin Spectral Data<<<<<
223.165	-9.81
223.4	-9.81
223.635	-9.81
223.869	-27.81
224.104	-17.81
224.338	-10.81
224.573	-11.81
224.808	-19.81
225.042	-10.81
225.277	-5.81
225.511	2.19
225.746	4.19
225.98	8.19
226.215	11.19
226.449	14.19
226.683	10.19
226.918	26.19
227.152	38.19
227.387	37.19
227.621	29.19
227.856	39.19
228.09	59.19
228.324	44.19
228.559	45.19
228.793	52.19
229.027	57.19
229.262	83.19
229.496	63.19
229.73	89.19
229.964	91.19
230.199	83.19
230.433	77.19
230.667	86.19
230.901	77.19
231.136	85.19
231.37	80.19
231.604	74.19
231.838	98.19
232.072	77.19
232.306	69.19
232.541	69.19
232.775	75.19
233.009	84.19
233.243	85.19
233.477	84.19
233.711	77.19
233.945	88.19
234.179	87.19
234.413	89.19
234.647	88.19
234.881	90.19
235.115	88.19
235.349	83.19
235.583	88.19
235.817	91.19
236.051	71.19
236.285	94.19
236.519	94.19
236.753	72.19
236.987	76.19
237.221	117.19
237.455	82.19
237.689	93.19
237.922	98.19
238.156	69.19
238.39	88.19
238.624	99.19
238.858	74.19
239.091	82.19
239.325	82.19
239.559	79.19
239.793	88.19
240.027	75.19
240.26	86.19
240.494	90.19
240.728	77.19
240.961	87.19
241.195	79.19
241.429	83.19
241.662	56.19
241.896	72.19
242.13	68.19
242.363	71.19
242.597	82.19
242.83	82.19
243.064	79.19
243.298	74.19
243.531	76.19
243.765	74.19
243.998	77.19
244.232	76.19
244.465	90.19
244.699	81.19
244.932	82.19
245.166	72.19
245.399	84.19
245.633	75.19
245.866	82.19
246.099	90.19
246.333	86.19
246.566	80.19
246.8	106.19
247.033	87.19
247.266	80.19
247.5	63.19
247.733	87.19
247.966	62.19
248.2	69.19
248.433	86.19
248.666	76.19
248.899	94.19
249.133	87.19
249.366	99.19
249.599	101.19
249.832	82.19
250.066	88.19
250.299	73.19
250.532	90.19
250.765	79.19
250.998	79.19
251.231	78.19
251.465	88.19
251.698	91.19
251.931	97.19
252.164	61.19
252.397	85.19
252.63	84.19
252.863	78.19
253.096	82.19
253.329	96.19
253.562	71.19
253.795	96.19
254.028	88.19
254.261	79.19
254.494	78.19
254.727	90.19
254.96	85.19
255.193	74.19
255.426	78.19
255.659	75.19
255.892	86.19
256.124	79.19
256.357	68.19
256.59	78.19
256.823	85.19
257.056	84.19
257.289	84.19
257.521	83.19
257.754	80.19
257.987	82.19
258.22	102.19
258.452	75.19
258.685	87.19
258.918	71.19
259.151	72.19
259.383	97.19
259.616	76.19
259.849	79.19
260.081	82.19
260.314	83.19
260.547	83.19
260.779	82.19
261.012	98.19
261.244	91.19
261.477	100.19
261.71	106.19
261.942	131.19
262.175	126.19
262.407	88.19
262.64	62.19
262.872	84.19
263.105	99.19
263.337	83.19
263.57	89.19
263.802	90.19
264.035	76.19
264.267	82.19
264.499	82.19
264.732	91.19
264.964	91.19
265.197	82.19
265.429	83.19
265.661	73.19
265.894	88.19
266.126	78.19
266.358	83.19
266.591	75.19
266.823	86.19
267.055	88.19
267.287	83.19
267.52	73.19
267.752	73.19
267.984	89.19
268.216	71.19
268.448	89.19
268.681	79.19
268.913	96.19
269.145	76.19
269.377	94.19
269.609	94.19
269.841	77.19
270.073	102.19
270.306	82.19
270.538	67.19
270.77	83.19
271.002	81.19
271.234	84.19
271.466	85.19
271.698	90.19
271.93	100.19
272.162	95.19
272.394	91.19
272.626	82.19
272.858	94.19
273.09	92.19
273.322	83.19
273.553	98.19
273.785	82.19
274.017	91.19
274.249	88.19
274.481	91.19
274.713	103.19
274.945	93.19
275.176	88.19
275.408	92.19
275.64	75.19
275.872	91.19
276.104	84.19
276.335	98.19
276.567	89.19
276.799	124.19
277.031	118.19
277.262	104.19
277.494	100.19
277.726	92.19
277.957	85.19
278.189	79.19
278.421	89.19
278.652	86.19
278.884	99.19
279.115	86.19
279.347	91.19
279.579	96.19
279.81	82.19
280.042	99.19
280.273	88.19
280.505	87.19
280.736	84.19
280.968	90.19
281.199	92.19
281.431	84.19
281.662	98.19
281.894	81.19
282.125	99.19
282.356	118.19
282.588	149.19
282.819	134.19
283.051	81.19
283.282	82.19
283.513	99.19
283.745	94.19
283.976	95.19
284.207	92.19
284.439	82.19
284.67	84.19
284.901	94.19
285.132	85.19
285.364	91.19
285.595	89.19
285.826	75.19
286.057	84.19
286.288	90.19
286.52	76.19
286.751	78.19
286.982	84.19
287.213	91.19
287.444	96.19
287.675	88.19
287.906	78.19
288.138	103.19
288.369	108.19
288.6	98.19
288.831	102.19
289.062	103.19
289.293	78.19
289.524	82.19
289.755	89.19
289.986	88.19
290.217	87.19
290.448	99.19
290.679	77.19
290.91	97.19
291.141	86.19
291.371	84.19
291.602	93.19
291.833	82.19
292.064	84.19
292.295	92.19
292.526	100.19
292.757	91.19
292.987	99.19
293.218	80.19
293.449	87.19
293.68	93.19
293.91	98.19
294.141	107.19
294.372	78.19
294.603	108.19
294.833	75.19
295.064	98.19
295.295	95.19
295.525	106.19
295.756	111.19
295.987	122.19
296.217	166.19
296.448	150.19
296.679	102.19
296.909	86.19
297.14	89.19
297.37	95.19
297.601	102.19
297.831	84.19
298.062	102.19
298.292	86.19
298.523	90.19
298.753	93.19
298.984	101.19
299.214	92.19
299.445	90.19
299.675	99.19
299.905	90.19
300.136	96.19
300.366	89.19
300.597	104.19
300.827	112.19
301.057	96.19
301.288	117.19
301.518	94.19
301.748	90.19
301.979	109.19
302.209	89.19
302.439	99.19
302.669	95.19
302.9	94.19
303.13	98.19
303.36	93.19
303.59	100.19
303.82	111.19
304.051	103.19
304.281	91.19
304.511	78.19
304.741	92.19
304.971	90.19
305.201	101.19
305.431	86.19
305.661	93.19
305.891	86.19
306.121	86.19
306.352	104.19
306.582	103.19
306.812	99.19
307.042	98.19
307.272	98.19
307.502	86.19
307.731	107.19
307.961	106.19
308.191	83.19
308.421	98.19
308.651	92.19
308.881	94.19
309.111	98.19
309.341	111.19
309.571	117.19
309.8	100.19
310.03	98.19
310.26	101.19
310.49	100.19
310.72	106.19
310.949	108.19
311.179	105.19
311.409	110.19
311.639	96.19
311.868	105.19
312.098	102.19
312.328	95.19
312.557	99.19
312.787	103.19
313.017	121.19
313.246	104.19
313.476	94.19
313.706	97.19
313.935	98.19
314.165	96.19
314.394	124.19
314.624	97.19
314.853	94.19
315.083	110.19
315.312	98.19
315.542	95.19
315.771	85.19
316.001	110.19
316.23	110.19
316.46	96.19
316.689	98.19
316.919	91.19
317.148	98.19
317.377	104.19
317.607	96.19
317.836	101.19
318.065	83.19
318.295	89.19
318.524	87.19
318.753	102.19
318.983	107.19
319.212	106.19
319.441	113.19
319.67	112.19
319.9	99.19
320.129	92.19
320.358	95.19
320.587	93.19
320.816	100.19
321.046	120.19
321.275	112.19
321.504	99.19
321.733	97.19
321.962	89.19
322.191	107.19
322.42	119.19
322.649	127.19
322.878	115.19
323.108	138.19
323.337	141.19
323.566	140.19
323.795	174.19
324.024	210.19
324.253	418.19
324.482	864.19
324.71	1762.19
324.939	2358.19
325.168	892.19
325.397	258.19
325.626	155.19
325.855	132.19
326.084	143.19
326.313	138.19
326.542	168.19
326.77	231.19
326.999	477.19
327.228	928.19
327.457	1687.19
327.686	1316.19
327.914	388.19
328.143	236.19
328.372	186.19
328.6	151.19
328.829	144.19
329.058	162.19
329.287	174.19
329.515	118.19
329.744	126.19
329.972	115.19
330.201	138.19
330.43	166.19
330.658	167.19
330.887	203.19
331.115	176.19
331.344	111.19
331.572	106.19
331.801	118.19
332.03	118.19
332.258	108.19
332.486	105.19
332.715	109.19
332.943	103.19
333.172	104.19
333.4	107.19
333.629	112.19
333.857	118.19
334.085	126.19
334.314	135.19
334.542	147.19
334.771	158.19
334.999	108.19
335.227	102.19
335.455	104.19
335.684	117.19
335.912	102.19
336.14	89.19
336.369	103.19
336.597	115.19
336.825	119.19
337.053	98.19
337.281	95.19
337.51	92.19
337.738	107.19
337.966	90.19
338.194	107.19
338.422	104.19
338.65	87.19
338.878	95.19
339.106	101.19
339.334	104.19
339.562	95.19
339.79	77.19
340.018	84.19
340.246	90.19
340.474	103.19
340.702	107.19
340.93	94.19
341.158	87.19
341.386	98.19
341.614	97.19
341.842	103.19
342.07	85.19
342.298	103.19
342.526	91.19
342.754	84.19
342.981	83.19
343.209	95.19
343.437	103.19
343.665	88.19
343.893	96.19
344.12	96.19
344.348	85.19
344.576	105.19
344.804	104.19
345.031	107.19
345.259	106.19
345.487	80.19
345.714	102.19
345.942	83.19
346.17	99.19
346.397	93.19
346.625	96.19
346.853	99.19
347.08	98.19
347.308	95.19
347.535	99.19
347.763	99.19
347.99	108.19
348.218	107.19
348.445	114.19
348.673	119.19
348.9	120.19
349.128	105.19
349.355	97.19
349.583	103.19
349.81	101.19
350.037	104.19
350.265	87.19
350.492	103.19
350.72	105.19
350.947	101.19
351.174	123.19
351.402	105.19
351.629	107.19
351.856	118.19
352.083	104.19
352.311	113.19
352.538	123.19
352.765	120.19
352.992	139.19
353.22	123.19
353.447	91.19
353.674	119.19
353.901	92.19
354.128	98.19
354.355	92.19
354.583	102.19
354.81	95.19
355.037	87.19
355.264	101.19
355.491	94.19
355.718	99.19
355.945	94.19
356.172	92.19
356.399	103.19
356.626	98.19
356.853	88.19
357.08	96.19
357.307	95.19
357.534	87.19
357.761	94.19
357.988	95.19
358.215	91.19
358.441	94.19
358.668	79.19
358.895	103.19
359.122	94.19
359.349	89.19
359.576	102.19
359.802	114.19
360.029	150.19
360.256	140.19
360.483	139.19
360.709	87.19
360.936	100.19
361.163	100.19
361.39	110.19
361.616	108.19
361.843	96.19
362.07	102.19
362.296	99.19
362.523	100.19
362.749	102.19
362.976	104.19
363.203	99.19
363.429	92.19
363.656	84.19
363.882	98.19
364.109	95.19
364.335	80.19
364.562	91.19
364.788	86.19
365.015	106.19
365.241	115.19
365.468	117.19
365.694	101.19
365.92	101.19
366.147	106.19
366.373	83.19
366.599	98.19
366.826	94.19
367.052	97.19
367.278	104.19
367.505	95.19
367.731	97.19
367.957	93.19
368.184	99.19
368.41	112.19
368.636	111.19
368.862	120.19
369.089	113.19
369.315	100.19
369.541	98.19
369.767	96.19
369.993	97.19
370.219	100.19
370.445	93.19
370.672	93.19
370.898	90.19
371.124	95.19
371.35	91.19
371.576	94.19
371.802	83.19
372.028	87.19
372.254	85.19
372.48	94.19
372.706	83.19
372.932	85.19
373.158	63.19
373.384	92.19
373.61	102.19
373.835	88.19
374.061	96.19
374.287	96.19
374.513	88.19
374.739	85.19
374.965	92.19
375.191	89.19
375.416	94.19
375.642	101.19
375.868	87.19
376.094	91.19
376.319	86.19
376.545	92.19
376.771	76.19
376.997	74.19
377.222	95.19
377.448	82.19
377.674	91.19
377.899	92.19
378.125	91.19
378.35	81.19
378.576	79.19
378.802	99.19
379.027	98.19
379.253	88.19
379.478	74.19
379.704	86.19
379.929	83.19
380.155	86.19
380.38	92.19
380.606	87.19
380.831	96.19
381.057	111.19
381.282	95.19
381.507	89.19
381.733	97.19
381.958	97.19
382.184	102.19
382.409	103.19
382.634	103.19
382.86	107.19
383.085	104.19
383.31	92.19
383.535	110.19
383.761	102.19
383.986	98.19
384.211	101.19
384.436	109.19
384.662	100.19
384.887	100.19
385.112	123.19
385.337	110.19
385.562	102.19
385.787	95.19
386.013	119.19
386.238	114.19
386.463	118.19
386.688	111.19
386.913	109.19
387.138	103.19
387.363	102.19
387.588	92.19
387.813	103.19
388.038	90.19
388.263	112.19
388.488	98.19
388.713	93.19
388.938	97.19
389.163	99.19
389.387	87.19
389.612	87.19
389.837	102.19
390.062	82.19
390.287	100.19
390.512	80.19
390.736	94.19
390.961	101.19
391.186	78.19
391.411	86.19
391.636	99.19
391.86	90.19
392.085	100.19
392.31	89.19
392.534	100.19
392.759	83.19
392.984	91.19
393.208	102.19
393.433	100.19
393.658	105.19
393.882	104.19
394.107	88.19
394.331	92.19
394.556	90.19
394.78	110.19
395.005	90.19
395.229	91.19
395.454	103.19
395.678	99.19
395.903	89.19
396.127	90.19
396.352	88.19
396.576	94.19
396.801	92.19
397.025	98.19
397.249	104.19
397.474	83.19
397.698	83.19
397.922	99.19
398.147	68.19
398.371	88.19
398.595	94.19
398.82	95.19
399.044	88.19
399.268	83.19
399.492	97.19
399.717	94.19
399.941	90.19
400.165	93.19
400.389	97.19
400.613	100.19
400.837	94.19
401.062	95.19
401.286	76.19
401.51	83.19
401.734	95.19
401.958	109.19
402.182	145.19
402.406	174.19
402.63	132.19
402.854	112.19
403.078	95.19
403.302	95.19
403.526	96.19
403.75	98.19
403.974	88.19
404.198	84.19
404.422	93.19
404.645	88.19
404.869	92.19
405.093	107.19
405.317	112.19
405.541	118.19
405.765	117.19
405.988	122.19
406.212	200.19
406.436	306.19
406.66	194.19
406.883	120.19
407.107	112.19
407.331	124.19
407.555	110.19
407.778	100.19
408.002	107.19
408.226	105.19
408.449	86.19
408.673	107.19
408.896	86.19
409.12	94.19
409.344	83.19
409.567	102.19
409.791	89.19
410.014	93.19
410.238	93.19
410.461	101.19
410.685	104.19
410.908	120.19
411.132	94.19
411.355	94.19
411.578	98.19
411.802	83.19
412.025	102.19
412.249	104.19
412.472	101.19
412.695	102.19
412.919	96.19
413.142	98.19
413.365	94.19
413.589	94.19
413.812	86.19
414.035	92.19
414.258	93.19
414.482	78.19
414.705	94.19
414.928	98.19
415.151	87.19
415.374	99.19
415.597	93.19
415.821	95.19
416.044	103.19
416.267	92.19
416.49	83.19
416.713	93.19
416.936	82.19
417.159	90.19
417.382	99.19
417.605	100.19
417.828	98.19
418.051	98.19
418.274	75.19
418.497	89.19
418.72	88.19
418.943	91.19
419.166	93.19
419.389	89.19
419.611	94.19
419.834	89.19
420.057	94.19
420.28	90.19
420.503	95.19
420.726	82.19
420.948	86.19
421.171	108.19
421.394	107.19
421.617	91.19
421.839	92.19
422.062	101.19
422.285	100.19
422.507	99.19
422.73	111.19
422.953	101.19
423.175	97.19
423.398	90.19
423.621	88.19
423.843	79.19
424.066	90.19
424.288	94.19
424.511	88.19
424.733	103.19
424.956	107.19
425.178	104.19
425.401	87.19
425.623	104.19
425.846	96.19
426.068	92.19
426.291	112.19
426.513	99.19
426.735	91.19
426.958	95.19
427.18	124.19
427.402	137.19
427.625	218.19
427.847	175.19
428.069	132.19
428.292	98.19
428.514	98.19
428.736	86.19
428.958	100.19
429.181	99.19
429.403	96.19
429.625	92.19
429.847	105.19
430.069	94.19
430.292	93.19
430.514	86.19
430.736	93.19
430.958	97.19
431.18	79.19
431.402	98.19
431.624	95.19
431.846	72.19
432.068	88.19
432.29	90.19
432.512	98.19
432.734	94.19
432.956	90.19
433.178	108.19
433.4	102.19
433.622	97.19
433.844	93.19
434.066	91.19
434.287	89.19
434.509	85.19
434.731	84.19
434.953	99.19
435.175	94.19
435.397	86.19
435.618	97.19
435.84	110.19
436.062	129.19
436.284	112.19
436.505	111.19
436.727	98.19
436.949	82.19
437.17	97.19
437.392	82.19
437.614	100.19
437.835	131.19
438.057	142.19
438.278	119.19
438.5	111.19
438.721	142.19
438.943	110.19
439.165	100.19
439.386	91.19
439.608	89.19
439.829	116.19
440.05	150.19
440.272	157.19
440.493	107.19
440.715	101.19
440.936	94.19
441.158	113.19
441.379	87.19
441.6	96.19
441.822	104.19
442.043	109.19
442.264	122.19
442.486	107.19
442.707	92.19
442.928	115.19
443.149	167.19
443.371	172.19
443.592	125.19
443.813	138.19
444.034	121.19
444.255	91.19
444.476	104.19
444.698	110.19
444.919	86.19
445.14	134.19
445.361	135.19
445.582	137.19
445.803	165.19
446.024	147.19
446.245	153.19
446.466	128.19
446.687	85.19
446.908	100.19
447.129	96.19
447.35	100.19
447.571	98.19
447.792	95.19
448.013	98.19
448.234	131.19
448.455	113.19
448.675	128.19
448.896	107.19
449.117	105.19
449.338	111.19
449.559	150.19
449.779	144.19
450	112.19
450.221	88.19
450.442	91.19
450.662	101.19
450.883	110.19
451.104	136.19
451.324	110.19
451.545	85.19
451.766	70.19
451.986	97.19
452.207	94.19
452.428	92.19
452.648	105.19
452.869	114.19
453.089	134.19
453.31	137.19
453.53	96.19
453.751	98.19
453.971	132.19
454.192	127.19
454.412	115.19
454.633	101.19
454.853	100.19
455.073	101.19
455.294	108.19
455.514	104.19
455.734	75.19
455.955	95.19
456.175	90.19
456.395	84.19
456.616	84.19
456.836	100.19
457.056	87.19
457.276	76.19
457.497	77.19
457.717	91.19
457.937	93.19
458.157	84.19
458.377	91.19
458.598	117.19
458.818	202.19
459.038	231.19
459.258	138.19
459.478	110.19
459.698	99.19
459.918	96.19
460.138	90.19
460.358	86.19
460.578	95.19
460.798	90.19
461.018	89.19
461.238	101.19
461.458	84.19
461.678	82.19
461.898	90.19
462.118	85.19
462.338	91.19
462.558	87.19
462.777	78.19
462.997	78.19
463.217	73.19
463.437	88.19
463.657	80.19
463.876	100.19
464.096	100.19
464.316	109.19
464.536	112.19
464.755	99.19
464.975	115.19
465.195	222.19
465.414	237.19
465.634	102.19
465.854	85.19
466.073	93.19
466.293	89.19
466.512	77.19
466.732	82.19
466.951	86.19
467.171	87.19
467.391	96.19
467.61	89.19
467.829	97.19
468.049	104.19
468.268	110.19
468.488	88.19
468.707	79.19
468.927	91.19
469.146	79.19
469.365	83.19
469.585	100.19
469.804	94.19
470.023	116.19
470.243	78.19
470.462	108.19
470.681	126.19
470.901	88.19
471.12	100.19
471.339	94.19
471.558	82.19
471.777	80.19
471.997	103.19
472.216	125.19
472.435	170.19
472.654	107.19
472.873	99.19
473.092	87.19
473.311	102.19
473.53	90.19
473.749	77.19
473.968	98.19
474.187	110.19
474.406	96.19
474.625	93.19
474.844	93.19
475.063	82.19
475.282	79.19
475.501	99.19
475.72	98.19
475.939	72.19
476.158	77.19
476.377	94.19
476.596	105.19
476.814	98.19
477.033	97.19
477.252	83.19
477.471	87.19
477.69	91.19
477.908	106.19
478.127	88.19
478.346	79.19
478.564	102.19
478.783	109.19
479.002	109.19
479.22	95.19
479.439	96.19
479.658	112.19
479.876	104.19
480.095	93.19
480.313	102.19
480.532	88.19
480.751	107.19
480.969	126.19
481.188	247.19
481.406	181.19
481.624	105.19
481.843	95.19
482.061	93.19
482.28	90.19
482.498	95.19
482.717	91.19
482.935	93.19
483.153	101.19
483.372	86.19
483.59	103.19
483.808	98.19
484.027	87.19
484.245	103.19
484.463	98.19
484.681	97.19
484.9	95.19
485.118	82.19
485.336	84.19
485.554	99.19
485.772	107.19
485.99	113.19
486.209	108.19
486.427	104.19
486.645	125.19
486.863	124.19
487.081	118.19
487.299	91.19
487.517	84.19
487.735	91.19
487.953	90.19
488.171	88.19
488.389	106.19
488.607	104.19
488.825	82.19
489.043	88.19
489.261	86.19
489.479	95.19
489.696	88.19
489.914	98.19
490.132	90.19
490.35	90.19
490.568	78.19
490.786	84.19
491.003	98.19
491.221	90.19
491.439	84.19
491.657	99.19
491.874	113.19
492.092	100.19
492.31	93.19
492.527	85.19
492.745	87.19
492.963	91.19
493.18	88.19
493.398	93.19
493.615	107.19
493.833	92.19
494.05	99.19
494.268	84.19
494.485	88.19
494.703	102.19
494.92	85.19
495.138	85.19
495.355	99.19
495.573	78.19
495.79	99.19
496.008	103.19
496.225	96.19
496.442	92.19
496.66	72.19
496.877	84.19
497.094	106.19
497.312	82.19
497.529	74.19
497.746	87.19
497.963	98.19
498.181	100.19
498.398	99.19
498.615	107.19
498.832	100.19
499.049	89.19
499.267	88.19
499.484	98.19
499.701	95.19
499.918	91.19
500.135	112.19
500.352	102.19
500.569	87.19
500.786	91.19
501.003	77.19
501.22	91.19
501.437	97.19
501.654	109.19
501.871	121.19
502.088	101.19
502.305	90.19
502.522	102.19
502.739	102.19
502.956	102.19
503.172	93.19
503.389	108.19
503.606	124.19
503.823	109.19
504.04	93.19
504.256	102.19
504.473	88.19
504.69	93.19
504.907	93.19
505.123	89.19
505.34	90.19
505.557	106.19
505.773	91.19
505.99	87.19
506.207	83.19
506.423	103.19
506.64	77.19
506.856	94.19
507.073	96.19
507.289	107.19
507.506	103.19
507.722	134.19
507.939	136.19
508.155	107.19
508.372	91.19
508.588	97.19
508.805	99.19
509.021	102.19
509.238	102.19
509.454	92.19
509.67	111.19
509.887	124.19
510.103	142.19
510.319	218.19
510.536	890.19
510.752	3094.19
510.968	827.19
511.184	174.19
511.401	130.19
511.617	115.19
511.833	98.19
512.049	112.19
512.265	95.19
512.481	90.19
512.698	92.19
512.914	116.19
513.13	102.19
513.346	89.19
513.562	107.19
