Data from Circ_1981_H10_HRD10591_00079.txt Node
Date: Wed Jan 03 12:34:36 EST 2024
User: Yrep
Spectrometer: HR+D1059
Trigger mode: 1
Integration Time (sec): 1.000000E-1
Scans to average: 1
Electric dark correction enabled: true
Nonlinearity correction enabled: false
Boxcar width: 0
XAxis mode: Wavelengths
Number of Pixels in Spectrum: 2048
>>>>>Begin Spectral Data<<<<<
223.165	-1.62
223.4	-1.62
223.635	-1.62
223.869	-8.62
224.104	-27.62
224.338	-4.62
224.573	-31.62
224.808	-12.62
225.042	0.38
225.277	-3.62
225.511	14.38
225.746	4.38
225.98	-11.62
226.215	-5.62
226.449	15.38
226.683	18.38
226.918	25.38
227.152	29.38
227.387	41.38
227.621	33.38
227.856	34.38
228.09	36.38
228.324	53.38
228.559	47.38
228.793	58.38
229.027	68.38
229.262	62.38
229.496	86.38
229.73	89.38
229.964	97.38
230.199	74.38
230.433	90.38
230.667	74.38
230.901	81.38
231.136	83.38
231.37	84.38
231.604	77.38
231.838	87.38
232.072	83.38
232.306	82.38
232.541	81.38
232.775	82.38
233.009	73.38
233.243	70.38
233.477	76.38
233.711	83.38
233.945	68.38
234.179	76.38
234.413	86.38
234.647	91.38
234.881	80.38
235.115	83.38
235.349	88.38
235.583	76.38
235.817	85.38
236.051	80.38
236.285	93.38
236.519	80.38
236.753	71.38
236.987	94.38
237.221	102.38
237.455	92.38
237.689	76.38
237.922	61.38
238.156	59.38
238.39	72.38
238.624	83.38
238.858	77.38
239.091	85.38
239.325	87.38
239.559	69.38
239.793	91.38
240.027	85.38
240.26	88.38
240.494	98.38
240.728	89.38
240.961	71.38
241.195	77.38
241.429	68.38
241.662	79.38
241.896	78.38
242.13	84.38
242.363	78.38
242.597	63.38
242.83	75.38
243.064	89.38
243.298	93.38
243.531	76.38
243.765	76.38
243.998	86.38
244.232	90.38
244.465	73.38
244.699	89.38
244.932	64.38
245.166	75.38
245.399	87.38
245.633	82.38
245.866	85.38
246.099	85.38
246.333	81.38
246.566	79.38
246.8	85.38
247.033	85.38
247.266	83.38
247.5	91.38
247.733	73.38
247.966	86.38
248.2	75.38
248.433	78.38
248.666	88.38
248.899	91.38
249.133	104.38
249.366	111.38
249.599	101.38
249.832	73.38
250.066	89.38
250.299	77.38
250.532	93.38
250.765	60.38
250.998	70.38
251.231	78.38
251.465	97.38
251.698	83.38
251.931	92.38
252.164	79.38
252.397	83.38
252.63	91.38
252.863	90.38
253.096	73.38
253.329	95.38
253.562	73.38
253.795	85.38
254.028	78.38
254.261	82.38
254.494	86.38
254.727	72.38
254.96	73.38
255.193	78.38
255.426	68.38
255.659	70.38
255.892	93.38
256.124	91.38
256.357	94.38
256.59	84.38
256.823	89.38
257.056	82.38
257.289	89.38
257.521	75.38
257.754	75.38
257.987	72.38
258.22	85.38
258.452	90.38
258.685	89.38
258.918	85.38
259.151	74.38
259.383	93.38
259.616	77.38
259.849	94.38
260.081	89.38
260.314	93.38
260.547	81.38
260.779	78.38
261.012	82.38
261.244	85.38
261.477	98.38
261.71	97.38
261.942	136.38
262.175	140.38
262.407	98.38
262.64	81.38
262.872	92.38
263.105	92.38
263.337	79.38
263.57	92.38
263.802	83.38
264.035	72.38
264.267	84.38
264.499	83.38
264.732	83.38
264.964	93.38
265.197	90.38
265.429	92.38
265.661	87.38
265.894	95.38
266.126	92.38
266.358	79.38
266.591	83.38
266.823	84.38
267.055	78.38
267.287	101.38
267.52	81.38
267.752	76.38
267.984	87.38
268.216	83.38
268.448	91.38
268.681	79.38
268.913	93.38
269.145	84.38
269.377	90.38
269.609	86.38
269.841	88.38
270.073	88.38
270.306	88.38
270.538	89.38
270.77	90.38
271.002	94.38
271.234	79.38
271.466	81.38
271.698	87.38
271.93	87.38
272.162	102.38
272.394	85.38
272.626	91.38
272.858	92.38
273.09	79.38
273.322	85.38
273.553	87.38
273.785	82.38
274.017	97.38
274.249	87.38
274.481	83.38
274.713	77.38
274.945	85.38
275.176	76.38
275.408	95.38
275.64	103.38
275.872	102.38
276.104	80.38
276.335	91.38
276.567	112.38
276.799	124.38
277.031	115.38
277.262	102.38
277.494	95.38
277.726	81.38
277.957	85.38
278.189	93.38
278.421	84.38
278.652	100.38
278.884	96.38
279.115	72.38
279.347	81.38
279.579	77.38
279.81	92.38
280.042	84.38
280.273	98.38
280.505	102.38
280.736	88.38
280.968	70.38
281.199	78.38
281.431	76.38
281.662	90.38
281.894	94.38
282.125	97.38
282.356	117.38
282.588	178.38
282.819	136.38
283.051	87.38
283.282	80.38
283.513	96.38
283.745	90.38
283.976	89.38
284.207	94.38
284.439	99.38
284.67	97.38
284.901	83.38
285.132	94.38
285.364	92.38
285.595	90.38
285.826	91.38
286.057	81.38
286.288	101.38
286.52	100.38
286.751	88.38
286.982	96.38
287.213	94.38
287.444	91.38
287.675	106.38
287.906	97.38
288.138	100.38
288.369	99.38
288.6	94.38
288.831	88.38
289.062	97.38
289.293	96.38
289.524	87.38
289.755	74.38
289.986	100.38
290.217	94.38
290.448	97.38
290.679	94.38
290.91	85.38
291.141	85.38
291.371	91.38
291.602	92.38
291.833	94.38
292.064	90.38
292.295	82.38
292.526	99.38
292.757	96.38
292.987	91.38
293.218	85.38
293.449	91.38
293.68	91.38
293.91	89.38
294.141	90.38
294.372	77.38
294.603	78.38
294.833	93.38
295.064	97.38
295.295	93.38
295.525	100.38
295.756	119.38
295.987	138.38
296.217	142.38
296.448	156.38
296.679	103.38
296.909	104.38
297.14	87.38
297.37	87.38
297.601	95.38
297.831	90.38
298.062	113.38
298.292	97.38
298.523	83.38
298.753	93.38
298.984	101.38
299.214	104.38
299.445	103.38
299.675	85.38
299.905	87.38
300.136	90.38
300.366	87.38
300.597	85.38
300.827	102.38
301.057	97.38
301.288	116.38
301.518	103.38
301.748	93.38
301.979	91.38
302.209	93.38
302.439	101.38
302.669	91.38
302.9	83.38
303.13	82.38
303.36	94.38
303.59	115.38
303.82	111.38
304.051	91.38
304.281	114.38
304.511	96.38
304.741	101.38
304.971	87.38
305.201	98.38
305.431	89.38
305.661	104.38
305.891	96.38
306.121	89.38
306.352	120.38
306.582	104.38
306.812	104.38
307.042	81.38
307.272	103.38
307.502	105.38
307.731	97.38
307.961	79.38
308.191	97.38
308.421	96.38
308.651	84.38
308.881	84.38
309.111	96.38
309.341	92.38
309.571	110.38
309.8	99.38
310.03	110.38
310.26	105.38
310.49	105.38
310.72	108.38
310.949	115.38
311.179	98.38
311.409	81.38
311.639	97.38
311.868	102.38
312.098	98.38
312.328	106.38
312.557	100.38
312.787	122.38
313.017	122.38
313.246	113.38
313.476	106.38
313.706	97.38
313.935	86.38
314.165	125.38
314.394	101.38
314.624	111.38
314.853	87.38
315.083	85.38
315.312	98.38
315.542	111.38
315.771	88.38
316.001	89.38
316.23	95.38
316.46	89.38
316.689	96.38
316.919	96.38
317.148	105.38
317.377	99.38
317.607	109.38
317.836	102.38
318.065	95.38
318.295	90.38
318.524	91.38
318.753	102.38
318.983	105.38
319.212	108.38
319.441	107.38
319.67	118.38
319.9	102.38
320.129	104.38
320.358	109.38
320.587	106.38
320.816	98.38
321.046	117.38
321.275	103.38
321.504	93.38
321.733	91.38
321.962	99.38
322.191	106.38
322.42	119.38
322.649	131.38
322.878	117.38
323.108	121.38
323.337	130.38
323.566	138.38
323.795	187.38
324.024	247.38
324.253	485.38
324.482	1046.38
324.71	2155.38
324.939	2921.38
325.168	1042.38
325.397	291.38
325.626	154.38
325.855	140.38
326.084	131.38
326.313	135.38
326.542	180.38
326.77	263.38
326.999	553.38
327.228	1123.38
327.457	2101.38
327.686	1716.38
327.914	461.38
328.143	247.38
328.372	202.38
328.6	155.38
328.829	135.38
329.058	161.38
329.287	153.38
329.515	143.38
329.744	113.38
329.972	111.38
330.201	130.38
330.43	151.38
330.658	163.38
330.887	211.38
331.115	173.38
331.344	113.38
331.572	117.38
331.801	118.38
332.03	108.38
332.258	100.38
332.486	86.38
332.715	101.38
332.943	87.38
333.172	101.38
333.4	110.38
333.629	110.38
333.857	109.38
334.085	109.38
334.314	120.38
334.542	168.38
334.771	159.38
334.999	121.38
335.227	116.38
335.455	106.38
335.684	90.38
335.912	92.38
336.14	97.38
336.369	111.38
336.597	109.38
336.825	99.38
337.053	98.38
337.281	91.38
337.51	77.38
337.738	109.38
337.966	100.38
338.194	105.38
338.422	104.38
338.65	107.38
338.878	100.38
339.106	98.38
339.334	87.38
339.562	88.38
339.79	97.38
340.018	97.38
340.246	95.38
340.474	105.38
340.702	95.38
340.93	100.38
341.158	91.38
341.386	89.38
341.614	107.38
341.842	96.38
342.07	99.38
342.298	81.38
342.526	103.38
342.754	90.38
342.981	91.38
343.209	87.38
343.437	94.38
343.665	91.38
343.893	100.38
344.12	102.38
344.348	82.38
344.576	91.38
344.804	76.38
345.031	94.38
345.259	121.38
345.487	110.38
345.714	83.38
345.942	81.38
346.17	90.38
346.397	98.38
346.625	102.38
346.853	91.38
347.08	90.38
347.308	93.38
347.535	102.38
347.763	117.38
347.99	100.38
348.218	106.38
348.445	118.38
348.673	106.38
348.9	89.38
349.128	100.38
349.355	78.38
349.583	85.38
349.81	96.38
350.037	94.38
350.265	91.38
350.492	104.38
350.72	104.38
350.947	105.38
351.174	124.38
351.402	128.38
351.629	116.38
351.856	110.38
352.083	107.38
352.311	117.38
352.538	132.38
352.765	114.38
352.992	119.38
353.22	124.38
353.447	105.38
353.674	111.38
353.901	87.38
354.128	90.38
354.355	109.38
354.583	93.38
354.81	98.38
355.037	99.38
355.264	93.38
355.491	93.38
355.718	98.38
355.945	86.38
356.172	101.38
356.399	96.38
356.626	87.38
356.853	106.38
357.08	86.38
357.307	106.38
357.534	97.38
357.761	96.38
357.988	80.38
358.215	92.38
358.441	102.38
358.668	95.38
358.895	79.38
359.122	93.38
359.349	94.38
359.576	93.38
359.802	123.38
360.029	133.38
360.256	147.38
360.483	103.38
360.709	91.38
360.936	89.38
361.163	89.38
361.39	106.38
361.616	102.38
361.843	97.38
362.07	84.38
362.296	110.38
362.523	99.38
362.749	105.38
362.976	94.38
363.203	97.38
363.429	99.38
363.656	100.38
363.882	94.38
364.109	99.38
364.335	89.38
364.562	116.38
364.788	102.38
365.015	109.38
365.241	112.38
365.468	129.38
365.694	115.38
365.92	105.38
366.147	88.38
366.373	111.38
366.599	88.38
366.826	102.38
367.052	102.38
367.278	94.38
367.505	90.38
367.731	99.38
367.957	94.38
368.184	91.38
368.41	116.38
368.636	124.38
368.862	124.38
369.089	119.38
369.315	92.38
369.541	88.38
369.767	103.38
369.993	97.38
370.219	108.38
370.445	99.38
370.672	97.38
370.898	85.38
371.124	89.38
371.35	89.38
371.576	102.38
371.802	79.38
372.028	87.38
372.254	90.38
372.48	85.38
372.706	86.38
372.932	94.38
373.158	105.38
373.384	108.38
373.61	90.38
373.835	96.38
374.061	70.38
374.287	90.38
374.513	97.38
374.739	100.38
374.965	89.38
375.191	90.38
375.416	102.38
375.642	98.38
375.868	94.38
376.094	103.38
376.319	100.38
376.545	99.38
376.771	83.38
376.997	102.38
377.222	91.38
377.448	102.38
377.674	102.38
377.899	102.38
378.125	95.38
378.35	85.38
378.576	80.38
378.802	86.38
379.027	91.38
379.253	78.38
379.478	102.38
379.704	107.38
379.929	88.38
380.155	110.38
380.38	93.38
380.606	99.38
380.831	103.38
381.057	98.38
381.282	94.38
381.507	87.38
381.733	102.38
381.958	93.38
382.184	90.38
382.409	91.38
382.634	87.38
382.86	93.38
383.085	101.38
383.31	93.38
383.535	95.38
383.761	90.38
383.986	98.38
384.211	95.38
384.436	98.38
384.662	110.38
384.887	100.38
385.112	95.38
385.337	95.38
385.562	93.38
385.787	110.38
386.013	118.38
386.238	111.38
386.463	100.38
386.688	104.38
386.913	109.38
387.138	108.38
387.363	94.38
387.588	110.38
387.813	92.38
388.038	100.38
388.263	106.38
388.488	107.38
388.713	92.38
388.938	105.38
389.163	100.38
389.387	98.38
389.612	99.38
389.837	95.38
390.062	104.38
390.287	85.38
390.512	91.38
390.736	90.38
390.961	87.38
391.186	93.38
391.411	101.38
391.636	88.38
391.86	97.38
392.085	82.38
392.31	81.38
392.534	86.38
392.759	86.38
392.984	89.38
393.208	94.38
393.433	98.38
393.658	94.38
393.882	85.38
394.107	101.38
394.331	97.38
394.556	93.38
394.78	78.38
395.005	92.38
395.229	89.38
395.454	94.38
395.678	94.38
395.903	90.38
396.127	115.38
396.352	89.38
396.576	83.38
396.801	89.38
397.025	104.38
397.249	93.38
397.474	92.38
397.698	75.38
397.922	92.38
398.147	75.38
398.371	87.38
398.595	80.38
398.82	93.38
399.044	86.38
399.268	89.38
399.492	95.38
399.717	90.38
399.941	93.38
400.165	105.38
400.389	89.38
400.613	105.38
400.837	86.38
401.062	83.38
401.286	86.38
401.51	105.38
401.734	72.38
401.958	91.38
402.182	141.38
402.406	209.38
402.63	152.38
402.854	113.38
403.078	83.38
403.302	98.38
403.526	99.38
403.75	85.38
403.974	83.38
404.198	85.38
404.422	79.38
404.645	87.38
404.869	100.38
405.093	104.38
405.317	124.38
405.541	125.38
405.765	105.38
405.988	124.38
406.212	206.38
406.436	287.38
406.66	178.38
406.883	122.38
407.107	104.38
407.331	115.38
407.555	124.38
407.778	104.38
408.002	94.38
408.226	92.38
408.449	82.38
408.673	78.38
408.896	101.38
409.12	85.38
409.344	99.38
409.567	94.38
409.791	89.38
410.014	95.38
410.238	100.38
410.461	94.38
410.685	92.38
410.908	118.38
411.132	104.38
411.355	99.38
411.578	103.38
411.802	86.38
412.025	84.38
412.249	85.38
412.472	97.38
412.695	98.38
412.919	94.38
413.142	110.38
413.365	89.38
413.589	85.38
413.812	96.38
414.035	93.38
414.258	94.38
414.482	85.38
414.705	88.38
414.928	101.38
415.151	95.38
415.374	86.38
415.597	98.38
415.821	81.38
416.044	98.38
416.267	92.38
416.49	85.38
416.713	79.38
416.936	97.38
417.159	88.38
417.382	82.38
417.605	94.38
417.828	88.38
418.051	86.38
418.274	94.38
418.497	76.38
418.72	95.38
418.943	88.38
419.166	88.38
419.389	84.38
419.611	97.38
419.834	88.38
420.057	99.38
420.28	90.38
420.503	73.38
420.726	79.38
420.948	88.38
421.171	98.38
421.394	92.38
421.617	77.38
421.839	89.38
422.062	93.38
422.285	94.38
422.507	98.38
422.73	110.38
422.953	101.38
423.175	85.38
423.398	94.38
423.621	103.38
423.843	93.38
424.066	74.38
424.288	103.38
424.511	89.38
424.733	103.38
424.956	121.38
425.178	121.38
425.401	117.38
425.623	101.38
425.846	102.38
426.068	89.38
426.291	99.38
426.513	90.38
426.735	112.38
426.958	104.38
427.18	110.38
427.402	191.38
427.625	231.38
427.847	175.38
428.069	127.38
428.292	95.38
428.514	76.38
428.736	98.38
428.958	81.38
429.181	86.38
429.403	89.38
429.625	84.38
429.847	99.38
430.069	98.38
430.292	94.38
430.514	82.38
430.736	86.38
430.958	89.38
431.18	89.38
431.402	83.38
431.624	78.38
431.846	83.38
432.068	94.38
432.29	89.38
432.512	82.38
432.734	98.38
432.956	86.38
433.178	102.38
433.4	113.38
433.622	99.38
433.844	89.38
434.066	97.38
434.287	105.38
434.509	84.38
434.731	83.38
434.953	94.38
435.175	97.38
435.397	112.38
435.618	104.38
435.84	121.38
436.062	145.38
436.284	124.38
436.505	108.38
436.727	122.38
436.949	101.38
437.17	89.38
437.392	91.38
437.614	103.38
437.835	120.38
438.057	157.38
438.278	149.38
438.5	131.38
438.721	153.38
438.943	128.38
439.165	81.38
439.386	89.38
439.608	97.38
439.829	110.38
440.05	152.38
440.272	181.38
440.493	124.38
440.715	98.38
440.936	103.38
441.158	90.38
441.379	89.38
441.6	92.38
441.822	100.38
442.043	105.38
442.264	127.38
442.486	109.38
442.707	96.38
442.928	127.38
443.149	179.38
443.371	159.38
443.592	136.38
443.813	134.38
444.034	115.38
444.255	105.38
444.476	96.38
444.698	93.38
444.919	111.38
445.14	154.38
445.361	135.38
445.582	149.38
445.803	180.38
446.024	190.38
446.245	199.38
446.466	147.38
446.687	104.38
446.908	85.38
447.129	107.38
447.35	91.38
447.571	92.38
447.792	88.38
448.013	97.38
448.234	117.38
448.455	123.38
448.675	141.38
448.896	155.38
449.117	113.38
449.338	110.38
449.559	148.38
449.779	173.38
450	104.38
450.221	89.38
450.442	102.38
450.662	107.38
450.883	130.38
451.104	135.38
451.324	103.38
451.545	101.38
451.766	92.38
451.986	86.38
452.207	91.38
452.428	109.38
452.648	103.38
452.869	116.38
453.089	124.38
453.31	137.38
453.53	104.38
453.751	96.38
453.971	132.38
454.192	131.38
454.412	86.38
454.633	101.38
454.853	92.38
455.073	91.38
455.294	98.38
455.514	109.38
455.734	97.38
455.955	85.38
456.175	87.38
456.395	84.38
456.616	98.38
456.836	94.38
457.056	96.38
457.276	90.38
457.497	89.38
457.717	71.38
457.937	93.38
458.157	80.38
458.377	97.38
458.598	134.38
458.818	189.38
459.038	221.38
459.258	141.38
459.478	97.38
459.698	91.38
459.918	83.38
460.138	93.38
460.358	88.38
460.578	87.38
460.798	90.38
461.018	95.38
461.238	93.38
461.458	87.38
461.678	99.38
461.898	97.38
462.118	77.38
462.338	81.38
462.558	98.38
462.777	90.38
462.997	97.38
463.217	84.38
463.437	86.38
463.657	84.38
463.876	102.38
464.096	94.38
464.316	101.38
464.536	96.38
464.755	106.38
464.975	105.38
465.195	228.38
465.414	227.38
465.634	110.38
465.854	87.38
466.073	87.38
466.293	99.38
466.512	91.38
466.732	85.38
466.951	86.38
467.171	97.38
467.391	87.38
467.61	113.38
467.829	102.38
468.049	108.38
468.268	107.38
468.488	79.38
468.707	93.38
468.927	94.38
469.146	83.38
469.365	89.38
469.585	77.38
469.804	95.38
470.023	97.38
470.243	112.38
470.462	105.38
470.681	132.38
470.901	98.38
471.12	85.38
471.339	77.38
471.558	81.38
471.777	93.38
471.997	101.38
472.216	130.38
472.435	194.38
472.654	104.38
472.873	87.38
473.092	91.38
473.311	93.38
473.53	77.38
473.749	103.38
473.968	104.38
474.187	129.38
474.406	113.38
474.625	84.38
474.844	95.38
475.063	85.38
475.282	91.38
475.501	104.38
475.72	95.38
475.939	98.38
476.158	85.38
476.377	90.38
476.596	106.38
476.814	81.38
477.033	99.38
477.252	85.38
477.471	89.38
477.69	96.38
477.908	95.38
478.127	85.38
478.346	92.38
478.564	89.38
478.783	105.38
479.002	94.38
479.22	105.38
479.439	119.38
479.658	120.38
479.876	98.38
480.095	103.38
480.313	100.38
480.532	112.38
480.751	91.38
480.969	131.38
481.188	246.38
481.406	178.38
481.624	100.38
481.843	104.38
482.061	88.38
482.28	90.38
482.498	93.38
482.717	100.38
482.935	101.38
483.153	85.38
483.372	84.38
483.59	88.38
483.808	95.38
484.027	92.38
484.245	100.38
484.463	86.38
484.681	100.38
484.9	94.38
485.118	105.38
485.336	102.38
485.554	106.38
485.772	114.38
485.99	99.38
486.209	95.38
486.427	110.38
486.645	117.38
486.863	136.38
487.081	119.38
487.299	97.38
487.517	100.38
487.735	100.38
487.953	105.38
488.171	86.38
488.389	102.38
488.607	98.38
488.825	90.38
489.043	97.38
489.261	98.38
489.479	96.38
489.696	91.38
489.914	91.38
490.132	93.38
490.35	85.38
490.568	85.38
490.786	86.38
491.003	102.38
491.221	94.38
491.439	88.38
491.657	89.38
491.874	106.38
492.092	77.38
492.31	91.38
492.527	95.38
492.745	102.38
492.963	93.38
493.18	97.38
493.398	91.38
493.615	97.38
493.833	105.38
494.05	76.38
494.268	92.38
494.485	81.38
494.703	89.38
494.92	85.38
495.138	91.38
495.355	95.38
495.573	91.38
495.79	95.38
496.008	110.38
496.225	99.38
496.442	85.38
496.66	85.38
496.877	92.38
497.094	88.38
497.312	75.38
497.529	83.38
497.746	91.38
497.963	103.38
498.181	101.38
498.398	105.38
498.615	115.38
498.832	107.38
499.049	95.38
499.267	88.38
499.484	90.38
499.701	84.38
499.918	83.38
500.135	81.38
500.352	99.38
500.569	78.38
500.786	105.38
501.003	97.38
501.22	93.38
501.437	100.38
501.654	97.38
501.871	121.38
502.088	85.38
502.305	86.38
502.522	95.38
502.739	114.38
502.956	94.38
503.172	90.38
503.389	90.38
503.606	115.38
503.823	102.38
504.04	96.38
504.256	99.38
504.473	96.38
504.69	97.38
504.907	95.38
505.123	94.38
505.34	86.38
505.557	97.38
505.773	78.38
505.99	92.38
506.207	92.38
506.423	92.38
506.64	98.38
506.856	85.38
507.073	78.38
507.289	91.38
507.506	102.38
507.722	135.38
507.939	131.38
508.155	114.38
508.372	88.38
508.588	98.38
508.805	99.38
509.021	107.38
509.238	99.38
509.454	93.38
509.67	111.38
509.887	124.38
510.103	139.38
510.319	229.38
510.536	869.38
510.752	2963.38
510.968	781.38
511.184	187.38
511.401	143.38
511.617	105.38
511.833	110.38
512.049	97.38
512.265	105.38
512.481	98.38
512.698	98.38
512.914	96.38
513.13	90.38
513.346	102.38
513.562	94.38
513.778	106.38
