Data from Circ_1981_H10_HRD10591_00021.txt Node
Date: Wed Jan 03 12:34:25 EST 2024
User: Yrep
Spectrometer: HR+D1059
Trigger mode: 1
Integration Time (sec): 1.000000E-1
Scans to average: 1
Electric dark correction enabled: true
Nonlinearity correction enabled: false
Boxcar width: 0
XAxis mode: Wavelengths
Number of Pixels in Spectrum: 2048
>>>>>Begin Spectral Data<<<<<
223.165	-26.19
223.4	-26.19
223.635	-26.19
223.869	-22.19
224.104	-20.19
224.338	-20.19
224.573	-3.19
224.808	-15.19
225.042	-2.19
225.277	-4.19
225.511	-7.19
225.746	12.81
225.98	5.81
226.215	3.81
226.449	17.81
226.683	25.81
226.918	28.81
227.152	25.81
227.387	30.81
227.621	49.81
227.856	41.81
228.09	32.81
228.324	37.81
228.559	44.81
228.793	66.81
229.027	66.81
229.262	60.81
229.496	61.81
229.73	88.81
229.964	82.81
230.199	86.81
230.433	78.81
230.667	75.81
230.901	75.81
231.136	73.81
231.37	69.81
231.604	75.81
231.838	78.81
232.072	67.81
232.306	88.81
232.541	81.81
232.775	84.81
233.009	78.81
233.243	82.81
233.477	89.81
233.711	89.81
233.945	88.81
234.179	74.81
234.413	91.81
234.647	75.81
234.881	68.81
235.115	69.81
235.349	84.81
235.583	69.81
235.817	69.81
236.051	63.81
236.285	83.81
236.519	74.81
236.753	87.81
236.987	82.81
237.221	82.81
237.455	79.81
237.689	84.81
237.922	59.81
238.156	73.81
238.39	68.81
238.624	83.81
238.858	84.81
239.091	94.81
239.325	85.81
239.559	80.81
239.793	73.81
240.027	82.81
240.26	92.81
240.494	85.81
240.728	73.81
240.961	84.81
241.195	83.81
241.429	69.81
241.662	67.81
241.896	81.81
242.13	76.81
242.363	90.81
242.597	74.81
242.83	74.81
243.064	70.81
243.298	68.81
243.531	72.81
243.765	88.81
243.998	76.81
244.232	75.81
244.465	93.81
244.699	88.81
244.932	80.81
245.166	63.81
245.399	72.81
245.633	71.81
245.866	69.81
246.099	83.81
246.333	57.81
246.566	86.81
246.8	83.81
247.033	64.81
247.266	74.81
247.5	88.81
247.733	82.81
247.966	72.81
248.2	84.81
248.433	85.81
248.666	87.81
248.899	84.81
249.133	77.81
249.366	95.81
249.599	105.81
249.832	71.81
250.066	87.81
250.299	74.81
250.532	84.81
250.765	78.81
250.998	82.81
251.231	59.81
251.465	82.81
251.698	78.81
251.931	73.81
252.164	81.81
252.397	77.81
252.63	81.81
252.863	72.81
253.096	77.81
253.329	77.81
253.562	68.81
253.795	53.81
254.028	87.81
254.261	75.81
254.494	73.81
254.727	76.81
254.96	73.81
255.193	76.81
255.426	83.81
255.659	76.81
255.892	86.81
256.124	78.81
256.357	89.81
256.59	86.81
256.823	82.81
257.056	84.81
257.289	93.81
257.521	65.81
257.754	64.81
257.987	82.81
258.22	84.81
258.452	75.81
258.685	67.81
258.918	81.81
259.151	80.81
259.383	96.81
259.616	85.81
259.849	90.81
260.081	85.81
260.314	79.81
260.547	68.81
260.779	80.81
261.012	80.81
261.244	82.81
261.477	99.81
261.71	105.81
261.942	108.81
262.175	152.81
262.407	85.81
262.64	86.81
262.872	82.81
263.105	97.81
263.337	90.81
263.57	81.81
263.802	84.81
264.035	82.81
264.267	96.81
264.499	86.81
264.732	65.81
264.964	84.81
265.197	80.81
265.429	84.81
265.661	77.81
265.894	73.81
266.126	93.81
266.358	101.81
266.591	81.81
266.823	78.81
267.055	80.81
267.287	71.81
267.52	86.81
267.752	87.81
267.984	82.81
268.216	73.81
268.448	91.81
268.681	84.81
268.913	75.81
269.145	94.81
269.377	69.81
269.609	62.81
269.841	86.81
270.073	84.81
270.306	78.81
270.538	82.81
270.77	74.81
271.002	91.81
271.234	88.81
271.466	88.81
271.698	82.81
271.93	90.81
272.162	77.81
272.394	84.81
272.626	78.81
272.858	82.81
273.09	74.81
273.322	97.81
273.553	77.81
273.785	94.81
274.017	86.81
274.249	88.81
274.481	85.81
274.713	90.81
274.945	90.81
275.176	81.81
275.408	83.81
275.64	84.81
275.872	96.81
276.104	84.81
276.335	98.81
276.567	101.81
276.799	108.81
277.031	104.81
277.262	94.81
277.494	87.81
277.726	90.81
277.957	75.81
278.189	84.81
278.421	78.81
278.652	82.81
278.884	73.81
279.115	68.81
279.347	82.81
279.579	84.81
279.81	83.81
280.042	73.81
280.273	95.81
280.505	90.81
280.736	83.81
280.968	65.81
281.199	90.81
281.431	75.81
281.662	99.81
281.894	85.81
282.125	107.81
282.356	125.81
282.588	162.81
282.819	133.81
283.051	86.81
283.282	72.81
283.513	90.81
283.745	105.81
283.976	82.81
284.207	72.81
284.439	86.81
284.67	79.81
284.901	84.81
285.132	85.81
285.364	78.81
285.595	93.81
285.826	85.81
286.057	83.81
286.288	96.81
286.52	86.81
286.751	90.81
286.982	91.81
287.213	88.81
287.444	93.81
287.675	78.81
287.906	89.81
288.138	96.81
288.369	106.81
288.6	100.81
288.831	89.81
289.062	89.81
289.293	78.81
289.524	97.81
289.755	91.81
289.986	77.81
290.217	89.81
290.448	80.81
290.679	76.81
290.91	100.81
291.141	83.81
291.371	86.81
291.602	86.81
291.833	81.81
292.064	92.81
292.295	80.81
292.526	77.81
292.757	86.81
292.987	81.81
293.218	93.81
293.449	84.81
293.68	75.81
293.91	82.81
294.141	92.81
294.372	91.81
294.603	85.81
294.833	90.81
295.064	89.81
295.295	99.81
295.525	70.81
295.756	99.81
295.987	112.81
296.217	147.81
296.448	131.81
296.679	86.81
296.909	102.81
297.14	91.81
297.37	97.81
297.601	89.81
297.831	82.81
298.062	99.81
298.292	96.81
298.523	89.81
298.753	83.81
298.984	92.81
299.214	83.81
299.445	95.81
299.675	81.81
299.905	105.81
300.136	92.81
300.366	81.81
300.597	96.81
300.827	101.81
301.057	94.81
301.288	104.81
301.518	96.81
301.748	89.81
301.979	103.81
302.209	102.81
302.439	99.81
302.669	79.81
302.9	94.81
303.13	99.81
303.36	102.81
303.59	111.81
303.82	108.81
304.051	93.81
304.281	85.81
304.511	89.81
304.741	90.81
304.971	89.81
305.201	84.81
305.431	82.81
305.661	80.81
305.891	97.81
306.121	92.81
306.352	119.81
306.582	102.81
306.812	86.81
307.042	109.81
307.272	90.81
307.502	99.81
307.731	89.81
307.961	105.81
308.191	93.81
308.421	101.81
308.651	90.81
308.881	88.81
309.111	96.81
309.341	102.81
309.571	88.81
309.8	97.81
310.03	91.81
310.26	99.81
310.49	96.81
310.72	104.81
310.949	94.81
311.179	124.81
311.409	109.81
311.639	95.81
311.868	105.81
312.098	100.81
312.328	87.81
312.557	113.81
312.787	117.81
313.017	108.81
313.246	100.81
313.476	82.81
313.706	103.81
313.935	101.81
314.165	89.81
314.394	115.81
314.624	100.81
314.853	96.81
315.083	97.81
315.312	97.81
315.542	103.81
315.771	81.81
316.001	101.81
316.23	91.81
316.46	88.81
316.689	85.81
316.919	96.81
317.148	99.81
317.377	91.81
317.607	102.81
317.836	80.81
318.065	82.81
318.295	92.81
318.524	89.81
318.753	88.81
318.983	94.81
319.212	101.81
319.441	117.81
319.67	114.81
319.9	103.81
320.129	91.81
320.358	97.81
320.587	102.81
320.816	100.81
321.046	113.81
321.275	92.81
321.504	106.81
321.733	94.81
321.962	120.81
322.191	95.81
322.42	108.81
322.649	118.81
322.878	117.81
323.108	104.81
323.337	126.81
323.566	131.81
323.795	149.81
324.024	213.81
324.253	397.81
324.482	840.81
324.71	1706.81
324.939	2276.81
325.168	861.81
325.397	272.81
325.626	157.81
325.855	138.81
326.084	123.81
326.313	122.81
326.542	150.81
326.77	234.81
326.999	433.81
327.228	912.81
327.457	1654.81
327.686	1292.81
327.914	368.81
328.143	201.81
328.372	178.81
328.6	162.81
328.829	131.81
329.058	164.81
329.287	144.81
329.515	107.81
329.744	107.81
329.972	107.81
330.201	138.81
330.43	137.81
330.658	162.81
330.887	190.81
331.115	144.81
331.344	121.81
331.572	92.81
331.801	116.81
332.03	110.81
332.258	93.81
332.486	106.81
332.715	99.81
332.943	101.81
333.172	104.81
333.4	99.81
333.629	113.81
333.857	136.81
334.085	115.81
334.314	113.81
334.542	144.81
334.771	151.81
334.999	100.81
335.227	100.81
335.455	103.81
335.684	86.81
335.912	80.81
336.14	92.81
336.369	87.81
336.597	105.81
336.825	106.81
337.053	88.81
337.281	89.81
337.51	87.81
337.738	99.81
337.966	92.81
338.194	91.81
338.422	115.81
338.65	93.81
338.878	96.81
339.106	89.81
339.334	96.81
339.562	93.81
339.79	87.81
340.018	78.81
340.246	91.81
340.474	93.81
340.702	97.81
340.93	100.81
341.158	96.81
341.386	103.81
341.614	101.81
341.842	96.81
342.07	101.81
342.298	98.81
342.526	84.81
342.754	101.81
342.981	101.81
343.209	91.81
343.437	102.81
343.665	83.81
343.893	92.81
344.12	93.81
344.348	84.81
344.576	75.81
344.804	100.81
345.031	111.81
345.259	113.81
345.487	108.81
345.714	112.81
345.942	96.81
346.17	96.81
346.397	86.81
346.625	100.81
346.853	96.81
347.08	100.81
347.308	110.81
347.535	109.81
347.763	96.81
347.99	104.81
348.218	97.81
348.445	111.81
348.673	109.81
348.9	102.81
349.128	96.81
349.355	115.81
349.583	107.81
349.81	89.81
350.037	102.81
350.265	99.81
350.492	94.81
350.72	93.81
350.947	113.81
351.174	112.81
351.402	126.81
351.629	99.81
351.856	117.81
352.083	109.81
352.311	105.81
352.538	117.81
352.765	117.81
352.992	126.81
353.22	108.81
353.447	109.81
353.674	101.81
353.901	90.81
354.128	82.81
354.355	87.81
354.583	95.81
354.81	99.81
355.037	93.81
355.264	93.81
355.491	88.81
355.718	88.81
355.945	110.81
356.172	89.81
356.399	86.81
356.626	90.81
356.853	93.81
357.08	80.81
357.307	86.81
357.534	97.81
357.761	97.81
357.988	102.81
358.215	108.81
358.441	106.81
358.668	86.81
358.895	90.81
359.122	86.81
359.349	93.81
359.576	91.81
359.802	104.81
360.029	121.81
360.256	125.81
360.483	103.81
360.709	82.81
360.936	117.81
361.163	110.81
361.39	94.81
361.616	99.81
361.843	90.81
362.07	88.81
362.296	99.81
362.523	97.81
362.749	105.81
362.976	99.81
363.203	98.81
363.429	86.81
363.656	86.81
363.882	94.81
364.109	98.81
364.335	97.81
364.562	97.81
364.788	86.81
365.015	112.81
365.241	94.81
365.468	106.81
365.694	120.81
365.92	122.81
366.147	90.81
366.373	88.81
366.599	117.81
366.826	104.81
367.052	92.81
367.278	93.81
367.505	90.81
367.731	100.81
367.957	84.81
368.184	94.81
368.41	101.81
368.636	119.81
368.862	140.81
369.089	110.81
369.315	105.81
369.541	99.81
369.767	88.81
369.993	110.81
370.219	76.81
370.445	90.81
370.672	108.81
370.898	83.81
371.124	94.81
371.35	82.81
371.576	93.81
371.802	84.81
372.028	82.81
372.254	96.81
372.48	80.81
372.706	94.81
372.932	92.81
373.158	93.81
373.384	97.81
373.61	96.81
373.835	92.81
374.061	88.81
374.287	74.81
374.513	86.81
374.739	91.81
374.965	101.81
375.191	91.81
375.416	93.81
375.642	88.81
375.868	91.81
376.094	98.81
376.319	88.81
376.545	86.81
376.771	82.81
376.997	93.81
377.222	85.81
377.448	96.81
377.674	91.81
377.899	77.81
378.125	99.81
378.35	88.81
378.576	97.81
378.802	90.81
379.027	90.81
379.253	97.81
379.478	94.81
379.704	91.81
379.929	101.81
380.155	90.81
380.38	93.81
380.606	82.81
380.831	96.81
381.057	99.81
381.282	94.81
381.507	101.81
381.733	104.81
381.958	87.81
382.184	105.81
382.409	99.81
382.634	99.81
382.86	105.81
383.085	103.81
383.31	101.81
383.535	107.81
383.761	93.81
383.986	90.81
384.211	97.81
384.436	95.81
384.662	107.81
384.887	104.81
385.112	107.81
385.337	114.81
385.562	103.81
385.787	108.81
386.013	120.81
386.238	117.81
386.463	116.81
386.688	107.81
386.913	99.81
387.138	103.81
387.363	106.81
387.588	98.81
387.813	104.81
388.038	88.81
388.263	107.81
388.488	94.81
388.713	90.81
388.938	97.81
389.163	99.81
389.387	91.81
389.612	88.81
389.837	87.81
390.062	98.81
390.287	94.81
390.512	92.81
390.736	85.81
390.961	84.81
391.186	97.81
391.411	92.81
391.636	83.81
391.86	82.81
392.085	87.81
392.31	91.81
392.534	89.81
392.759	88.81
392.984	93.81
393.208	103.81
393.433	100.81
393.658	104.81
393.882	90.81
394.107	89.81
394.331	82.81
394.556	93.81
394.78	82.81
395.005	104.81
395.229	79.81
395.454	89.81
395.678	78.81
395.903	103.81
396.127	96.81
396.352	99.81
396.576	84.81
396.801	87.81
397.025	85.81
397.249	84.81
397.474	90.81
397.698	96.81
397.922	81.81
398.147	96.81
398.371	87.81
398.595	81.81
398.82	78.81
399.044	88.81
399.268	92.81
399.492	94.81
399.717	92.81
399.941	98.81
400.165	89.81
400.389	96.81
400.613	100.81
400.837	85.81
401.062	84.81
401.286	82.81
401.51	100.81
401.734	115.81
401.958	109.81
402.182	138.81
402.406	185.81
402.63	130.81
402.854	100.81
403.078	95.81
403.302	87.81
403.526	90.81
403.75	90.81
403.974	93.81
404.198	93.81
404.422	88.81
404.645	94.81
404.869	90.81
405.093	105.81
405.317	106.81
405.541	100.81
405.765	102.81
405.988	109.81
406.212	192.81
406.436	285.81
406.66	181.81
406.883	102.81
407.107	97.81
407.331	92.81
407.555	102.81
407.778	106.81
408.002	103.81
408.226	86.81
408.449	70.81
408.673	96.81
408.896	92.81
409.12	84.81
409.344	92.81
409.567	106.81
409.791	75.81
410.014	98.81
410.238	91.81
410.461	82.81
410.685	107.81
410.908	98.81
411.132	105.81
411.355	109.81
411.578	97.81
411.802	92.81
412.025	89.81
412.249	97.81
412.472	81.81
412.695	82.81
412.919	86.81
413.142	99.81
413.365	98.81
413.589	102.81
413.812	84.81
414.035	102.81
414.258	89.81
414.482	89.81
414.705	100.81
414.928	96.81
415.151	85.81
415.374	96.81
415.597	88.81
415.821	96.81
416.044	80.81
416.267	88.81
416.49	73.81
416.713	88.81
416.936	93.81
417.159	91.81
417.382	98.81
417.605	91.81
417.828	86.81
418.051	96.81
418.274	89.81
418.497	87.81
418.72	83.81
418.943	87.81
419.166	101.81
419.389	80.81
419.611	92.81
419.834	83.81
420.057	92.81
420.28	96.81
420.503	78.81
420.726	94.81
420.948	85.81
421.171	102.81
421.394	105.81
421.617	71.81
421.839	75.81
422.062	76.81
422.285	98.81
422.507	96.81
422.73	109.81
422.953	100.81
423.175	109.81
423.398	88.81
423.621	91.81
423.843	82.81
424.066	95.81
424.288	90.81
424.511	91.81
424.733	90.81
424.956	127.81
425.178	98.81
425.401	89.81
425.623	97.81
425.846	102.81
426.068	96.81
426.291	117.81
426.513	89.81
426.735	90.81
426.958	106.81
427.18	101.81
427.402	150.81
427.625	203.81
427.847	166.81
428.069	104.81
428.292	77.81
428.514	102.81
428.736	85.81
428.958	88.81
429.181	95.81
429.403	98.81
429.625	102.81
429.847	94.81
430.069	104.81
430.292	107.81
430.514	100.81
430.736	82.81
430.958	93.81
431.18	80.81
431.402	77.81
431.624	80.81
431.846	87.81
432.068	94.81
432.29	94.81
432.512	96.81
432.734	86.81
432.956	82.81
433.178	90.81
433.4	83.81
433.622	85.81
433.844	80.81
434.066	99.81
434.287	94.81
434.509	104.81
434.731	82.81
434.953	81.81
435.175	97.81
435.397	84.81
435.618	101.81
435.84	95.81
436.062	124.81
436.284	123.81
436.505	93.81
436.727	106.81
436.949	92.81
437.17	89.81
437.392	86.81
437.614	97.81
437.835	120.81
438.057	146.81
438.278	108.81
438.5	108.81
438.721	141.81
438.943	106.81
439.165	84.81
439.386	90.81
439.608	101.81
439.829	105.81
440.05	139.81
440.272	157.81
440.493	109.81
440.715	81.81
440.936	93.81
441.158	82.81
441.379	87.81
441.6	101.81
441.822	91.81
442.043	91.81
442.264	115.81
442.486	101.81
442.707	94.81
442.928	112.81
443.149	160.81
443.371	158.81
443.592	124.81
443.813	115.81
444.034	102.81
444.255	95.81
444.476	81.81
444.698	84.81
444.919	84.81
445.14	126.81
445.361	129.81
445.582	117.81
445.803	148.81
446.024	156.81
446.245	150.81
446.466	102.81
446.687	93.81
446.908	91.81
447.129	87.81
447.35	97.81
447.571	90.81
447.792	96.81
448.013	104.81
448.234	116.81
448.455	102.81
448.675	113.81
448.896	130.81
449.117	89.81
449.338	119.81
449.559	135.81
449.779	140.81
450	91.81
450.221	73.81
450.442	93.81
450.662	96.81
450.883	114.81
451.104	123.81
451.324	108.81
451.545	86.81
451.766	87.81
451.986	70.81
452.207	90.81
452.428	101.81
452.648	96.81
452.869	120.81
453.089	123.81
453.31	132.81
453.53	91.81
453.751	80.81
453.971	102.81
454.192	121.81
454.412	103.81
454.633	82.81
454.853	85.81
455.073	74.81
455.294	84.81
455.514	100.81
455.734	97.81
455.955	79.81
456.175	93.81
456.395	92.81
456.616	94.81
456.836	68.81
457.056	80.81
457.276	83.81
457.497	98.81
457.717	94.81
457.937	84.81
458.157	83.81
458.377	88.81
458.598	117.81
458.818	193.81
459.038	202.81
459.258	147.81
459.478	96.81
459.698	77.81
459.918	88.81
460.138	76.81
460.358	90.81
460.578	92.81
460.798	94.81
461.018	91.81
461.238	89.81
461.458	92.81
461.678	96.81
461.898	82.81
462.118	87.81
462.338	84.81
462.558	80.81
462.777	88.81
462.997	91.81
463.217	95.81
463.437	88.81
463.657	76.81
463.876	101.81
464.096	84.81
464.316	90.81
464.536	96.81
464.755	85.81
464.975	113.81
465.195	210.81
465.414	200.81
465.634	101.81
465.854	108.81
466.073	91.81
466.293	88.81
466.512	89.81
466.732	76.81
466.951	100.81
467.171	85.81
467.391	106.81
467.61	109.81
467.829	104.81
468.049	120.81
468.268	98.81
468.488	80.81
468.707	96.81
468.927	102.81
469.146	102.81
469.365	76.81
469.585	84.81
469.804	109.81
470.023	99.81
470.243	82.81
470.462	101.81
470.681	131.81
470.901	105.81
471.12	84.81
471.339	87.81
471.558	92.81
471.777	104.81
471.997	96.81
472.216	128.81
472.435	145.81
472.654	99.81
472.873	88.81
473.092	91.81
473.311	82.81
473.53	74.81
473.749	86.81
473.968	93.81
474.187	114.81
474.406	112.81
474.625	80.81
474.844	101.81
475.063	91.81
475.282	84.81
475.501	65.81
475.72	100.81
475.939	103.81
476.158	81.81
476.377	94.81
476.596	96.81
476.814	110.81
477.033	96.81
477.252	96.81
477.471	105.81
477.69	81.81
477.908	96.81
478.127	97.81
478.346	94.81
478.564	88.81
478.783	101.81
479.002	91.81
479.22	97.81
479.439	99.81
479.658	100.81
479.876	93.81
480.095	107.81
480.313	95.81
480.532	96.81
480.751	89.81
480.969	117.81
481.188	232.81
481.406	161.81
481.624	104.81
481.843	95.81
482.061	87.81
482.28	77.81
482.498	92.81
482.717	87.81
482.935	83.81
483.153	91.81
483.372	69.81
483.59	95.81
483.808	68.81
484.027	73.81
484.245	73.81
484.463	91.81
484.681	93.81
484.9	92.81
485.118	104.81
485.336	90.81
485.554	98.81
485.772	90.81
485.99	104.81
486.209	103.81
486.427	83.81
486.645	99.81
486.863	109.81
487.081	106.81
487.299	91.81
487.517	104.81
487.735	98.81
487.953	100.81
488.171	87.81
488.389	106.81
488.607	107.81
488.825	90.81
489.043	88.81
489.261	94.81
489.479	107.81
489.696	90.81
489.914	88.81
490.132	100.81
490.35	88.81
490.568	89.81
490.786	106.81
491.003	93.81
491.221	83.81
491.439	78.81
491.657	88.81
491.874	86.81
492.092	88.81
492.31	85.81
492.527	86.81
492.745	101.81
492.963	84.81
493.18	99.81
493.398	82.81
493.615	88.81
493.833	91.81
494.05	96.81
494.268	105.81
494.485	93.81
494.703	102.81
494.92	103.81
495.138	96.81
495.355	89.81
495.573	84.81
495.79	91.81
496.008	92.81
496.225	108.81
496.442	98.81
496.66	98.81
496.877	88.81
497.094	94.81
497.312	88.81
497.529	79.81
497.746	98.81
497.963	95.81
498.181	102.81
498.398	97.81
498.615	116.81
498.832	112.81
499.049	87.81
499.267	76.81
499.484	89.81
499.701	73.81
499.918	78.81
500.135	93.81
500.352	95.81
500.569	86.81
500.786	88.81
501.003	97.81
501.22	87.81
501.437	96.81
501.654	115.81
501.871	116.81
502.088	93.81
502.305	90.81
502.522	86.81
502.739	100.81
502.956	87.81
503.172	86.81
503.389	102.81
503.606	112.81
503.823	108.81
504.04	84.81
504.256	98.81
504.473	78.81
504.69	91.81
504.907	85.81
505.123	84.81
505.34	93.81
505.557	100.81
505.773	81.81
505.99	83.81
506.207	74.81
506.423	88.81
506.64	86.81
506.856	102.81
507.073	96.81
507.289	91.81
507.506	93.81
507.722	104.81
507.939	136.81
508.155	110.81
508.372	95.81
508.588	90.81
508.805	90.81
509.021	94.81
509.238	86.81
509.454	90.81
509.67	113.81
509.887	116.81
510.103	138.81
510.319	221.81
510.536	855.81
510.752	2868.81
510.968	750.81
511.184	156.81
511.401	122.81
511.617	101.81
511.833	96.81
512.049	90.81
512.265	92.81
512.481	83.81
512.698	97.81
512.914	96.81
513.13	94.81
513.346	99.81
513.562	94.81
513.778	100.81
513.994	99.81
514.21	117.81
514.426	133.81
514.642	157.81
