Data from Circ_1981_H10_HRD10591_00096.txt Node
Date: Wed Jan 03 12:34:40 EST 2024
User: Yrep
Spectrometer: HR+D1059
Trigger mode: 1
Integration Time (sec): 1.000000E-1
Scans to average: 1
Electric dark correction enabled: true
Nonlinearity correction enabled: false
Boxcar width: 0
XAxis mode: Wavelengths
Number of Pixels in Spectrum: 2048
>>>>>Begin Spectral Data<<<<<
223.165	-27.56
223.4	-27.56
223.635	-27.56
223.869	-24.56
224.104	-15.56
224.338	-13.56
224.573	-18.56
224.808	-11.56
225.042	-11.56
225.277	-12.56
225.511	5.44
225.746	9.44
225.98	9.44
226.215	8.44
226.449	9.44
226.683	16.44
226.918	32.44
227.152	44.44
227.387	23.44
227.621	27.44
227.856	32.44
228.09	46.44
228.324	55.44
228.559	49.44
228.793	63.44
229.027	66.44
229.262	55.44
229.496	58.44
229.73	78.44
229.964	83.44
230.199	77.44
230.433	64.44
230.667	73.44
230.901	82.44
231.136	72.44
231.37	88.44
231.604	83.44
231.838	62.44
232.072	77.44
232.306	68.44
232.541	83.44
232.775	69.44
233.009	83.44
233.243	84.44
233.477	81.44
233.711	74.44
233.945	74.44
234.179	83.44
234.413	72.44
234.647	81.44
234.881	89.44
235.115	88.44
235.349	76.44
235.583	62.44
235.817	68.44
236.051	83.44
236.285	77.44
236.519	75.44
236.753	82.44
236.987	89.44
237.221	90.44
237.455	97.44
237.689	101.44
237.922	60.44
238.156	64.44
238.39	76.44
238.624	74.44
238.858	67.44
239.091	79.44
239.325	81.44
239.559	67.44
239.793	85.44
240.027	85.44
240.26	68.44
240.494	82.44
240.728	81.44
240.961	79.44
241.195	81.44
241.429	72.44
241.662	66.44
241.896	76.44
242.13	70.44
242.363	64.44
242.597	83.44
242.83	78.44
243.064	86.44
243.298	84.44
243.531	77.44
243.765	83.44
243.998	70.44
244.232	71.44
244.465	65.44
244.699	91.44
244.932	82.44
245.166	64.44
245.399	89.44
245.633	70.44
245.866	84.44
246.099	70.44
246.333	83.44
246.566	88.44
246.8	75.44
247.033	71.44
247.266	74.44
247.5	76.44
247.733	77.44
247.966	83.44
248.2	69.44
248.433	67.44
248.666	69.44
248.899	89.44
249.133	92.44
249.366	104.44
249.599	101.44
249.832	73.44
250.066	67.44
250.299	76.44
250.532	88.44
250.765	81.44
250.998	83.44
251.231	78.44
251.465	64.44
251.698	75.44
251.931	68.44
252.164	65.44
252.397	79.44
252.63	74.44
252.863	75.44
253.096	97.44
253.329	86.44
253.562	88.44
253.795	79.44
254.028	98.44
254.261	77.44
254.494	76.44
254.727	89.44
254.96	73.44
255.193	84.44
255.426	79.44
255.659	84.44
255.892	91.44
256.124	75.44
256.357	84.44
256.59	73.44
256.823	74.44
257.056	70.44
257.289	80.44
257.521	91.44
257.754	84.44
257.987	81.44
258.22	87.44
258.452	78.44
258.685	74.44
258.918	82.44
259.151	75.44
259.383	87.44
259.616	79.44
259.849	74.44
260.081	78.44
260.314	79.44
260.547	80.44
260.779	81.44
261.012	80.44
261.244	76.44
261.477	85.44
261.71	101.44
261.942	85.44
262.175	109.44
262.407	77.44
262.64	74.44
262.872	80.44
263.105	91.44
263.337	87.44
263.57	87.44
263.802	84.44
264.035	87.44
264.267	85.44
264.499	74.44
264.732	82.44
264.964	84.44
265.197	92.44
265.429	81.44
265.661	90.44
265.894	100.44
266.126	97.44
266.358	77.44
266.591	82.44
266.823	76.44
267.055	77.44
267.287	77.44
267.52	80.44
267.752	94.44
267.984	84.44
268.216	83.44
268.448	83.44
268.681	89.44
268.913	90.44
269.145	83.44
269.377	89.44
269.609	83.44
269.841	82.44
270.073	77.44
270.306	77.44
270.538	98.44
270.77	87.44
271.002	82.44
271.234	72.44
271.466	99.44
271.698	83.44
271.93	87.44
272.162	90.44
272.394	89.44
272.626	79.44
272.858	86.44
273.09	93.44
273.322	72.44
273.553	90.44
273.785	89.44
274.017	83.44
274.249	90.44
274.481	70.44
274.713	90.44
274.945	87.44
275.176	95.44
275.408	75.44
275.64	84.44
275.872	79.44
276.104	89.44
276.335	93.44
276.567	98.44
276.799	111.44
277.031	108.44
277.262	95.44
277.494	86.44
277.726	83.44
277.957	90.44
278.189	98.44
278.421	92.44
278.652	87.44
278.884	98.44
279.115	90.44
279.347	85.44
279.579	83.44
279.81	82.44
280.042	83.44
280.273	82.44
280.505	104.44
280.736	105.44
280.968	94.44
281.199	85.44
281.431	89.44
281.662	90.44
281.894	103.44
282.125	92.44
282.356	116.44
282.588	121.44
282.819	111.44
283.051	103.44
283.282	94.44
283.513	101.44
283.745	71.44
283.976	100.44
284.207	97.44
284.439	88.44
284.67	75.44
284.901	89.44
285.132	73.44
285.364	86.44
285.595	88.44
285.826	93.44
286.057	84.44
286.288	84.44
286.52	88.44
286.751	81.44
286.982	89.44
287.213	92.44
287.444	94.44
287.675	91.44
287.906	92.44
288.138	87.44
288.369	99.44
288.6	98.44
288.831	101.44
289.062	84.44
289.293	91.44
289.524	76.44
289.755	103.44
289.986	91.44
290.217	81.44
290.448	92.44
290.679	89.44
290.91	73.44
291.141	94.44
291.371	89.44
291.602	86.44
291.833	72.44
292.064	84.44
292.295	66.44
292.526	85.44
292.757	107.44
292.987	83.44
293.218	97.44
293.449	91.44
293.68	79.44
293.91	83.44
294.141	96.44
294.372	84.44
294.603	89.44
294.833	88.44
295.064	83.44
295.295	92.44
295.525	95.44
295.756	88.44
295.987	114.44
296.217	136.44
296.448	134.44
296.679	93.44
296.909	90.44
297.14	86.44
297.37	96.44
297.601	83.44
297.831	73.44
298.062	87.44
298.292	108.44
298.523	100.44
298.753	98.44
298.984	93.44
299.214	83.44
299.445	91.44
299.675	77.44
299.905	92.44
300.136	97.44
300.366	95.44
300.597	87.44
300.827	99.44
301.057	88.44
301.288	103.44
301.518	97.44
301.748	89.44
301.979	109.44
302.209	103.44
302.439	92.44
302.669	92.44
302.9	75.44
303.13	80.44
303.36	99.44
303.59	100.44
303.82	95.44
304.051	96.44
304.281	92.44
304.511	92.44
304.741	85.44
304.971	75.44
305.201	87.44
305.431	77.44
305.661	89.44
305.891	87.44
306.121	97.44
306.352	98.44
306.582	99.44
306.812	96.44
307.042	93.44
307.272	104.44
307.502	105.44
307.731	92.44
307.961	85.44
308.191	72.44
308.421	101.44
308.651	99.44
308.881	83.44
309.111	87.44
309.341	92.44
309.571	99.44
309.8	88.44
310.03	97.44
310.26	93.44
310.49	99.44
310.72	104.44
310.949	108.44
311.179	102.44
311.409	88.44
311.639	90.44
311.868	97.44
312.098	97.44
312.328	78.44
312.557	100.44
312.787	117.44
313.017	95.44
313.246	93.44
313.476	88.44
313.706	113.44
313.935	108.44
314.165	87.44
314.394	106.44
314.624	106.44
314.853	113.44
315.083	102.44
315.312	94.44
315.542	107.44
315.771	75.44
316.001	92.44
316.23	77.44
316.46	91.44
316.689	81.44
316.919	83.44
317.148	92.44
317.377	95.44
317.607	94.44
317.836	83.44
318.065	81.44
318.295	103.44
318.524	89.44
318.753	84.44
318.983	104.44
319.212	100.44
319.441	119.44
319.67	111.44
319.9	92.44
320.129	85.44
320.358	81.44
320.587	96.44
320.816	99.44
321.046	100.44
321.275	113.44
321.504	92.44
321.733	107.44
321.962	96.44
322.191	105.44
322.42	111.44
322.649	105.44
322.878	109.44
323.108	111.44
323.337	124.44
323.566	138.44
323.795	155.44
324.024	221.44
324.253	397.44
324.482	873.44
324.71	1816.44
324.939	2476.44
325.168	867.44
325.397	271.44
325.626	162.44
325.855	128.44
326.084	113.44
326.313	129.44
326.542	153.44
326.77	235.44
326.999	469.44
327.228	1003.44
327.457	1835.44
327.686	1445.44
327.914	364.44
328.143	187.44
328.372	152.44
328.6	148.44
328.829	128.44
329.058	138.44
329.287	136.44
329.515	117.44
329.744	104.44
329.972	103.44
330.201	125.44
330.43	147.44
330.658	150.44
330.887	166.44
331.115	122.44
331.344	101.44
331.572	101.44
331.801	101.44
332.03	104.44
332.258	99.44
332.486	109.44
332.715	92.44
332.943	97.44
333.172	88.44
333.4	98.44
333.629	109.44
333.857	118.44
334.085	113.44
334.314	111.44
334.542	131.44
334.771	143.44
334.999	106.44
335.227	105.44
335.455	85.44
335.684	109.44
335.912	93.44
336.14	112.44
336.369	88.44
336.597	89.44
336.825	100.44
337.053	104.44
337.281	95.44
337.51	93.44
337.738	95.44
337.966	90.44
338.194	98.44
338.422	100.44
338.65	88.44
338.878	103.44
339.106	88.44
339.334	88.44
339.562	88.44
339.79	99.44
340.018	83.44
340.246	88.44
340.474	97.44
340.702	84.44
340.93	100.44
341.158	82.44
341.386	97.44
341.614	98.44
341.842	103.44
342.07	86.44
342.298	93.44
342.526	82.44
342.754	93.44
342.981	92.44
343.209	99.44
343.437	108.44
343.665	83.44
343.893	96.44
344.12	90.44
344.348	83.44
344.576	89.44
344.804	102.44
345.031	97.44
345.259	97.44
345.487	97.44
345.714	95.44
345.942	83.44
346.17	98.44
346.397	92.44
346.625	97.44
346.853	86.44
347.08	86.44
347.308	92.44
347.535	106.44
347.763	104.44
347.99	99.44
348.218	103.44
348.445	103.44
348.673	98.44
348.9	84.44
349.128	86.44
349.355	97.44
349.583	90.44
349.81	91.44
350.037	102.44
350.265	102.44
350.492	84.44
350.72	93.44
350.947	97.44
351.174	104.44
351.402	106.44
351.629	96.44
351.856	96.44
352.083	106.44
352.311	115.44
352.538	106.44
352.765	130.44
352.992	119.44
353.22	105.44
353.447	90.44
353.674	94.44
353.901	99.44
354.128	100.44
354.355	112.44
354.583	95.44
354.81	93.44
355.037	94.44
355.264	100.44
355.491	92.44
355.718	94.44
355.945	92.44
356.172	97.44
356.399	92.44
356.626	85.44
356.853	101.44
357.08	99.44
357.307	89.44
357.534	80.44
357.761	97.44
357.988	106.44
358.215	95.44
358.441	85.44
358.668	87.44
358.895	89.44
359.122	80.44
359.349	89.44
359.576	95.44
359.802	96.44
360.029	112.44
360.256	117.44
360.483	106.44
360.709	88.44
360.936	95.44
361.163	93.44
361.39	107.44
361.616	100.44
361.843	90.44
362.07	101.44
362.296	96.44
362.523	98.44
362.749	93.44
362.976	89.44
363.203	96.44
363.429	84.44
363.656	98.44
363.882	93.44
364.109	86.44
364.335	89.44
364.562	83.44
364.788	93.44
365.015	103.44
365.241	111.44
365.468	104.44
365.694	100.44
365.92	95.44
366.147	83.44
366.373	96.44
366.599	96.44
366.826	76.44
367.052	90.44
367.278	103.44
367.505	104.44
367.731	87.44
367.957	95.44
368.184	98.44
368.41	95.44
368.636	107.44
368.862	120.44
369.089	104.44
369.315	89.44
369.541	103.44
369.767	94.44
369.993	103.44
370.219	107.44
370.445	91.44
370.672	77.44
370.898	84.44
371.124	85.44
371.35	91.44
371.576	91.44
371.802	84.44
372.028	61.44
372.254	89.44
372.48	71.44
372.706	73.44
372.932	85.44
373.158	94.44
373.384	84.44
373.61	98.44
373.835	84.44
374.061	98.44
374.287	88.44
374.513	100.44
374.739	81.44
374.965	92.44
375.191	86.44
375.416	92.44
375.642	84.44
375.868	85.44
376.094	78.44
376.319	98.44
376.545	75.44
376.771	98.44
376.997	86.44
377.222	90.44
377.448	95.44
377.674	88.44
377.899	85.44
378.125	97.44
378.35	79.44
378.576	97.44
378.802	100.44
379.027	87.44
379.253	85.44
379.478	83.44
379.704	85.44
379.929	96.44
380.155	95.44
380.38	88.44
380.606	93.44
380.831	84.44
381.057	104.44
381.282	93.44
381.507	96.44
381.733	95.44
381.958	99.44
382.184	91.44
382.409	91.44
382.634	86.44
382.86	90.44
383.085	92.44
383.31	94.44
383.535	88.44
383.761	90.44
383.986	90.44
384.211	99.44
384.436	90.44
384.662	101.44
384.887	99.44
385.112	92.44
385.337	109.44
385.562	98.44
385.787	100.44
386.013	108.44
386.238	106.44
386.463	93.44
386.688	101.44
386.913	99.44
387.138	93.44
387.363	98.44
387.588	103.44
387.813	88.44
388.038	101.44
388.263	97.44
388.488	100.44
388.713	89.44
388.938	98.44
389.163	87.44
389.387	90.44
389.612	85.44
389.837	76.44
390.062	102.44
390.287	86.44
390.512	88.44
390.736	89.44
390.961	99.44
391.186	92.44
391.411	94.44
391.636	84.44
391.86	83.44
392.085	94.44
392.31	100.44
392.534	82.44
392.759	83.44
392.984	103.44
393.208	101.44
393.433	96.44
393.658	103.44
393.882	86.44
394.107	84.44
394.331	65.44
394.556	89.44
394.78	85.44
395.005	83.44
395.229	84.44
395.454	88.44
395.678	75.44
395.903	84.44
396.127	85.44
396.352	83.44
396.576	93.44
396.801	83.44
397.025	72.44
397.249	80.44
397.474	91.44
397.698	76.44
397.922	74.44
398.147	91.44
398.371	77.44
398.595	79.44
398.82	78.44
399.044	91.44
399.268	69.44
399.492	96.44
399.717	87.44
399.941	75.44
400.165	97.44
400.389	86.44
400.613	81.44
400.837	76.44
401.062	86.44
401.286	85.44
401.51	91.44
401.734	87.44
401.958	96.44
402.182	110.44
402.406	164.44
402.63	114.44
402.854	109.44
403.078	90.44
403.302	82.44
403.526	74.44
403.75	96.44
403.974	76.44
404.198	84.44
404.422	92.44
404.645	104.44
404.869	100.44
405.093	98.44
405.317	110.44
405.541	115.44
405.765	109.44
405.988	124.44
406.212	168.44
406.436	222.44
406.66	152.44
406.883	90.44
407.107	100.44
407.331	90.44
407.555	103.44
407.778	95.44
408.002	98.44
408.226	98.44
408.449	84.44
408.673	87.44
408.896	104.44
409.12	102.44
409.344	82.44
409.567	90.44
409.791	81.44
410.014	88.44
410.238	92.44
410.461	89.44
410.685	99.44
410.908	96.44
411.132	103.44
411.355	101.44
411.578	93.44
411.802	88.44
412.025	85.44
412.249	87.44
412.472	97.44
412.695	107.44
412.919	95.44
413.142	87.44
413.365	81.44
413.589	72.44
413.812	88.44
414.035	92.44
414.258	83.44
414.482	88.44
414.705	87.44
414.928	75.44
415.151	91.44
415.374	97.44
415.597	85.44
415.821	79.44
416.044	89.44
416.267	83.44
416.49	80.44
416.713	98.44
416.936	87.44
417.159	77.44
417.382	91.44
417.605	108.44
417.828	94.44
418.051	98.44
418.274	82.44
418.497	95.44
418.72	88.44
418.943	95.44
419.166	73.44
419.389	85.44
419.611	88.44
419.834	99.44
420.057	99.44
420.28	91.44
420.503	81.44
420.726	90.44
420.948	95.44
421.171	92.44
421.394	87.44
421.617	99.44
421.839	89.44
422.062	88.44
422.285	96.44
422.507	88.44
422.73	108.44
422.953	101.44
423.175	90.44
423.398	98.44
423.621	91.44
423.843	96.44
424.066	69.44
424.288	94.44
424.511	81.44
424.733	96.44
424.956	118.44
425.178	93.44
425.401	111.44
425.623	97.44
425.846	92.44
426.068	98.44
426.291	79.44
426.513	89.44
426.735	100.44
426.958	93.44
427.18	105.44
427.402	146.44
427.625	179.44
427.847	123.44
428.069	109.44
428.292	89.44
428.514	75.44
428.736	88.44
428.958	103.44
429.181	95.44
429.403	81.44
429.625	96.44
429.847	110.44
430.069	111.44
430.292	98.44
430.514	95.44
430.736	80.44
430.958	67.44
431.18	83.44
431.402	103.44
431.624	89.44
431.846	80.44
432.068	85.44
432.29	88.44
432.512	80.44
432.734	90.44
432.956	101.44
433.178	107.44
433.4	101.44
433.622	74.44
433.844	98.44
434.066	92.44
434.287	87.44
434.509	90.44
434.731	99.44
434.953	95.44
435.175	91.44
435.397	89.44
435.618	94.44
435.84	98.44
436.062	128.44
436.284	112.44
436.505	99.44
436.727	87.44
436.949	100.44
437.17	93.44
437.392	87.44
437.614	85.44
437.835	108.44
438.057	132.44
438.278	127.44
438.5	114.44
438.721	130.44
438.943	106.44
439.165	90.44
439.386	70.44
439.608	86.44
439.829	106.44
440.05	119.44
440.272	156.44
440.493	93.44
440.715	92.44
440.936	79.44
441.158	90.44
441.379	100.44
441.6	89.44
441.822	89.44
442.043	98.44
442.264	116.44
442.486	104.44
442.707	107.44
442.928	107.44
443.149	132.44
443.371	127.44
443.592	113.44
443.813	130.44
444.034	107.44
444.255	91.44
444.476	79.44
444.698	94.44
444.919	91.44
445.14	116.44
445.361	106.44
445.582	104.44
445.803	169.44
446.024	170.44
446.245	167.44
446.466	118.44
446.687	91.44
446.908	90.44
447.129	98.44
447.35	78.44
447.571	70.44
447.792	91.44
448.013	102.44
448.234	116.44
448.455	113.44
448.675	122.44
448.896	124.44
449.117	105.44
449.338	119.44
449.559	118.44
449.779	136.44
450	93.44
450.221	76.44
450.442	92.44
450.662	99.44
450.883	108.44
451.104	118.44
451.324	94.44
451.545	84.44
451.766	85.44
451.986	75.44
452.207	85.44
452.428	82.44
452.648	113.44
452.869	104.44
453.089	113.44
453.31	109.44
453.53	95.44
453.751	88.44
453.971	115.44
454.192	112.44
454.412	95.44
454.633	90.44
454.853	85.44
455.073	92.44
455.294	103.44
455.514	97.44
455.734	91.44
455.955	84.44
456.175	82.44
456.395	92.44
456.616	87.44
456.836	71.44
457.056	66.44
457.276	89.44
457.497	79.44
457.717	90.44
457.937	73.44
458.157	84.44
458.377	91.44
458.598	119.44
458.818	163.44
459.038	167.44
459.258	122.44
459.478	91.44
459.698	88.44
459.918	82.44
460.138	90.44
460.358	84.44
460.578	87.44
460.798	105.44
461.018	76.44
461.238	67.44
461.458	75.44
461.678	70.44
461.898	86.44
462.118	87.44
462.338	78.44
462.558	74.44
462.777	72.44
462.997	73.44
463.217	73.44
463.437	80.44
463.657	83.44
463.876	87.44
464.096	79.44
464.316	93.44
464.536	91.44
464.755	100.44
464.975	120.44
465.195	185.44
465.414	160.44
465.634	95.44
465.854	86.44
466.073	82.44
466.293	98.44
466.512	79.44
466.732	68.44
466.951	81.44
467.171	93.44
467.391	70.44
467.61	103.44
467.829	96.44
468.049	111.44
468.268	106.44
468.488	82.44
468.707	88.44
468.927	95.44
469.146	79.44
469.365	92.44
469.585	87.44
469.804	108.44
470.023	99.44
470.243	94.44
470.462	106.44
470.681	99.44
470.901	85.44
471.12	73.44
471.339	61.44
471.558	87.44
471.777	105.44
471.997	100.44
472.216	128.44
472.435	140.44
472.654	98.44
472.873	92.44
473.092	81.44
473.311	84.44
473.53	79.44
473.749	87.44
473.968	97.44
474.187	104.44
474.406	100.44
474.625	93.44
474.844	88.44
475.063	85.44
475.282	77.44
475.501	89.44
475.72	84.44
475.939	88.44
476.158	101.44
476.377	86.44
476.596	91.44
476.814	80.44
477.033	97.44
477.252	87.44
477.471	92.44
477.69	74.44
477.908	101.44
478.127	92.44
478.346	90.44
478.564	81.44
478.783	90.44
479.002	81.44
479.22	91.44
479.439	103.44
479.658	103.44
479.876	98.44
480.095	85.44
480.313	92.44
480.532	83.44
480.751	88.44
480.969	109.44
481.188	197.44
481.406	161.44
481.624	87.44
481.843	85.44
482.061	97.44
482.28	74.44
482.498	89.44
482.717	87.44
482.935	97.44
483.153	72.44
483.372	99.44
483.59	90.44
483.808	83.44
484.027	74.44
484.245	91.44
484.463	105.44
484.681	108.44
484.9	98.44
485.118	99.44
485.336	87.44
485.554	91.44
485.772	120.44
485.99	85.44
486.209	91.44
486.427	102.44
486.645	93.44
486.863	94.44
487.081	105.44
487.299	87.44
487.517	90.44
487.735	84.44
487.953	96.44
488.171	91.44
488.389	87.44
488.607	91.44
488.825	84.44
489.043	85.44
489.261	101.44
489.479	65.44
489.696	81.44
489.914	96.44
490.132	92.44
490.35	88.44
490.568	87.44
490.786	85.44
491.003	85.44
491.221	90.44
491.439	87.44
491.657	97.44
491.874	94.44
492.092	87.44
492.31	98.44
492.527	74.44
492.745	105.44
492.963	78.44
493.18	95.44
493.398	96.44
493.615	95.44
493.833	104.44
494.05	85.44
494.268	85.44
494.485	84.44
494.703	98.44
494.92	99.44
495.138	88.44
495.355	91.44
495.573	85.44
495.79	101.44
496.008	76.44
496.225	98.44
496.442	92.44
496.66	101.44
496.877	79.44
497.094	81.44
497.312	85.44
497.529	99.44
497.746	87.44
497.963	81.44
498.181	84.44
498.398	90.44
498.615	105.44
498.832	101.44
499.049	95.44
499.267	86.44
499.484	80.44
499.701	91.44
499.918	103.44
500.135	86.44
500.352	95.44
500.569	90.44
500.786	101.44
501.003	86.44
501.22	76.44
501.437	76.44
501.654	90.44
501.871	120.44
502.088	105.44
502.305	87.44
502.522	92.44
502.739	81.44
502.956	112.44
503.172	98.44
503.389	91.44
503.606	105.44
503.823	104.44
504.04	90.44
504.256	92.44
504.473	100.44
504.69	99.44
504.907	114.44
505.123	104.44
505.34	81.44
505.557	85.44
505.773	87.44
505.99	97.44
506.207	89.44
506.423	83.44
506.64	79.44
506.856	101.44
507.073	84.44
507.289	82.44
507.506	93.44
507.722	119.44
507.939	115.44
508.155	87.44
508.372	92.44
508.588	91.44
508.805	84.44
509.021	105.44
509.238	107.44
509.454	98.44
509.67	106.44
509.887	97.44
510.103	118.44
510.319	211.44
510.536	712.44
510.752	2209.44
510.968	609.44
511.184	167.44
511.401	119.44
511.617	100.44
511.833	97.44
512.049	91.44
512.265	83.44
512.481	99.44
512.698	92.44
512.914	100.44
513.13	99.44
513.346	95.44
513.562	100.44
513.778	91.44
513.994	101.44
514.21	100.44
514.426	123.44
514.642	137.44
514.858	119.44
515.074	163.44
515.29	427.44
515.506	1475.44
