Data from Circ_1981_H10_HRD10591_00041.txt Node
Date: Wed Jan 03 12:34:29 EST 2024
User: Yrep
Spectrometer: HR+D1059
Trigger mode: 1
Integration Time (sec): 1.000000E-1
Scans to average: 1
Electric dark correction enabled: true
Nonlinearity correction enabled: false
Boxcar width: 0
XAxis mode: Wavelengths
Number of Pixels in Spectrum: 2048
>>>>>Begin Spectral Data<<<<<
223.165	-20
223.4	-20
223.635	-20
223.869	-16
224.104	-29
224.338	-18
224.573	-1
224.808	-13
225.042	-5
225.277	-1
225.511	3
225.746	-5
225.98	16
226.215	6
226.449	19
226.683	14
226.918	28
227.152	22
227.387	30
227.621	36
227.856	35
228.09	51
228.324	57
228.559	50
228.793	56
229.027	79
229.262	73
229.496	66
229.73	84
229.964	89
230.199	60
230.433	84
230.667	88
230.901	75
231.136	83
231.37	72
231.604	84
231.838	87
232.072	83
232.306	79
232.541	79
232.775	67
233.009	68
233.243	89
233.477	78
233.711	72
233.945	80
234.179	86
234.413	61
234.647	73
234.881	78
235.115	68
235.349	72
235.583	66
235.817	74
236.051	69
236.285	90
236.519	80
236.753	73
236.987	78
237.221	70
237.455	97
237.689	70
237.922	79
238.156	77
238.39	78
238.624	77
238.858	70
239.091	62
239.325	74
239.559	72
239.793	70
240.027	82
240.26	63
240.494	72
240.728	74
240.961	74
241.195	73
241.429	81
241.662	84
241.896	81
242.13	87
242.363	67
242.597	80
242.83	74
243.064	80
243.298	66
243.531	83
243.765	69
243.998	75
244.232	70
244.465	79
244.699	80
244.932	87
245.166	83
245.399	72
245.633	76
245.866	94
246.099	81
246.333	74
246.566	88
246.8	88
247.033	73
247.266	64
247.5	74
247.733	68
247.966	67
248.2	83
248.433	74
248.666	84
248.899	80
249.133	88
249.366	87
249.599	95
249.832	83
250.066	83
250.299	85
250.532	92
250.765	91
250.998	81
251.231	71
251.465	80
251.698	66
251.931	70
252.164	97
252.397	76
252.63	82
252.863	80
253.096	80
253.329	95
253.562	63
253.795	81
254.028	84
254.261	83
254.494	82
254.727	84
254.96	68
255.193	94
255.426	80
255.659	92
255.892	98
256.124	71
256.357	70
256.59	73
256.823	93
257.056	79
257.289	70
257.521	80
257.754	82
257.987	85
258.22	82
258.452	80
258.685	76
258.918	88
259.151	67
259.383	82
259.616	83
259.849	80
260.081	80
260.314	71
260.547	89
260.779	92
261.012	88
261.244	82
261.477	90
261.71	79
261.942	86
262.175	94
262.407	71
262.64	73
262.872	98
263.105	80
263.337	81
263.57	60
263.802	63
264.035	82
264.267	81
264.499	72
264.732	84
264.964	83
265.197	88
265.429	87
265.661	73
265.894	95
266.126	80
266.358	81
266.591	91
266.823	87
267.055	89
267.287	75
267.52	71
267.752	92
267.984	82
268.216	68
268.448	80
268.681	79
268.913	83
269.145	78
269.377	54
269.609	82
269.841	67
270.073	66
270.306	81
270.538	67
270.77	86
271.002	88
271.234	76
271.466	68
271.698	73
271.93	94
272.162	75
272.394	81
272.626	88
272.858	76
273.09	79
273.322	76
273.553	88
273.785	82
274.017	74
274.249	96
274.481	69
274.713	88
274.945	91
275.176	99
275.408	84
275.64	84
275.872	95
276.104	90
276.335	86
276.567	84
276.799	106
277.031	93
277.262	78
277.494	75
277.726	82
277.957	82
278.189	82
278.421	84
278.652	85
278.884	90
279.115	98
279.347	73
279.579	77
279.81	79
280.042	80
280.273	84
280.505	80
280.736	73
280.968	91
281.199	88
281.431	86
281.662	80
281.894	88
282.125	88
282.356	110
282.588	146
282.819	110
283.051	92
283.282	88
283.513	96
283.745	85
283.976	87
284.207	79
284.439	87
284.67	83
284.901	74
285.132	68
285.364	84
285.595	80
285.826	86
286.057	74
286.288	84
286.52	75
286.751	88
286.982	78
287.213	87
287.444	96
287.675	84
287.906	84
288.138	96
288.369	92
288.6	100
288.831	93
289.062	103
289.293	82
289.524	78
289.755	88
289.986	97
290.217	85
290.448	96
290.679	90
290.91	78
291.141	84
291.371	93
291.602	89
291.833	90
292.064	84
292.295	89
292.526	86
292.757	82
292.987	79
293.218	100
293.449	85
293.68	91
293.91	79
294.141	92
294.372	92
294.603	75
294.833	84
295.064	75
295.295	87
295.525	105
295.756	100
295.987	108
296.217	131
296.448	107
296.679	95
296.909	95
297.14	88
297.37	89
297.601	67
297.831	70
298.062	81
298.292	83
298.523	104
298.753	82
298.984	83
299.214	78
299.445	90
299.675	86
299.905	100
300.136	86
300.366	74
300.597	82
300.827	88
301.057	92
301.288	112
301.518	100
301.748	86
301.979	90
302.209	80
302.439	84
302.669	71
302.9	86
303.13	101
303.36	110
303.59	103
303.82	111
304.051	78
304.281	84
304.511	94
304.741	71
304.971	78
305.201	88
305.431	88
305.661	94
305.891	90
306.121	93
306.352	90
306.582	90
306.812	102
307.042	92
307.272	96
307.502	88
307.731	93
307.961	85
308.191	99
308.421	88
308.651	93
308.881	92
309.111	92
309.341	102
309.571	90
309.8	93
310.03	89
310.26	70
310.49	97
310.72	85
310.949	110
311.179	88
311.409	91
311.639	87
311.868	79
312.098	88
312.328	97
312.557	119
312.787	108
313.017	100
313.246	84
313.476	95
313.706	92
313.935	79
314.165	95
314.394	103
314.624	74
314.853	94
315.083	91
315.312	85
315.542	85
315.771	77
316.001	74
316.23	70
316.46	84
316.689	89
316.919	76
317.148	87
317.377	93
317.607	80
317.836	89
318.065	94
318.295	88
318.524	87
318.753	92
318.983	89
319.212	94
319.441	99
319.67	103
319.9	81
320.129	94
320.358	100
320.587	102
320.816	73
321.046	100
321.275	94
321.504	98
321.733	105
321.962	106
322.191	92
322.42	106
322.649	110
322.878	96
323.108	105
323.337	127
323.566	133
323.795	143
324.024	181
324.253	383
324.482	812
324.71	1653
324.939	2265
325.168	828
325.397	241
325.626	160
325.855	118
326.084	119
326.313	113
326.542	149
326.77	223
326.999	440
327.228	925
327.457	1698
327.686	1368
327.914	368
328.143	177
328.372	151
328.6	135
328.829	108
329.058	115
329.287	119
329.515	115
329.744	103
329.972	94
330.201	122
330.43	117
330.658	105
330.887	130
331.115	101
331.344	90
331.572	103
331.801	101
332.03	106
332.258	105
332.486	63
332.715	83
332.943	97
333.172	94
333.4	93
333.629	96
333.857	103
334.085	98
334.314	101
334.542	125
334.771	132
334.999	106
335.227	94
335.455	99
335.684	105
335.912	98
336.14	88
336.369	94
336.597	93
336.825	96
337.053	89
337.281	98
337.51	82
337.738	96
337.966	93
338.194	88
338.422	92
338.65	94
338.878	84
339.106	80
339.334	67
339.562	84
339.79	97
340.018	87
340.246	94
340.474	90
340.702	83
340.93	87
341.158	95
341.386	95
341.614	92
341.842	96
342.07	84
342.298	95
342.526	90
342.754	76
342.981	84
343.209	86
343.437	92
343.665	79
343.893	98
344.12	96
344.348	92
344.576	99
344.804	83
345.031	95
345.259	71
345.487	91
345.714	96
345.942	106
346.17	90
346.397	92
346.625	95
346.853	87
347.08	91
347.308	97
347.535	85
347.763	74
347.99	86
348.218	96
348.445	92
348.673	89
348.9	83
349.128	98
349.355	83
349.583	97
349.81	88
350.037	97
350.265	97
350.492	91
350.72	98
350.947	92
351.174	110
351.402	108
351.629	95
351.856	93
352.083	94
352.311	105
352.538	102
352.765	114
352.992	128
353.22	112
353.447	122
353.674	100
353.901	92
354.128	84
354.355	96
354.583	90
354.81	84
355.037	87
355.264	96
355.491	98
355.718	78
355.945	96
356.172	87
356.399	87
356.626	91
356.853	88
357.08	96
357.307	87
357.534	94
357.761	80
357.988	95
358.215	94
358.441	94
358.668	79
358.895	97
359.122	90
359.349	70
359.576	103
359.802	90
360.029	98
360.256	99
360.483	89
360.709	81
360.936	77
361.163	104
361.39	90
361.616	80
361.843	83
362.07	92
362.296	111
362.523	94
362.749	91
362.976	71
363.203	74
363.429	80
363.656	77
363.882	86
364.109	84
364.335	97
364.562	84
364.788	73
365.015	84
365.241	101
365.468	98
365.694	112
365.92	99
366.147	94
366.373	86
366.599	90
366.826	75
367.052	88
367.278	84
367.505	86
367.731	87
367.957	84
368.184	90
368.41	83
368.636	95
368.862	113
369.089	98
369.315	98
369.541	86
369.767	74
369.993	89
370.219	86
370.445	82
370.672	89
370.898	81
371.124	99
371.35	103
371.576	83
371.802	80
372.028	86
372.254	84
372.48	86
372.706	88
372.932	75
373.158	75
373.384	86
373.61	100
373.835	82
374.061	78
374.287	95
374.513	84
374.739	91
374.965	98
375.191	71
375.416	78
375.642	98
375.868	86
376.094	107
376.319	75
376.545	78
376.771	78
376.997	89
377.222	91
377.448	89
377.674	73
377.899	82
378.125	84
378.35	89
378.576	73
378.802	76
379.027	82
379.253	79
379.478	66
379.704	92
379.929	88
380.155	101
380.38	86
380.606	107
380.831	91
381.057	97
381.282	89
381.507	103
381.733	98
381.958	105
382.184	88
382.409	97
382.634	97
382.86	85
383.085	95
383.31	96
383.535	104
383.761	99
383.986	90
384.211	96
384.436	92
384.662	99
384.887	119
385.112	98
385.337	99
385.562	106
385.787	98
386.013	95
386.238	103
386.463	111
386.688	116
386.913	99
387.138	90
387.363	95
387.588	100
387.813	91
388.038	103
388.263	114
388.488	102
388.713	85
388.938	88
389.163	82
389.387	103
389.612	97
389.837	96
390.062	84
390.287	92
390.512	81
390.736	76
390.961	97
391.186	96
391.411	83
391.636	98
391.86	81
392.085	82
392.31	73
392.534	90
392.759	89
392.984	97
393.208	86
393.433	101
393.658	90
393.882	77
394.107	98
394.331	75
394.556	73
394.78	85
395.005	86
395.229	75
395.454	82
395.678	84
395.903	92
396.127	93
396.352	96
396.576	98
396.801	82
397.025	91
397.249	92
397.474	92
397.698	103
397.922	89
398.147	96
398.371	80
398.595	74
398.82	84
399.044	96
399.268	89
399.492	83
399.717	87
399.941	90
400.165	81
400.389	82
400.613	90
400.837	85
401.062	94
401.286	83
401.51	99
401.734	85
401.958	93
402.182	119
402.406	140
402.63	99
402.854	86
403.078	80
403.302	80
403.526	83
403.75	105
403.974	85
404.198	88
404.422	86
404.645	85
404.869	92
405.093	78
405.317	88
405.541	117
405.765	88
405.988	105
406.212	164
406.436	182
406.66	125
406.883	99
407.107	102
407.331	90
407.555	83
407.778	96
408.002	71
408.226	91
408.449	78
408.673	99
408.896	113
409.12	92
409.344	79
409.567	89
409.791	99
410.014	100
410.238	85
410.461	86
410.685	92
410.908	104
411.132	88
411.355	97
411.578	96
411.802	86
412.025	72
412.249	84
412.472	80
412.695	99
412.919	79
413.142	73
413.365	75
413.589	86
413.812	90
414.035	91
414.258	73
414.482	86
414.705	72
414.928	91
415.151	78
415.374	85
415.597	80
415.821	89
416.044	79
416.267	81
416.49	84
416.713	75
416.936	79
417.159	91
417.382	93
417.605	76
417.828	86
418.051	88
418.274	71
418.497	84
418.72	93
418.943	84
419.166	104
419.389	93
419.611	96
419.834	83
420.057	74
420.28	82
420.503	97
420.726	84
420.948	89
421.171	102
421.394	85
421.617	81
421.839	81
422.062	83
422.285	84
422.507	93
422.73	100
422.953	101
423.175	78
423.398	82
423.621	77
423.843	82
424.066	88
424.288	82
424.511	97
424.733	90
424.956	96
425.178	102
425.401	96
425.623	102
425.846	86
426.068	92
426.291	88
426.513	71
426.735	86
426.958	87
427.18	107
427.402	139
427.625	158
427.847	130
428.069	108
428.292	87
428.514	71
428.736	87
428.958	66
429.181	88
429.403	74
429.625	88
429.847	100
430.069	100
430.292	83
430.514	89
430.736	96
430.958	75
431.18	96
431.402	91
431.624	90
431.846	75
432.068	84
432.29	100
432.512	84
432.734	79
432.956	88
433.178	88
433.4	99
433.622	95
433.844	84
434.066	90
434.287	102
434.509	87
434.731	88
434.953	90
435.175	76
435.397	82
435.618	101
435.84	110
436.062	116
436.284	113
436.505	101
436.727	100
436.949	104
437.17	85
437.392	78
437.614	92
437.835	91
438.057	95
438.278	109
438.5	102
438.721	107
438.943	94
439.165	86
439.386	93
439.608	91
439.829	100
440.05	108
440.272	135
440.493	93
440.715	100
440.936	79
441.158	89
441.379	86
441.6	65
441.822	76
442.043	87
442.264	82
442.486	104
442.707	86
442.928	94
443.149	117
443.371	118
443.592	110
443.813	105
444.034	93
444.255	100
444.476	85
444.698	82
444.919	89
445.14	128
445.361	109
445.582	128
445.803	126
446.024	114
446.245	130
446.466	108
446.687	79
446.908	88
447.129	91
447.35	72
447.571	86
447.792	88
448.013	92
448.234	92
448.455	105
448.675	113
448.896	107
449.117	75
449.338	90
449.559	110
449.779	132
450	96
450.221	95
450.442	79
450.662	98
450.883	108
451.104	115
451.324	82
451.545	98
451.766	73
451.986	75
452.207	75
452.428	93
452.648	94
452.869	114
453.089	103
453.31	122
453.53	82
453.751	76
453.971	95
454.192	100
454.412	82
454.633	82
454.853	76
455.073	84
455.294	88
455.514	88
455.734	79
455.955	80
456.175	88
456.395	92
456.616	90
456.836	94
457.056	91
457.276	78
457.497	67
457.717	69
457.937	90
458.157	84
458.377	98
458.598	103
458.818	132
459.038	134
459.258	99
459.478	88
459.698	80
459.918	81
460.138	83
460.358	71
460.578	78
460.798	78
461.018	89
461.238	88
461.458	74
461.678	68
461.898	80
462.118	77
462.338	91
462.558	89
462.777	82
462.997	74
463.217	85
463.437	89
463.657	87
463.876	84
464.096	74
464.316	84
464.536	97
464.755	92
464.975	108
465.195	153
465.414	168
465.634	96
465.854	87
466.073	92
466.293	89
466.512	83
466.732	86
466.951	89
467.171	66
467.391	87
467.61	96
467.829	85
468.049	101
468.268	102
468.488	88
468.707	83
468.927	102
469.146	85
469.365	85
469.585	93
469.804	87
470.023	86
470.243	100
470.462	112
470.681	88
470.901	85
471.12	87
471.339	82
471.558	86
471.777	86
471.997	88
472.216	113
472.435	134
472.654	89
472.873	98
473.092	79
473.311	90
473.53	83
473.749	81
473.968	94
474.187	108
474.406	99
474.625	86
474.844	67
475.063	81
475.282	80
475.501	88
475.72	99
475.939	75
476.158	85
476.377	100
476.596	77
476.814	91
477.033	87
477.252	86
477.471	74
477.69	93
477.908	86
478.127	83
478.346	91
478.564	97
478.783	91
479.002	98
479.22	73
479.439	92
479.658	92
479.876	94
480.095	90
480.313	101
480.532	87
480.751	81
480.969	107
481.188	171
481.406	142
481.624	110
481.843	93
482.061	91
482.28	83
482.498	87
482.717	93
482.935	76
483.153	96
483.372	78
483.59	82
483.808	84
484.027	90
484.245	87
484.463	83
484.681	80
484.9	81
485.118	83
485.336	78
485.554	101
485.772	94
485.99	106
486.209	96
486.427	96
486.645	97
486.863	104
487.081	97
487.299	96
487.517	104
487.735	84
487.953	88
488.171	101
488.389	99
488.607	87
488.825	90
489.043	87
489.261	91
489.479	83
489.696	87
489.914	92
490.132	76
490.35	96
490.568	90
490.786	89
491.003	75
491.221	79
491.439	89
491.657	91
491.874	93
492.092	85
492.31	86
492.527	78
492.745	80
492.963	86
493.18	103
493.398	99
493.615	92
493.833	91
494.05	107
494.268	84
494.485	90
494.703	86
494.92	84
495.138	98
495.355	90
495.573	86
495.79	85
496.008	82
496.225	71
496.442	99
496.66	95
496.877	96
497.094	103
497.312	91
497.529	89
497.746	91
497.963	94
498.181	88
498.398	91
498.615	105
498.832	107
499.049	98
499.267	88
499.484	84
499.701	100
499.918	92
500.135	94
500.352	96
500.569	93
500.786	97
501.003	72
501.22	79
501.437	82
501.654	83
501.871	104
502.088	93
502.305	85
502.522	90
502.739	79
502.956	92
503.172	97
503.389	98
503.606	107
503.823	102
504.04	93
504.256	97
504.473	82
504.69	99
504.907	86
505.123	80
505.34	80
505.557	93
505.773	91
505.99	84
506.207	95
506.423	78
506.64	94
506.856	90
507.073	78
507.289	82
507.506	107
507.722	107
507.939	108
508.155	78
508.372	81
508.588	93
508.805	91
509.021	96
509.238	83
509.454	88
509.67	84
509.887	102
510.103	131
510.319	199
510.536	672
510.752	2074
510.968	564
511.184	162
511.401	101
511.617	92
511.833	94
512.049	91
512.265	98
512.481	89
512.698	100
512.914	88
513.13	93
513.346	83
513.562	80
513.778	78
513.994	90
514.21	103
514.426	103
514.642	128
514.858	103
515.074	164
515.29	442
515.506	1366
515.721	500
515.937	145
516.153	97
516.369	82
516.585	102
516.801	90
517.016	85
517.232	91
517.448	84
517.664	93
517.879	92
518.095	94
518.311	80
518.527	82
518.742	97
518.958	102
519.173	82
519.389	90
519.605	78
519.82	97
520.036	104
520.251	125
520.467	102
520.682	98
520.898	90
521.113	112
521.329	128
521.544	198
521.76	513
521.975	2225
522.19	1334
522.406	290
522.621	105
522.836	85
523.052	88
523.267	99
523.482	79
523.698	91
523.913	114
524.128	92
524.343	81
524.559	102
524.774	87
524.989	94
525.204	99
525.419	90
525.634	78
525.849	91
526.064	85
526.28	96
526.495	91
526.71	90
526.925	94
527.14	79
527.355	94
527.57	97
527.785	91
527.999	88
528.214	85
528.429	93
528.644	83
528.859	82
529.074	104
529.289	100
529.503	178
529.718	98
529.933	96
530.148	80
530.363	82
530.577	93
530.792	75
531.007	96
531.221	99
531.436	83
531.651	89
531.865	99
532.08	108
532.295	82
532.509	84
532.724	88
532.938	94
533.153	87
533.367	91
533.582	99
533.796	99
534.011	97
534.225	105
534.44	86
534.654	89
534.868	106
535.083	90
535.297	80
535.511	107
535.726	102
535.94	98
536.154	107
536.369	98
536.583	81
536.797	86
537.011	82
537.225	87
537.44	86
537.654	81
537.868	87
538.082	86
538.296	78
538.51	89
538.724	97
538.938	91
539.153	94
539.367	90
539.581	97
539.795	79
540.009	88
540.222	80
540.436	88
540.65	89
540.864	91
541.078	89
541.292	82
541.506	97
541.72	79
541.934	74
542.147	85
542.361	86
542.575	90
542.789	83
543.002	88
543.216	90
543.43	85
543.644	70
543.857	87
544.071	92
544.285	75
544.498	78
544.712	87
544.925	70
545.139	80
545.352	87
545.566	91
545.779	98
545.993	90
546.206	81
546.42	91
546.633	83
546.847	88
547.06	92
547.274	88
547.487	82
547.7	91
547.914	83
548.127	90
548.34	76
548.554	91
548.767	100
548.98	93
549.193	90
549.407	92
549.62	79
549.833	79
550.046	72
550.259	79
550.473	88
550.686	88
550.899	93
551.112	100
551.325	86
551.538	97
551.751	92
551.964	82
552.177	90
552.39	85
552.603	99
552.816	82
553.029	94
553.242	80
553.455	92
553.667	104
553.88	101
554.093	88
554.306	100
554.519	88
554.732	79
554.944	78
555.157	82
555.37	87
555.583	84
555.795	80
556.008	88
556.221	87
556.433	92
556.646	83
556.859	90
557.071	82
557.284	89
557.496	75
557.709	101
557.921	78
558.134	90
558.346	85
558.559	73
558.771	82
558.984	98
559.196	91
559.409	86
559.621	76
559.833	81
560.046	97
560.258	94
560.47	89
560.683	91
560.895	87
561.107	89
561.32	74
561.532	78
561.744	103
561.956	96
562.168	91
562.381	76
562.593	72
562.805	95
563.017	94
563.229	88
563.441	88
563.653	85
563.865	73
564.077	78
564.289	87
564.501	73
564.713	84
564.925	70
565.137	94
565.349	84
565.561	88
565.773	84
565.985	83
566.197	89
566.408	78
566.62	69
566.832	82
567.044	81
567.255	78
567.467	98
567.679	81
567.891	85
568.102	70
568.314	93
568.526	73
568.737	91
568.949	69
569.161	84
569.372	80
569.584	92
569.795	84
570.007	108
570.218	215
570.43	126
570.641	99
570.853	88
571.064	95
571.276	73
571.487	80
571.698	82
571.91	80
572.121	76
572.333	73
572.544	74
572.755	71
572.966	86
573.178	82
573.389	71
573.6	82
573.811	96
574.023	89
574.234	84
574.445	84
574.656	84
574.867	95
575.078	87
575.289	80
575.501	89
575.712	81
575.923	92
576.134	79
576.345	83
576.556	88
576.767	96
576.978	91
577.188	86
577.399	92
577.61	95
577.821	89
578.032	122
578.243	257
578.454	653
578.665	197
578.875	95
579.086	98
579.297	91
579.508	76
579.718	98
579.929	86
580.14	86
580.35	84
580.561	88
580.772	83
580.982	83
581.193	88
581.403	86
581.614	85
581.825	90
582.035	88
582.246	85
582.456	81
582.667	84
582.877	73
583.087	67
583.298	82
583.508	70
583.719	87
583.929	98
584.139	79
584.35	88
584.56	82
584.77	79
584.981	82
585.191	87
585.401	73
585.611	72
585.821	82
586.032	74
