Data from Circ_1981_H10_HRD10591_00054.txt Node
Date: Wed Jan 03 12:34:31 EST 2024
User: Yrep
Spectrometer: HR+D1059
Trigger mode: 1
Integration Time (sec): 1.000000E-1
Scans to average: 1
Electric dark correction enabled: true
Nonlinearity correction enabled: false
Boxcar width: 0
XAxis mode: Wavelengths
Number of Pixels in Spectrum: 2048
>>>>>Begin Spectral Data<<<<<
223.165	-31.25
223.4	-31.25
223.635	-31.25
223.869	-16.25
224.104	-23.25
224.338	-9.25
224.573	-15.25
224.808	-10.25
225.042	-7.25
225.277	-1.25
225.511	-8.25
225.746	3.75
225.98	9.75
226.215	14.75
226.449	18.75
226.683	16.75
226.918	19.75
227.152	38.75
227.387	19.75
227.621	37.75
227.856	47.75
228.09	34.75
228.324	64.75
228.559	52.75
228.793	54.75
229.027	63.75
229.262	71.75
229.496	66.75
229.73	90.75
229.964	87.75
230.199	89.75
230.433	82.75
230.667	72.75
230.901	75.75
231.136	76.75
231.37	76.75
231.604	77.75
231.838	84.75
232.072	78.75
232.306	81.75
232.541	84.75
232.775	76.75
233.009	86.75
233.243	92.75
233.477	91.75
233.711	95.75
233.945	74.75
234.179	78.75
234.413	70.75
234.647	57.75
234.881	95.75
235.115	96.75
235.349	81.75
235.583	76.75
235.817	71.75
236.051	71.75
236.285	75.75
236.519	87.75
236.753	79.75
236.987	70.75
237.221	79.75
237.455	100.75
237.689	85.75
237.922	78.75
238.156	72.75
238.39	76.75
238.624	82.75
238.858	93.75
239.091	84.75
239.325	89.75
239.559	95.75
239.793	70.75
240.027	75.75
240.26	82.75
240.494	63.75
240.728	84.75
240.961	73.75
241.195	79.75
241.429	88.75
241.662	87.75
241.896	78.75
242.13	79.75
242.363	61.75
242.597	78.75
242.83	86.75
243.064	71.75
243.298	79.75
243.531	94.75
243.765	88.75
243.998	66.75
244.232	86.75
244.465	90.75
244.699	86.75
244.932	83.75
245.166	77.75
245.399	74.75
245.633	84.75
245.866	51.75
246.099	82.75
246.333	82.75
246.566	73.75
246.8	80.75
247.033	90.75
247.266	60.75
247.5	85.75
247.733	70.75
247.966	75.75
248.2	74.75
248.433	80.75
248.666	87.75
248.899	66.75
249.133	90.75
249.366	102.75
249.599	101.75
249.832	78.75
250.066	91.75
250.299	80.75
250.532	90.75
250.765	84.75
250.998	73.75
251.231	73.75
251.465	77.75
251.698	90.75
251.931	78.75
252.164	73.75
252.397	77.75
252.63	88.75
252.863	87.75
253.096	82.75
253.329	82.75
253.562	76.75
253.795	69.75
254.028	83.75
254.261	82.75
254.494	81.75
254.727	90.75
254.96	85.75
255.193	85.75
255.426	95.75
255.659	72.75
255.892	88.75
256.124	87.75
256.357	72.75
256.59	83.75
256.823	80.75
257.056	87.75
257.289	71.75
257.521	87.75
257.754	90.75
257.987	86.75
258.22	89.75
258.452	87.75
258.685	101.75
258.918	83.75
259.151	87.75
259.383	75.75
259.616	77.75
259.849	80.75
260.081	81.75
260.314	90.75
260.547	81.75
260.779	96.75
261.012	82.75
261.244	82.75
261.477	98.75
261.71	108.75
261.942	124.75
262.175	141.75
262.407	94.75
262.64	84.75
262.872	102.75
263.105	88.75
263.337	98.75
263.57	90.75
263.802	87.75
264.035	82.75
264.267	94.75
264.499	84.75
264.732	80.75
264.964	87.75
265.197	71.75
265.429	82.75
265.661	85.75
265.894	84.75
266.126	75.75
266.358	82.75
266.591	75.75
266.823	88.75
267.055	89.75
267.287	77.75
267.52	88.75
267.752	92.75
267.984	89.75
268.216	83.75
268.448	96.75
268.681	88.75
268.913	92.75
269.145	87.75
269.377	75.75
269.609	76.75
269.841	83.75
270.073	87.75
270.306	88.75
270.538	86.75
270.77	82.75
271.002	100.75
271.234	105.75
271.466	81.75
271.698	81.75
271.93	87.75
272.162	87.75
272.394	85.75
272.626	95.75
272.858	79.75
273.09	75.75
273.322	95.75
273.553	84.75
273.785	85.75
274.017	87.75
274.249	71.75
274.481	91.75
274.713	93.75
274.945	80.75
275.176	86.75
275.408	79.75
275.64	91.75
275.872	94.75
276.104	90.75
276.335	83.75
276.567	99.75
276.799	126.75
277.031	114.75
277.262	105.75
277.494	81.75
277.726	86.75
277.957	100.75
278.189	94.75
278.421	78.75
278.652	73.75
278.884	87.75
279.115	94.75
279.347	87.75
279.579	83.75
279.81	84.75
280.042	98.75
280.273	88.75
280.505	83.75
280.736	73.75
280.968	97.75
281.199	101.75
281.431	91.75
281.662	99.75
281.894	83.75
282.125	99.75
282.356	131.75
282.588	159.75
282.819	110.75
283.051	87.75
283.282	88.75
283.513	85.75
283.745	92.75
283.976	90.75
284.207	79.75
284.439	86.75
284.67	93.75
284.901	93.75
285.132	72.75
285.364	94.75
285.595	91.75
285.826	98.75
286.057	95.75
286.288	92.75
286.52	79.75
286.751	76.75
286.982	79.75
287.213	91.75
287.444	87.75
287.675	91.75
287.906	107.75
288.138	86.75
288.369	104.75
288.6	99.75
288.831	87.75
289.062	93.75
289.293	88.75
289.524	86.75
289.755	83.75
289.986	87.75
290.217	89.75
290.448	80.75
290.679	90.75
290.91	88.75
291.141	82.75
291.371	106.75
291.602	88.75
291.833	92.75
292.064	95.75
292.295	93.75
292.526	85.75
292.757	84.75
292.987	78.75
293.218	79.75
293.449	92.75
293.68	99.75
293.91	91.75
294.141	77.75
294.372	82.75
294.603	82.75
294.833	94.75
295.064	88.75
295.295	75.75
295.525	95.75
295.756	103.75
295.987	122.75
296.217	161.75
296.448	133.75
296.679	98.75
296.909	106.75
297.14	101.75
297.37	88.75
297.601	96.75
297.831	91.75
298.062	84.75
298.292	97.75
298.523	88.75
298.753	99.75
298.984	99.75
299.214	93.75
299.445	103.75
299.675	90.75
299.905	91.75
300.136	99.75
300.366	88.75
300.597	84.75
300.827	107.75
301.057	93.75
301.288	102.75
301.518	96.75
301.748	86.75
301.979	105.75
302.209	99.75
302.439	88.75
302.669	90.75
302.9	90.75
303.13	92.75
303.36	91.75
303.59	115.75
303.82	123.75
304.051	103.75
304.281	93.75
304.511	102.75
304.741	93.75
304.971	88.75
305.201	89.75
305.431	100.75
305.661	101.75
305.891	100.75
306.121	88.75
306.352	98.75
306.582	114.75
306.812	98.75
307.042	87.75
307.272	83.75
307.502	96.75
307.731	95.75
307.961	91.75
308.191	89.75
308.421	84.75
308.651	102.75
308.881	104.75
309.111	108.75
309.341	99.75
309.571	107.75
309.8	103.75
310.03	103.75
310.26	111.75
310.49	99.75
310.72	89.75
310.949	108.75
311.179	105.75
311.409	86.75
311.639	95.75
311.868	112.75
312.098	100.75
312.328	78.75
312.557	102.75
312.787	125.75
313.017	111.75
313.246	107.75
313.476	97.75
313.706	99.75
313.935	108.75
314.165	110.75
314.394	121.75
314.624	105.75
314.853	104.75
315.083	105.75
315.312	91.75
315.542	83.75
315.771	89.75
316.001	91.75
316.23	88.75
316.46	90.75
316.689	84.75
316.919	106.75
317.148	104.75
317.377	100.75
317.607	93.75
317.836	96.75
318.065	84.75
318.295	85.75
318.524	96.75
318.753	90.75
318.983	95.75
319.212	103.75
319.441	107.75
319.67	106.75
319.9	88.75
320.129	96.75
320.358	101.75
320.587	102.75
320.816	114.75
321.046	111.75
321.275	114.75
321.504	104.75
321.733	105.75
321.962	106.75
322.191	117.75
322.42	111.75
322.649	130.75
322.878	104.75
323.108	124.75
323.337	127.75
323.566	137.75
323.795	148.75
324.024	241.75
324.253	415.75
324.482	948.75
324.71	1928.75
324.939	2532.75
325.168	909.75
325.397	274.75
325.626	154.75
325.855	142.75
326.084	113.75
326.313	126.75
326.542	164.75
326.77	260.75
326.999	493.75
327.228	1006.75
327.457	1848.75
327.686	1463.75
327.914	417.75
328.143	234.75
328.372	191.75
328.6	152.75
328.829	126.75
329.058	162.75
329.287	156.75
329.515	127.75
329.744	104.75
329.972	118.75
330.201	138.75
330.43	137.75
330.658	155.75
330.887	192.75
331.115	161.75
331.344	110.75
331.572	115.75
331.801	116.75
332.03	109.75
332.258	105.75
332.486	102.75
332.715	101.75
332.943	105.75
333.172	103.75
333.4	103.75
333.629	104.75
333.857	138.75
334.085	117.75
334.314	128.75
334.542	168.75
334.771	162.75
334.999	104.75
335.227	104.75
335.455	97.75
335.684	97.75
335.912	95.75
336.14	103.75
336.369	100.75
336.597	97.75
336.825	113.75
337.053	96.75
337.281	96.75
337.51	89.75
337.738	92.75
337.966	99.75
338.194	102.75
338.422	89.75
338.65	102.75
338.878	107.75
339.106	96.75
339.334	88.75
339.562	101.75
339.79	101.75
340.018	89.75
340.246	110.75
340.474	96.75
340.702	98.75
340.93	94.75
341.158	93.75
341.386	108.75
341.614	100.75
341.842	97.75
342.07	111.75
342.298	112.75
342.526	84.75
342.754	88.75
342.981	99.75
343.209	88.75
343.437	95.75
343.665	94.75
343.893	83.75
344.12	99.75
344.348	82.75
344.576	102.75
344.804	102.75
345.031	98.75
345.259	119.75
345.487	114.75
345.714	109.75
345.942	109.75
346.17	98.75
346.397	91.75
346.625	108.75
346.853	120.75
347.08	89.75
347.308	98.75
347.535	100.75
347.763	118.75
347.99	78.75
348.218	94.75
348.445	128.75
348.673	108.75
348.9	101.75
349.128	98.75
349.355	94.75
349.583	97.75
349.81	91.75
350.037	112.75
350.265	90.75
350.492	104.75
350.72	92.75
350.947	104.75
351.174	110.75
351.402	122.75
351.629	103.75
351.856	122.75
352.083	104.75
352.311	113.75
352.538	112.75
352.765	110.75
352.992	117.75
353.22	120.75
353.447	108.75
353.674	110.75
353.901	111.75
354.128	106.75
354.355	91.75
354.583	110.75
354.81	96.75
355.037	94.75
355.264	101.75
355.491	103.75
355.718	85.75
355.945	92.75
356.172	100.75
356.399	106.75
356.626	107.75
356.853	102.75
357.08	96.75
357.307	98.75
357.534	94.75
357.761	95.75
357.988	106.75
358.215	100.75
358.441	89.75
358.668	106.75
358.895	94.75
359.122	103.75
359.349	111.75
359.576	110.75
359.802	116.75
360.029	131.75
360.256	131.75
360.483	107.75
360.709	106.75
360.936	96.75
361.163	102.75
361.39	92.75
361.616	98.75
361.843	102.75
362.07	111.75
362.296	105.75
362.523	104.75
362.749	94.75
362.976	83.75
363.203	100.75
363.429	92.75
363.656	91.75
363.882	87.75
364.109	90.75
364.335	92.75
364.562	87.75
364.788	109.75
365.015	103.75
365.241	102.75
365.468	117.75
365.694	118.75
365.92	103.75
366.147	107.75
366.373	100.75
366.599	87.75
366.826	93.75
367.052	89.75
367.278	94.75
367.505	91.75
367.731	99.75
367.957	94.75
368.184	90.75
368.41	98.75
368.636	119.75
368.862	134.75
369.089	116.75
369.315	94.75
369.541	100.75
369.767	88.75
369.993	101.75
370.219	103.75
370.445	99.75
370.672	89.75
370.898	93.75
371.124	78.75
371.35	80.75
371.576	82.75
371.802	103.75
372.028	94.75
372.254	84.75
372.48	102.75
372.706	84.75
372.932	90.75
373.158	86.75
373.384	79.75
373.61	101.75
373.835	102.75
374.061	91.75
374.287	92.75
374.513	86.75
374.739	89.75
374.965	98.75
375.191	99.75
375.416	91.75
375.642	96.75
375.868	82.75
376.094	94.75
376.319	78.75
376.545	87.75
376.771	92.75
376.997	86.75
377.222	89.75
377.448	85.75
377.674	85.75
377.899	84.75
378.125	94.75
378.35	93.75
378.576	98.75
378.802	69.75
379.027	80.75
379.253	105.75
379.478	78.75
379.704	98.75
379.929	101.75
380.155	88.75
380.38	91.75
380.606	91.75
380.831	101.75
381.057	96.75
381.282	100.75
381.507	104.75
381.733	92.75
381.958	92.75
382.184	100.75
382.409	118.75
382.634	95.75
382.86	104.75
383.085	110.75
383.31	97.75
383.535	104.75
383.761	88.75
383.986	106.75
384.211	91.75
384.436	101.75
384.662	83.75
384.887	101.75
385.112	98.75
385.337	102.75
385.562	107.75
385.787	101.75
386.013	108.75
386.238	109.75
386.463	100.75
386.688	106.75
386.913	108.75
387.138	94.75
387.363	86.75
387.588	88.75
387.813	101.75
388.038	106.75
388.263	101.75
388.488	102.75
388.713	89.75
388.938	90.75
389.163	91.75
389.387	82.75
389.612	95.75
389.837	85.75
390.062	95.75
390.287	101.75
390.512	94.75
390.736	85.75
390.961	83.75
391.186	91.75
391.411	82.75
391.636	100.75
391.86	73.75
392.085	84.75
392.31	84.75
392.534	85.75
392.759	92.75
392.984	99.75
393.208	88.75
393.433	93.75
393.658	96.75
393.882	93.75
394.107	89.75
394.331	95.75
394.556	86.75
394.78	102.75
395.005	90.75
395.229	77.75
395.454	103.75
395.678	91.75
395.903	84.75
396.127	107.75
396.352	95.75
396.576	79.75
396.801	100.75
397.025	90.75
397.249	90.75
397.474	86.75
397.698	86.75
397.922	87.75
398.147	78.75
398.371	86.75
398.595	90.75
398.82	87.75
399.044	87.75
399.268	80.75
399.492	95.75
399.717	88.75
399.941	96.75
400.165	104.75
400.389	105.75
400.613	91.75
400.837	83.75
401.062	89.75
401.286	84.75
401.51	74.75
401.734	96.75
401.958	112.75
402.182	139.75
402.406	203.75
402.63	127.75
402.854	105.75
403.078	100.75
403.302	100.75
403.526	90.75
403.75	91.75
403.974	83.75
404.198	91.75
404.422	78.75
404.645	75.75
404.869	98.75
405.093	103.75
405.317	116.75
405.541	127.75
405.765	106.75
405.988	122.75
406.212	195.75
406.436	267.75
406.66	186.75
406.883	99.75
407.107	104.75
407.331	101.75
407.555	102.75
407.778	115.75
408.002	94.75
408.226	96.75
408.449	85.75
408.673	92.75
408.896	92.75
409.12	95.75
409.344	92.75
409.567	95.75
409.791	93.75
410.014	85.75
410.238	78.75
410.461	83.75
410.685	88.75
410.908	109.75
411.132	114.75
411.355	96.75
411.578	95.75
411.802	92.75
412.025	92.75
412.249	94.75
412.472	104.75
412.695	110.75
412.919	103.75
413.142	88.75
413.365	95.75
413.589	96.75
413.812	96.75
414.035	81.75
414.258	79.75
414.482	102.75
414.705	101.75
414.928	83.75
415.151	87.75
415.374	107.75
415.597	90.75
415.821	92.75
416.044	104.75
416.267	103.75
416.49	93.75
416.713	79.75
416.936	73.75
417.159	94.75
417.382	88.75
417.605	99.75
417.828	96.75
418.051	102.75
418.274	104.75
418.497	101.75
418.72	91.75
418.943	90.75
419.166	77.75
419.389	94.75
419.611	93.75
419.834	90.75
420.057	84.75
420.28	86.75
420.503	89.75
420.726	88.75
420.948	76.75
421.171	110.75
421.394	98.75
421.617	90.75
421.839	88.75
422.062	84.75
422.285	101.75
422.507	111.75
422.73	123.75
422.953	95.75
423.175	96.75
423.398	78.75
423.621	89.75
423.843	92.75
424.066	115.75
424.288	104.75
424.511	91.75
424.733	112.75
424.956	117.75
425.178	116.75
425.401	107.75
425.623	106.75
425.846	104.75
426.068	102.75
426.291	90.75
426.513	84.75
426.735	99.75
426.958	113.75
427.18	111.75
427.402	171.75
427.625	212.75
427.847	180.75
428.069	130.75
428.292	110.75
428.514	88.75
428.736	88.75
428.958	78.75
429.181	82.75
429.403	86.75
429.625	89.75
429.847	103.75
430.069	117.75
430.292	99.75
430.514	98.75
430.736	98.75
430.958	84.75
431.18	87.75
431.402	86.75
431.624	87.75
431.846	88.75
432.068	90.75
432.29	110.75
432.512	91.75
432.734	94.75
432.956	108.75
433.178	93.75
433.4	102.75
433.622	99.75
433.844	88.75
434.066	87.75
434.287	90.75
434.509	76.75
434.731	83.75
434.953	85.75
435.175	101.75
435.397	94.75
435.618	100.75
435.84	108.75
436.062	144.75
436.284	119.75
436.505	96.75
436.727	98.75
436.949	93.75
437.17	96.75
437.392	103.75
437.614	118.75
437.835	112.75
438.057	164.75
438.278	137.75
438.5	123.75
438.721	128.75
438.943	114.75
439.165	95.75
439.386	94.75
439.608	102.75
439.829	110.75
440.05	136.75
440.272	173.75
440.493	108.75
440.715	104.75
440.936	83.75
441.158	92.75
441.379	94.75
441.6	89.75
441.822	106.75
442.043	106.75
442.264	117.75
442.486	98.75
442.707	101.75
442.928	113.75
443.149	147.75
443.371	166.75
443.592	123.75
443.813	137.75
444.034	131.75
444.255	108.75
444.476	93.75
444.698	97.75
444.919	94.75
445.14	140.75
445.361	136.75
445.582	133.75
445.803	168.75
446.024	179.75
446.245	158.75
446.466	140.75
446.687	91.75
446.908	100.75
447.129	98.75
447.35	97.75
447.571	108.75
447.792	90.75
448.013	98.75
448.234	116.75
448.455	108.75
448.675	121.75
448.896	142.75
449.117	110.75
449.338	115.75
449.559	156.75
449.779	161.75
450	89.75
450.221	98.75
450.442	92.75
450.662	89.75
450.883	126.75
451.104	141.75
451.324	100.75
451.545	81.75
451.766	86.75
451.986	80.75
452.207	94.75
452.428	102.75
452.648	99.75
452.869	114.75
453.089	119.75
453.31	139.75
453.53	91.75
453.751	95.75
453.971	113.75
454.192	135.75
454.412	93.75
454.633	103.75
454.853	103.75
455.073	87.75
455.294	100.75
455.514	106.75
455.734	96.75
455.955	87.75
456.175	106.75
456.395	94.75
456.616	88.75
456.836	93.75
457.056	104.75
457.276	95.75
457.497	91.75
457.717	86.75
457.937	93.75
458.157	92.75
458.377	112.75
458.598	117.75
458.818	195.75
459.038	234.75
459.258	160.75
459.478	109.75
459.698	86.75
459.918	79.75
460.138	83.75
460.358	89.75
460.578	91.75
460.798	98.75
461.018	87.75
461.238	87.75
461.458	94.75
461.678	70.75
461.898	88.75
462.118	85.75
462.338	80.75
462.558	80.75
462.777	89.75
462.997	80.75
463.217	85.75
463.437	108.75
463.657	100.75
463.876	81.75
464.096	87.75
464.316	107.75
464.536	98.75
464.755	98.75
464.975	131.75
465.195	202.75
465.414	222.75
465.634	108.75
465.854	88.75
466.073	97.75
466.293	82.75
466.512	88.75
466.732	84.75
466.951	90.75
467.171	85.75
467.391	94.75
467.61	110.75
467.829	97.75
468.049	111.75
468.268	117.75
468.488	85.75
468.707	90.75
468.927	94.75
469.146	89.75
469.365	88.75
469.585	90.75
469.804	89.75
470.023	115.75
470.243	104.75
470.462	108.75
470.681	137.75
470.901	102.75
471.12	80.75
471.339	106.75
471.558	90.75
471.777	84.75
471.997	83.75
472.216	114.75
472.435	162.75
472.654	105.75
472.873	98.75
473.092	92.75
473.311	76.75
473.53	90.75
473.749	79.75
473.968	96.75
474.187	127.75
474.406	106.75
474.625	97.75
474.844	84.75
475.063	96.75
475.282	90.75
475.501	74.75
475.72	102.75
475.939	102.75
476.158	88.75
476.377	98.75
476.596	86.75
476.814	105.75
477.033	98.75
477.252	91.75
477.471	95.75
477.69	90.75
477.908	90.75
478.127	84.75
478.346	92.75
478.564	102.75
478.783	103.75
479.002	109.75
479.22	82.75
479.439	105.75
479.658	118.75
479.876	92.75
480.095	91.75
480.313	97.75
480.532	99.75
480.751	101.75
480.969	125.75
481.188	253.75
481.406	172.75
481.624	117.75
481.843	98.75
482.061	101.75
482.28	101.75
482.498	105.75
482.717	101.75
482.935	93.75
483.153	88.75
483.372	77.75
483.59	110.75
483.808	90.75
484.027	98.75
484.245	88.75
484.463	99.75
484.681	100.75
484.9	97.75
485.118	89.75
485.336	95.75
485.554	107.75
485.772	102.75
485.99	104.75
486.209	116.75
486.427	107.75
486.645	112.75
486.863	117.75
487.081	105.75
487.299	101.75
487.517	102.75
487.735	104.75
487.953	101.75
488.171	83.75
488.389	85.75
488.607	106.75
488.825	93.75
489.043	81.75
489.261	87.75
489.479	104.75
489.696	94.75
489.914	86.75
490.132	88.75
490.35	96.75
490.568	99.75
490.786	93.75
491.003	92.75
491.221	90.75
491.439	96.75
491.657	79.75
491.874	106.75
492.092	82.75
492.31	88.75
492.527	84.75
492.745	92.75
492.963	84.75
493.18	95.75
493.398	105.75
493.615	106.75
493.833	97.75
494.05	83.75
494.268	89.75
494.485	68.75
494.703	87.75
494.92	85.75
495.138	90.75
495.355	92.75
495.573	96.75
495.79	86.75
496.008	101.75
496.225	99.75
496.442	87.75
496.66	102.75
496.877	98.75
497.094	101.75
497.312	107.75
497.529	93.75
497.746	104.75
497.963	89.75
498.181	82.75
498.398	82.75
498.615	126.75
498.832	114.75
499.049	92.75
499.267	95.75
499.484	89.75
499.701	93.75
499.918	92.75
500.135	108.75
500.352	96.75
500.569	94.75
500.786	87.75
501.003	108.75
501.22	98.75
501.437	89.75
501.654	100.75
501.871	127.75
502.088	103.75
502.305	99.75
502.522	90.75
502.739	76.75
502.956	87.75
503.172	93.75
503.389	111.75
503.606	116.75
503.823	123.75
504.04	88.75
504.256	90.75
504.473	82.75
504.69	79.75
504.907	88.75
505.123	84.75
505.34	94.75
505.557	89.75
505.773	96.75
505.99	73.75
506.207	80.75
506.423	96.75
506.64	92.75
506.856	80.75
507.073	90.75
507.289	111.75
507.506	98.75
507.722	139.75
507.939	121.75
508.155	100.75
508.372	79.75
508.588	92.75
508.805	79.75
509.021	107.75
509.238	98.75
509.454	106.75
509.67	105.75
509.887	112.75
510.103	142.75
510.319	228.75
510.536	828.75
510.752	2759.75
510.968	741.75
511.184	171.75
511.401	116.75
511.617	106.75
511.833	96.75
512.049	96.75
512.265	95.75
512.481	87.75
512.698	103.75
512.914	96.75
513.13	90.75
513.346	106.75
