Data from Circ_1981_H10_HRD10591_00077.txt Node
Date: Wed Jan 03 12:34:36 EST 2024
User: Yrep
Spectrometer: HR+D1059
Trigger mode: 1
Integration Time (sec): 1.000000E-1
Scans to average: 1
Electric dark correction enabled: true
Nonlinearity correction enabled: false
Boxcar width: 0
XAxis mode: Wavelengths
Number of Pixels in Spectrum: 2048
>>>>>Begin Spectral Data<<<<<
223.165	-19.19
223.4	-19.19
223.635	-19.19
223.869	-9.19
224.104	-36.19
224.338	-17.19
224.573	-15.19
224.808	-17.19
225.042	-8.19
225.277	-1.19
225.511	8.81
225.746	-6.19
225.98	17.81
226.215	7.81
226.449	22.81
226.683	25.81
226.918	28.81
227.152	17.81
227.387	21.81
227.621	28.81
227.856	43.81
228.09	48.81
228.324	47.81
228.559	45.81
228.793	55.81
229.027	54.81
229.262	61.81
229.496	86.81
229.73	87.81
229.964	91.81
230.199	73.81
230.433	79.81
230.667	77.81
230.901	67.81
231.136	85.81
231.37	78.81
231.604	76.81
231.838	70.81
232.072	73.81
232.306	90.81
232.541	85.81
232.775	61.81
233.009	98.81
233.243	77.81
233.477	87.81
233.711	73.81
233.945	81.81
234.179	70.81
234.413	80.81
234.647	86.81
234.881	97.81
235.115	82.81
235.349	76.81
235.583	101.81
235.817	72.81
236.051	75.81
236.285	78.81
236.519	88.81
236.753	85.81
236.987	83.81
237.221	84.81
237.455	90.81
237.689	74.81
237.922	72.81
238.156	65.81
238.39	71.81
238.624	78.81
238.858	60.81
239.091	89.81
239.325	99.81
239.559	87.81
239.793	90.81
240.027	72.81
240.26	78.81
240.494	64.81
240.728	77.81
240.961	85.81
241.195	84.81
241.429	71.81
241.662	70.81
241.896	81.81
242.13	91.81
242.363	83.81
242.597	82.81
242.83	62.81
243.064	72.81
243.298	77.81
243.531	64.81
243.765	84.81
243.998	87.81
244.232	82.81
244.465	83.81
244.699	62.81
244.932	75.81
245.166	71.81
245.399	95.81
245.633	85.81
245.866	78.81
246.099	81.81
246.333	75.81
246.566	72.81
246.8	79.81
247.033	78.81
247.266	74.81
247.5	68.81
247.733	76.81
247.966	87.81
248.2	77.81
248.433	83.81
248.666	74.81
248.899	93.81
249.133	91.81
249.366	99.81
249.599	97.81
249.832	81.81
250.066	66.81
250.299	75.81
250.532	83.81
250.765	89.81
250.998	77.81
251.231	81.81
251.465	70.81
251.698	81.81
251.931	83.81
252.164	78.81
252.397	61.81
252.63	81.81
252.863	72.81
253.096	72.81
253.329	89.81
253.562	79.81
253.795	85.81
254.028	75.81
254.261	75.81
254.494	82.81
254.727	85.81
254.96	72.81
255.193	85.81
255.426	81.81
255.659	72.81
255.892	88.81
256.124	70.81
256.357	69.81
256.59	86.81
256.823	90.81
257.056	84.81
257.289	97.81
257.521	100.81
257.754	89.81
257.987	88.81
258.22	94.81
258.452	95.81
258.685	81.81
258.918	83.81
259.151	83.81
259.383	87.81
259.616	84.81
259.849	75.81
260.081	85.81
260.314	103.81
260.547	88.81
260.779	83.81
261.012	82.81
261.244	68.81
261.477	97.81
261.71	89.81
261.942	117.81
262.175	111.81
262.407	74.81
262.64	75.81
262.872	86.81
263.105	81.81
263.337	90.81
263.57	79.81
263.802	81.81
264.035	91.81
264.267	94.81
264.499	89.81
264.732	97.81
264.964	86.81
265.197	93.81
265.429	73.81
265.661	84.81
265.894	88.81
266.126	87.81
266.358	85.81
266.591	80.81
266.823	83.81
267.055	83.81
267.287	78.81
267.52	83.81
267.752	89.81
267.984	76.81
268.216	78.81
268.448	90.81
268.681	89.81
268.913	74.81
269.145	81.81
269.377	78.81
269.609	85.81
269.841	83.81
270.073	80.81
270.306	74.81
270.538	89.81
270.77	95.81
271.002	85.81
271.234	86.81
271.466	84.81
271.698	89.81
271.93	81.81
272.162	91.81
272.394	70.81
272.626	83.81
272.858	84.81
273.09	100.81
273.322	96.81
273.553	78.81
273.785	80.81
274.017	94.81
274.249	87.81
274.481	90.81
274.713	76.81
274.945	94.81
275.176	88.81
275.408	90.81
275.64	100.81
275.872	84.81
276.104	81.81
276.335	94.81
276.567	93.81
276.799	126.81
277.031	101.81
277.262	97.81
277.494	90.81
277.726	76.81
277.957	87.81
278.189	85.81
278.421	92.81
278.652	89.81
278.884	78.81
279.115	89.81
279.347	85.81
279.579	97.81
279.81	86.81
280.042	94.81
280.273	88.81
280.505	74.81
280.736	79.81
280.968	69.81
281.199	87.81
281.431	88.81
281.662	99.81
281.894	97.81
282.125	114.81
282.356	125.81
282.588	153.81
282.819	121.81
283.051	85.81
283.282	99.81
283.513	82.81
283.745	87.81
283.976	80.81
284.207	84.81
284.439	73.81
284.67	106.81
284.901	81.81
285.132	83.81
285.364	89.81
285.595	74.81
285.826	84.81
286.057	93.81
286.288	89.81
286.52	88.81
286.751	74.81
286.982	81.81
287.213	87.81
287.444	88.81
287.675	94.81
287.906	99.81
288.138	97.81
288.369	74.81
288.6	86.81
288.831	76.81
289.062	102.81
289.293	85.81
289.524	90.81
289.755	81.81
289.986	85.81
290.217	91.81
290.448	85.81
290.679	79.81
290.91	95.81
291.141	74.81
291.371	76.81
291.602	89.81
291.833	95.81
292.064	89.81
292.295	98.81
292.526	98.81
292.757	79.81
292.987	99.81
293.218	78.81
293.449	93.81
293.68	94.81
293.91	109.81
294.141	94.81
294.372	92.81
294.603	74.81
294.833	90.81
295.064	96.81
295.295	83.81
295.525	86.81
295.756	106.81
295.987	118.81
296.217	153.81
296.448	131.81
296.679	108.81
296.909	93.81
297.14	79.81
297.37	89.81
297.601	86.81
297.831	85.81
298.062	94.81
298.292	92.81
298.523	96.81
298.753	107.81
298.984	79.81
299.214	89.81
299.445	91.81
299.675	100.81
299.905	87.81
300.136	91.81
300.366	98.81
300.597	102.81
300.827	88.81
301.057	95.81
301.288	100.81
301.518	102.81
301.748	88.81
301.979	103.81
302.209	93.81
302.439	100.81
302.669	95.81
302.9	87.81
303.13	93.81
303.36	87.81
303.59	101.81
303.82	117.81
304.051	93.81
304.281	92.81
304.511	98.81
304.741	78.81
304.971	90.81
305.201	84.81
305.431	79.81
305.661	81.81
305.891	101.81
306.121	95.81
306.352	101.81
306.582	109.81
306.812	87.81
307.042	101.81
307.272	74.81
307.502	97.81
307.731	102.81
307.961	99.81
308.191	91.81
308.421	87.81
308.651	97.81
308.881	108.81
309.111	87.81
309.341	90.81
309.571	86.81
309.8	102.81
310.03	103.81
310.26	94.81
310.49	98.81
310.72	107.81
310.949	110.81
311.179	113.81
311.409	89.81
311.639	103.81
311.868	100.81
312.098	109.81
312.328	106.81
312.557	117.81
312.787	125.81
313.017	118.81
313.246	100.81
313.476	103.81
313.706	73.81
313.935	105.81
314.165	103.81
314.394	119.81
314.624	95.81
314.853	101.81
315.083	96.81
315.312	78.81
315.542	88.81
315.771	83.81
316.001	104.81
316.23	86.81
316.46	95.81
316.689	97.81
316.919	109.81
317.148	101.81
317.377	103.81
317.607	94.81
317.836	91.81
318.065	74.81
318.295	89.81
318.524	105.81
318.753	99.81
318.983	102.81
319.212	94.81
319.441	110.81
319.67	116.81
319.9	85.81
320.129	85.81
320.358	99.81
320.587	99.81
320.816	104.81
321.046	114.81
321.275	98.81
321.504	100.81
321.733	110.81
321.962	88.81
322.191	101.81
322.42	124.81
322.649	116.81
322.878	134.81
323.108	119.81
323.337	137.81
323.566	146.81
323.795	164.81
324.024	216.81
324.253	428.81
324.482	902.81
324.71	1809.81
324.939	2453.81
325.168	920.81
325.397	262.81
325.626	155.81
325.855	126.81
326.084	128.81
326.313	123.81
326.542	160.81
326.77	251.81
326.999	471.81
327.228	952.81
327.457	1793.81
327.686	1401.81
327.914	376.81
328.143	224.81
328.372	161.81
328.6	148.81
328.829	126.81
329.058	152.81
329.287	153.81
329.515	123.81
329.744	119.81
329.972	111.81
330.201	118.81
330.43	149.81
330.658	138.81
330.887	190.81
331.115	151.81
331.344	104.81
331.572	123.81
331.801	108.81
332.03	124.81
332.258	102.81
332.486	83.81
332.715	91.81
332.943	93.81
333.172	104.81
333.4	107.81
333.629	97.81
333.857	132.81
334.085	114.81
334.314	117.81
334.542	149.81
334.771	162.81
334.999	117.81
335.227	110.81
335.455	94.81
335.684	98.81
335.912	110.81
336.14	102.81
336.369	98.81
336.597	93.81
336.825	98.81
337.053	103.81
337.281	102.81
337.51	92.81
337.738	71.81
337.966	83.81
338.194	95.81
338.422	102.81
338.65	99.81
338.878	86.81
339.106	90.81
339.334	97.81
339.562	114.81
339.79	93.81
340.018	85.81
340.246	98.81
340.474	101.81
340.702	109.81
340.93	86.81
341.158	87.81
341.386	78.81
341.614	104.81
341.842	95.81
342.07	100.81
342.298	94.81
342.526	89.81
342.754	89.81
342.981	100.81
343.209	98.81
343.437	101.81
343.665	93.81
343.893	99.81
344.12	89.81
344.348	92.81
344.576	95.81
344.804	95.81
345.031	101.81
345.259	111.81
345.487	96.81
345.714	103.81
345.942	103.81
346.17	85.81
346.397	100.81
346.625	108.81
346.853	89.81
347.08	83.81
347.308	104.81
347.535	99.81
347.763	101.81
347.99	98.81
348.218	88.81
348.445	104.81
348.673	104.81
348.9	98.81
349.128	87.81
349.355	96.81
349.583	72.81
349.81	101.81
350.037	89.81
350.265	97.81
350.492	100.81
350.72	105.81
350.947	104.81
351.174	98.81
351.402	118.81
351.629	98.81
351.856	81.81
352.083	113.81
352.311	117.81
352.538	98.81
352.765	115.81
352.992	113.81
353.22	123.81
353.447	109.81
353.674	93.81
353.901	90.81
354.128	105.81
354.355	87.81
354.583	99.81
354.81	106.81
355.037	95.81
355.264	100.81
355.491	95.81
355.718	75.81
355.945	97.81
356.172	96.81
356.399	100.81
356.626	107.81
356.853	104.81
357.08	110.81
357.307	93.81
357.534	101.81
357.761	89.81
357.988	106.81
358.215	97.81
358.441	90.81
358.668	91.81
358.895	91.81
359.122	106.81
359.349	86.81
359.576	97.81
359.802	103.81
360.029	116.81
360.256	131.81
360.483	105.81
360.709	98.81
360.936	113.81
361.163	90.81
361.39	93.81
361.616	104.81
361.843	83.81
362.07	100.81
362.296	93.81
362.523	110.81
362.749	85.81
362.976	90.81
363.203	93.81
363.429	104.81
363.656	85.81
363.882	105.81
364.109	81.81
364.335	87.81
364.562	90.81
364.788	80.81
365.015	91.81
365.241	94.81
365.468	116.81
365.694	125.81
365.92	98.81
366.147	94.81
366.373	102.81
366.599	89.81
366.826	88.81
367.052	93.81
367.278	80.81
367.505	101.81
367.731	102.81
367.957	93.81
368.184	94.81
368.41	98.81
368.636	117.81
368.862	132.81
369.089	105.81
369.315	96.81
369.541	95.81
369.767	98.81
369.993	91.81
370.219	102.81
370.445	83.81
370.672	81.81
370.898	91.81
371.124	101.81
371.35	101.81
371.576	102.81
371.802	93.81
372.028	95.81
372.254	108.81
372.48	95.81
372.706	80.81
372.932	92.81
373.158	88.81
373.384	106.81
373.61	73.81
373.835	101.81
374.061	90.81
374.287	97.81
374.513	91.81
374.739	91.81
374.965	87.81
375.191	87.81
375.416	95.81
375.642	95.81
375.868	95.81
376.094	88.81
376.319	85.81
376.545	100.81
376.771	84.81
376.997	85.81
377.222	94.81
377.448	89.81
377.674	93.81
377.899	82.81
378.125	70.81
378.35	85.81
378.576	93.81
378.802	85.81
379.027	75.81
379.253	108.81
379.478	89.81
379.704	88.81
379.929	85.81
380.155	98.81
380.38	106.81
380.606	94.81
380.831	104.81
381.057	91.81
381.282	102.81
381.507	95.81
381.733	88.81
381.958	101.81
382.184	81.81
382.409	99.81
382.634	87.81
382.86	109.81
383.085	93.81
383.31	95.81
383.535	92.81
383.761	94.81
383.986	103.81
384.211	94.81
384.436	94.81
384.662	100.81
384.887	118.81
385.112	92.81
385.337	86.81
385.562	102.81
385.787	106.81
386.013	110.81
386.238	110.81
386.463	114.81
386.688	104.81
386.913	97.81
387.138	100.81
387.363	101.81
387.588	107.81
387.813	93.81
388.038	106.81
388.263	103.81
388.488	108.81
388.713	97.81
388.938	102.81
389.163	88.81
389.387	94.81
389.612	94.81
389.837	102.81
390.062	73.81
390.287	89.81
390.512	91.81
390.736	86.81
390.961	94.81
391.186	98.81
391.411	85.81
391.636	88.81
391.86	94.81
392.085	85.81
392.31	86.81
392.534	91.81
392.759	91.81
392.984	95.81
393.208	94.81
393.433	106.81
393.658	86.81
393.882	81.81
394.107	82.81
394.331	89.81
394.556	74.81
394.78	89.81
395.005	91.81
395.229	85.81
395.454	73.81
395.678	82.81
395.903	81.81
396.127	95.81
396.352	92.81
396.576	90.81
396.801	97.81
397.025	87.81
397.249	89.81
397.474	87.81
397.698	92.81
397.922	94.81
398.147	76.81
398.371	94.81
398.595	97.81
398.82	85.81
399.044	89.81
399.268	83.81
399.492	91.81
399.717	74.81
399.941	92.81
400.165	97.81
400.389	104.81
400.613	91.81
400.837	89.81
401.062	92.81
401.286	94.81
401.51	79.81
401.734	99.81
401.958	104.81
402.182	135.81
402.406	188.81
402.63	135.81
402.854	112.81
403.078	81.81
403.302	81.81
403.526	93.81
403.75	77.81
403.974	94.81
404.198	85.81
404.422	100.81
404.645	101.81
404.869	82.81
405.093	101.81
405.317	106.81
405.541	97.81
405.765	94.81
405.988	126.81
406.212	195.81
406.436	281.81
406.66	191.81
406.883	117.81
407.107	101.81
407.331	106.81
407.555	113.81
407.778	106.81
408.002	98.81
408.226	94.81
408.449	105.81
408.673	97.81
408.896	107.81
409.12	101.81
409.344	89.81
409.567	86.81
409.791	92.81
410.014	105.81
410.238	90.81
410.461	94.81
410.685	81.81
410.908	97.81
411.132	88.81
411.355	88.81
411.578	95.81
411.802	83.81
412.025	87.81
412.249	77.81
412.472	99.81
412.695	93.81
412.919	77.81
413.142	85.81
413.365	85.81
413.589	78.81
413.812	86.81
414.035	92.81
414.258	79.81
414.482	78.81
414.705	93.81
414.928	100.81
415.151	84.81
415.374	89.81
415.597	85.81
415.821	81.81
416.044	108.81
416.267	93.81
416.49	86.81
416.713	91.81
416.936	77.81
417.159	82.81
417.382	70.81
417.605	70.81
417.828	74.81
418.051	90.81
418.274	98.81
418.497	85.81
418.72	85.81
418.943	76.81
419.166	93.81
419.389	81.81
419.611	98.81
419.834	85.81
420.057	93.81
420.28	88.81
420.503	90.81
420.726	91.81
420.948	89.81
421.171	97.81
421.394	100.81
421.617	92.81
421.839	86.81
422.062	89.81
422.285	81.81
422.507	107.81
422.73	109.81
422.953	97.81
423.175	90.81
423.398	78.81
423.621	85.81
423.843	97.81
424.066	98.81
424.288	78.81
424.511	81.81
424.733	97.81
424.956	138.81
425.178	115.81
425.401	109.81
425.623	93.81
425.846	89.81
426.068	102.81
426.291	105.81
426.513	90.81
426.735	82.81
426.958	94.81
427.18	95.81
427.402	158.81
427.625	209.81
427.847	150.81
428.069	132.81
428.292	92.81
428.514	94.81
428.736	79.81
428.958	91.81
429.181	95.81
429.403	87.81
429.625	70.81
429.847	91.81
430.069	118.81
430.292	99.81
430.514	90.81
430.736	83.81
430.958	87.81
431.18	83.81
431.402	86.81
431.624	79.81
431.846	86.81
432.068	86.81
432.29	80.81
432.512	87.81
432.734	97.81
432.956	97.81
433.178	98.81
433.4	89.81
433.622	88.81
433.844	85.81
434.066	102.81
434.287	75.81
434.509	89.81
434.731	89.81
434.953	87.81
435.175	87.81
435.397	94.81
435.618	83.81
435.84	111.81
436.062	140.81
436.284	115.81
436.505	100.81
436.727	113.81
436.949	95.81
437.17	100.81
437.392	98.81
437.614	105.81
437.835	102.81
438.057	140.81
438.278	130.81
438.5	117.81
438.721	143.81
438.943	113.81
439.165	86.81
439.386	87.81
439.608	86.81
439.829	106.81
440.05	132.81
440.272	162.81
440.493	98.81
440.715	88.81
440.936	92.81
441.158	88.81
441.379	91.81
441.6	89.81
441.822	89.81
442.043	100.81
442.264	107.81
442.486	102.81
442.707	81.81
442.928	88.81
443.149	148.81
443.371	145.81
443.592	115.81
443.813	132.81
444.034	119.81
444.255	98.81
444.476	85.81
444.698	92.81
444.919	82.81
445.14	118.81
445.361	117.81
445.582	117.81
445.803	158.81
446.024	152.81
446.245	169.81
446.466	117.81
446.687	95.81
446.908	111.81
447.129	84.81
447.35	85.81
447.571	115.81
447.792	92.81
448.013	91.81
448.234	100.81
448.455	117.81
448.675	116.81
448.896	139.81
449.117	111.81
449.338	102.81
449.559	149.81
449.779	137.81
450	85.81
450.221	93.81
450.442	86.81
450.662	91.81
450.883	130.81
451.104	133.81
451.324	111.81
451.545	83.81
451.766	93.81
451.986	87.81
452.207	107.81
452.428	109.81
452.648	107.81
452.869	128.81
453.089	121.81
453.31	118.81
453.53	91.81
453.751	98.81
453.971	107.81
454.192	119.81
454.412	95.81
454.633	59.81
454.853	82.81
455.073	89.81
455.294	87.81
455.514	115.81
455.734	97.81
455.955	97.81
456.175	85.81
456.395	96.81
456.616	98.81
456.836	83.81
457.056	84.81
457.276	85.81
457.497	85.81
457.717	91.81
457.937	88.81
458.157	84.81
458.377	109.81
458.598	101.81
458.818	183.81
459.038	189.81
459.258	116.81
459.478	93.81
459.698	81.81
459.918	74.81
460.138	84.81
460.358	85.81
460.578	90.81
460.798	85.81
461.018	93.81
461.238	90.81
461.458	91.81
461.678	78.81
461.898	87.81
462.118	78.81
462.338	86.81
462.558	86.81
462.777	82.81
462.997	82.81
463.217	88.81
463.437	94.81
463.657	86.81
463.876	86.81
464.096	101.81
464.316	95.81
464.536	85.81
464.755	99.81
464.975	100.81
465.195	183.81
465.414	212.81
465.634	100.81
465.854	106.81
466.073	91.81
466.293	106.81
466.512	77.81
466.732	80.81
466.951	93.81
467.171	91.81
467.391	103.81
467.61	115.81
467.829	85.81
468.049	99.81
468.268	110.81
468.488	73.81
468.707	91.81
468.927	78.81
469.146	85.81
469.365	93.81
469.585	89.81
469.804	94.81
470.023	103.81
470.243	97.81
470.462	111.81
470.681	124.81
470.901	96.81
471.12	93.81
471.339	95.81
471.558	92.81
471.777	90.81
471.997	75.81
472.216	125.81
472.435	160.81
472.654	101.81
472.873	73.81
473.092	91.81
473.311	89.81
473.53	86.81
473.749	98.81
473.968	106.81
474.187	130.81
474.406	113.81
474.625	81.81
474.844	91.81
475.063	92.81
475.282	93.81
475.501	77.81
475.72	98.81
475.939	85.81
476.158	84.81
476.377	73.81
476.596	85.81
476.814	101.81
477.033	83.81
477.252	86.81
477.471	94.81
477.69	85.81
477.908	85.81
478.127	101.81
478.346	98.81
478.564	97.81
478.783	97.81
479.002	93.81
479.22	97.81
479.439	108.81
479.658	103.81
479.876	109.81
480.095	97.81
480.313	101.81
480.532	85.81
480.751	102.81
480.969	114.81
481.188	245.81
481.406	181.81
481.624	104.81
481.843	79.81
482.061	94.81
482.28	90.81
482.498	89.81
482.717	91.81
482.935	99.81
483.153	90.81
483.372	83.81
483.59	101.81
483.808	92.81
484.027	87.81
484.245	90.81
484.463	88.81
484.681	99.81
484.9	91.81
485.118	91.81
485.336	95.81
485.554	107.81
485.772	98.81
485.99	99.81
486.209	111.81
486.427	87.81
486.645	109.81
486.863	121.81
487.081	103.81
487.299	94.81
487.517	89.81
487.735	91.81
487.953	85.81
488.171	93.81
488.389	107.81
488.607	101.81
488.825	96.81
489.043	69.81
489.261	88.81
489.479	96.81
489.696	106.81
489.914	87.81
490.132	95.81
490.35	88.81
490.568	89.81
490.786	81.81
491.003	87.81
491.221	93.81
491.439	92.81
491.657	92.81
491.874	93.81
492.092	85.81
492.31	103.81
492.527	91.81
492.745	89.81
492.963	77.81
493.18	89.81
493.398	90.81
493.615	83.81
493.833	93.81
494.05	94.81
494.268	89.81
494.485	72.81
494.703	92.81
494.92	89.81
495.138	87.81
495.355	91.81
495.573	106.81
495.79	77.81
496.008	90.81
496.225	95.81
496.442	87.81
496.66	97.81
496.877	77.81
497.094	62.81
497.312	89.81
497.529	91.81
497.746	90.81
497.963	79.81
498.181	92.81
498.398	100.81
498.615	115.81
498.832	104.81
499.049	91.81
499.267	86.81
499.484	90.81
499.701	91.81
499.918	97.81
500.135	103.81
500.352	93.81
500.569	94.81
500.786	85.81
501.003	86.81
501.22	96.81
501.437	89.81
501.654	99.81
501.871	138.81
502.088	104.81
502.305	99.81
502.522	97.81
502.739	81.81
502.956	73.81
503.172	76.81
503.389	93.81
503.606	108.81
503.823	118.81
504.04	97.81
504.256	75.81
504.473	86.81
504.69	94.81
504.907	88.81
505.123	87.81
505.34	93.81
505.557	84.81
505.773	89.81
505.99	93.81
506.207	93.81
506.423	87.81
506.64	97.81
506.856	91.81
507.073	89.81
507.289	92.81
507.506	114.81
507.722	130.81
507.939	110.81
508.155	87.81
508.372	81.81
508.588	92.81
508.805	99.81
509.021	102.81
509.238	109.81
509.454	105.81
509.67	121.81
509.887	118.81
510.103	137.81
510.319	219.81
510.536	857.81
510.752	2930.81
510.968	788.81
511.184	170.81
511.401	126.81
511.617	94.81
511.833	90.81
512.049	89.81
512.265	85.81
512.481	94.81
512.698	103.81
512.914	95.81
513.13	92.81
513.346	101.81
513.562	90.81
513.778	111.81
513.994	93.81
514.21	102.81
514.426	135.81
514.642	164.81
