Data from Circ_1981_H10_HRD10591_00024.txt Node
Date: Wed Jan 03 12:34:25 EST 2024
User: Yrep
Spectrometer: HR+D1059
Trigger mode: 1
Integration Time (sec): 1.000000E-1
Scans to average: 1
Electric dark correction enabled: true
Nonlinearity correction enabled: false
Boxcar width: 0
XAxis mode: Wavelengths
Number of Pixels in Spectrum: 2048
>>>>>Begin Spectral Data<<<<<
223.165	-25.12
223.4	-25.12
223.635	-25.12
223.869	-15.12
224.104	-28.12
224.338	-5.12
224.573	-9.12
224.808	-27.12
225.042	4.88
225.277	6.88
225.511	-8.12
225.746	-2.12
225.98	14.88
226.215	-0.12
226.449	12.88
226.683	28.88
226.918	28.88
227.152	22.88
227.387	38.88
227.621	34.88
227.856	34.88
228.09	50.88
228.324	46.88
228.559	64.88
228.793	59.88
229.027	66.88
229.262	74.88
229.496	72.88
229.73	82.88
229.964	84.88
230.199	77.88
230.433	80.88
230.667	87.88
230.901	104.88
231.136	70.88
231.37	75.88
231.604	74.88
231.838	80.88
232.072	81.88
232.306	78.88
232.541	77.88
232.775	89.88
233.009	84.88
233.243	94.88
233.477	74.88
233.711	75.88
233.945	80.88
234.179	83.88
234.413	93.88
234.647	89.88
234.881	84.88
235.115	85.88
235.349	90.88
235.583	70.88
235.817	90.88
236.051	81.88
236.285	57.88
236.519	63.88
236.753	72.88
236.987	85.88
237.221	82.88
237.455	72.88
237.689	73.88
237.922	87.88
238.156	72.88
238.39	88.88
238.624	75.88
238.858	79.88
239.091	73.88
239.325	75.88
239.559	85.88
239.793	74.88
240.027	80.88
240.26	76.88
240.494	74.88
240.728	86.88
240.961	69.88
241.195	74.88
241.429	93.88
241.662	60.88
241.896	69.88
242.13	81.88
242.363	76.88
242.597	70.88
242.83	79.88
243.064	80.88
243.298	69.88
243.531	63.88
243.765	89.88
243.998	77.88
244.232	83.88
244.465	87.88
244.699	78.88
244.932	73.88
245.166	82.88
245.399	79.88
245.633	95.88
245.866	84.88
246.099	79.88
246.333	82.88
246.566	76.88
246.8	69.88
247.033	73.88
247.266	91.88
247.5	60.88
247.733	82.88
247.966	84.88
248.2	86.88
248.433	82.88
248.666	94.88
248.899	88.88
249.133	91.88
249.366	85.88
249.599	99.88
249.832	82.88
250.066	79.88
250.299	66.88
250.532	83.88
250.765	74.88
250.998	73.88
251.231	89.88
251.465	94.88
251.698	78.88
251.931	82.88
252.164	72.88
252.397	86.88
252.63	83.88
252.863	94.88
253.096	86.88
253.329	84.88
253.562	84.88
253.795	82.88
254.028	79.88
254.261	81.88
254.494	79.88
254.727	75.88
254.96	78.88
255.193	74.88
255.426	80.88
255.659	95.88
255.892	82.88
256.124	79.88
256.357	87.88
256.59	90.88
256.823	89.88
257.056	76.88
257.289	83.88
257.521	90.88
257.754	98.88
257.987	75.88
258.22	103.88
258.452	82.88
258.685	87.88
258.918	69.88
259.151	71.88
259.383	77.88
259.616	91.88
259.849	85.88
260.081	90.88
260.314	80.88
260.547	103.88
260.779	75.88
261.012	86.88
261.244	74.88
261.477	106.88
261.71	103.88
261.942	126.88
262.175	125.88
262.407	83.88
262.64	79.88
262.872	84.88
263.105	80.88
263.337	82.88
263.57	78.88
263.802	98.88
264.035	79.88
264.267	76.88
264.499	85.88
264.732	82.88
264.964	87.88
265.197	90.88
265.429	77.88
265.661	71.88
265.894	86.88
266.126	88.88
266.358	87.88
266.591	87.88
266.823	73.88
267.055	88.88
267.287	86.88
267.52	91.88
267.752	80.88
267.984	91.88
268.216	79.88
268.448	95.88
268.681	86.88
268.913	91.88
269.145	90.88
269.377	92.88
269.609	91.88
269.841	74.88
270.073	88.88
270.306	80.88
270.538	88.88
270.77	88.88
271.002	84.88
271.234	88.88
271.466	86.88
271.698	99.88
271.93	86.88
272.162	84.88
272.394	91.88
272.626	83.88
272.858	80.88
273.09	86.88
273.322	86.88
273.553	86.88
273.785	96.88
274.017	84.88
274.249	79.88
274.481	73.88
274.713	103.88
274.945	106.88
275.176	94.88
275.408	91.88
275.64	83.88
275.872	77.88
276.104	93.88
276.335	96.88
276.567	92.88
276.799	109.88
277.031	107.88
277.262	87.88
277.494	99.88
277.726	82.88
277.957	92.88
278.189	79.88
278.421	84.88
278.652	76.88
278.884	70.88
279.115	92.88
279.347	79.88
279.579	90.88
279.81	84.88
280.042	77.88
280.273	91.88
280.505	82.88
280.736	88.88
280.968	97.88
281.199	101.88
281.431	93.88
281.662	87.88
281.894	74.88
282.125	86.88
282.356	106.88
282.588	124.88
282.819	121.88
283.051	88.88
283.282	100.88
283.513	83.88
283.745	97.88
283.976	90.88
284.207	84.88
284.439	102.88
284.67	85.88
284.901	83.88
285.132	87.88
285.364	95.88
285.595	106.88
285.826	100.88
286.057	80.88
286.288	71.88
286.52	88.88
286.751	99.88
286.982	87.88
287.213	95.88
287.444	88.88
287.675	87.88
287.906	92.88
288.138	87.88
288.369	89.88
288.6	103.88
288.831	83.88
289.062	91.88
289.293	79.88
289.524	88.88
289.755	56.88
289.986	89.88
290.217	103.88
290.448	88.88
290.679	90.88
290.91	86.88
291.141	84.88
291.371	94.88
291.602	90.88
291.833	90.88
292.064	103.88
292.295	79.88
292.526	100.88
292.757	86.88
292.987	88.88
293.218	83.88
293.449	88.88
293.68	93.88
293.91	78.88
294.141	99.88
294.372	96.88
294.603	98.88
294.833	101.88
295.064	90.88
295.295	91.88
295.525	98.88
295.756	91.88
295.987	111.88
296.217	127.88
296.448	132.88
296.679	95.88
296.909	103.88
297.14	101.88
297.37	90.88
297.601	77.88
297.831	90.88
298.062	98.88
298.292	102.88
298.523	95.88
298.753	93.88
298.984	96.88
299.214	100.88
299.445	89.88
299.675	95.88
299.905	91.88
300.136	88.88
300.366	82.88
300.597	81.88
300.827	109.88
301.057	87.88
301.288	108.88
301.518	96.88
301.748	86.88
301.979	84.88
302.209	67.88
302.439	78.88
302.669	86.88
302.9	93.88
303.13	86.88
303.36	100.88
303.59	100.88
303.82	104.88
304.051	97.88
304.281	90.88
304.511	79.88
304.741	105.88
304.971	82.88
305.201	89.88
305.431	87.88
305.661	82.88
305.891	85.88
306.121	93.88
306.352	99.88
306.582	96.88
306.812	111.88
307.042	100.88
307.272	95.88
307.502	90.88
307.731	90.88
307.961	91.88
308.191	100.88
308.421	103.88
308.651	90.88
308.881	103.88
309.111	86.88
309.341	103.88
309.571	109.88
309.8	96.88
310.03	102.88
310.26	94.88
310.49	100.88
310.72	96.88
310.949	107.88
311.179	108.88
311.409	99.88
311.639	76.88
311.868	90.88
312.098	94.88
312.328	101.88
312.557	109.88
312.787	111.88
313.017	103.88
313.246	90.88
313.476	84.88
313.706	93.88
313.935	96.88
314.165	101.88
314.394	99.88
314.624	97.88
314.853	104.88
315.083	102.88
315.312	105.88
315.542	94.88
315.771	101.88
316.001	102.88
316.23	91.88
316.46	92.88
316.689	104.88
316.919	102.88
317.148	100.88
317.377	84.88
317.607	94.88
317.836	98.88
318.065	92.88
318.295	86.88
318.524	91.88
318.753	78.88
318.983	90.88
319.212	114.88
319.441	110.88
319.67	95.88
319.9	104.88
320.129	96.88
320.358	94.88
320.587	92.88
320.816	106.88
321.046	103.88
321.275	100.88
321.504	100.88
321.733	93.88
321.962	92.88
322.191	95.88
322.42	93.88
322.649	117.88
322.878	107.88
323.108	115.88
323.337	112.88
323.566	134.88
323.795	150.88
324.024	206.88
324.253	382.88
324.482	756.88
324.71	1565.88
324.939	2048.88
325.168	763.88
325.397	224.88
325.626	150.88
325.855	124.88
326.084	113.88
326.313	123.88
326.542	143.88
326.77	219.88
326.999	408.88
327.228	830.88
327.457	1528.88
327.686	1194.88
327.914	346.88
328.143	177.88
328.372	164.88
328.6	142.88
328.829	121.88
329.058	123.88
329.287	123.88
329.515	102.88
329.744	108.88
329.972	107.88
330.201	128.88
330.43	141.88
330.658	132.88
330.887	144.88
331.115	137.88
331.344	98.88
331.572	98.88
331.801	110.88
332.03	95.88
332.258	89.88
332.486	89.88
332.715	95.88
332.943	91.88
333.172	92.88
333.4	113.88
333.629	101.88
333.857	110.88
334.085	96.88
334.314	122.88
334.542	130.88
334.771	124.88
334.999	98.88
335.227	92.88
335.455	95.88
335.684	83.88
335.912	104.88
336.14	96.88
336.369	95.88
336.597	106.88
336.825	98.88
337.053	103.88
337.281	83.88
337.51	88.88
337.738	77.88
337.966	84.88
338.194	86.88
338.422	99.88
338.65	93.88
338.878	109.88
339.106	94.88
339.334	92.88
339.562	99.88
339.79	86.88
340.018	90.88
340.246	102.88
340.474	102.88
340.702	103.88
340.93	94.88
341.158	98.88
341.386	94.88
341.614	95.88
341.842	92.88
342.07	105.88
342.298	96.88
342.526	101.88
342.754	83.88
342.981	98.88
343.209	77.88
343.437	93.88
343.665	96.88
343.893	91.88
344.12	109.88
344.348	82.88
344.576	78.88
344.804	85.88
345.031	103.88
345.259	93.88
345.487	96.88
345.714	98.88
345.942	102.88
346.17	92.88
346.397	93.88
346.625	87.88
346.853	86.88
347.08	87.88
347.308	104.88
347.535	107.88
347.763	98.88
347.99	116.88
348.218	92.88
348.445	102.88
348.673	114.88
348.9	96.88
349.128	82.88
349.355	100.88
349.583	94.88
349.81	101.88
350.037	102.88
350.265	101.88
350.492	90.88
350.72	92.88
350.947	99.88
351.174	118.88
351.402	110.88
351.629	95.88
351.856	102.88
352.083	86.88
352.311	111.88
352.538	104.88
352.765	99.88
352.992	111.88
353.22	108.88
353.447	106.88
353.674	91.88
353.901	90.88
354.128	97.88
354.355	93.88
354.583	98.88
354.81	97.88
355.037	99.88
355.264	105.88
355.491	94.88
355.718	93.88
355.945	99.88
356.172	101.88
356.399	103.88
356.626	97.88
356.853	117.88
357.08	104.88
357.307	92.88
357.534	90.88
357.761	88.88
357.988	102.88
358.215	81.88
358.441	99.88
358.668	102.88
358.895	104.88
359.122	95.88
359.349	100.88
359.576	97.88
359.802	104.88
360.029	115.88
360.256	107.88
360.483	98.88
360.709	87.88
360.936	107.88
361.163	84.88
361.39	107.88
361.616	96.88
361.843	102.88
362.07	96.88
362.296	110.88
362.523	90.88
362.749	103.88
362.976	100.88
363.203	97.88
363.429	90.88
363.656	94.88
363.882	102.88
364.109	98.88
364.335	112.88
364.562	91.88
364.788	95.88
365.015	93.88
365.241	98.88
365.468	98.88
365.694	116.88
365.92	81.88
366.147	87.88
366.373	90.88
366.599	92.88
366.826	94.88
367.052	108.88
367.278	103.88
367.505	82.88
367.731	105.88
367.957	93.88
368.184	94.88
368.41	107.88
368.636	118.88
368.862	127.88
369.089	120.88
369.315	99.88
369.541	99.88
369.767	96.88
369.993	100.88
370.219	107.88
370.445	89.88
370.672	100.88
370.898	92.88
371.124	83.88
371.35	84.88
371.576	82.88
371.802	101.88
372.028	112.88
372.254	85.88
372.48	94.88
372.706	101.88
372.932	95.88
373.158	99.88
373.384	110.88
373.61	98.88
373.835	98.88
374.061	100.88
374.287	91.88
374.513	96.88
374.739	91.88
374.965	94.88
375.191	85.88
375.416	91.88
375.642	93.88
375.868	90.88
376.094	91.88
376.319	100.88
376.545	84.88
376.771	77.88
376.997	85.88
377.222	93.88
377.448	89.88
377.674	85.88
377.899	93.88
378.125	102.88
378.35	97.88
378.576	88.88
378.802	78.88
379.027	93.88
379.253	89.88
379.478	102.88
379.704	90.88
379.929	101.88
380.155	83.88
380.38	107.88
380.606	92.88
380.831	108.88
381.057	99.88
381.282	100.88
381.507	98.88
381.733	98.88
381.958	95.88
382.184	107.88
382.409	94.88
382.634	101.88
382.86	101.88
383.085	98.88
383.31	95.88
383.535	94.88
383.761	103.88
383.986	105.88
384.211	89.88
384.436	101.88
384.662	101.88
384.887	94.88
385.112	94.88
385.337	100.88
385.562	106.88
385.787	115.88
386.013	99.88
386.238	112.88
386.463	108.88
386.688	98.88
386.913	94.88
387.138	106.88
387.363	116.88
387.588	114.88
387.813	101.88
388.038	103.88
388.263	119.88
388.488	113.88
388.713	112.88
388.938	101.88
389.163	79.88
389.387	105.88
389.612	92.88
389.837	97.88
390.062	95.88
390.287	84.88
390.512	95.88
390.736	90.88
390.961	96.88
391.186	100.88
391.411	106.88
391.636	92.88
391.86	88.88
392.085	90.88
392.31	93.88
392.534	97.88
392.759	91.88
392.984	100.88
393.208	74.88
393.433	124.88
393.658	118.88
393.882	94.88
394.107	86.88
394.331	90.88
394.556	74.88
394.78	88.88
395.005	92.88
395.229	83.88
395.454	102.88
395.678	96.88
395.903	98.88
396.127	86.88
396.352	88.88
396.576	101.88
396.801	95.88
397.025	87.88
397.249	92.88
397.474	85.88
397.698	91.88
397.922	78.88
398.147	94.88
398.371	86.88
398.595	87.88
398.82	78.88
399.044	94.88
399.268	94.88
399.492	96.88
399.717	85.88
399.941	90.88
400.165	94.88
400.389	94.88
400.613	83.88
400.837	85.88
401.062	76.88
401.286	82.88
401.51	102.88
401.734	103.88
401.958	93.88
402.182	128.88
402.406	150.88
402.63	108.88
402.854	102.88
403.078	79.88
403.302	92.88
403.526	95.88
403.75	88.88
403.974	76.88
404.198	76.88
404.422	84.88
404.645	85.88
404.869	98.88
405.093	101.88
405.317	108.88
405.541	98.88
405.765	118.88
405.988	120.88
406.212	182.88
406.436	234.88
406.66	141.88
406.883	104.88
407.107	101.88
407.331	94.88
407.555	92.88
407.778	78.88
408.002	89.88
408.226	82.88
408.449	85.88
408.673	104.88
408.896	105.88
409.12	96.88
409.344	98.88
409.567	77.88
409.791	75.88
410.014	97.88
410.238	90.88
410.461	85.88
410.685	84.88
410.908	94.88
411.132	92.88
411.355	88.88
411.578	104.88
411.802	85.88
412.025	84.88
412.249	75.88
412.472	98.88
412.695	105.88
412.919	95.88
413.142	92.88
413.365	85.88
413.589	84.88
413.812	77.88
414.035	92.88
414.258	89.88
414.482	92.88
414.705	87.88
414.928	85.88
415.151	98.88
415.374	92.88
415.597	90.88
415.821	91.88
416.044	98.88
416.267	95.88
416.49	78.88
416.713	90.88
416.936	101.88
417.159	86.88
417.382	81.88
417.605	92.88
417.828	94.88
418.051	82.88
418.274	97.88
418.497	106.88
418.72	89.88
418.943	78.88
419.166	90.88
419.389	97.88
419.611	87.88
419.834	93.88
420.057	93.88
420.28	83.88
420.503	72.88
420.726	100.88
420.948	87.88
421.171	99.88
421.394	98.88
421.617	92.88
421.839	85.88
422.062	87.88
422.285	101.88
422.507	97.88
422.73	110.88
422.953	91.88
423.175	78.88
423.398	86.88
423.621	92.88
423.843	96.88
424.066	85.88
424.288	85.88
424.511	89.88
424.733	96.88
424.956	116.88
425.178	96.88
425.401	115.88
425.623	100.88
425.846	83.88
426.068	94.88
426.291	84.88
426.513	87.88
426.735	92.88
426.958	91.88
427.18	103.88
427.402	139.88
427.625	184.88
427.847	142.88
428.069	110.88
428.292	96.88
428.514	96.88
428.736	91.88
428.958	94.88
429.181	87.88
429.403	90.88
429.625	98.88
429.847	89.88
430.069	94.88
430.292	88.88
430.514	92.88
430.736	85.88
430.958	104.88
431.18	91.88
431.402	79.88
431.624	89.88
431.846	90.88
432.068	79.88
432.29	93.88
432.512	85.88
432.734	86.88
432.956	119.88
433.178	86.88
433.4	90.88
433.622	101.88
433.844	89.88
434.066	102.88
434.287	86.88
434.509	79.88
434.731	83.88
434.953	91.88
435.175	86.88
435.397	98.88
435.618	103.88
435.84	101.88
436.062	119.88
436.284	114.88
436.505	98.88
436.727	99.88
436.949	86.88
437.17	85.88
437.392	93.88
437.614	101.88
437.835	123.88
438.057	118.88
438.278	110.88
438.5	114.88
438.721	139.88
438.943	109.88
439.165	77.88
439.386	88.88
439.608	93.88
439.829	105.88
440.05	112.88
440.272	150.88
440.493	108.88
440.715	82.88
440.936	79.88
441.158	101.88
441.379	94.88
441.6	108.88
441.822	92.88
442.043	100.88
442.264	94.88
442.486	106.88
442.707	90.88
442.928	103.88
443.149	122.88
443.371	134.88
443.592	113.88
443.813	119.88
444.034	107.88
444.255	82.88
444.476	98.88
444.698	84.88
444.919	107.88
445.14	122.88
445.361	129.88
445.582	122.88
445.803	118.88
446.024	145.88
446.245	151.88
446.466	119.88
446.687	88.88
446.908	90.88
447.129	80.88
447.35	87.88
447.571	85.88
447.792	92.88
448.013	100.88
448.234	112.88
448.455	105.88
448.675	108.88
448.896	126.88
449.117	104.88
449.338	93.88
449.559	126.88
449.779	116.88
450	93.88
450.221	85.88
450.442	91.88
450.662	87.88
450.883	108.88
451.104	112.88
451.324	114.88
451.545	100.88
451.766	105.88
451.986	83.88
452.207	86.88
452.428	92.88
452.648	113.88
452.869	116.88
453.089	118.88
453.31	119.88
453.53	103.88
453.751	92.88
453.971	110.88
454.192	115.88
454.412	102.88
454.633	98.88
454.853	88.88
455.073	100.88
455.294	97.88
455.514	95.88
455.734	83.88
455.955	78.88
456.175	79.88
456.395	95.88
456.616	84.88
456.836	86.88
457.056	94.88
457.276	77.88
457.497	79.88
457.717	105.88
457.937	88.88
458.157	80.88
458.377	82.88
458.598	103.88
458.818	148.88
459.038	156.88
459.258	113.88
459.478	92.88
459.698	102.88
459.918	100.88
460.138	85.88
460.358	97.88
460.578	88.88
460.798	85.88
461.018	98.88
461.238	89.88
461.458	82.88
461.678	89.88
461.898	88.88
462.118	101.88
462.338	96.88
462.558	82.88
462.777	85.88
462.997	94.88
463.217	83.88
463.437	80.88
463.657	79.88
463.876	97.88
464.096	84.88
464.316	79.88
464.536	77.88
464.755	91.88
464.975	105.88
465.195	151.88
465.414	157.88
465.634	87.88
465.854	90.88
466.073	89.88
466.293	90.88
466.512	74.88
466.732	76.88
466.951	87.88
467.171	76.88
467.391	86.88
467.61	98.88
467.829	111.88
468.049	97.88
468.268	100.88
468.488	96.88
468.707	90.88
468.927	86.88
469.146	67.88
469.365	102.88
469.585	93.88
469.804	95.88
470.023	87.88
470.243	94.88
470.462	106.88
470.681	117.88
470.901	93.88
471.12	92.88
471.339	75.88
471.558	78.88
471.777	85.88
471.997	79.88
472.216	120.88
472.435	133.88
472.654	100.88
472.873	90.88
473.092	87.88
473.311	75.88
473.53	85.88
473.749	87.88
473.968	91.88
474.187	100.88
474.406	94.88
474.625	85.88
474.844	100.88
475.063	79.88
475.282	67.88
475.501	76.88
475.72	93.88
475.939	94.88
476.158	98.88
476.377	85.88
476.596	83.88
476.814	94.88
477.033	98.88
477.252	83.88
477.471	98.88
477.69	96.88
477.908	73.88
478.127	93.88
478.346	90.88
478.564	92.88
478.783	80.88
479.002	92.88
479.22	90.88
479.439	102.88
479.658	107.88
479.876	108.88
480.095	100.88
480.313	104.88
480.532	80.88
480.751	100.88
480.969	109.88
481.188	198.88
481.406	155.88
481.624	101.88
481.843	84.88
482.061	90.88
482.28	89.88
482.498	75.88
482.717	98.88
482.935	104.88
483.153	100.88
483.372	87.88
483.59	76.88
483.808	98.88
484.027	91.88
484.245	110.88
484.463	82.88
484.681	100.88
484.9	112.88
485.118	100.88
485.336	100.88
485.554	101.88
485.772	99.88
485.99	94.88
486.209	117.88
486.427	120.88
486.645	125.88
486.863	101.88
487.081	107.88
487.299	83.88
487.517	98.88
487.735	101.88
487.953	87.88
488.171	96.88
488.389	88.88
488.607	100.88
488.825	93.88
489.043	88.88
489.261	94.88
489.479	99.88
489.696	91.88
489.914	90.88
490.132	86.88
490.35	88.88
490.568	91.88
490.786	92.88
491.003	85.88
491.221	88.88
491.439	91.88
491.657	84.88
491.874	102.88
492.092	95.88
492.31	97.88
492.527	90.88
492.745	86.88
492.963	84.88
493.18	78.88
493.398	112.88
493.615	105.88
493.833	90.88
494.05	87.88
494.268	82.88
494.485	92.88
494.703	94.88
494.92	98.88
495.138	88.88
495.355	94.88
495.573	98.88
495.79	97.88
496.008	93.88
496.225	91.88
496.442	86.88
496.66	86.88
496.877	88.88
497.094	90.88
497.312	89.88
497.529	96.88
497.746	88.88
497.963	89.88
498.181	105.88
498.398	101.88
498.615	99.88
498.832	107.88
499.049	88.88
499.267	79.88
499.484	96.88
499.701	100.88
499.918	90.88
500.135	104.88
500.352	91.88
500.569	89.88
500.786	102.88
501.003	92.88
501.22	82.88
501.437	79.88
501.654	80.88
501.871	106.88
502.088	87.88
502.305	95.88
502.522	94.88
502.739	94.88
502.956	90.88
503.172	94.88
503.389	110.88
503.606	105.88
503.823	98.88
504.04	86.88
504.256	88.88
504.473	87.88
504.69	90.88
504.907	87.88
505.123	98.88
505.34	100.88
505.557	84.88
505.773	99.88
505.99	103.88
506.207	94.88
506.423	84.88
506.64	102.88
506.856	90.88
507.073	95.88
507.289	91.88
507.506	82.88
507.722	111.88
507.939	111.88
508.155	90.88
508.372	95.88
508.588	95.88
508.805	91.88
509.021	94.88
509.238	94.88
509.454	90.88
509.67	109.88
509.887	115.88
510.103	132.88
510.319	228.88
510.536	745.88
510.752	2285.88
510.968	638.88
511.184	149.88
511.401	108.88
511.617	102.88
511.833	87.88
512.049	98.88
512.265	112.88
512.481	89.88
512.698	88.88
512.914	91.88
513.13	97.88
513.346	101.88
513.562	117.88
513.778	116.88
513.994	104.88
514.21	107.88
514.426	127.88
514.642	155.88
