Data from Circ_1981_H10_HRD10591_00019.txt Node
Date: Wed Jan 03 12:34:24 EST 2024
User: Yrep
Spectrometer: HR+D1059
Trigger mode: 1
Integration Time (sec): 1.000000E-1
Scans to average: 1
Electric dark correction enabled: true
Nonlinearity correction enabled: false
Boxcar width: 0
XAxis mode: Wavelengths
Number of Pixels in Spectrum: 2048
>>>>>Begin Spectral Data<<<<<
223.165	-22.81
223.4	-22.81
223.635	-22.81
223.869	-15.81
224.104	-28.81
224.338	-14.81
224.573	1.19
224.808	-5.81
225.042	-8.81
225.277	-0.81
225.511	-3.81
225.746	7.19
225.98	7.19
226.215	15.19
226.449	14.19
226.683	15.19
226.918	26.19
227.152	15.19
227.387	39.19
227.621	28.19
227.856	39.19
228.09	47.19
228.324	54.19
228.559	51.19
228.793	53.19
229.027	65.19
229.262	67.19
229.496	75.19
229.73	90.19
229.964	79.19
230.199	69.19
230.433	69.19
230.667	62.19
230.901	63.19
231.136	80.19
231.37	76.19
231.604	81.19
231.838	75.19
232.072	79.19
232.306	79.19
232.541	89.19
232.775	71.19
233.009	90.19
233.243	77.19
233.477	68.19
233.711	99.19
233.945	68.19
234.179	74.19
234.413	92.19
234.647	75.19
234.881	87.19
235.115	70.19
235.349	75.19
235.583	83.19
235.817	89.19
236.051	81.19
236.285	71.19
236.519	60.19
236.753	84.19
236.987	75.19
237.221	87.19
237.455	98.19
237.689	86.19
237.922	69.19
238.156	70.19
238.39	66.19
238.624	85.19
238.858	73.19
239.091	73.19
239.325	70.19
239.559	74.19
239.793	76.19
240.027	70.19
240.26	79.19
240.494	72.19
240.728	87.19
240.961	101.19
241.195	92.19
241.429	84.19
241.662	75.19
241.896	75.19
242.13	73.19
242.363	82.19
242.597	90.19
242.83	65.19
243.064	77.19
243.298	63.19
243.531	65.19
243.765	69.19
243.998	79.19
244.232	77.19
244.465	80.19
244.699	83.19
244.932	82.19
245.166	87.19
245.399	75.19
245.633	64.19
245.866	83.19
246.099	83.19
246.333	74.19
246.566	61.19
246.8	77.19
247.033	72.19
247.266	77.19
247.5	81.19
247.733	85.19
247.966	67.19
248.2	82.19
248.433	67.19
248.666	71.19
248.899	70.19
249.133	85.19
249.366	93.19
249.599	114.19
249.832	79.19
250.066	83.19
250.299	79.19
250.532	80.19
250.765	87.19
250.998	76.19
251.231	73.19
251.465	72.19
251.698	70.19
251.931	82.19
252.164	77.19
252.397	75.19
252.63	86.19
252.863	71.19
253.096	86.19
253.329	83.19
253.562	90.19
253.795	79.19
254.028	76.19
254.261	79.19
254.494	80.19
254.727	89.19
254.96	76.19
255.193	93.19
255.426	88.19
255.659	89.19
255.892	98.19
256.124	81.19
256.357	74.19
256.59	84.19
256.823	70.19
257.056	93.19
257.289	79.19
257.521	87.19
257.754	77.19
257.987	74.19
258.22	92.19
258.452	83.19
258.685	86.19
258.918	80.19
259.151	77.19
259.383	82.19
259.616	88.19
259.849	91.19
260.081	82.19
260.314	81.19
260.547	95.19
260.779	72.19
261.012	75.19
261.244	85.19
261.477	85.19
261.71	102.19
261.942	105.19
262.175	126.19
262.407	100.19
262.64	69.19
262.872	99.19
263.105	88.19
263.337	84.19
263.57	77.19
263.802	79.19
264.035	71.19
264.267	87.19
264.499	76.19
264.732	86.19
264.964	79.19
265.197	75.19
265.429	77.19
265.661	83.19
265.894	87.19
266.126	81.19
266.358	79.19
266.591	80.19
266.823	84.19
267.055	82.19
267.287	81.19
267.52	80.19
267.752	92.19
267.984	61.19
268.216	74.19
268.448	96.19
268.681	84.19
268.913	89.19
269.145	80.19
269.377	90.19
269.609	86.19
269.841	87.19
270.073	84.19
270.306	77.19
270.538	82.19
270.77	83.19
271.002	68.19
271.234	99.19
271.466	79.19
271.698	91.19
271.93	75.19
272.162	80.19
272.394	89.19
272.626	86.19
272.858	76.19
273.09	95.19
273.322	83.19
273.553	77.19
273.785	104.19
274.017	74.19
274.249	92.19
274.481	81.19
274.713	83.19
274.945	82.19
275.176	93.19
275.408	104.19
275.64	96.19
275.872	80.19
276.104	79.19
276.335	88.19
276.567	103.19
276.799	101.19
277.031	111.19
277.262	98.19
277.494	91.19
277.726	88.19
277.957	96.19
278.189	76.19
278.421	87.19
278.652	95.19
278.884	93.19
279.115	86.19
279.347	88.19
279.579	92.19
279.81	84.19
280.042	90.19
280.273	87.19
280.505	80.19
280.736	74.19
280.968	85.19
281.199	81.19
281.431	92.19
281.662	86.19
281.894	75.19
282.125	108.19
282.356	124.19
282.588	153.19
282.819	117.19
283.051	100.19
283.282	87.19
283.513	84.19
283.745	97.19
283.976	71.19
284.207	90.19
284.439	92.19
284.67	91.19
284.901	79.19
285.132	82.19
285.364	88.19
285.595	92.19
285.826	87.19
286.057	90.19
286.288	79.19
286.52	96.19
286.751	80.19
286.982	96.19
287.213	85.19
287.444	91.19
287.675	96.19
287.906	99.19
288.138	94.19
288.369	95.19
288.6	86.19
288.831	88.19
289.062	87.19
289.293	85.19
289.524	83.19
289.755	77.19
289.986	90.19
290.217	95.19
290.448	87.19
290.679	90.19
290.91	87.19
291.141	75.19
291.371	75.19
291.602	81.19
291.833	88.19
292.064	71.19
292.295	97.19
292.526	96.19
292.757	93.19
292.987	90.19
293.218	81.19
293.449	91.19
293.68	106.19
293.91	96.19
294.141	76.19
294.372	74.19
294.603	93.19
294.833	77.19
295.064	90.19
295.295	85.19
295.525	92.19
295.756	100.19
295.987	119.19
296.217	177.19
296.448	124.19
296.679	83.19
296.909	90.19
297.14	90.19
297.37	81.19
297.601	99.19
297.831	100.19
298.062	97.19
298.292	86.19
298.523	92.19
298.753	85.19
298.984	71.19
299.214	88.19
299.445	94.19
299.675	93.19
299.905	98.19
300.136	100.19
300.366	96.19
300.597	87.19
300.827	101.19
301.057	109.19
301.288	112.19
301.518	105.19
301.748	91.19
301.979	94.19
302.209	94.19
302.439	100.19
302.669	80.19
302.9	98.19
303.13	84.19
303.36	87.19
303.59	113.19
303.82	95.19
304.051	109.19
304.281	107.19
304.511	85.19
304.741	91.19
304.971	99.19
305.201	93.19
305.431	82.19
305.661	85.19
305.891	82.19
306.121	97.19
306.352	107.19
306.582	96.19
306.812	97.19
307.042	90.19
307.272	82.19
307.502	97.19
307.731	98.19
307.961	97.19
308.191	81.19
308.421	89.19
308.651	95.19
308.881	86.19
309.111	78.19
309.341	105.19
309.571	95.19
309.8	97.19
310.03	97.19
310.26	111.19
310.49	90.19
310.72	105.19
310.949	92.19
311.179	98.19
311.409	89.19
311.639	96.19
311.868	97.19
312.098	90.19
312.328	83.19
312.557	95.19
312.787	108.19
313.017	105.19
313.246	100.19
313.476	77.19
313.706	95.19
313.935	103.19
314.165	93.19
314.394	105.19
314.624	96.19
314.853	93.19
315.083	96.19
315.312	104.19
315.542	76.19
315.771	100.19
316.001	102.19
316.23	91.19
316.46	93.19
316.689	104.19
316.919	95.19
317.148	100.19
317.377	109.19
317.607	107.19
317.836	100.19
318.065	102.19
318.295	87.19
318.524	91.19
318.753	97.19
318.983	107.19
319.212	96.19
319.441	104.19
319.67	98.19
319.9	100.19
320.129	84.19
320.358	92.19
320.587	89.19
320.816	96.19
321.046	109.19
321.275	95.19
321.504	99.19
321.733	81.19
321.962	98.19
322.191	105.19
322.42	109.19
322.649	121.19
322.878	116.19
323.108	132.19
323.337	121.19
323.566	134.19
323.795	159.19
324.024	225.19
324.253	400.19
324.482	834.19
324.71	1650.19
324.939	2186.19
325.168	831.19
325.397	252.19
325.626	156.19
325.855	131.19
326.084	137.19
326.313	132.19
326.542	155.19
326.77	234.19
326.999	446.19
327.228	861.19
327.457	1554.19
327.686	1275.19
327.914	368.19
328.143	229.19
328.372	173.19
328.6	151.19
328.829	140.19
329.058	141.19
329.287	137.19
329.515	122.19
329.744	105.19
329.972	119.19
330.201	117.19
330.43	153.19
330.658	159.19
330.887	186.19
331.115	146.19
331.344	112.19
331.572	102.19
331.801	106.19
332.03	111.19
332.258	106.19
332.486	96.19
332.715	102.19
332.943	103.19
333.172	96.19
333.4	101.19
333.629	121.19
333.857	121.19
334.085	124.19
334.314	133.19
334.542	147.19
334.771	163.19
334.999	118.19
335.227	103.19
335.455	98.19
335.684	101.19
335.912	98.19
336.14	96.19
336.369	109.19
336.597	106.19
336.825	84.19
337.053	108.19
337.281	90.19
337.51	89.19
337.738	106.19
337.966	103.19
338.194	97.19
338.422	104.19
338.65	89.19
338.878	85.19
339.106	88.19
339.334	93.19
339.562	99.19
339.79	85.19
340.018	92.19
340.246	96.19
340.474	100.19
340.702	102.19
340.93	91.19
341.158	92.19
341.386	107.19
341.614	99.19
341.842	87.19
342.07	93.19
342.298	94.19
342.526	87.19
342.754	86.19
342.981	98.19
343.209	90.19
343.437	85.19
343.665	92.19
343.893	88.19
344.12	81.19
344.348	96.19
344.576	96.19
344.804	83.19
345.031	93.19
345.259	116.19
345.487	100.19
345.714	86.19
345.942	97.19
346.17	100.19
346.397	91.19
346.625	88.19
346.853	85.19
347.08	75.19
347.308	101.19
347.535	105.19
347.763	104.19
347.99	102.19
348.218	115.19
348.445	107.19
348.673	113.19
348.9	96.19
349.128	108.19
349.355	104.19
349.583	84.19
349.81	79.19
350.037	111.19
350.265	95.19
350.492	96.19
350.72	93.19
350.947	103.19
351.174	109.19
351.402	124.19
351.629	105.19
351.856	100.19
352.083	108.19
352.311	113.19
352.538	114.19
352.765	101.19
352.992	99.19
353.22	107.19
353.447	101.19
353.674	111.19
353.901	107.19
354.128	106.19
354.355	95.19
354.583	97.19
354.81	102.19
355.037	93.19
355.264	81.19
355.491	85.19
355.718	102.19
355.945	92.19
356.172	92.19
356.399	91.19
356.626	81.19
356.853	100.19
357.08	83.19
357.307	70.19
357.534	97.19
357.761	97.19
357.988	100.19
358.215	112.19
358.441	103.19
358.668	95.19
358.895	80.19
359.122	95.19
359.349	76.19
359.576	108.19
359.802	100.19
360.029	132.19
360.256	126.19
360.483	115.19
360.709	91.19
360.936	94.19
361.163	83.19
361.39	102.19
361.616	99.19
361.843	87.19
362.07	102.19
362.296	108.19
362.523	85.19
362.749	86.19
362.976	93.19
363.203	85.19
363.429	90.19
363.656	99.19
363.882	76.19
364.109	91.19
364.335	82.19
364.562	106.19
364.788	83.19
365.015	99.19
365.241	103.19
365.468	115.19
365.694	110.19
365.92	105.19
366.147	90.19
366.373	80.19
366.599	102.19
366.826	90.19
367.052	89.19
367.278	94.19
367.505	95.19
367.731	99.19
367.957	86.19
368.184	93.19
368.41	103.19
368.636	119.19
368.862	141.19
369.089	130.19
369.315	98.19
369.541	84.19
369.767	93.19
369.993	91.19
370.219	103.19
370.445	96.19
370.672	84.19
370.898	83.19
371.124	95.19
371.35	92.19
371.576	88.19
371.802	82.19
372.028	90.19
372.254	91.19
372.48	99.19
372.706	80.19
372.932	93.19
373.158	68.19
373.384	98.19
373.61	99.19
373.835	78.19
374.061	102.19
374.287	97.19
374.513	97.19
374.739	100.19
374.965	103.19
375.191	98.19
375.416	108.19
375.642	97.19
375.868	97.19
376.094	81.19
376.319	88.19
376.545	90.19
376.771	87.19
376.997	93.19
377.222	85.19
377.448	96.19
377.674	71.19
377.899	75.19
378.125	96.19
378.35	90.19
378.576	84.19
378.802	89.19
379.027	88.19
379.253	78.19
379.478	90.19
379.704	84.19
379.929	99.19
380.155	72.19
380.38	92.19
380.606	103.19
380.831	93.19
381.057	90.19
381.282	81.19
381.507	101.19
381.733	85.19
381.958	92.19
382.184	115.19
382.409	112.19
382.634	100.19
382.86	102.19
383.085	100.19
383.31	93.19
383.535	98.19
383.761	103.19
383.986	101.19
384.211	88.19
384.436	91.19
384.662	95.19
384.887	108.19
385.112	112.19
385.337	113.19
385.562	108.19
385.787	99.19
386.013	117.19
386.238	132.19
386.463	119.19
386.688	91.19
386.913	105.19
387.138	109.19
387.363	108.19
387.588	100.19
387.813	93.19
388.038	110.19
388.263	112.19
388.488	121.19
388.713	90.19
388.938	111.19
389.163	86.19
389.387	87.19
389.612	94.19
389.837	98.19
390.062	90.19
390.287	91.19
390.512	83.19
390.736	82.19
390.961	96.19
391.186	95.19
391.411	94.19
391.636	80.19
391.86	76.19
392.085	83.19
392.31	82.19
392.534	92.19
392.759	87.19
392.984	79.19
393.208	96.19
393.433	108.19
393.658	95.19
393.882	81.19
394.107	86.19
394.331	83.19
394.556	75.19
394.78	87.19
395.005	82.19
395.229	98.19
395.454	74.19
395.678	77.19
395.903	91.19
396.127	87.19
396.352	79.19
396.576	81.19
396.801	84.19
397.025	98.19
397.249	89.19
397.474	86.19
397.698	92.19
397.922	87.19
398.147	76.19
398.371	73.19
398.595	97.19
398.82	86.19
399.044	74.19
399.268	82.19
399.492	83.19
399.717	91.19
399.941	91.19
400.165	98.19
400.389	85.19
400.613	86.19
400.837	92.19
401.062	80.19
401.286	76.19
401.51	83.19
401.734	99.19
401.958	105.19
402.182	149.19
402.406	164.19
402.63	146.19
402.854	98.19
403.078	81.19
403.302	74.19
403.526	83.19
403.75	81.19
403.974	84.19
404.198	92.19
404.422	76.19
404.645	98.19
404.869	87.19
405.093	104.19
405.317	102.19
405.541	101.19
405.765	109.19
405.988	119.19
406.212	186.19
406.436	293.19
406.66	179.19
406.883	107.19
407.107	92.19
407.331	89.19
407.555	101.19
407.778	106.19
408.002	98.19
408.226	107.19
408.449	81.19
408.673	80.19
408.896	99.19
409.12	93.19
409.344	93.19
409.567	85.19
409.791	82.19
410.014	94.19
410.238	86.19
410.461	95.19
410.685	84.19
410.908	100.19
411.132	100.19
411.355	101.19
411.578	78.19
411.802	94.19
412.025	83.19
412.249	98.19
412.472	102.19
412.695	104.19
412.919	87.19
413.142	86.19
413.365	87.19
413.589	75.19
413.812	97.19
414.035	91.19
414.258	82.19
414.482	89.19
414.705	96.19
414.928	87.19
415.151	93.19
415.374	72.19
415.597	91.19
415.821	105.19
416.044	86.19
416.267	81.19
416.49	86.19
416.713	96.19
416.936	77.19
417.159	100.19
417.382	87.19
417.605	84.19
417.828	98.19
418.051	92.19
418.274	100.19
418.497	79.19
418.72	87.19
418.943	74.19
419.166	87.19
419.389	91.19
419.611	105.19
419.834	82.19
420.057	88.19
420.28	83.19
420.503	85.19
420.726	71.19
420.948	84.19
421.171	89.19
421.394	103.19
421.617	82.19
421.839	90.19
422.062	79.19
422.285	91.19
422.507	101.19
422.73	106.19
422.953	92.19
423.175	81.19
423.398	89.19
423.621	81.19
423.843	85.19
424.066	83.19
424.288	89.19
424.511	103.19
424.733	84.19
424.956	114.19
425.178	100.19
425.401	111.19
425.623	98.19
425.846	103.19
426.068	90.19
426.291	95.19
426.513	89.19
426.735	93.19
426.958	88.19
427.18	111.19
427.402	149.19
427.625	191.19
427.847	148.19
428.069	128.19
428.292	89.19
428.514	86.19
428.736	85.19
428.958	94.19
429.181	100.19
429.403	69.19
429.625	86.19
429.847	94.19
430.069	97.19
430.292	93.19
430.514	81.19
430.736	99.19
430.958	87.19
431.18	85.19
431.402	88.19
431.624	81.19
431.846	83.19
432.068	87.19
432.29	87.19
432.512	99.19
432.734	89.19
432.956	82.19
433.178	97.19
433.4	97.19
433.622	114.19
433.844	102.19
434.066	94.19
434.287	86.19
434.509	71.19
434.731	77.19
434.953	89.19
435.175	88.19
435.397	86.19
435.618	91.19
435.84	107.19
436.062	123.19
436.284	108.19
436.505	101.19
436.727	87.19
436.949	99.19
437.17	88.19
437.392	87.19
437.614	106.19
437.835	100.19
438.057	123.19
438.278	109.19
438.5	115.19
438.721	110.19
438.943	112.19
439.165	87.19
439.386	91.19
439.608	83.19
439.829	106.19
440.05	128.19
440.272	147.19
440.493	107.19
440.715	83.19
440.936	103.19
441.158	79.19
441.379	92.19
441.6	108.19
441.822	108.19
442.043	84.19
442.264	115.19
442.486	101.19
442.707	88.19
442.928	122.19
443.149	151.19
443.371	163.19
443.592	124.19
443.813	120.19
444.034	98.19
444.255	101.19
444.476	86.19
444.698	95.19
444.919	87.19
445.14	126.19
445.361	117.19
445.582	113.19
445.803	143.19
446.024	135.19
446.245	149.19
446.466	105.19
446.687	107.19
446.908	80.19
447.129	83.19
447.35	86.19
447.571	87.19
447.792	96.19
448.013	107.19
448.234	106.19
448.455	103.19
448.675	117.19
448.896	102.19
449.117	87.19
449.338	99.19
449.559	127.19
449.779	146.19
450	90.19
450.221	83.19
450.442	85.19
450.662	96.19
450.883	119.19
451.104	114.19
451.324	113.19
451.545	92.19
451.766	91.19
451.986	72.19
452.207	92.19
452.428	90.19
452.648	103.19
452.869	98.19
453.089	119.19
453.31	116.19
453.53	107.19
453.751	73.19
453.971	102.19
454.192	135.19
454.412	95.19
454.633	88.19
454.853	81.19
455.073	84.19
455.294	94.19
455.514	97.19
455.734	99.19
455.955	93.19
456.175	87.19
456.395	85.19
456.616	81.19
456.836	73.19
457.056	81.19
457.276	83.19
457.497	82.19
457.717	83.19
457.937	85.19
458.157	88.19
458.377	92.19
458.598	114.19
458.818	162.19
459.038	185.19
459.258	137.19
459.478	100.19
459.698	89.19
459.918	81.19
460.138	75.19
460.358	79.19
460.578	87.19
460.798	84.19
461.018	85.19
461.238	91.19
461.458	106.19
461.678	86.19
461.898	83.19
462.118	85.19
462.338	86.19
462.558	82.19
462.777	83.19
462.997	84.19
463.217	103.19
463.437	71.19
463.657	68.19
463.876	79.19
464.096	83.19
464.316	95.19
464.536	108.19
464.755	94.19
464.975	119.19
465.195	185.19
465.414	206.19
465.634	91.19
465.854	70.19
466.073	81.19
466.293	89.19
466.512	91.19
466.732	69.19
466.951	91.19
467.171	79.19
467.391	89.19
467.61	112.19
467.829	107.19
468.049	105.19
468.268	102.19
468.488	91.19
468.707	79.19
468.927	88.19
469.146	70.19
469.365	87.19
469.585	92.19
469.804	93.19
470.023	100.19
470.243	88.19
470.462	106.19
470.681	115.19
470.901	93.19
471.12	81.19
471.339	99.19
471.558	89.19
471.777	103.19
471.997	92.19
472.216	116.19
472.435	170.19
472.654	104.19
472.873	87.19
473.092	79.19
473.311	82.19
473.53	97.19
473.749	94.19
473.968	89.19
474.187	110.19
474.406	97.19
474.625	94.19
474.844	80.19
475.063	73.19
475.282	92.19
475.501	79.19
475.72	95.19
475.939	89.19
476.158	93.19
476.377	97.19
476.596	99.19
476.814	90.19
477.033	92.19
477.252	73.19
477.471	93.19
477.69	83.19
477.908	89.19
478.127	81.19
478.346	76.19
478.564	90.19
478.783	90.19
479.002	94.19
479.22	97.19
479.439	99.19
479.658	127.19
479.876	106.19
480.095	80.19
480.313	91.19
480.532	91.19
480.751	99.19
480.969	115.19
481.188	233.19
481.406	183.19
481.624	119.19
481.843	81.19
482.061	87.19
482.28	90.19
482.498	73.19
482.717	104.19
482.935	103.19
483.153	86.19
483.372	91.19
483.59	80.19
483.808	89.19
484.027	90.19
484.245	94.19
484.463	83.19
484.681	95.19
484.9	99.19
485.118	99.19
485.336	86.19
485.554	89.19
485.772	99.19
485.99	108.19
486.209	103.19
486.427	109.19
486.645	109.19
486.863	125.19
487.081	100.19
487.299	97.19
487.517	101.19
487.735	87.19
487.953	116.19
488.171	100.19
488.389	104.19
488.607	96.19
488.825	108.19
489.043	90.19
489.261	104.19
489.479	88.19
489.696	97.19
489.914	88.19
490.132	101.19
490.35	88.19
490.568	76.19
490.786	89.19
491.003	91.19
491.221	76.19
491.439	93.19
491.657	97.19
491.874	88.19
492.092	93.19
492.31	87.19
492.527	73.19
492.745	82.19
492.963	87.19
493.18	90.19
493.398	101.19
493.615	100.19
493.833	104.19
494.05	87.19
494.268	99.19
494.485	99.19
494.703	68.19
494.92	80.19
495.138	82.19
495.355	88.19
495.573	91.19
495.79	92.19
496.008	84.19
496.225	86.19
496.442	88.19
496.66	88.19
496.877	93.19
497.094	100.19
497.312	84.19
497.529	95.19
497.746	96.19
497.963	96.19
498.181	100.19
498.398	95.19
498.615	115.19
498.832	104.19
499.049	93.19
499.267	87.19
499.484	98.19
499.701	91.19
499.918	94.19
500.135	79.19
500.352	79.19
500.569	79.19
500.786	91.19
501.003	79.19
501.22	84.19
501.437	90.19
501.654	91.19
501.871	117.19
502.088	86.19
502.305	86.19
502.522	88.19
502.739	98.19
502.956	87.19
503.172	98.19
503.389	96.19
503.606	105.19
503.823	98.19
504.04	107.19
504.256	95.19
504.473	88.19
504.69	87.19
504.907	87.19
505.123	85.19
505.34	92.19
505.557	87.19
505.773	97.19
505.99	82.19
506.207	87.19
506.423	85.19
506.64	87.19
506.856	92.19
507.073	95.19
507.289	105.19
507.506	106.19
507.722	122.19
507.939	123.19
508.155	112.19
508.372	109.19
508.588	89.19
508.805	91.19
509.021	103.19
509.238	109.19
509.454	87.19
509.67	94.19
509.887	107.19
510.103	132.19
510.319	227.19
510.536	827.19
510.752	2870.19
510.968	759.19
511.184	159.19
511.401	117.19
511.617	98.19
511.833	108.19
512.049	89.19
512.265	89.19
512.481	85.19
512.698	95.19
512.914	101.19
513.13	95.19
513.346	109.19
513.562	95.19
513.778	111.19
513.994	106.19
514.21	92.19
514.426	129.19
514.642	152.19
514.858	140.19
