Data from Penny_3_HRD10591_00020.txt Node
Date: Wed Nov 05 15:35:18 EST 2025
User: Yrep
Spectrometer: HR+D1059
Trigger mode: 1
Integration Time (sec): 1.000000E-1
Scans to average: 1
Electric dark correction enabled: true
Nonlinearity correction enabled: false
Boxcar width: 0
XAxis mode: Wavelengths
Number of Pixels in Spectrum: 2048
>>>>>Begin Spectral Data<<<<<
223.165	-13.62
223.4	-13.62
223.635	-13.62
223.869	-13.62
224.104	-18.62
224.338	-33.62
224.573	-29.62
224.808	-8.62
225.042	3.38
225.277	7.38
225.511	-4.62
225.746	-1.62
225.98	0.38
226.215	6.38
226.449	36.38
226.683	26.38
226.918	22.38
227.152	21.38
227.387	28.38
227.621	36.38
227.856	26.38
228.09	46.38
228.324	51.38
228.559	60.38
228.793	58.38
229.027	65.38
229.262	60.38
229.496	57.38
229.73	85.38
229.964	76.38
230.199	86.38
230.433	72.38
230.667	78.38
230.901	78.38
231.136	73.38
231.37	72.38
231.604	76.38
231.838	67.38
232.072	70.38
232.306	97.38
232.541	90.38
232.775	75.38
233.009	88.38
233.243	72.38
233.477	72.38
233.711	79.38
233.945	78.38
234.179	88.38
234.413	74.38
234.647	77.38
234.881	85.38
235.115	69.38
235.349	69.38
235.583	66.38
235.817	78.38
236.051	90.38
236.285	78.38
236.519	90.38
236.753	82.38
236.987	74.38
237.221	70.38
237.455	74.38
237.689	63.38
237.922	60.38
238.156	58.38
238.39	78.38
238.624	79.38
238.858	73.38
239.091	86.38
239.325	75.38
239.559	62.38
239.793	65.38
240.027	71.38
240.26	70.38
240.494	76.38
240.728	79.38
240.961	77.38
241.195	90.38
241.429	74.38
241.662	77.38
241.896	61.38
242.13	84.38
242.363	80.38
242.597	69.38
242.83	90.38
243.064	86.38
243.298	74.38
243.531	82.38
243.765	77.38
243.998	91.38
244.232	72.38
244.465	76.38
244.699	69.38
244.932	62.38
245.166	56.38
245.399	72.38
245.633	91.38
245.866	76.38
246.099	73.38
246.333	78.38
246.566	82.38
246.8	71.38
247.033	79.38
247.266	70.38
247.5	92.38
247.733	81.38
247.966	69.38
248.2	79.38
248.433	73.38
248.666	91.38
248.899	87.38
249.133	78.38
249.366	76.38
249.599	63.38
249.832	88.38
250.066	72.38
250.299	78.38
250.532	83.38
250.765	77.38
250.998	82.38
251.231	69.38
251.465	95.38
251.698	77.38
251.931	90.38
252.164	74.38
252.397	72.38
252.63	72.38
252.863	72.38
253.096	82.38
253.329	81.38
253.562	76.38
253.795	63.38
254.028	82.38
254.261	76.38
254.494	82.38
254.727	112.38
254.96	90.38
255.193	86.38
255.426	81.38
255.659	74.38
255.892	82.38
256.124	80.38
256.357	77.38
256.59	79.38
256.823	80.38
257.056	71.38
257.289	73.38
257.521	79.38
257.754	89.38
257.987	98.38
258.22	88.38
258.452	66.38
258.685	83.38
258.918	72.38
259.151	79.38
259.383	76.38
259.616	90.38
259.849	79.38
260.081	81.38
260.314	72.38
260.547	88.38
260.779	83.38
261.012	84.38
261.244	81.38
261.477	83.38
261.71	84.38
261.942	78.38
262.175	73.38
262.407	71.38
262.64	83.38
262.872	86.38
263.105	70.38
263.337	86.38
263.57	92.38
263.802	75.38
264.035	94.38
264.267	84.38
264.499	98.38
264.732	85.38
264.964	80.38
265.197	82.38
265.429	84.38
265.661	67.38
265.894	78.38
266.126	88.38
266.358	77.38
266.591	74.38
266.823	79.38
267.055	78.38
267.287	66.38
267.52	68.38
267.752	82.38
267.984	89.38
268.216	82.38
268.448	84.38
268.681	74.38
268.913	73.38
269.145	91.38
269.377	78.38
269.609	91.38
269.841	85.38
270.073	79.38
270.306	65.38
270.538	83.38
270.77	88.38
271.002	85.38
271.234	89.38
271.466	77.38
271.698	86.38
271.93	77.38
272.162	79.38
272.394	88.38
272.626	72.38
272.858	79.38
273.09	90.38
273.322	87.38
273.553	64.38
273.785	69.38
274.017	87.38
274.249	90.38
274.481	74.38
274.713	80.38
274.945	76.38
275.176	67.38
275.408	81.38
275.64	65.38
275.872	91.38
276.104	90.38
276.335	84.38
276.567	85.38
276.799	100.38
277.031	91.38
277.262	77.38
277.494	89.38
277.726	75.38
277.957	74.38
278.189	74.38
278.421	85.38
278.652	74.38
278.884	72.38
279.115	83.38
279.347	77.38
279.579	68.38
279.81	79.38
280.042	92.38
280.273	96.38
280.505	102.38
280.736	82.38
280.968	88.38
281.199	78.38
281.431	86.38
281.662	69.38
281.894	90.38
282.125	78.38
282.356	90.38
282.588	93.38
282.819	84.38
283.051	72.38
283.282	92.38
283.513	90.38
283.745	84.38
283.976	102.38
284.207	90.38
284.439	83.38
284.67	81.38
284.901	85.38
285.132	86.38
285.364	85.38
285.595	90.38
285.826	82.38
286.057	76.38
286.288	77.38
286.52	73.38
286.751	82.38
286.982	92.38
287.213	84.38
287.444	80.38
287.675	84.38
287.906	80.38
288.138	76.38
288.369	86.38
288.6	76.38
288.831	88.38
289.062	82.38
289.293	81.38
289.524	84.38
289.755	89.38
289.986	74.38
290.217	79.38
290.448	80.38
290.679	77.38
290.91	93.38
291.141	72.38
291.371	100.38
291.602	83.38
291.833	85.38
292.064	72.38
292.295	86.38
292.526	90.38
292.757	89.38
292.987	77.38
293.218	67.38
293.449	79.38
293.68	88.38
293.91	87.38
294.141	76.38
294.372	98.38
294.603	86.38
294.833	76.38
295.064	86.38
295.295	82.38
295.525	68.38
295.756	91.38
295.987	86.38
296.217	97.38
296.448	85.38
296.679	92.38
296.909	100.38
297.14	88.38
297.37	75.38
297.601	74.38
297.831	68.38
298.062	77.38
298.292	82.38
298.523	100.38
298.753	89.38
298.984	84.38
299.214	74.38
299.445	84.38
299.675	77.38
299.905	79.38
300.136	79.38
300.366	75.38
300.597	76.38
300.827	98.38
301.057	85.38
301.288	97.38
301.518	70.38
301.748	82.38
301.979	83.38
302.209	93.38
302.439	98.38
302.669	83.38
302.9	98.38
303.13	82.38
303.36	80.38
303.59	77.38
303.82	79.38
304.051	76.38
304.281	98.38
304.511	83.38
304.741	79.38
304.971	78.38
305.201	86.38
305.431	89.38
305.661	108.38
305.891	88.38
306.121	88.38
306.352	70.38
306.582	84.38
306.812	80.38
307.042	93.38
307.272	95.38
307.502	82.38
307.731	92.38
307.961	76.38
308.191	84.38
308.421	84.38
308.651	80.38
308.881	82.38
309.111	88.38
309.341	96.38
309.571	90.38
309.8	94.38
310.03	90.38
310.26	71.38
310.49	76.38
310.72	84.38
310.949	82.38
311.179	88.38
311.409	84.38
311.639	94.38
311.868	82.38
312.098	88.38
312.328	74.38
312.557	88.38
312.787	87.38
313.017	89.38
313.246	80.38
313.476	75.38
313.706	76.38
313.935	83.38
314.165	79.38
314.394	89.38
314.624	93.38
314.853	85.38
315.083	81.38
315.312	81.38
315.542	81.38
315.771	81.38
316.001	71.38
316.23	76.38
316.46	78.38
316.689	73.38
316.919	81.38
317.148	91.38
317.377	89.38
317.607	86.38
317.836	78.38
318.065	101.38
318.295	85.38
318.524	93.38
318.753	87.38
318.983	77.38
319.212	80.38
319.441	88.38
319.67	81.38
319.9	88.38
320.129	75.38
320.358	82.38
320.587	80.38
320.816	96.38
321.046	75.38
321.275	84.38
321.504	74.38
321.733	91.38
321.962	90.38
322.191	85.38
322.42	78.38
322.649	95.38
322.878	104.38
323.108	95.38
323.337	90.38
323.566	95.38
323.795	91.38
324.024	90.38
324.253	109.38
324.482	121.38
324.71	136.38
324.939	124.38
325.168	93.38
325.397	84.38
325.626	83.38
325.855	81.38
326.084	88.38
326.313	80.38
326.542	79.38
326.77	95.38
326.999	96.38
327.228	114.38
327.457	147.38
327.686	108.38
327.914	97.38
328.143	97.38
328.372	103.38
328.6	91.38
328.829	90.38
329.058	85.38
329.287	79.38
329.515	87.38
329.744	105.38
329.972	116.38
330.201	113.38
330.43	118.38
330.658	101.38
330.887	106.38
331.115	94.38
331.344	84.38
331.572	90.38
331.801	82.38
332.03	82.38
332.258	78.38
332.486	94.38
332.715	78.38
332.943	84.38
333.172	84.38
333.4	76.38
333.629	107.38
333.857	98.38
334.085	113.38
334.314	130.38
334.542	133.38
334.771	129.38
334.999	100.38
335.227	86.38
335.455	79.38
335.684	86.38
335.912	82.38
336.14	111.38
336.369	92.38
336.597	88.38
336.825	88.38
337.053	88.38
337.281	82.38
337.51	98.38
337.738	97.38
337.966	74.38
338.194	80.38
338.422	68.38
338.65	77.38
338.878	89.38
339.106	104.38
339.334	91.38
339.562	93.38
339.79	82.38
340.018	90.38
340.246	82.38
340.474	83.38
340.702	73.38
340.93	73.38
341.158	82.38
341.386	79.38
341.614	76.38
341.842	88.38
342.07	97.38
342.298	80.38
342.526	64.38
342.754	93.38
342.981	76.38
343.209	93.38
343.437	95.38
343.665	77.38
343.893	91.38
344.12	108.38
344.348	93.38
344.576	75.38
344.804	88.38
345.031	84.38
345.259	77.38
345.487	82.38
345.714	87.38
345.942	84.38
346.17	87.38
346.397	78.38
346.625	88.38
346.853	89.38
347.08	73.38
347.308	83.38
347.535	93.38
347.763	84.38
347.99	81.38
348.218	86.38
348.445	82.38
348.673	83.38
348.9	84.38
349.128	74.38
349.355	82.38
349.583	90.38
349.81	90.38
350.037	88.38
350.265	74.38
350.492	89.38
350.72	73.38
350.947	74.38
351.174	89.38
351.402	79.38
351.629	84.38
351.856	78.38
352.083	90.38
352.311	66.38
352.538	82.38
352.765	87.38
352.992	99.38
353.22	100.38
353.447	76.38
353.674	83.38
353.901	89.38
354.128	88.38
354.355	83.38
354.583	95.38
354.81	90.38
355.037	90.38
355.264	84.38
355.491	88.38
355.718	88.38
355.945	83.38
356.172	85.38
356.399	72.38
356.626	78.38
356.853	70.38
357.08	85.38
357.307	83.38
357.534	82.38
357.761	77.38
357.988	76.38
358.215	77.38
358.441	77.38
358.668	83.38
358.895	78.38
359.122	74.38
359.349	88.38
359.576	84.38
359.802	87.38
360.029	86.38
360.256	91.38
360.483	77.38
360.709	92.38
360.936	72.38
361.163	84.38
361.39	95.38
361.616	94.38
361.843	73.38
362.07	73.38
362.296	95.38
362.523	93.38
362.749	79.38
362.976	76.38
363.203	69.38
363.429	79.38
363.656	90.38
363.882	91.38
364.109	99.38
364.335	99.38
364.562	92.38
364.788	101.38
365.015	72.38
365.241	82.38
365.468	92.38
365.694	92.38
365.92	84.38
366.147	83.38
366.373	86.38
366.599	86.38
366.826	77.38
367.052	73.38
367.278	86.38
367.505	87.38
367.731	92.38
367.957	73.38
368.184	80.38
368.41	74.38
368.636	78.38
368.862	85.38
369.089	82.38
369.315	76.38
369.541	77.38
369.767	90.38
369.993	85.38
370.219	68.38
370.445	96.38
370.672	82.38
370.898	98.38
371.124	86.38
371.35	78.38
371.576	79.38
371.802	84.38
372.028	90.38
372.254	87.38
372.48	79.38
372.706	69.38
372.932	93.38
373.158	88.38
373.384	83.38
373.61	93.38
373.835	82.38
374.061	70.38
374.287	78.38
374.513	81.38
374.739	80.38
374.965	89.38
375.191	94.38
375.416	82.38
375.642	82.38
375.868	81.38
376.094	94.38
376.319	94.38
376.545	82.38
376.771	93.38
376.997	82.38
377.222	93.38
377.448	84.38
377.674	84.38
377.899	86.38
378.125	77.38
378.35	93.38
378.576	83.38
378.802	78.38
379.027	76.38
379.253	74.38
379.478	77.38
379.704	89.38
379.929	79.38
380.155	80.38
380.38	86.38
380.606	89.38
380.831	76.38
381.057	90.38
381.282	72.38
381.507	72.38
381.733	65.38
381.958	98.38
382.184	83.38
382.409	92.38
382.634	87.38
382.86	85.38
383.085	96.38
383.31	80.38
383.535	68.38
383.761	68.38
383.986	86.38
384.211	76.38
384.436	74.38
384.662	78.38
384.887	75.38
385.112	76.38
385.337	79.38
385.562	79.38
385.787	82.38
386.013	76.38
386.238	80.38
386.463	89.38
386.688	108.38
386.913	98.38
387.138	77.38
387.363	76.38
387.588	73.38
387.813	89.38
388.038	75.38
388.263	79.38
388.488	86.38
388.713	76.38
388.938	88.38
389.163	81.38
389.387	96.38
389.612	100.38
389.837	76.38
390.062	78.38
390.287	83.38
390.512	82.38
390.736	79.38
390.961	74.38
391.186	74.38
391.411	83.38
391.636	80.38
391.86	76.38
392.085	82.38
392.31	77.38
392.534	86.38
392.759	85.38
392.984	89.38
393.208	91.38
393.433	81.38
393.658	79.38
393.882	79.38
394.107	86.38
394.331	97.38
394.556	89.38
394.78	90.38
395.005	82.38
395.229	89.38
395.454	84.38
395.678	70.38
395.903	81.38
396.127	97.38
396.352	80.38
396.576	84.38
396.801	93.38
397.025	89.38
397.249	83.38
397.474	80.38
397.698	86.38
397.922	90.38
398.147	71.38
398.371	76.38
398.595	84.38
398.82	85.38
399.044	81.38
399.268	78.38
399.492	73.38
399.717	76.38
399.941	80.38
400.165	86.38
400.389	71.38
400.613	88.38
400.837	74.38
401.062	84.38
401.286	78.38
401.51	84.38
401.734	82.38
401.958	99.38
402.182	84.38
402.406	84.38
402.63	84.38
402.854	86.38
403.078	89.38
403.302	77.38
403.526	85.38
403.75	91.38
403.974	76.38
404.198	88.38
404.422	83.38
404.645	69.38
404.869	71.38
405.093	89.38
405.317	83.38
405.541	81.38
405.765	91.38
405.988	89.38
406.212	80.38
406.436	88.38
406.66	84.38
406.883	73.38
407.107	80.38
407.331	84.38
407.555	73.38
407.778	75.38
408.002	78.38
408.226	72.38
408.449	92.38
408.673	66.38
408.896	84.38
409.12	94.38
409.344	86.38
409.567	78.38
409.791	80.38
410.014	86.38
410.238	67.38
410.461	77.38
410.685	73.38
410.908	85.38
411.132	87.38
411.355	93.38
411.578	76.38
411.802	81.38
412.025	80.38
412.249	66.38
412.472	93.38
412.695	89.38
412.919	74.38
413.142	88.38
413.365	88.38
413.589	84.38
413.812	76.38
414.035	87.38
414.258	71.38
414.482	87.38
414.705	78.38
414.928	97.38
415.151	80.38
415.374	84.38
415.597	70.38
415.821	81.38
416.044	82.38
416.267	84.38
416.49	74.38
416.713	77.38
416.936	81.38
417.159	93.38
417.382	75.38
417.605	76.38
417.828	86.38
418.051	79.38
418.274	64.38
418.497	87.38
418.72	70.38
418.943	88.38
419.166	92.38
419.389	85.38
419.611	83.38
419.834	78.38
420.057	90.38
420.28	88.38
420.503	76.38
420.726	70.38
420.948	80.38
421.171	96.38
421.394	93.38
421.617	90.38
421.839	73.38
422.062	88.38
422.285	77.38
422.507	88.38
422.73	75.38
422.953	78.38
423.175	74.38
423.398	70.38
423.621	70.38
423.843	85.38
424.066	90.38
424.288	90.38
424.511	83.38
424.733	81.38
424.956	79.38
425.178	98.38
425.401	72.38
425.623	89.38
425.846	93.38
426.068	81.38
426.291	74.38
426.513	86.38
426.735	83.38
426.958	79.38
427.18	71.38
427.402	91.38
427.625	82.38
427.847	88.38
428.069	85.38
428.292	78.38
428.514	68.38
428.736	80.38
428.958	84.38
429.181	91.38
429.403	77.38
429.625	82.38
429.847	80.38
430.069	84.38
430.292	80.38
430.514	84.38
430.736	79.38
430.958	78.38
431.18	72.38
431.402	88.38
431.624	80.38
431.846	78.38
432.068	82.38
432.29	74.38
432.512	84.38
432.734	82.38
432.956	91.38
433.178	98.38
433.4	90.38
433.622	93.38
433.844	81.38
434.066	79.38
434.287	81.38
434.509	83.38
434.731	78.38
434.953	76.38
435.175	76.38
435.397	92.38
435.618	96.38
435.84	86.38
436.062	84.38
436.284	85.38
436.505	64.38
436.727	71.38
436.949	77.38
437.17	78.38
437.392	81.38
437.614	84.38
437.835	78.38
438.057	71.38
438.278	74.38
438.5	86.38
438.721	86.38
438.943	82.38
439.165	77.38
439.386	92.38
439.608	82.38
439.829	86.38
440.05	92.38
440.272	94.38
440.493	86.38
440.715	76.38
440.936	86.38
441.158	82.38
441.379	79.38
441.6	92.38
441.822	89.38
442.043	88.38
442.264	93.38
442.486	85.38
442.707	80.38
442.928	93.38
443.149	85.38
443.371	88.38
443.592	97.38
443.813	79.38
444.034	87.38
444.255	80.38
444.476	96.38
444.698	76.38
444.919	85.38
445.14	168.38
445.361	124.38
445.582	80.38
445.803	78.38
446.024	76.38
446.245	76.38
446.466	71.38
446.687	76.38
446.908	89.38
447.129	88.38
447.35	90.38
447.571	86.38
447.792	90.38
448.013	71.38
448.234	79.38
448.455	69.38
448.675	73.38
448.896	68.38
449.117	76.38
449.338	78.38
449.559	84.38
449.779	84.38
450	87.38
450.221	84.38
450.442	84.38
450.662	85.38
450.883	84.38
451.104	93.38
451.324	88.38
451.545	74.38
451.766	94.38
451.986	88.38
452.207	87.38
452.428	103.38
452.648	83.38
452.869	83.38
453.089	84.38
453.31	73.38
453.53	80.38
453.751	68.38
453.971	90.38
454.192	76.38
454.412	90.38
454.633	78.38
454.853	91.38
455.073	72.38
455.294	78.38
455.514	76.38
455.734	78.38
455.955	85.38
456.175	69.38
456.395	78.38
456.616	88.38
456.836	85.38
457.056	96.38
457.276	80.38
457.497	69.38
457.717	74.38
457.937	81.38
458.157	77.38
458.377	74.38
458.598	68.38
458.818	93.38
459.038	93.38
459.258	82.38
459.478	77.38
459.698	88.38
459.918	86.38
460.138	85.38
460.358	88.38
460.578	80.38
460.798	93.38
461.018	93.38
461.238	89.38
461.458	84.38
461.678	70.38
461.898	77.38
462.118	80.38
462.338	88.38
462.558	80.38
462.777	91.38
462.997	83.38
463.217	77.38
463.437	87.38
463.657	76.38
463.876	78.38
464.096	96.38
464.316	73.38
464.536	55.38
464.755	74.38
464.975	90.38
465.195	91.38
465.414	86.38
465.634	76.38
465.854	91.38
466.073	76.38
466.293	73.38
466.512	74.38
466.732	87.38
466.951	72.38
467.171	84.38
467.391	98.38
467.61	94.38
467.829	99.38
468.049	99.38
468.268	118.38
468.488	82.38
468.707	92.38
468.927	89.38
469.146	76.38
469.365	86.38
469.585	90.38
469.804	94.38
470.023	77.38
470.243	92.38
470.462	84.38
470.681	94.38
470.901	86.38
471.12	100.38
471.339	93.38
471.558	89.38
471.777	102.38
471.997	89.38
472.216	142.38
472.435	147.38
472.654	93.38
472.873	101.38
473.092	74.38
473.311	90.38
473.53	78.38
473.749	72.38
473.968	89.38
474.187	98.38
474.406	88.38
474.625	95.38
474.844	100.38
475.063	90.38
475.282	96.38
475.501	74.38
475.72	84.38
475.939	86.38
476.158	88.38
476.377	96.38
476.596	64.38
476.814	75.38
477.033	78.38
477.252	81.38
477.471	72.38
477.69	75.38
477.908	81.38
478.127	98.38
478.346	80.38
478.564	97.38
478.783	76.38
479.002	88.38
479.22	100.38
479.439	83.38
479.658	99.38
479.876	83.38
480.095	81.38
480.313	61.38
480.532	88.38
480.751	98.38
480.969	126.38
481.188	254.38
481.406	165.38
481.624	93.38
481.843	75.38
482.061	86.38
482.28	74.38
482.498	89.38
482.717	84.38
482.935	80.38
483.153	74.38
483.372	76.38
483.59	83.38
483.808	77.38
484.027	80.38
484.245	74.38
484.463	76.38
484.681	64.38
484.9	93.38
485.118	83.38
485.336	82.38
485.554	85.38
485.772	79.38
485.99	84.38
486.209	80.38
486.427	90.38
486.645	91.38
486.863	71.38
487.081	88.38
487.299	88.38
487.517	84.38
487.735	80.38
487.953	69.38
488.171	84.38
488.389	78.38
488.607	89.38
488.825	77.38
489.043	72.38
489.261	84.38
489.479	94.38
489.696	91.38
489.914	84.38
490.132	96.38
490.35	88.38
490.568	78.38
490.786	71.38
491.003	80.38
491.221	84.38
491.439	89.38
491.657	88.38
491.874	88.38
492.092	90.38
492.31	89.38
492.527	80.38
492.745	78.38
492.963	84.38
493.18	71.38
493.398	88.38
493.615	88.38
493.833	78.38
494.05	76.38
494.268	71.38
494.485	80.38
494.703	85.38
494.92	92.38
495.138	88.38
495.355	90.38
495.573	89.38
495.79	87.38
496.008	84.38
496.225	96.38
496.442	92.38
496.66	82.38
496.877	79.38
497.094	73.38
497.312	82.38
497.529	83.38
497.746	84.38
497.963	70.38
498.181	74.38
498.398	73.38
498.615	92.38
498.832	79.38
499.049	81.38
499.267	72.38
499.484	93.38
499.701	82.38
499.918	76.38
500.135	90.38
500.352	69.38
500.569	87.38
500.786	82.38
501.003	86.38
501.22	80.38
501.437	105.38
501.654	83.38
501.871	73.38
502.088	78.38
502.305	86.38
502.522	88.38
502.739	99.38
502.956	101.38
503.172	80.38
503.389	79.38
503.606	84.38
503.823	95.38
504.04	84.38
504.256	83.38
504.473	76.38
504.69	91.38
504.907	94.38
505.123	81.38
505.34	92.38
505.557	68.38
505.773	81.38
505.99	96.38
506.207	84.38
506.423	87.38
506.64	85.38
506.856	84.38
507.073	76.38
507.289	88.38
507.506	83.38
507.722	100.38
507.939	71.38
508.155	85.38
508.372	85.38
508.588	97.38
508.805	97.38
509.021	61.38
509.238	88.38
509.454	92.38
509.67	72.38
509.887	75.38
510.103	61.38
510.319	102.38
510.536	138.38
510.752	211.38
510.968	108.38
511.184	94.38
511.401	84.38
511.617	80.38
511.833	76.38
512.049	86.38
512.265	84.38
512.481	93.38
512.698	80.38
512.914	78.38
513.13	84.38
513.346	92.38
513.562	85.38
513.778	89.38
513.994	84.38
514.21	70.38
514.426	96.38
514.642	100.38
514.858	99.38
515.074	91.38
515.29	116.38
515.506	176.38
515.721	101.38
515.937	97.38
516.153	85.38
516.369	79.38
516.585	84.38
516.801	78.38
517.016	70.38
517.232	92.38
517.448	75.38
517.664	85.38
517.879	68.38
518.095	90.38
518.311	82.38
518.527	66.38
518.742	80.38
518.958	72.38
519.173	88.38
519.389	84.38
