Data from Penny_3_HRD10591_00010.txt Node
Date: Wed Nov 05 15:35:13 EST 2025
User: Yrep
Spectrometer: HR+D1059
Trigger mode: 1
Integration Time (sec): 1.000000E-1
Scans to average: 1
Electric dark correction enabled: true
Nonlinearity correction enabled: false
Boxcar width: 0
XAxis mode: Wavelengths
Number of Pixels in Spectrum: 2048
>>>>>Begin Spectral Data<<<<<
223.165	-25.38
223.4	-25.38
223.635	-25.38
223.869	-25.38
224.104	-15.38
224.338	-5.38
224.573	-25.38
224.808	-13.38
225.042	-10.38
225.277	-0.38
225.511	-0.38
225.746	4.62
225.98	6.62
226.215	16.62
226.449	10.62
226.683	22.62
226.918	17.62
227.152	42.62
227.387	38.62
227.621	56.62
227.856	32.62
228.09	56.62
228.324	52.62
228.559	64.62
228.793	63.62
229.027	62.62
229.262	61.62
229.496	76.62
229.73	62.62
229.964	62.62
230.199	80.62
230.433	79.62
230.667	66.62
230.901	66.62
231.136	63.62
231.37	86.62
231.604	87.62
231.838	68.62
232.072	71.62
232.306	96.62
232.541	70.62
232.775	87.62
233.009	73.62
233.243	90.62
233.477	79.62
233.711	72.62
233.945	88.62
234.179	87.62
234.413	95.62
234.647	74.62
234.881	79.62
235.115	76.62
235.349	74.62
235.583	94.62
235.817	79.62
236.051	58.62
236.285	81.62
236.519	70.62
236.753	72.62
236.987	71.62
237.221	67.62
237.455	80.62
237.689	89.62
237.922	87.62
238.156	78.62
238.39	71.62
238.624	74.62
238.858	72.62
239.091	86.62
239.325	72.62
239.559	91.62
239.793	78.62
240.027	84.62
240.26	85.62
240.494	81.62
240.728	77.62
240.961	66.62
241.195	88.62
241.429	81.62
241.662	69.62
241.896	91.62
242.13	74.62
242.363	82.62
242.597	83.62
242.83	92.62
243.064	67.62
243.298	72.62
243.531	80.62
243.765	87.62
243.998	85.62
244.232	84.62
244.465	85.62
244.699	79.62
244.932	80.62
245.166	75.62
245.399	80.62
245.633	75.62
245.866	78.62
246.099	72.62
246.333	91.62
246.566	70.62
246.8	68.62
247.033	91.62
247.266	73.62
247.5	69.62
247.733	74.62
247.966	75.62
248.2	89.62
248.433	65.62
248.666	84.62
248.899	75.62
249.133	76.62
249.366	81.62
249.599	76.62
249.832	76.62
250.066	76.62
250.299	93.62
250.532	85.62
250.765	68.62
250.998	66.62
251.231	80.62
251.465	80.62
251.698	69.62
251.931	83.62
252.164	81.62
252.397	76.62
252.63	75.62
252.863	74.62
253.096	78.62
253.329	82.62
253.562	84.62
253.795	76.62
254.028	72.62
254.261	86.62
254.494	80.62
254.727	74.62
254.96	90.62
255.193	80.62
255.426	88.62
255.659	76.62
255.892	69.62
256.124	67.62
256.357	79.62
256.59	94.62
256.823	78.62
257.056	85.62
257.289	89.62
257.521	85.62
257.754	80.62
257.987	75.62
258.22	87.62
258.452	74.62
258.685	84.62
258.918	81.62
259.151	74.62
259.383	76.62
259.616	88.62
259.849	72.62
260.081	77.62
260.314	85.62
260.547	78.62
260.779	90.62
261.012	78.62
261.244	74.62
261.477	98.62
261.71	81.62
261.942	74.62
262.175	77.62
262.407	84.62
262.64	79.62
262.872	78.62
263.105	83.62
263.337	87.62
263.57	83.62
263.802	74.62
264.035	76.62
264.267	85.62
264.499	75.62
264.732	85.62
264.964	85.62
265.197	83.62
265.429	75.62
265.661	81.62
265.894	87.62
266.126	92.62
266.358	86.62
266.591	90.62
266.823	79.62
267.055	87.62
267.287	82.62
267.52	70.62
267.752	86.62
267.984	84.62
268.216	66.62
268.448	84.62
268.681	88.62
268.913	84.62
269.145	66.62
269.377	79.62
269.609	66.62
269.841	86.62
270.073	84.62
270.306	75.62
270.538	74.62
270.77	89.62
271.002	84.62
271.234	84.62
271.466	86.62
271.698	78.62
271.93	83.62
272.162	81.62
272.394	93.62
272.626	72.62
272.858	77.62
273.09	77.62
273.322	77.62
273.553	82.62
273.785	88.62
274.017	93.62
274.249	80.62
274.481	78.62
274.713	70.62
274.945	90.62
275.176	89.62
275.408	96.62
275.64	86.62
275.872	83.62
276.104	76.62
276.335	88.62
276.567	75.62
276.799	84.62
277.031	82.62
277.262	75.62
277.494	83.62
277.726	89.62
277.957	75.62
278.189	71.62
278.421	83.62
278.652	85.62
278.884	80.62
279.115	81.62
279.347	84.62
279.579	84.62
279.81	83.62
280.042	91.62
280.273	86.62
280.505	80.62
280.736	93.62
280.968	96.62
281.199	77.62
281.431	95.62
281.662	88.62
281.894	88.62
282.125	87.62
282.356	89.62
282.588	89.62
282.819	93.62
283.051	94.62
283.282	81.62
283.513	83.62
283.745	79.62
283.976	83.62
284.207	90.62
284.439	92.62
284.67	95.62
284.901	77.62
285.132	81.62
285.364	86.62
285.595	86.62
285.826	85.62
286.057	88.62
286.288	89.62
286.52	88.62
286.751	84.62
286.982	80.62
287.213	81.62
287.444	86.62
287.675	69.62
287.906	85.62
288.138	76.62
288.369	80.62
288.6	94.62
288.831	80.62
289.062	74.62
289.293	78.62
289.524	72.62
289.755	89.62
289.986	91.62
290.217	74.62
290.448	82.62
290.679	75.62
290.91	77.62
291.141	82.62
291.371	82.62
291.602	78.62
291.833	88.62
292.064	82.62
292.295	93.62
292.526	86.62
292.757	80.62
292.987	88.62
293.218	87.62
293.449	83.62
293.68	77.62
293.91	84.62
294.141	90.62
294.372	86.62
294.603	77.62
294.833	74.62
295.064	84.62
295.295	80.62
295.525	75.62
295.756	87.62
295.987	76.62
296.217	99.62
296.448	88.62
296.679	86.62
296.909	84.62
297.14	88.62
297.37	88.62
297.601	80.62
297.831	68.62
298.062	77.62
298.292	80.62
298.523	80.62
298.753	94.62
298.984	71.62
299.214	81.62
299.445	92.62
299.675	98.62
299.905	83.62
300.136	91.62
300.366	73.62
300.597	90.62
300.827	95.62
301.057	77.62
301.288	81.62
301.518	64.62
301.748	88.62
301.979	88.62
302.209	83.62
302.439	80.62
302.669	91.62
302.9	95.62
303.13	90.62
303.36	96.62
303.59	85.62
303.82	94.62
304.051	85.62
304.281	90.62
304.511	84.62
304.741	80.62
304.971	71.62
305.201	89.62
305.431	93.62
305.661	79.62
305.891	83.62
306.121	88.62
306.352	87.62
306.582	94.62
306.812	83.62
307.042	97.62
307.272	98.62
307.502	84.62
307.731	76.62
307.961	82.62
308.191	84.62
308.421	83.62
308.651	79.62
308.881	85.62
309.111	74.62
309.341	79.62
309.571	90.62
309.8	92.62
310.03	79.62
310.26	85.62
310.49	84.62
310.72	81.62
310.949	79.62
311.179	84.62
311.409	91.62
311.639	84.62
311.868	82.62
312.098	87.62
312.328	72.62
312.557	85.62
312.787	92.62
313.017	88.62
313.246	79.62
313.476	87.62
313.706	80.62
313.935	75.62
314.165	84.62
314.394	91.62
314.624	99.62
314.853	82.62
315.083	85.62
315.312	82.62
315.542	84.62
315.771	98.62
316.001	90.62
316.23	86.62
316.46	75.62
316.689	74.62
316.919	80.62
317.148	87.62
317.377	74.62
317.607	74.62
317.836	94.62
318.065	88.62
318.295	81.62
318.524	70.62
318.753	94.62
318.983	86.62
319.212	79.62
319.441	79.62
319.67	69.62
319.9	90.62
320.129	71.62
320.358	80.62
320.587	80.62
320.816	77.62
321.046	76.62
321.275	78.62
321.504	74.62
321.733	96.62
321.962	76.62
322.191	89.62
322.42	83.62
322.649	80.62
322.878	84.62
323.108	91.62
323.337	89.62
323.566	91.62
323.795	90.62
324.024	98.62
324.253	98.62
324.482	107.62
324.71	132.62
324.939	143.62
325.168	114.62
325.397	82.62
325.626	84.62
325.855	94.62
326.084	79.62
326.313	75.62
326.542	80.62
326.77	69.62
326.999	93.62
327.228	114.62
327.457	136.62
327.686	126.62
327.914	95.62
328.143	87.62
328.372	107.62
328.6	84.62
328.829	87.62
329.058	95.62
329.287	75.62
329.515	80.62
329.744	77.62
329.972	104.62
330.201	120.62
330.43	138.62
330.658	102.62
330.887	99.62
331.115	83.62
331.344	79.62
331.572	77.62
331.801	89.62
332.03	80.62
332.258	78.62
332.486	88.62
332.715	77.62
332.943	82.62
333.172	87.62
333.4	88.62
333.629	94.62
333.857	93.62
334.085	115.62
334.314	119.62
334.542	136.62
334.771	130.62
334.999	93.62
335.227	85.62
335.455	95.62
335.684	81.62
335.912	79.62
336.14	75.62
336.369	95.62
336.597	95.62
336.825	87.62
337.053	87.62
337.281	94.62
337.51	90.62
337.738	84.62
337.966	92.62
338.194	90.62
338.422	82.62
338.65	85.62
338.878	86.62
339.106	88.62
339.334	74.62
339.562	80.62
339.79	78.62
340.018	76.62
340.246	82.62
340.474	86.62
340.702	88.62
340.93	70.62
341.158	76.62
341.386	87.62
341.614	74.62
341.842	85.62
342.07	74.62
342.298	81.62
342.526	78.62
342.754	81.62
342.981	83.62
343.209	93.62
343.437	104.62
343.665	86.62
343.893	85.62
344.12	87.62
344.348	79.62
344.576	80.62
344.804	84.62
345.031	80.62
345.259	88.62
345.487	90.62
345.714	60.62
345.942	78.62
346.17	95.62
346.397	91.62
346.625	80.62
346.853	85.62
347.08	72.62
347.308	86.62
347.535	79.62
347.763	80.62
347.99	83.62
348.218	85.62
348.445	74.62
348.673	80.62
348.9	87.62
349.128	85.62
349.355	82.62
349.583	90.62
349.81	86.62
350.037	96.62
350.265	78.62
350.492	89.62
350.72	86.62
350.947	76.62
351.174	98.62
351.402	74.62
351.629	79.62
351.856	89.62
352.083	80.62
352.311	78.62
352.538	94.62
352.765	86.62
352.992	90.62
353.22	68.62
353.447	78.62
353.674	84.62
353.901	81.62
354.128	94.62
354.355	77.62
354.583	91.62
354.81	74.62
355.037	88.62
355.264	93.62
355.491	84.62
355.718	59.62
355.945	71.62
356.172	71.62
356.399	93.62
356.626	82.62
356.853	86.62
357.08	93.62
357.307	66.62
357.534	95.62
357.761	74.62
357.988	88.62
358.215	81.62
358.441	84.62
358.668	79.62
358.895	86.62
359.122	80.62
359.349	76.62
359.576	71.62
359.802	84.62
360.029	66.62
360.256	93.62
360.483	69.62
360.709	73.62
360.936	90.62
361.163	78.62
361.39	73.62
361.616	91.62
361.843	86.62
362.07	78.62
362.296	87.62
362.523	88.62
362.749	78.62
362.976	86.62
363.203	96.62
363.429	84.62
363.656	82.62
363.882	91.62
364.109	81.62
364.335	81.62
364.562	64.62
364.788	82.62
365.015	78.62
365.241	91.62
365.468	93.62
365.694	87.62
365.92	77.62
366.147	76.62
366.373	75.62
366.599	92.62
366.826	80.62
367.052	89.62
367.278	85.62
367.505	84.62
367.731	84.62
367.957	83.62
368.184	84.62
368.41	79.62
368.636	86.62
368.862	80.62
369.089	70.62
369.315	71.62
369.541	74.62
369.767	80.62
369.993	69.62
370.219	92.62
370.445	78.62
370.672	78.62
370.898	76.62
371.124	84.62
371.35	64.62
371.576	87.62
371.802	86.62
372.028	79.62
372.254	72.62
372.48	91.62
372.706	86.62
372.932	79.62
373.158	87.62
373.384	97.62
373.61	77.62
373.835	88.62
374.061	86.62
374.287	82.62
374.513	90.62
374.739	74.62
374.965	76.62
375.191	80.62
375.416	90.62
375.642	82.62
375.868	93.62
376.094	96.62
376.319	93.62
376.545	74.62
376.771	78.62
376.997	74.62
377.222	78.62
377.448	79.62
377.674	83.62
377.899	83.62
378.125	87.62
378.35	81.62
378.576	74.62
378.802	77.62
379.027	98.62
379.253	97.62
379.478	67.62
379.704	84.62
379.929	86.62
380.155	95.62
380.38	91.62
380.606	68.62
380.831	82.62
381.057	85.62
381.282	77.62
381.507	74.62
381.733	94.62
381.958	73.62
382.184	78.62
382.409	79.62
382.634	83.62
382.86	79.62
383.085	94.62
383.31	80.62
383.535	89.62
383.761	84.62
383.986	80.62
384.211	83.62
384.436	86.62
384.662	76.62
384.887	86.62
385.112	84.62
385.337	73.62
385.562	92.62
385.787	72.62
386.013	74.62
386.238	95.62
386.463	86.62
386.688	87.62
386.913	84.62
387.138	92.62
387.363	78.62
387.588	95.62
387.813	78.62
388.038	84.62
388.263	76.62
388.488	73.62
388.713	78.62
388.938	88.62
389.163	72.62
389.387	85.62
389.612	89.62
389.837	86.62
390.062	76.62
390.287	80.62
390.512	86.62
390.736	83.62
390.961	76.62
391.186	85.62
391.411	82.62
391.636	86.62
391.86	88.62
392.085	92.62
392.31	72.62
392.534	101.62
392.759	75.62
392.984	79.62
393.208	89.62
393.433	91.62
393.658	73.62
393.882	84.62
394.107	80.62
394.331	82.62
394.556	71.62
394.78	95.62
395.005	81.62
395.229	86.62
395.454	78.62
395.678	78.62
395.903	83.62
396.127	86.62
396.352	84.62
396.576	77.62
396.801	88.62
397.025	92.62
397.249	87.62
397.474	90.62
397.698	81.62
397.922	90.62
398.147	83.62
398.371	77.62
398.595	79.62
398.82	74.62
399.044	88.62
399.268	85.62
399.492	87.62
399.717	92.62
399.941	91.62
400.165	91.62
400.389	85.62
400.613	88.62
400.837	78.62
401.062	80.62
401.286	93.62
401.51	76.62
401.734	70.62
401.958	84.62
402.182	76.62
402.406	79.62
402.63	88.62
402.854	95.62
403.078	74.62
403.302	81.62
403.526	72.62
403.75	70.62
403.974	79.62
404.198	76.62
404.422	72.62
404.645	70.62
404.869	86.62
405.093	72.62
405.317	85.62
405.541	79.62
405.765	90.62
405.988	86.62
406.212	87.62
406.436	103.62
406.66	86.62
406.883	74.62
407.107	75.62
407.331	76.62
407.555	77.62
407.778	84.62
408.002	63.62
408.226	80.62
408.449	76.62
408.673	95.62
408.896	86.62
409.12	78.62
409.344	90.62
409.567	72.62
409.791	91.62
410.014	76.62
410.238	77.62
410.461	94.62
410.685	86.62
410.908	79.62
411.132	82.62
411.355	75.62
411.578	88.62
411.802	72.62
412.025	85.62
412.249	87.62
412.472	86.62
412.695	78.62
412.919	87.62
413.142	90.62
413.365	84.62
413.589	78.62
413.812	90.62
414.035	91.62
414.258	86.62
414.482	78.62
414.705	83.62
414.928	76.62
415.151	81.62
415.374	92.62
415.597	83.62
415.821	87.62
416.044	66.62
416.267	78.62
416.49	84.62
416.713	90.62
416.936	79.62
417.159	79.62
417.382	88.62
417.605	84.62
417.828	69.62
418.051	96.62
418.274	84.62
418.497	89.62
418.72	89.62
418.943	76.62
419.166	70.62
419.389	89.62
419.611	71.62
419.834	90.62
420.057	85.62
420.28	83.62
420.503	76.62
420.726	66.62
420.948	69.62
421.171	75.62
421.394	85.62
421.617	79.62
421.839	75.62
422.062	92.62
422.285	83.62
422.507	78.62
422.73	74.62
422.953	91.62
423.175	102.62
423.398	86.62
423.621	83.62
423.843	81.62
424.066	85.62
424.288	80.62
424.511	68.62
424.733	72.62
424.956	96.62
425.178	89.62
425.401	96.62
425.623	78.62
425.846	95.62
426.068	80.62
426.291	80.62
426.513	86.62
426.735	88.62
426.958	87.62
427.18	82.62
427.402	79.62
427.625	84.62
427.847	80.62
428.069	85.62
428.292	78.62
428.514	62.62
428.736	91.62
428.958	97.62
429.181	78.62
429.403	89.62
429.625	84.62
429.847	83.62
430.069	83.62
430.292	70.62
430.514	84.62
430.736	79.62
430.958	74.62
431.18	78.62
431.402	92.62
431.624	79.62
431.846	88.62
432.068	77.62
432.29	87.62
432.512	83.62
432.734	84.62
432.956	89.62
433.178	85.62
433.4	75.62
433.622	90.62
433.844	75.62
434.066	81.62
434.287	78.62
434.509	90.62
434.731	92.62
434.953	73.62
435.175	84.62
435.397	84.62
435.618	78.62
435.84	92.62
436.062	86.62
436.284	79.62
436.505	77.62
436.727	88.62
436.949	80.62
437.17	80.62
437.392	75.62
437.614	88.62
437.835	84.62
438.057	87.62
438.278	87.62
438.5	80.62
438.721	78.62
438.943	85.62
439.165	78.62
439.386	68.62
439.608	87.62
439.829	87.62
440.05	84.62
440.272	86.62
440.493	86.62
440.715	84.62
440.936	83.62
441.158	105.62
441.379	82.62
441.6	67.62
441.822	75.62
442.043	78.62
442.264	86.62
442.486	86.62
442.707	78.62
442.928	90.62
443.149	77.62
443.371	96.62
443.592	73.62
443.813	74.62
444.034	87.62
444.255	89.62
444.476	80.62
444.698	94.62
444.919	80.62
445.14	163.62
445.361	130.62
445.582	80.62
445.803	85.62
446.024	90.62
446.245	79.62
446.466	85.62
446.687	83.62
446.908	90.62
447.129	84.62
447.35	85.62
447.571	84.62
447.792	70.62
448.013	73.62
448.234	93.62
448.455	93.62
448.675	92.62
448.896	83.62
449.117	88.62
449.338	83.62
449.559	67.62
449.779	81.62
450	86.62
450.221	84.62
450.442	91.62
450.662	69.62
450.883	72.62
451.104	79.62
451.324	78.62
451.545	88.62
451.766	92.62
451.986	77.62
452.207	78.62
452.428	99.62
452.648	79.62
452.869	103.62
453.089	87.62
453.31	87.62
453.53	91.62
453.751	85.62
453.971	74.62
454.192	74.62
454.412	83.62
454.633	88.62
454.853	70.62
455.073	76.62
455.294	86.62
455.514	90.62
455.734	88.62
455.955	91.62
456.175	95.62
456.395	75.62
456.616	80.62
456.836	86.62
457.056	90.62
457.276	79.62
457.497	74.62
457.717	93.62
457.937	83.62
458.157	79.62
458.377	78.62
458.598	92.62
458.818	78.62
459.038	81.62
459.258	83.62
459.478	81.62
459.698	67.62
459.918	104.62
460.138	70.62
460.358	76.62
460.578	86.62
460.798	82.62
461.018	84.62
461.238	87.62
461.458	86.62
461.678	89.62
461.898	82.62
462.118	67.62
462.338	92.62
462.558	90.62
462.777	87.62
462.997	87.62
463.217	95.62
463.437	72.62
463.657	82.62
463.876	88.62
464.096	85.62
464.316	78.62
464.536	82.62
464.755	80.62
464.975	92.62
465.195	94.62
465.414	86.62
465.634	86.62
465.854	78.62
466.073	88.62
466.293	74.62
466.512	80.62
466.732	84.62
466.951	89.62
467.171	79.62
467.391	81.62
467.61	84.62
467.829	91.62
468.049	109.62
468.268	123.62
468.488	87.62
468.707	80.62
468.927	91.62
469.146	76.62
469.365	88.62
469.585	82.62
469.804	83.62
470.023	91.62
470.243	86.62
470.462	83.62
470.681	87.62
470.901	90.62
471.12	75.62
471.339	79.62
471.558	86.62
471.777	91.62
471.997	112.62
472.216	136.62
472.435	158.62
472.654	98.62
472.873	97.62
473.092	77.62
473.311	95.62
473.53	79.62
473.749	93.62
473.968	86.62
474.187	77.62
474.406	88.62
474.625	84.62
474.844	80.62
475.063	87.62
475.282	76.62
475.501	80.62
475.72	88.62
475.939	77.62
476.158	88.62
476.377	92.62
476.596	83.62
476.814	81.62
477.033	88.62
477.252	91.62
477.471	83.62
477.69	82.62
477.908	88.62
478.127	102.62
478.346	87.62
478.564	74.62
478.783	84.62
479.002	100.62
479.22	75.62
479.439	88.62
479.658	74.62
479.876	86.62
480.095	89.62
480.313	94.62
480.532	98.62
480.751	102.62
480.969	135.62
481.188	228.62
481.406	154.62
481.624	92.62
481.843	80.62
482.061	98.62
482.28	82.62
482.498	67.62
482.717	91.62
482.935	98.62
483.153	79.62
483.372	90.62
483.59	75.62
483.808	83.62
484.027	90.62
484.245	80.62
484.463	88.62
484.681	87.62
484.9	81.62
485.118	83.62
485.336	75.62
485.554	83.62
485.772	87.62
485.99	98.62
486.209	91.62
486.427	85.62
486.645	80.62
486.863	87.62
487.081	76.62
487.299	85.62
487.517	94.62
487.735	90.62
487.953	98.62
488.171	90.62
488.389	59.62
488.607	82.62
488.825	74.62
489.043	65.62
489.261	90.62
489.479	92.62
489.696	100.62
489.914	84.62
490.132	79.62
490.35	74.62
490.568	98.62
490.786	83.62
491.003	87.62
491.221	83.62
491.439	86.62
491.657	81.62
491.874	91.62
492.092	86.62
492.31	102.62
492.527	80.62
492.745	95.62
492.963	86.62
493.18	87.62
493.398	88.62
493.615	91.62
493.833	78.62
494.05	83.62
494.268	90.62
494.485	80.62
494.703	90.62
494.92	66.62
495.138	90.62
495.355	85.62
495.573	88.62
495.79	70.62
496.008	78.62
496.225	79.62
496.442	73.62
496.66	88.62
496.877	94.62
497.094	95.62
497.312	98.62
497.529	84.62
497.746	87.62
497.963	81.62
498.181	88.62
498.398	79.62
498.615	84.62
498.832	90.62
499.049	89.62
499.267	68.62
499.484	82.62
499.701	89.62
499.918	98.62
500.135	76.62
500.352	90.62
500.569	75.62
500.786	68.62
501.003	74.62
501.22	67.62
501.437	79.62
501.654	73.62
501.871	81.62
502.088	78.62
502.305	86.62
502.522	85.62
502.739	88.62
502.956	63.62
503.172	74.62
503.389	80.62
503.606	79.62
503.823	90.62
504.04	89.62
504.256	90.62
504.473	85.62
504.69	89.62
504.907	93.62
505.123	94.62
505.34	104.62
505.557	91.62
505.773	86.62
505.99	90.62
506.207	81.62
506.423	78.62
506.64	84.62
506.856	68.62
507.073	84.62
507.289	79.62
507.506	85.62
507.722	74.62
507.939	94.62
508.155	84.62
508.372	63.62
508.588	79.62
508.805	94.62
509.021	82.62
509.238	79.62
509.454	88.62
509.67	72.62
509.887	90.62
510.103	96.62
510.319	87.62
510.536	123.62
510.752	197.62
510.968	95.62
511.184	92.62
511.401	72.62
511.617	87.62
511.833	83.62
512.049	92.62
512.265	88.62
512.481	88.62
512.698	92.62
512.914	84.62
513.13	78.62
513.346	84.62
513.562	93.62
513.778	78.62
513.994	98.62
514.21	84.62
514.426	92.62
514.642	92.62
514.858	87.62
515.074	92.62
515.29	118.62
515.506	196.62
515.721	124.62
515.937	95.62
516.153	75.62
516.369	86.62
516.585	92.62
516.801	78.62
517.016	76.62
517.232	82.62
517.448	84.62
517.664	83.62
517.879	86.62
518.095	93.62
518.311	72.62
518.527	77.62
518.742	84.62
518.958	88.62
519.173	89.62
519.389	96.62
519.605	67.62
