Data from Penny_3_HRD10591_00006.txt Node
Date: Wed Nov 05 15:35:11 EST 2025
User: Yrep
Spectrometer: HR+D1059
Trigger mode: 1
Integration Time (sec): 1.000000E-1
Scans to average: 1
Electric dark correction enabled: true
Nonlinearity correction enabled: false
Boxcar width: 0
XAxis mode: Wavelengths
Number of Pixels in Spectrum: 2048
>>>>>Begin Spectral Data<<<<<
223.165	-33
223.4	-33
223.635	-33
223.869	-12
224.104	-21
224.338	10
224.573	-10
224.808	-17
225.042	-9
225.277	-1
225.511	-13
225.746	-3
225.98	3
226.215	19
226.449	20
226.683	14
226.918	30
227.152	23
227.387	36
227.621	39
227.856	39
228.09	53
228.324	62
228.559	53
228.793	57
229.027	65
229.262	70
229.496	79
229.73	71
229.964	80
230.199	65
230.433	82
230.667	70
230.901	76
231.136	74
231.37	77
231.604	72
231.838	75
232.072	87
232.306	71
232.541	68
232.775	79
233.009	78
233.243	79
233.477	73
233.711	89
233.945	87
234.179	65
234.413	75
234.647	73
234.881	80
235.115	86
235.349	72
235.583	87
235.817	85
236.051	72
236.285	69
236.519	79
236.753	74
236.987	87
237.221	63
237.455	73
237.689	78
237.922	89
238.156	69
238.39	67
238.624	74
238.858	65
239.091	75
239.325	79
239.559	73
239.793	78
240.027	77
240.26	73
240.494	78
240.728	81
240.961	76
241.195	71
241.429	77
241.662	74
241.896	84
242.13	86
242.363	77
242.597	71
242.83	66
243.064	87
243.298	86
243.531	74
243.765	85
243.998	77
244.232	92
244.465	65
244.699	82
244.932	81
245.166	80
245.399	79
245.633	86
245.866	71
246.099	84
246.333	68
246.566	73
246.8	70
247.033	69
247.266	74
247.5	67
247.733	70
247.966	77
248.2	62
248.433	72
248.666	88
248.899	83
249.133	69
249.366	87
249.599	79
249.832	78
250.066	77
250.299	78
250.532	71
250.765	84
250.998	95
251.231	73
251.465	83
251.698	77
251.931	72
252.164	84
252.397	78
252.63	77
252.863	75
253.096	70
253.329	87
253.562	87
253.795	90
254.028	85
254.261	88
254.494	84
254.727	78
254.96	80
255.193	83
255.426	84
255.659	75
255.892	81
256.124	71
256.357	88
256.59	83
256.823	86
257.056	83
257.289	70
257.521	74
257.754	71
257.987	82
258.22	79
258.452	83
258.685	81
258.918	80
259.151	84
259.383	91
259.616	77
259.849	89
260.081	76
260.314	76
260.547	86
260.779	76
261.012	83
261.244	75
261.477	89
261.71	67
261.942	69
262.175	70
262.407	77
262.64	70
262.872	76
263.105	83
263.337	82
263.57	86
263.802	85
264.035	76
264.267	58
264.499	79
264.732	92
264.964	81
265.197	78
265.429	81
265.661	71
265.894	86
266.126	85
266.358	92
266.591	85
266.823	83
267.055	70
267.287	73
267.52	82
267.752	81
267.984	78
268.216	85
268.448	85
268.681	89
268.913	82
269.145	70
269.377	85
269.609	87
269.841	86
270.073	83
270.306	90
270.538	79
270.77	78
271.002	85
271.234	81
271.466	83
271.698	85
271.93	83
272.162	74
272.394	87
272.626	81
272.858	83
273.09	86
273.322	82
273.553	86
273.785	74
274.017	77
274.249	71
274.481	85
274.713	85
274.945	74
275.176	74
275.408	75
275.64	84
275.872	87
276.104	95
276.335	79
276.567	77
276.799	83
277.031	82
277.262	100
277.494	93
277.726	82
277.957	88
278.189	83
278.421	71
278.652	73
278.884	75
279.115	79
279.347	75
279.579	76
279.81	78
280.042	87
280.273	82
280.505	86
280.736	79
280.968	83
281.199	86
281.431	93
281.662	76
281.894	86
282.125	81
282.356	79
282.588	77
282.819	91
283.051	85
283.282	88
283.513	80
283.745	81
283.976	82
284.207	76
284.439	91
284.67	89
284.901	77
285.132	82
285.364	76
285.595	104
285.826	74
286.057	98
286.288	88
286.52	88
286.751	86
286.982	95
287.213	71
287.444	61
287.675	80
287.906	77
288.138	91
288.369	81
288.6	82
288.831	77
289.062	93
289.293	70
289.524	81
289.755	87
289.986	80
290.217	87
290.448	86
290.679	102
290.91	83
291.141	79
291.371	87
291.602	94
291.833	80
292.064	82
292.295	69
292.526	79
292.757	80
292.987	81
293.218	79
293.449	80
293.68	81
293.91	92
294.141	107
294.372	69
294.603	84
294.833	77
295.064	78
295.295	83
295.525	86
295.756	80
295.987	77
296.217	101
296.448	78
296.679	85
296.909	81
297.14	89
297.37	92
297.601	84
297.831	91
298.062	78
298.292	89
298.523	67
298.753	87
298.984	88
299.214	84
299.445	74
299.675	75
299.905	79
300.136	72
300.366	75
300.597	76
300.827	76
301.057	93
301.288	80
301.518	76
301.748	76
301.979	97
302.209	80
302.439	77
302.669	85
302.9	90
303.13	75
303.36	98
303.59	84
303.82	88
304.051	88
304.281	87
304.511	98
304.741	70
304.971	73
305.201	78
305.431	75
305.661	79
305.891	79
306.121	91
306.352	75
306.582	81
306.812	84
307.042	94
307.272	87
307.502	83
307.731	78
307.961	92
308.191	78
308.421	76
308.651	84
308.881	86
309.111	86
309.341	73
309.571	76
309.8	77
310.03	75
310.26	89
310.49	88
310.72	88
310.949	83
311.179	86
311.409	87
311.639	98
311.868	92
312.098	81
312.328	78
312.557	91
312.787	78
313.017	93
313.246	79
313.476	79
313.706	74
313.935	85
314.165	85
314.394	89
314.624	97
314.853	89
315.083	70
315.312	79
315.542	74
315.771	83
316.001	89
316.23	81
316.46	72
316.689	78
316.919	73
317.148	93
317.377	83
317.607	78
317.836	85
318.065	75
318.295	83
318.524	87
318.753	76
318.983	83
319.212	78
319.441	94
319.67	93
319.9	82
320.129	89
320.358	85
320.587	85
320.816	86
321.046	82
321.275	90
321.504	79
321.733	91
321.962	69
322.191	91
322.42	73
322.649	90
322.878	85
323.108	91
323.337	85
323.566	86
323.795	86
324.024	95
324.253	97
324.482	104
324.71	150
324.939	147
325.168	104
325.397	78
325.626	89
325.855	71
326.084	72
326.313	92
326.542	79
326.77	95
326.999	88
327.228	102
327.457	130
327.686	110
327.914	93
328.143	96
328.372	110
328.6	98
328.829	80
329.058	91
329.287	86
329.515	83
329.744	96
329.972	99
330.201	127
330.43	114
330.658	104
330.887	89
331.115	96
331.344	76
331.572	80
331.801	88
332.03	81
332.258	87
332.486	87
332.715	83
332.943	88
333.172	82
333.4	71
333.629	93
333.857	101
334.085	105
334.314	116
334.542	154
334.771	126
334.999	97
335.227	85
335.455	74
335.684	89
335.912	88
336.14	94
336.369	83
336.597	86
336.825	83
337.053	89
337.281	97
337.51	83
337.738	75
337.966	86
338.194	88
338.422	83
338.65	76
338.878	70
339.106	78
339.334	86
339.562	82
339.79	77
340.018	88
340.246	101
340.474	79
340.702	94
340.93	80
341.158	99
341.386	79
341.614	71
341.842	73
342.07	91
342.298	87
342.526	89
342.754	79
342.981	94
343.209	83
343.437	94
343.665	55
343.893	90
344.12	77
344.348	75
344.576	96
344.804	86
345.031	79
345.259	89
345.487	79
345.714	89
345.942	72
346.17	82
346.397	84
346.625	93
346.853	85
347.08	91
347.308	96
347.535	85
347.763	79
347.99	85
348.218	81
348.445	93
348.673	70
348.9	92
349.128	101
349.355	94
349.583	83
349.81	85
350.037	80
350.265	79
350.492	92
350.72	81
350.947	73
351.174	98
351.402	72
351.629	85
351.856	75
352.083	77
352.311	75
352.538	76
352.765	73
352.992	90
353.22	82
353.447	80
353.674	76
353.901	87
354.128	73
354.355	76
354.583	69
354.81	94
355.037	81
355.264	78
355.491	86
355.718	83
355.945	77
356.172	101
356.399	73
356.626	80
356.853	72
357.08	82
357.307	85
357.534	77
357.761	71
357.988	75
358.215	83
358.441	86
358.668	72
358.895	71
359.122	91
359.349	86
359.576	80
359.802	87
360.029	87
360.256	93
360.483	75
360.709	78
360.936	91
361.163	93
361.39	82
361.616	69
361.843	82
362.07	73
362.296	95
362.523	72
362.749	62
362.976	73
363.203	80
363.429	77
363.656	87
363.882	82
364.109	82
364.335	82
364.562	80
364.788	81
365.015	81
365.241	73
365.468	82
365.694	93
365.92	81
366.147	86
366.373	88
366.599	95
366.826	78
367.052	88
367.278	85
367.505	88
367.731	93
367.957	81
368.184	87
368.41	75
368.636	75
368.862	67
369.089	90
369.315	73
369.541	77
369.767	98
369.993	79
370.219	82
370.445	92
370.672	89
370.898	87
371.124	93
371.35	81
371.576	85
371.802	80
372.028	79
372.254	89
372.48	83
372.706	78
372.932	77
373.158	59
373.384	83
373.61	83
373.835	97
374.061	96
374.287	88
374.513	97
374.739	68
374.965	88
375.191	85
375.416	83
375.642	91
375.868	86
376.094	86
376.319	71
376.545	92
376.771	73
376.997	87
377.222	70
377.448	80
377.674	93
377.899	75
378.125	78
378.35	71
378.576	100
378.802	80
379.027	85
379.253	85
379.478	79
379.704	83
379.929	74
380.155	85
380.38	83
380.606	70
380.831	82
381.057	78
381.282	84
381.507	82
381.733	78
381.958	93
382.184	77
382.409	80
382.634	87
382.86	74
383.085	75
383.31	70
383.535	88
383.761	88
383.986	86
384.211	89
384.436	79
384.662	68
384.887	77
385.112	83
385.337	80
385.562	95
385.787	75
386.013	91
386.238	93
386.463	90
386.688	90
386.913	70
387.138	82
387.363	93
387.588	86
387.813	84
388.038	77
388.263	87
388.488	67
388.713	84
388.938	102
389.163	78
389.387	83
389.612	87
389.837	65
390.062	72
390.287	83
390.512	70
390.736	69
390.961	80
391.186	79
391.411	70
391.636	85
391.86	80
392.085	78
392.31	78
392.534	91
392.759	69
392.984	90
393.208	86
393.433	88
393.658	85
393.882	73
394.107	81
394.331	83
394.556	83
394.78	91
395.005	62
395.229	67
395.454	74
395.678	79
395.903	91
396.127	83
396.352	83
396.576	84
396.801	79
397.025	87
397.249	96
397.474	80
397.698	91
397.922	92
398.147	87
398.371	79
398.595	77
398.82	86
399.044	95
399.268	97
399.492	71
399.717	75
399.941	70
400.165	93
400.389	78
400.613	79
400.837	77
401.062	77
401.286	79
401.51	82
401.734	71
401.958	84
402.182	83
402.406	100
402.63	82
402.854	80
403.078	80
403.302	89
403.526	76
403.75	82
403.974	91
404.198	79
404.422	83
404.645	79
404.869	90
405.093	87
405.317	77
405.541	70
405.765	83
405.988	96
406.212	101
406.436	84
406.66	94
406.883	77
407.107	91
407.331	99
407.555	70
407.778	79
408.002	85
408.226	76
408.449	81
408.673	74
408.896	83
409.12	83
409.344	81
409.567	85
409.791	71
410.014	78
410.238	81
410.461	77
410.685	81
410.908	83
411.132	89
411.355	99
411.578	83
411.802	76
412.025	84
412.249	93
412.472	88
412.695	89
412.919	78
413.142	89
413.365	85
413.589	86
413.812	83
414.035	71
414.258	86
414.482	89
414.705	86
414.928	77
415.151	71
415.374	76
415.597	74
415.821	77
416.044	93
416.267	91
416.49	87
416.713	67
416.936	71
417.159	84
417.382	85
417.605	90
417.828	82
418.051	98
418.274	87
418.497	93
418.72	71
418.943	86
419.166	77
419.389	85
419.611	99
419.834	74
420.057	84
420.28	84
420.503	90
420.726	89
420.948	87
421.171	90
421.394	86
421.617	65
421.839	77
422.062	77
422.285	78
422.507	84
422.73	86
422.953	92
423.175	82
423.398	78
423.621	94
423.843	84
424.066	70
424.288	93
424.511	82
424.733	86
424.956	80
425.178	88
425.401	73
425.623	83
425.846	77
426.068	85
426.291	82
426.513	76
426.735	90
426.958	86
427.18	88
427.402	87
427.625	76
427.847	77
428.069	98
428.292	86
428.514	87
428.736	71
428.958	88
429.181	75
429.403	79
429.625	79
429.847	78
430.069	83
430.292	91
430.514	86
430.736	71
430.958	81
431.18	83
431.402	75
431.624	78
431.846	91
432.068	95
432.29	74
432.512	86
432.734	76
432.956	74
433.178	84
433.4	78
433.622	80
433.844	68
434.066	74
434.287	74
434.509	79
434.731	82
434.953	78
435.175	78
435.397	83
435.618	83
435.84	87
436.062	97
436.284	77
436.505	73
436.727	77
436.949	91
437.17	85
437.392	72
437.614	85
437.835	79
438.057	89
438.278	85
438.5	89
438.721	86
438.943	78
439.165	89
439.386	90
439.608	85
439.829	76
440.05	77
440.272	77
440.493	87
440.715	81
440.936	71
441.158	84
441.379	71
441.6	80
441.822	91
442.043	75
442.264	77
442.486	90
442.707	94
442.928	98
443.149	78
443.371	90
443.592	80
443.813	94
444.034	101
444.255	87
444.476	92
444.698	91
444.919	78
445.14	158
445.361	113
445.582	69
445.803	85
446.024	77
446.245	99
446.466	88
446.687	77
446.908	78
447.129	88
447.35	89
447.571	83
447.792	92
448.013	78
448.234	69
448.455	95
448.675	78
448.896	73
449.117	93
449.338	86
449.559	67
449.779	79
450	78
450.221	82
450.442	81
450.662	80
450.883	82
451.104	91
451.324	71
451.545	71
451.766	88
451.986	67
452.207	93
452.428	87
452.648	84
452.869	85
453.089	93
453.31	85
453.53	87
453.751	75
453.971	87
454.192	85
454.412	83
454.633	83
454.853	67
455.073	81
455.294	71
455.514	74
455.734	83
455.955	99
456.175	69
456.395	74
456.616	93
456.836	73
457.056	76
457.276	74
457.497	76
457.717	76
457.937	71
458.157	86
458.377	78
458.598	94
458.818	90
459.038	91
459.258	80
459.478	87
459.698	82
459.918	95
460.138	79
460.358	73
460.578	84
460.798	75
461.018	87
461.238	93
461.458	78
461.678	83
461.898	78
462.118	81
462.338	83
462.558	91
462.777	87
462.997	93
463.217	102
463.437	93
463.657	78
463.876	77
464.096	100
464.316	66
464.536	89
464.755	96
464.975	85
465.195	88
465.414	94
465.634	93
465.854	85
466.073	86
466.293	73
466.512	75
466.732	60
466.951	78
467.171	82
467.391	85
467.61	89
467.829	82
468.049	111
468.268	97
468.488	75
468.707	83
468.927	74
469.146	94
469.365	79
469.585	74
469.804	78
470.023	92
470.243	81
470.462	85
470.681	78
470.901	80
471.12	73
471.339	78
471.558	83
471.777	73
471.997	90
472.216	147
472.435	166
472.654	99
472.873	76
473.092	79
473.311	82
473.53	89
473.749	80
473.968	92
474.187	92
474.406	87
474.625	93
474.844	93
475.063	88
475.282	77
475.501	79
475.72	83
475.939	94
476.158	78
476.377	81
476.596	83
476.814	86
477.033	78
477.252	87
477.471	83
477.69	83
477.908	78
478.127	89
478.346	77
478.564	77
478.783	68
479.002	78
479.22	81
479.439	79
479.658	58
479.876	89
480.095	82
480.313	91
480.532	82
480.751	99
480.969	134
481.188	246
481.406	151
481.624	79
481.843	74
482.061	71
482.28	98
482.498	94
482.717	91
482.935	82
483.153	69
483.372	81
483.59	79
483.808	64
484.027	77
484.245	79
484.463	80
484.681	76
484.9	92
485.118	93
485.336	73
485.554	82
485.772	72
485.99	77
486.209	77
486.427	84
486.645	88
486.863	78
487.081	95
487.299	79
487.517	91
487.735	84
487.953	80
488.171	101
488.389	90
488.607	74
488.825	79
489.043	69
489.261	91
489.479	75
489.696	84
489.914	95
490.132	85
490.35	94
490.568	90
490.786	77
491.003	87
491.221	82
491.439	90
491.657	80
491.874	91
492.092	86
492.31	81
492.527	87
492.745	90
492.963	86
493.18	84
493.398	99
493.615	86
493.833	81
494.05	76
494.268	85
494.485	96
494.703	74
494.92	90
495.138	74
495.355	90
495.573	101
495.79	89
496.008	84
496.225	91
496.442	77
496.66	81
496.877	79
497.094	78
497.312	89
497.529	87
497.746	97
497.963	77
498.181	74
498.398	82
498.615	93
498.832	91
499.049	90
499.267	95
499.484	77
499.701	74
499.918	96
500.135	69
500.352	87
500.569	79
500.786	74
501.003	98
501.22	79
501.437	85
501.654	82
501.871	88
502.088	77
502.305	91
502.522	77
502.739	83
502.956	94
503.172	92
503.389	86
503.606	80
503.823	92
504.04	82
504.256	74
504.473	75
504.69	74
504.907	97
505.123	90
505.34	78
505.557	79
505.773	75
505.99	82
506.207	87
506.423	84
506.64	85
506.856	89
507.073	92
507.289	89
507.506	81
507.722	85
507.939	83
508.155	89
508.372	90
508.588	71
508.805	99
509.021	79
509.238	78
509.454	80
509.67	87
509.887	81
510.103	85
510.319	93
510.536	142
510.752	217
510.968	111
511.184	75
511.401	85
511.617	89
511.833	98
512.049	85
512.265	64
512.481	88
512.698	94
512.914	80
513.13	82
513.346	77
513.562	91
513.778	81
513.994	75
514.21	78
514.426	84
514.642	79
514.858	83
515.074	100
515.29	134
515.506	192
515.721	104
515.937	88
516.153	93
516.369	80
516.585	85
516.801	98
517.016	86
517.232	83
517.448	80
517.664	90
517.879	75
518.095	73
518.311	92
518.527	84
518.742	82
518.958	66
519.173	79
519.389	95
519.605	83
519.82	93
520.036	79
520.251	84
520.467	91
520.682	89
520.898	92
521.113	71
521.329	88
521.544	105
521.76	143
521.975	285
522.19	195
522.406	97
522.621	67
522.836	84
523.052	73
523.267	78
523.482	92
523.698	89
523.913	81
524.128	91
524.343	91
524.559	102
524.774	80
524.989	70
525.204	79
525.419	82
525.634	85
525.849	87
526.064	90
526.28	99
526.495	81
526.71	90
526.925	81
527.14	89
527.355	88
527.57	80
527.785	92
527.999	80
528.214	82
528.429	86
528.644	92
528.859	82
529.074	96
529.289	98
529.503	89
529.718	78
529.933	71
530.148	68
530.363	71
530.577	90
530.792	88
531.007	87
531.221	77
531.436	77
531.651	96
531.865	88
532.08	73
532.295	87
532.509	85
532.724	79
532.938	87
533.153	82
533.367	83
533.582	76
533.796	81
534.011	78
534.225	80
534.44	69
534.654	87
534.868	80
535.083	97
535.297	87
535.511	85
535.726	92
535.94	84
536.154	83
536.369	76
536.583	73
536.797	94
537.011	88
537.225	87
537.44	81
537.654	80
537.868	75
538.082	83
538.296	74
538.51	63
538.724	83
538.938	78
539.153	87
539.367	87
539.581	74
539.795	85
540.009	82
540.222	87
540.436	85
540.65	84
540.864	91
541.078	82
541.292	74
541.506	91
541.72	89
541.934	86
542.147	97
542.361	85
542.575	73
542.789	66
543.002	78
543.216	93
543.43	97
543.644	81
543.857	87
544.071	81
544.285	94
544.498	81
544.712	89
544.925	85
545.139	78
545.352	73
545.566	80
545.779	90
545.993	92
546.206	93
546.42	77
546.633	72
546.847	74
547.06	78
547.274	87
547.487	85
547.7	103
547.914	82
548.127	89
548.34	80
548.554	76
548.767	99
548.98	76
549.193	87
549.407	97
549.62	90
549.833	84
550.046	86
550.259	79
550.473	77
550.686	88
550.899	83
551.112	83
551.325	93
551.538	85
551.751	90
551.964	81
552.177	99
552.39	93
552.603	69
552.816	90
553.029	95
553.242	84
553.455	93
553.667	76
553.88	84
554.093	86
554.306	73
554.519	80
554.732	82
554.944	87
555.157	91
555.37	74
555.583	84
555.795	91
556.008	87
556.221	84
556.433	91
556.646	94
556.859	82
557.071	89
557.284	84
557.496	86
557.709	72
557.921	75
558.134	82
558.346	79
558.559	80
558.771	82
558.984	85
559.196	91
559.409	72
559.621	79
559.833	81
560.046	81
560.258	89
560.47	100
560.683	77
560.895	77
561.107	86
561.32	89
561.532	97
561.744	77
561.956	69
562.168	92
562.381	81
562.593	90
562.805	90
563.017	86
563.229	89
563.441	89
563.653	82
563.865	75
564.077	87
564.289	89
564.501	79
564.713	75
564.925	86
565.137	66
565.349	79
565.561	72
565.773	76
565.985	85
566.197	76
566.408	84
566.62	78
566.832	93
567.044	86
567.255	94
567.467	97
567.679	85
567.891	91
568.102	74
568.314	71
568.526	69
568.737	88
568.949	81
569.161	83
569.372	87
569.584	82
569.795	80
570.007	85
570.218	100
570.43	81
570.641	79
570.853	89
571.064	86
571.276	86
571.487	86
571.698	71
571.91	80
572.121	66
572.333	88
572.544	95
572.755	89
572.966	94
573.178	80
573.389	77
573.6	72
573.811	87
574.023	87
574.234	82
574.445	77
574.656	73
574.867	100
575.078	89
575.289	76
575.501	73
575.712	99
575.923	75
576.134	97
576.345	95
576.556	87
576.767	95
576.978	95
577.188	88
577.399	76
577.61	74
577.821	73
578.032	97
578.243	94
578.454	129
578.665	109
578.875	77
579.086	87
579.297	84
579.508	85
579.718	68
579.929	84
580.14	82
580.35	81
580.561	82
580.772	83
580.982	76
581.193	67
581.403	70
581.614	63
581.825	79
582.035	87
582.246	71
582.456	87
582.667	86
582.877	74
583.087	77
583.298	87
583.508	99
583.719	78
583.929	77
584.139	93
584.35	85
584.56	86
584.77	88
584.981	86
585.191	85
585.401	83
585.611	84
585.821	76
586.032	92
586.242	81
586.452	75
586.662	88
586.872	79
587.082	102
587.292	93
587.502	70
587.713	91
587.923	94
588.133	92
588.343	77
588.553	82
588.762	81
588.972	78
589.182	84
589.392	76
589.602	82
589.812	70
590.022	97
