Data from Penny_3_HRD10591_00007.txt Node
Date: Wed Nov 05 15:35:12 EST 2025
User: Yrep
Spectrometer: HR+D1059
Trigger mode: 1
Integration Time (sec): 1.000000E-1
Scans to average: 1
Electric dark correction enabled: true
Nonlinearity correction enabled: false
Boxcar width: 0
XAxis mode: Wavelengths
Number of Pixels in Spectrum: 2048
>>>>>Begin Spectral Data<<<<<
223.165	-6.88
223.4	-6.88
223.635	-6.88
223.869	-17.88
224.104	-24.88
224.338	-12.88
224.573	-4.88
224.808	-16.88
225.042	-26.88
225.277	-7.88
225.511	-15.88
225.746	6.12
225.98	20.12
226.215	15.12
226.449	19.12
226.683	26.12
226.918	32.12
227.152	16.12
227.387	31.12
227.621	48.12
227.856	45.12
228.09	47.12
228.324	46.12
228.559	64.12
228.793	60.12
229.027	63.12
229.262	57.12
229.496	88.12
229.73	78.12
229.964	71.12
230.199	73.12
230.433	69.12
230.667	79.12
230.901	76.12
231.136	72.12
231.37	78.12
231.604	84.12
231.838	82.12
232.072	85.12
232.306	73.12
232.541	55.12
232.775	84.12
233.009	96.12
233.243	77.12
233.477	76.12
233.711	73.12
233.945	91.12
234.179	83.12
234.413	84.12
234.647	90.12
234.881	84.12
235.115	88.12
235.349	76.12
235.583	81.12
235.817	80.12
236.051	76.12
236.285	85.12
236.519	87.12
236.753	87.12
236.987	77.12
237.221	83.12
237.455	77.12
237.689	85.12
237.922	87.12
238.156	70.12
238.39	90.12
238.624	76.12
238.858	78.12
239.091	72.12
239.325	72.12
239.559	81.12
239.793	72.12
240.027	62.12
240.26	67.12
240.494	95.12
240.728	82.12
240.961	75.12
241.195	67.12
241.429	67.12
241.662	75.12
241.896	72.12
242.13	69.12
242.363	78.12
242.597	87.12
242.83	77.12
243.064	75.12
243.298	79.12
243.531	74.12
243.765	109.12
243.998	87.12
244.232	82.12
244.465	77.12
244.699	69.12
244.932	75.12
245.166	73.12
245.399	82.12
245.633	81.12
245.866	93.12
246.099	75.12
246.333	87.12
246.566	76.12
246.8	81.12
247.033	79.12
247.266	73.12
247.5	78.12
247.733	69.12
247.966	77.12
248.2	80.12
248.433	81.12
248.666	79.12
248.899	66.12
249.133	90.12
249.366	71.12
249.599	87.12
249.832	75.12
250.066	86.12
250.299	77.12
250.532	81.12
250.765	85.12
250.998	88.12
251.231	84.12
251.465	82.12
251.698	89.12
251.931	79.12
252.164	77.12
252.397	85.12
252.63	92.12
252.863	77.12
253.096	86.12
253.329	95.12
253.562	87.12
253.795	88.12
254.028	79.12
254.261	89.12
254.494	76.12
254.727	81.12
254.96	80.12
255.193	87.12
255.426	82.12
255.659	86.12
255.892	88.12
256.124	74.12
256.357	78.12
256.59	96.12
256.823	86.12
257.056	72.12
257.289	92.12
257.521	81.12
257.754	76.12
257.987	90.12
258.22	95.12
258.452	76.12
258.685	76.12
258.918	81.12
259.151	78.12
259.383	82.12
259.616	83.12
259.849	81.12
260.081	80.12
260.314	65.12
260.547	80.12
260.779	77.12
261.012	96.12
261.244	76.12
261.477	77.12
261.71	75.12
261.942	80.12
262.175	89.12
262.407	67.12
262.64	85.12
262.872	88.12
263.105	84.12
263.337	84.12
263.57	89.12
263.802	97.12
264.035	78.12
264.267	86.12
264.499	81.12
264.732	76.12
264.964	77.12
265.197	68.12
265.429	73.12
265.661	86.12
265.894	87.12
266.126	72.12
266.358	89.12
266.591	86.12
266.823	81.12
267.055	73.12
267.287	87.12
267.52	76.12
267.752	87.12
267.984	76.12
268.216	79.12
268.448	77.12
268.681	78.12
268.913	55.12
269.145	81.12
269.377	95.12
269.609	74.12
269.841	95.12
270.073	79.12
270.306	98.12
270.538	81.12
270.77	82.12
271.002	87.12
271.234	80.12
271.466	72.12
271.698	81.12
271.93	81.12
272.162	83.12
272.394	84.12
272.626	92.12
272.858	81.12
273.09	78.12
273.322	80.12
273.553	82.12
273.785	78.12
274.017	101.12
274.249	75.12
274.481	87.12
274.713	71.12
274.945	76.12
275.176	79.12
275.408	95.12
275.64	87.12
275.872	80.12
276.104	90.12
276.335	80.12
276.567	92.12
276.799	81.12
277.031	76.12
277.262	99.12
277.494	81.12
277.726	94.12
277.957	74.12
278.189	92.12
278.421	92.12
278.652	90.12
278.884	81.12
279.115	91.12
279.347	75.12
279.579	81.12
279.81	83.12
280.042	91.12
280.273	95.12
280.505	82.12
280.736	88.12
280.968	89.12
281.199	67.12
281.431	95.12
281.662	87.12
281.894	87.12
282.125	103.12
282.356	92.12
282.588	99.12
282.819	86.12
283.051	90.12
283.282	92.12
283.513	79.12
283.745	89.12
283.976	85.12
284.207	88.12
284.439	86.12
284.67	91.12
284.901	85.12
285.132	80.12
285.364	66.12
285.595	79.12
285.826	82.12
286.057	85.12
286.288	80.12
286.52	101.12
286.751	94.12
286.982	90.12
287.213	88.12
287.444	97.12
287.675	88.12
287.906	92.12
288.138	78.12
288.369	100.12
288.6	99.12
288.831	84.12
289.062	93.12
289.293	81.12
289.524	97.12
289.755	81.12
289.986	91.12
290.217	104.12
290.448	82.12
290.679	91.12
290.91	85.12
291.141	88.12
291.371	81.12
291.602	85.12
291.833	89.12
292.064	86.12
292.295	87.12
292.526	87.12
292.757	94.12
292.987	79.12
293.218	102.12
293.449	80.12
293.68	92.12
293.91	75.12
294.141	80.12
294.372	94.12
294.603	92.12
294.833	69.12
295.064	64.12
295.295	85.12
295.525	78.12
295.756	75.12
295.987	92.12
296.217	76.12
296.448	104.12
296.679	88.12
296.909	78.12
297.14	86.12
297.37	89.12
297.601	107.12
297.831	88.12
298.062	82.12
298.292	80.12
298.523	91.12
298.753	80.12
298.984	92.12
299.214	76.12
299.445	86.12
299.675	80.12
299.905	84.12
300.136	68.12
300.366	84.12
300.597	88.12
300.827	78.12
301.057	83.12
301.288	83.12
301.518	92.12
301.748	76.12
301.979	106.12
302.209	87.12
302.439	93.12
302.669	72.12
302.9	67.12
303.13	84.12
303.36	81.12
303.59	87.12
303.82	91.12
304.051	85.12
304.281	91.12
304.511	98.12
304.741	87.12
304.971	80.12
305.201	84.12
305.431	90.12
305.661	96.12
305.891	104.12
306.121	83.12
306.352	96.12
306.582	81.12
306.812	73.12
307.042	97.12
307.272	88.12
307.502	74.12
307.731	91.12
307.961	92.12
308.191	87.12
308.421	96.12
308.651	76.12
308.881	83.12
309.111	83.12
309.341	77.12
309.571	84.12
309.8	89.12
310.03	99.12
310.26	81.12
310.49	85.12
310.72	86.12
310.949	93.12
311.179	92.12
311.409	84.12
311.639	86.12
311.868	87.12
312.098	95.12
312.328	81.12
312.557	95.12
312.787	84.12
313.017	81.12
313.246	90.12
313.476	77.12
313.706	91.12
313.935	79.12
314.165	84.12
314.394	84.12
314.624	88.12
314.853	76.12
315.083	91.12
315.312	87.12
315.542	74.12
315.771	85.12
316.001	95.12
316.23	95.12
316.46	91.12
316.689	95.12
316.919	76.12
317.148	83.12
317.377	91.12
317.607	80.12
317.836	75.12
318.065	71.12
318.295	72.12
318.524	99.12
318.753	96.12
318.983	90.12
319.212	95.12
319.441	89.12
319.67	82.12
319.9	63.12
320.129	77.12
320.358	82.12
320.587	81.12
320.816	95.12
321.046	86.12
321.275	84.12
321.504	86.12
321.733	88.12
321.962	88.12
322.191	89.12
322.42	78.12
322.649	87.12
322.878	95.12
323.108	88.12
323.337	68.12
323.566	77.12
323.795	101.12
324.024	69.12
324.253	102.12
324.482	121.12
324.71	149.12
324.939	164.12
325.168	91.12
325.397	87.12
325.626	94.12
325.855	90.12
326.084	89.12
326.313	95.12
326.542	99.12
326.77	95.12
326.999	102.12
327.228	106.12
327.457	123.12
327.686	108.12
327.914	105.12
328.143	106.12
328.372	107.12
328.6	100.12
328.829	94.12
329.058	109.12
329.287	73.12
329.515	94.12
329.744	108.12
329.972	107.12
330.201	135.12
330.43	135.12
330.658	102.12
330.887	90.12
331.115	84.12
331.344	74.12
331.572	84.12
331.801	74.12
332.03	84.12
332.258	93.12
332.486	82.12
332.715	79.12
332.943	83.12
333.172	109.12
333.4	84.12
333.629	88.12
333.857	101.12
334.085	110.12
334.314	123.12
334.542	160.12
334.771	139.12
334.999	105.12
335.227	93.12
335.455	106.12
335.684	94.12
335.912	97.12
336.14	81.12
336.369	92.12
336.597	89.12
336.825	98.12
337.053	91.12
337.281	88.12
337.51	92.12
337.738	92.12
337.966	72.12
338.194	73.12
338.422	88.12
338.65	76.12
338.878	99.12
339.106	85.12
339.334	95.12
339.562	85.12
339.79	79.12
340.018	93.12
340.246	92.12
340.474	85.12
340.702	88.12
340.93	89.12
341.158	94.12
341.386	88.12
341.614	101.12
341.842	91.12
342.07	91.12
342.298	93.12
342.526	87.12
342.754	89.12
342.981	87.12
343.209	88.12
343.437	93.12
343.665	92.12
343.893	103.12
344.12	90.12
344.348	85.12
344.576	80.12
344.804	82.12
345.031	82.12
345.259	73.12
345.487	77.12
345.714	92.12
345.942	80.12
346.17	79.12
346.397	86.12
346.625	92.12
346.853	72.12
347.08	82.12
347.308	93.12
347.535	100.12
347.763	99.12
347.99	106.12
348.218	84.12
348.445	83.12
348.673	90.12
348.9	96.12
349.128	86.12
349.355	85.12
349.583	92.12
349.81	85.12
350.037	86.12
350.265	95.12
350.492	83.12
350.72	69.12
350.947	86.12
351.174	95.12
351.402	92.12
351.629	77.12
351.856	89.12
352.083	79.12
352.311	88.12
352.538	86.12
352.765	82.12
352.992	104.12
353.22	100.12
353.447	84.12
353.674	92.12
353.901	95.12
354.128	89.12
354.355	76.12
354.583	67.12
354.81	94.12
355.037	75.12
355.264	79.12
355.491	70.12
355.718	76.12
355.945	86.12
356.172	70.12
356.399	92.12
356.626	71.12
356.853	73.12
357.08	87.12
357.307	69.12
357.534	83.12
357.761	91.12
357.988	72.12
358.215	73.12
358.441	93.12
358.668	82.12
358.895	95.12
359.122	92.12
359.349	80.12
359.576	83.12
359.802	79.12
360.029	94.12
360.256	93.12
360.483	76.12
360.709	89.12
360.936	87.12
361.163	79.12
361.39	97.12
361.616	86.12
361.843	74.12
362.07	82.12
362.296	81.12
362.523	76.12
362.749	101.12
362.976	89.12
363.203	87.12
363.429	85.12
363.656	92.12
363.882	89.12
364.109	81.12
364.335	92.12
364.562	89.12
364.788	85.12
365.015	101.12
365.241	89.12
365.468	84.12
365.694	93.12
365.92	80.12
366.147	84.12
366.373	74.12
366.599	88.12
366.826	80.12
367.052	89.12
367.278	81.12
367.505	85.12
367.731	108.12
367.957	84.12
368.184	79.12
368.41	87.12
368.636	94.12
368.862	89.12
369.089	89.12
369.315	76.12
369.541	103.12
369.767	87.12
369.993	87.12
370.219	78.12
370.445	87.12
370.672	83.12
370.898	93.12
371.124	87.12
371.35	99.12
371.576	79.12
371.802	111.12
372.028	89.12
372.254	71.12
372.48	77.12
372.706	76.12
372.932	83.12
373.158	81.12
373.384	85.12
373.61	105.12
373.835	81.12
374.061	92.12
374.287	82.12
374.513	81.12
374.739	76.12
374.965	79.12
375.191	96.12
375.416	75.12
375.642	82.12
375.868	82.12
376.094	87.12
376.319	89.12
376.545	91.12
376.771	80.12
376.997	79.12
377.222	88.12
377.448	75.12
377.674	87.12
377.899	88.12
378.125	88.12
378.35	88.12
378.576	87.12
378.802	68.12
379.027	93.12
379.253	83.12
379.478	85.12
379.704	85.12
379.929	79.12
380.155	92.12
380.38	104.12
380.606	81.12
380.831	75.12
381.057	79.12
381.282	93.12
381.507	74.12
381.733	83.12
381.958	94.12
382.184	88.12
382.409	88.12
382.634	88.12
382.86	76.12
383.085	79.12
383.31	90.12
383.535	84.12
383.761	77.12
383.986	89.12
384.211	79.12
384.436	87.12
384.662	81.12
384.887	87.12
385.112	82.12
385.337	67.12
385.562	85.12
385.787	89.12
386.013	99.12
386.238	83.12
386.463	81.12
386.688	106.12
386.913	79.12
387.138	87.12
387.363	81.12
387.588	97.12
387.813	93.12
388.038	89.12
388.263	75.12
388.488	80.12
388.713	76.12
388.938	88.12
389.163	84.12
389.387	86.12
389.612	90.12
389.837	80.12
390.062	83.12
390.287	97.12
390.512	93.12
390.736	75.12
390.961	70.12
391.186	72.12
391.411	94.12
391.636	85.12
391.86	81.12
392.085	84.12
392.31	89.12
392.534	72.12
392.759	89.12
392.984	74.12
393.208	83.12
393.433	83.12
393.658	89.12
393.882	84.12
394.107	98.12
394.331	84.12
394.556	80.12
394.78	93.12
395.005	79.12
395.229	97.12
395.454	104.12
395.678	82.12
395.903	97.12
396.127	87.12
396.352	78.12
396.576	97.12
396.801	92.12
397.025	72.12
397.249	83.12
397.474	79.12
397.698	74.12
397.922	78.12
398.147	87.12
398.371	85.12
398.595	94.12
398.82	88.12
399.044	79.12
399.268	76.12
399.492	85.12
399.717	78.12
399.941	81.12
400.165	80.12
400.389	75.12
400.613	67.12
400.837	92.12
401.062	72.12
401.286	89.12
401.51	73.12
401.734	95.12
401.958	100.12
402.182	71.12
402.406	96.12
402.63	96.12
402.854	84.12
403.078	93.12
403.302	93.12
403.526	72.12
403.75	78.12
403.974	80.12
404.198	81.12
404.422	87.12
404.645	87.12
404.869	78.12
405.093	85.12
405.317	90.12
405.541	74.12
405.765	85.12
405.988	85.12
406.212	81.12
406.436	92.12
406.66	88.12
406.883	86.12
407.107	92.12
407.331	91.12
407.555	78.12
407.778	81.12
408.002	93.12
408.226	94.12
408.449	84.12
408.673	76.12
408.896	81.12
409.12	73.12
409.344	78.12
409.567	65.12
409.791	75.12
410.014	77.12
410.238	93.12
410.461	81.12
410.685	72.12
410.908	80.12
411.132	79.12
411.355	82.12
411.578	92.12
411.802	85.12
412.025	77.12
412.249	83.12
412.472	85.12
412.695	82.12
412.919	63.12
413.142	70.12
413.365	95.12
413.589	78.12
413.812	75.12
414.035	91.12
414.258	76.12
414.482	74.12
414.705	82.12
414.928	79.12
415.151	72.12
415.374	86.12
415.597	73.12
415.821	98.12
416.044	99.12
416.267	79.12
416.49	81.12
416.713	80.12
416.936	95.12
417.159	81.12
417.382	92.12
417.605	97.12
417.828	82.12
418.051	103.12
418.274	82.12
418.497	77.12
418.72	79.12
418.943	86.12
419.166	75.12
419.389	74.12
419.611	95.12
419.834	87.12
420.057	77.12
420.28	80.12
420.503	92.12
420.726	94.12
420.948	87.12
421.171	82.12
421.394	91.12
421.617	76.12
421.839	82.12
422.062	84.12
422.285	77.12
422.507	90.12
422.73	80.12
422.953	88.12
423.175	80.12
423.398	73.12
423.621	82.12
423.843	79.12
424.066	87.12
424.288	77.12
424.511	93.12
424.733	78.12
424.956	77.12
425.178	93.12
425.401	83.12
425.623	67.12
425.846	71.12
426.068	81.12
426.291	86.12
426.513	90.12
426.735	81.12
426.958	96.12
427.18	79.12
427.402	98.12
427.625	73.12
427.847	99.12
428.069	78.12
428.292	85.12
428.514	91.12
428.736	91.12
428.958	77.12
429.181	78.12
429.403	95.12
429.625	79.12
429.847	71.12
430.069	87.12
430.292	71.12
430.514	92.12
430.736	87.12
430.958	92.12
431.18	87.12
431.402	80.12
431.624	71.12
431.846	65.12
432.068	83.12
432.29	91.12
432.512	88.12
432.734	85.12
432.956	91.12
433.178	95.12
433.4	79.12
433.622	79.12
433.844	85.12
434.066	92.12
434.287	93.12
434.509	96.12
434.731	84.12
434.953	91.12
435.175	80.12
435.397	75.12
435.618	86.12
435.84	85.12
436.062	79.12
436.284	88.12
436.505	79.12
436.727	75.12
436.949	84.12
437.17	99.12
437.392	74.12
437.614	75.12
437.835	83.12
438.057	91.12
438.278	97.12
438.5	85.12
438.721	85.12
438.943	97.12
439.165	79.12
439.386	75.12
439.608	80.12
439.829	85.12
440.05	91.12
440.272	74.12
440.493	81.12
440.715	79.12
440.936	87.12
441.158	94.12
441.379	89.12
441.6	58.12
441.822	81.12
442.043	79.12
442.264	89.12
442.486	102.12
442.707	87.12
442.928	86.12
443.149	87.12
443.371	87.12
443.592	76.12
443.813	97.12
444.034	79.12
444.255	89.12
444.476	81.12
444.698	79.12
444.919	99.12
445.14	157.12
445.361	119.12
445.582	83.12
445.803	77.12
446.024	95.12
446.245	80.12
446.466	92.12
446.687	80.12
446.908	88.12
447.129	84.12
447.35	78.12
447.571	87.12
447.792	92.12
448.013	92.12
448.234	76.12
448.455	98.12
448.675	78.12
448.896	85.12
449.117	79.12
449.338	84.12
449.559	85.12
449.779	87.12
450	82.12
450.221	73.12
450.442	79.12
450.662	87.12
450.883	89.12
451.104	99.12
451.324	77.12
451.545	75.12
451.766	101.12
451.986	94.12
452.207	69.12
452.428	85.12
452.648	89.12
452.869	80.12
453.089	95.12
453.31	88.12
453.53	89.12
453.751	81.12
453.971	85.12
454.192	69.12
454.412	73.12
454.633	77.12
454.853	79.12
455.073	85.12
455.294	71.12
455.514	91.12
455.734	81.12
455.955	80.12
456.175	74.12
456.395	76.12
456.616	83.12
456.836	94.12
457.056	93.12
457.276	90.12
457.497	77.12
457.717	75.12
457.937	76.12
458.157	78.12
458.377	86.12
458.598	81.12
458.818	91.12
459.038	104.12
459.258	74.12
459.478	76.12
459.698	75.12
459.918	75.12
460.138	76.12
460.358	85.12
460.578	88.12
460.798	64.12
461.018	79.12
461.238	91.12
461.458	88.12
461.678	75.12
461.898	84.12
462.118	75.12
462.338	77.12
462.558	100.12
462.777	98.12
462.997	100.12
463.217	89.12
463.437	85.12
463.657	90.12
463.876	86.12
464.096	85.12
464.316	83.12
464.536	95.12
464.755	84.12
464.975	88.12
465.195	101.12
465.414	92.12
465.634	79.12
465.854	83.12
466.073	88.12
466.293	85.12
466.512	88.12
466.732	82.12
466.951	97.12
467.171	85.12
467.391	71.12
467.61	83.12
467.829	87.12
468.049	96.12
468.268	104.12
468.488	89.12
468.707	84.12
468.927	86.12
469.146	82.12
469.365	88.12
469.585	90.12
469.804	83.12
470.023	86.12
470.243	91.12
470.462	87.12
470.681	101.12
470.901	83.12
471.12	75.12
471.339	96.12
471.558	73.12
471.777	99.12
471.997	99.12
472.216	137.12
472.435	162.12
472.654	103.12
472.873	94.12
473.092	81.12
473.311	100.12
473.53	99.12
473.749	86.12
473.968	87.12
474.187	86.12
474.406	87.12
474.625	91.12
474.844	95.12
475.063	89.12
475.282	91.12
475.501	72.12
475.72	99.12
475.939	89.12
476.158	85.12
476.377	89.12
476.596	79.12
476.814	98.12
477.033	93.12
477.252	84.12
477.471	80.12
477.69	80.12
477.908	96.12
478.127	97.12
478.346	93.12
478.564	81.12
478.783	84.12
479.002	87.12
479.22	81.12
479.439	94.12
479.658	87.12
479.876	96.12
480.095	85.12
480.313	69.12
480.532	89.12
480.751	101.12
480.969	134.12
481.188	252.12
481.406	153.12
481.624	74.12
481.843	85.12
482.061	77.12
482.28	90.12
482.498	93.12
482.717	87.12
482.935	89.12
483.153	106.12
483.372	93.12
483.59	87.12
483.808	80.12
484.027	92.12
484.245	77.12
484.463	87.12
484.681	99.12
484.9	80.12
485.118	85.12
485.336	91.12
485.554	64.12
485.772	91.12
485.99	91.12
486.209	97.12
486.427	90.12
486.645	84.12
486.863	86.12
487.081	73.12
487.299	73.12
487.517	94.12
487.735	79.12
487.953	94.12
488.171	99.12
488.389	92.12
488.607	89.12
488.825	73.12
489.043	87.12
489.261	73.12
489.479	87.12
489.696	88.12
489.914	92.12
490.132	91.12
490.35	95.12
490.568	72.12
490.786	69.12
491.003	86.12
491.221	88.12
491.439	74.12
491.657	99.12
491.874	82.12
492.092	79.12
492.31	81.12
492.527	80.12
492.745	78.12
492.963	89.12
493.18	79.12
493.398	78.12
493.615	75.12
493.833	88.12
494.05	87.12
494.268	88.12
494.485	98.12
494.703	78.12
494.92	86.12
495.138	93.12
495.355	84.12
495.573	92.12
495.79	75.12
496.008	85.12
496.225	76.12
496.442	83.12
496.66	92.12
496.877	88.12
497.094	100.12
497.312	99.12
497.529	91.12
497.746	85.12
497.963	92.12
498.181	93.12
498.398	85.12
498.615	104.12
498.832	80.12
499.049	82.12
499.267	86.12
499.484	84.12
499.701	69.12
499.918	84.12
500.135	78.12
500.352	67.12
500.569	99.12
500.786	91.12
501.003	97.12
501.22	78.12
501.437	84.12
501.654	89.12
501.871	95.12
502.088	88.12
502.305	93.12
502.522	92.12
502.739	78.12
502.956	76.12
503.172	75.12
503.389	82.12
503.606	86.12
503.823	78.12
504.04	90.12
504.256	86.12
504.473	81.12
504.69	91.12
504.907	92.12
505.123	89.12
505.34	87.12
505.557	108.12
505.773	93.12
505.99	77.12
506.207	85.12
506.423	78.12
506.64	73.12
506.856	86.12
507.073	86.12
507.289	84.12
507.506	77.12
507.722	87.12
507.939	91.12
508.155	86.12
508.372	88.12
508.588	85.12
508.805	86.12
509.021	81.12
509.238	89.12
509.454	66.12
509.67	89.12
509.887	87.12
510.103	78.12
510.319	88.12
510.536	151.12
510.752	218.12
510.968	116.12
511.184	95.12
511.401	98.12
511.617	86.12
511.833	79.12
512.049	86.12
512.265	79.12
512.481	99.12
512.698	82.12
512.914	83.12
513.13	87.12
513.346	85.12
513.562	91.12
513.778	94.12
513.994	95.12
514.21	93.12
514.426	86.12
514.642	87.12
514.858	77.12
515.074	98.12
515.29	125.12
515.506	197.12
515.721	122.12
515.937	107.12
516.153	87.12
516.369	80.12
516.585	95.12
516.801	77.12
517.016	86.12
517.232	93.12
517.448	92.12
517.664	80.12
517.879	97.12
518.095	95.12
518.311	92.12
518.527	95.12
518.742	87.12
518.958	84.12
519.173	78.12
