Data from Penny_3_HRD10591_00019.txt Node
Date: Wed Nov 05 15:35:18 EST 2025
User: Yrep
Spectrometer: HR+D1059
Trigger mode: 1
Integration Time (sec): 1.000000E-1
Scans to average: 1
Electric dark correction enabled: true
Nonlinearity correction enabled: false
Boxcar width: 0
XAxis mode: Wavelengths
Number of Pixels in Spectrum: 2048
>>>>>Begin Spectral Data<<<<<
223.165	-15.88
223.4	-15.88
223.635	-15.88
223.869	-8.88
224.104	-16.88
224.338	-16.88
224.573	-7.88
224.808	-28.88
225.042	-1.88
225.277	4.12
225.511	-8.88
225.746	6.12
225.98	8.12
226.215	1.12
226.449	21.12
226.683	18.12
226.918	19.12
227.152	28.12
227.387	30.12
227.621	43.12
227.856	34.12
228.09	47.12
228.324	56.12
228.559	70.12
228.793	62.12
229.027	59.12
229.262	59.12
229.496	67.12
229.73	70.12
229.964	93.12
230.199	74.12
230.433	65.12
230.667	73.12
230.901	67.12
231.136	75.12
231.37	77.12
231.604	78.12
231.838	86.12
232.072	77.12
232.306	81.12
232.541	89.12
232.775	79.12
233.009	74.12
233.243	81.12
233.477	88.12
233.711	79.12
233.945	84.12
234.179	65.12
234.413	80.12
234.647	81.12
234.881	80.12
235.115	97.12
235.349	81.12
235.583	72.12
235.817	70.12
236.051	82.12
236.285	77.12
236.519	65.12
236.753	89.12
236.987	93.12
237.221	72.12
237.455	89.12
237.689	75.12
237.922	73.12
238.156	77.12
238.39	81.12
238.624	70.12
238.858	66.12
239.091	79.12
239.325	85.12
239.559	85.12
239.793	87.12
240.027	79.12
240.26	68.12
240.494	102.12
240.728	71.12
240.961	69.12
241.195	80.12
241.429	75.12
241.662	68.12
241.896	87.12
242.13	76.12
242.363	75.12
242.597	77.12
242.83	84.12
243.064	80.12
243.298	85.12
243.531	75.12
243.765	71.12
243.998	73.12
244.232	76.12
244.465	67.12
244.699	87.12
244.932	82.12
245.166	86.12
245.399	86.12
245.633	82.12
245.866	67.12
246.099	80.12
246.333	76.12
246.566	73.12
246.8	81.12
247.033	80.12
247.266	77.12
247.5	87.12
247.733	95.12
247.966	97.12
248.2	84.12
248.433	78.12
248.666	69.12
248.899	78.12
249.133	64.12
249.366	75.12
249.599	79.12
249.832	83.12
250.066	73.12
250.299	65.12
250.532	84.12
250.765	81.12
250.998	84.12
251.231	77.12
251.465	79.12
251.698	79.12
251.931	72.12
252.164	70.12
252.397	80.12
252.63	82.12
252.863	78.12
253.096	65.12
253.329	73.12
253.562	70.12
253.795	84.12
254.028	98.12
254.261	62.12
254.494	81.12
254.727	67.12
254.96	85.12
255.193	74.12
255.426	69.12
255.659	69.12
255.892	78.12
256.124	72.12
256.357	82.12
256.59	90.12
256.823	90.12
257.056	81.12
257.289	76.12
257.521	93.12
257.754	80.12
257.987	69.12
258.22	77.12
258.452	85.12
258.685	69.12
258.918	81.12
259.151	70.12
259.383	73.12
259.616	87.12
259.849	85.12
260.081	76.12
260.314	91.12
260.547	84.12
260.779	90.12
261.012	76.12
261.244	72.12
261.477	89.12
261.71	90.12
261.942	68.12
262.175	85.12
262.407	86.12
262.64	91.12
262.872	69.12
263.105	77.12
263.337	82.12
263.57	75.12
263.802	66.12
264.035	91.12
264.267	93.12
264.499	75.12
264.732	72.12
264.964	92.12
265.197	83.12
265.429	85.12
265.661	72.12
265.894	90.12
266.126	75.12
266.358	75.12
266.591	73.12
266.823	72.12
267.055	80.12
267.287	83.12
267.52	67.12
267.752	66.12
267.984	69.12
268.216	64.12
268.448	68.12
268.681	79.12
268.913	81.12
269.145	69.12
269.377	75.12
269.609	60.12
269.841	82.12
270.073	74.12
270.306	90.12
270.538	81.12
270.77	76.12
271.002	86.12
271.234	75.12
271.466	73.12
271.698	74.12
271.93	70.12
272.162	71.12
272.394	74.12
272.626	76.12
272.858	75.12
273.09	77.12
273.322	77.12
273.553	81.12
273.785	81.12
274.017	85.12
274.249	72.12
274.481	79.12
274.713	76.12
274.945	85.12
275.176	84.12
275.408	83.12
275.64	80.12
275.872	73.12
276.104	67.12
276.335	74.12
276.567	73.12
276.799	81.12
277.031	76.12
277.262	75.12
277.494	79.12
277.726	82.12
277.957	93.12
278.189	81.12
278.421	75.12
278.652	90.12
278.884	91.12
279.115	79.12
279.347	95.12
279.579	78.12
279.81	97.12
280.042	87.12
280.273	83.12
280.505	63.12
280.736	68.12
280.968	69.12
281.199	90.12
281.431	77.12
281.662	69.12
281.894	85.12
282.125	82.12
282.356	77.12
282.588	83.12
282.819	70.12
283.051	85.12
283.282	95.12
283.513	81.12
283.745	99.12
283.976	70.12
284.207	83.12
284.439	74.12
284.67	85.12
284.901	97.12
285.132	83.12
285.364	61.12
285.595	78.12
285.826	82.12
286.057	88.12
286.288	90.12
286.52	83.12
286.751	71.12
286.982	68.12
287.213	91.12
287.444	63.12
287.675	77.12
287.906	89.12
288.138	82.12
288.369	71.12
288.6	85.12
288.831	80.12
289.062	86.12
289.293	83.12
289.524	77.12
289.755	82.12
289.986	74.12
290.217	74.12
290.448	78.12
290.679	93.12
290.91	86.12
291.141	81.12
291.371	84.12
291.602	96.12
291.833	70.12
292.064	88.12
292.295	90.12
292.526	83.12
292.757	71.12
292.987	93.12
293.218	80.12
293.449	73.12
293.68	83.12
293.91	83.12
294.141	94.12
294.372	86.12
294.603	78.12
294.833	81.12
295.064	94.12
295.295	57.12
295.525	77.12
295.756	84.12
295.987	71.12
296.217	93.12
296.448	96.12
296.679	62.12
296.909	79.12
297.14	72.12
297.37	77.12
297.601	81.12
297.831	73.12
298.062	68.12
298.292	70.12
298.523	78.12
298.753	84.12
298.984	75.12
299.214	78.12
299.445	65.12
299.675	93.12
299.905	92.12
300.136	93.12
300.366	79.12
300.597	106.12
300.827	86.12
301.057	79.12
301.288	83.12
301.518	73.12
301.748	91.12
301.979	97.12
302.209	87.12
302.439	90.12
302.669	87.12
302.9	99.12
303.13	90.12
303.36	79.12
303.59	78.12
303.82	86.12
304.051	71.12
304.281	86.12
304.511	78.12
304.741	82.12
304.971	95.12
305.201	91.12
305.431	79.12
305.661	86.12
305.891	93.12
306.121	95.12
306.352	77.12
306.582	79.12
306.812	77.12
307.042	78.12
307.272	74.12
307.502	79.12
307.731	74.12
307.961	73.12
308.191	76.12
308.421	86.12
308.651	89.12
308.881	82.12
309.111	91.12
309.341	87.12
309.571	79.12
309.8	72.12
310.03	77.12
310.26	81.12
310.49	93.12
310.72	84.12
310.949	85.12
311.179	85.12
311.409	83.12
311.639	80.12
311.868	73.12
312.098	72.12
312.328	84.12
312.557	81.12
312.787	84.12
313.017	94.12
313.246	100.12
313.476	85.12
313.706	77.12
313.935	85.12
314.165	88.12
314.394	74.12
314.624	82.12
314.853	96.12
315.083	86.12
315.312	89.12
315.542	74.12
315.771	86.12
316.001	67.12
316.23	69.12
316.46	73.12
316.689	89.12
316.919	76.12
317.148	75.12
317.377	79.12
317.607	82.12
317.836	74.12
318.065	86.12
318.295	87.12
318.524	77.12
318.753	78.12
318.983	84.12
319.212	91.12
319.441	92.12
319.67	87.12
319.9	92.12
320.129	85.12
320.358	75.12
320.587	85.12
320.816	78.12
321.046	80.12
321.275	90.12
321.504	77.12
321.733	74.12
321.962	81.12
322.191	75.12
322.42	80.12
322.649	79.12
322.878	87.12
323.108	94.12
323.337	94.12
323.566	81.12
323.795	69.12
324.024	79.12
324.253	90.12
324.482	97.12
324.71	134.12
324.939	132.12
325.168	111.12
325.397	82.12
325.626	87.12
325.855	87.12
326.084	92.12
326.313	79.12
326.542	89.12
326.77	104.12
326.999	106.12
327.228	109.12
327.457	126.12
327.686	125.12
327.914	103.12
328.143	98.12
328.372	98.12
328.6	86.12
328.829	87.12
329.058	89.12
329.287	75.12
329.515	84.12
329.744	85.12
329.972	99.12
330.201	114.12
330.43	113.12
330.658	90.12
330.887	88.12
331.115	89.12
331.344	87.12
331.572	93.12
331.801	80.12
332.03	89.12
332.258	83.12
332.486	86.12
332.715	84.12
332.943	72.12
333.172	89.12
333.4	93.12
333.629	84.12
333.857	88.12
334.085	109.12
334.314	116.12
334.542	122.12
334.771	114.12
334.999	88.12
335.227	92.12
335.455	69.12
335.684	81.12
335.912	88.12
336.14	90.12
336.369	87.12
336.597	91.12
336.825	88.12
337.053	79.12
337.281	76.12
337.51	76.12
337.738	76.12
337.966	83.12
338.194	75.12
338.422	88.12
338.65	87.12
338.878	82.12
339.106	96.12
339.334	72.12
339.562	75.12
339.79	86.12
340.018	82.12
340.246	87.12
340.474	101.12
340.702	89.12
340.93	78.12
341.158	76.12
341.386	81.12
341.614	82.12
341.842	85.12
342.07	74.12
342.298	79.12
342.526	78.12
342.754	79.12
342.981	81.12
343.209	72.12
343.437	79.12
343.665	79.12
343.893	77.12
344.12	75.12
344.348	73.12
344.576	83.12
344.804	83.12
345.031	90.12
345.259	87.12
345.487	92.12
345.714	73.12
345.942	85.12
346.17	102.12
346.397	83.12
346.625	75.12
346.853	70.12
347.08	79.12
347.308	80.12
347.535	81.12
347.763	75.12
347.99	82.12
348.218	87.12
348.445	90.12
348.673	90.12
348.9	90.12
349.128	90.12
349.355	87.12
349.583	85.12
349.81	59.12
350.037	64.12
350.265	85.12
350.492	88.12
350.72	71.12
350.947	89.12
351.174	70.12
351.402	79.12
351.629	69.12
351.856	81.12
352.083	69.12
352.311	74.12
352.538	84.12
352.765	77.12
352.992	80.12
353.22	83.12
353.447	59.12
353.674	70.12
353.901	75.12
354.128	79.12
354.355	78.12
354.583	75.12
354.81	85.12
355.037	87.12
355.264	84.12
355.491	86.12
355.718	87.12
355.945	87.12
356.172	78.12
356.399	81.12
356.626	83.12
356.853	77.12
357.08	79.12
357.307	84.12
357.534	79.12
357.761	80.12
357.988	71.12
358.215	88.12
358.441	71.12
358.668	80.12
358.895	74.12
359.122	73.12
359.349	81.12
359.576	74.12
359.802	67.12
360.029	82.12
360.256	83.12
360.483	73.12
360.709	81.12
360.936	80.12
361.163	81.12
361.39	74.12
361.616	84.12
361.843	80.12
362.07	82.12
362.296	68.12
362.523	69.12
362.749	72.12
362.976	85.12
363.203	91.12
363.429	80.12
363.656	98.12
363.882	85.12
364.109	81.12
364.335	91.12
364.562	93.12
364.788	74.12
365.015	101.12
365.241	96.12
365.468	85.12
365.694	71.12
365.92	87.12
366.147	87.12
366.373	82.12
366.599	89.12
366.826	74.12
367.052	79.12
367.278	86.12
367.505	73.12
367.731	81.12
367.957	78.12
368.184	83.12
368.41	85.12
368.636	76.12
368.862	93.12
369.089	87.12
369.315	76.12
369.541	88.12
369.767	85.12
369.993	75.12
370.219	76.12
370.445	82.12
370.672	99.12
370.898	93.12
371.124	81.12
371.35	74.12
371.576	67.12
371.802	80.12
372.028	73.12
372.254	88.12
372.48	70.12
372.706	75.12
372.932	94.12
373.158	84.12
373.384	81.12
373.61	66.12
373.835	87.12
374.061	79.12
374.287	77.12
374.513	82.12
374.739	82.12
374.965	82.12
375.191	76.12
375.416	86.12
375.642	91.12
375.868	82.12
376.094	78.12
376.319	84.12
376.545	82.12
376.771	76.12
376.997	90.12
377.222	81.12
377.448	74.12
377.674	84.12
377.899	82.12
378.125	83.12
378.35	78.12
378.576	79.12
378.802	79.12
379.027	84.12
379.253	96.12
379.478	86.12
379.704	85.12
379.929	83.12
380.155	89.12
380.38	90.12
380.606	74.12
380.831	85.12
381.057	76.12
381.282	73.12
381.507	74.12
381.733	85.12
381.958	95.12
382.184	96.12
382.409	80.12
382.634	95.12
382.86	79.12
383.085	84.12
383.31	82.12
383.535	76.12
383.761	70.12
383.986	68.12
384.211	74.12
384.436	78.12
384.662	85.12
384.887	93.12
385.112	88.12
385.337	95.12
385.562	92.12
385.787	75.12
386.013	75.12
386.238	78.12
386.463	74.12
386.688	95.12
386.913	82.12
387.138	80.12
387.363	80.12
387.588	82.12
387.813	84.12
388.038	76.12
388.263	85.12
388.488	71.12
388.713	75.12
388.938	74.12
389.163	79.12
389.387	70.12
389.612	77.12
389.837	72.12
390.062	77.12
390.287	74.12
390.512	73.12
390.736	90.12
390.961	79.12
391.186	88.12
391.411	81.12
391.636	75.12
391.86	77.12
392.085	89.12
392.31	81.12
392.534	86.12
392.759	70.12
392.984	83.12
393.208	82.12
393.433	82.12
393.658	82.12
393.882	75.12
394.107	93.12
394.331	87.12
394.556	80.12
394.78	88.12
395.005	88.12
395.229	73.12
395.454	93.12
395.678	92.12
395.903	75.12
396.127	86.12
396.352	77.12
396.576	75.12
396.801	75.12
397.025	79.12
397.249	74.12
397.474	79.12
397.698	97.12
397.922	88.12
398.147	83.12
398.371	67.12
398.595	86.12
398.82	89.12
399.044	73.12
399.268	75.12
399.492	77.12
399.717	84.12
399.941	82.12
400.165	80.12
400.389	79.12
400.613	71.12
400.837	79.12
401.062	90.12
401.286	71.12
401.51	68.12
401.734	91.12
401.958	79.12
402.182	72.12
402.406	86.12
402.63	86.12
402.854	78.12
403.078	75.12
403.302	69.12
403.526	79.12
403.75	82.12
403.974	83.12
404.198	89.12
404.422	89.12
404.645	67.12
404.869	96.12
405.093	67.12
405.317	81.12
405.541	68.12
405.765	77.12
405.988	77.12
406.212	93.12
406.436	82.12
406.66	92.12
406.883	76.12
407.107	74.12
407.331	73.12
407.555	83.12
407.778	89.12
408.002	91.12
408.226	73.12
408.449	71.12
408.673	78.12
408.896	65.12
409.12	85.12
409.344	80.12
409.567	77.12
409.791	87.12
410.014	72.12
410.238	75.12
410.461	80.12
410.685	79.12
410.908	80.12
411.132	90.12
411.355	80.12
411.578	81.12
411.802	73.12
412.025	85.12
412.249	69.12
412.472	76.12
412.695	79.12
412.919	59.12
413.142	77.12
413.365	72.12
413.589	78.12
413.812	74.12
414.035	89.12
414.258	73.12
414.482	70.12
414.705	74.12
414.928	76.12
415.151	79.12
415.374	81.12
415.597	82.12
415.821	86.12
416.044	74.12
416.267	86.12
416.49	87.12
416.713	84.12
416.936	69.12
417.159	74.12
417.382	92.12
417.605	67.12
417.828	82.12
418.051	72.12
418.274	81.12
418.497	96.12
418.72	89.12
418.943	61.12
419.166	81.12
419.389	60.12
419.611	84.12
419.834	74.12
420.057	74.12
420.28	78.12
420.503	84.12
420.726	83.12
420.948	86.12
421.171	79.12
421.394	75.12
421.617	71.12
421.839	97.12
422.062	79.12
422.285	85.12
422.507	73.12
422.73	83.12
422.953	60.12
423.175	63.12
423.398	79.12
423.621	83.12
423.843	73.12
424.066	87.12
424.288	72.12
424.511	83.12
424.733	85.12
424.956	76.12
425.178	73.12
425.401	73.12
425.623	81.12
425.846	85.12
426.068	84.12
426.291	87.12
426.513	85.12
426.735	82.12
426.958	79.12
427.18	76.12
427.402	88.12
427.625	90.12
427.847	87.12
428.069	92.12
428.292	91.12
428.514	85.12
428.736	72.12
428.958	79.12
429.181	77.12
429.403	71.12
429.625	66.12
429.847	68.12
430.069	78.12
430.292	81.12
430.514	89.12
430.736	85.12
430.958	84.12
431.18	81.12
431.402	73.12
431.624	79.12
431.846	64.12
432.068	71.12
432.29	61.12
432.512	74.12
432.734	86.12
432.956	82.12
433.178	82.12
433.4	85.12
433.622	86.12
433.844	95.12
434.066	82.12
434.287	81.12
434.509	88.12
434.731	74.12
434.953	71.12
435.175	79.12
435.397	73.12
435.618	71.12
435.84	79.12
436.062	73.12
436.284	74.12
436.505	77.12
436.727	76.12
436.949	79.12
437.17	82.12
437.392	82.12
437.614	85.12
437.835	89.12
438.057	61.12
438.278	75.12
438.5	89.12
438.721	69.12
438.943	77.12
439.165	79.12
439.386	71.12
439.608	83.12
439.829	84.12
440.05	83.12
440.272	79.12
440.493	83.12
440.715	63.12
440.936	83.12
441.158	87.12
441.379	73.12
441.6	90.12
441.822	75.12
442.043	76.12
442.264	81.12
442.486	94.12
442.707	65.12
442.928	75.12
443.149	77.12
443.371	89.12
443.592	77.12
443.813	91.12
444.034	70.12
444.255	68.12
444.476	90.12
444.698	65.12
444.919	75.12
445.14	149.12
445.361	113.12
445.582	73.12
445.803	86.12
446.024	72.12
446.245	76.12
446.466	79.12
446.687	68.12
446.908	71.12
447.129	70.12
447.35	75.12
447.571	81.12
447.792	59.12
448.013	68.12
448.234	83.12
448.455	75.12
448.675	76.12
448.896	70.12
449.117	72.12
449.338	83.12
449.559	80.12
449.779	79.12
450	79.12
450.221	77.12
450.442	94.12
450.662	71.12
450.883	76.12
451.104	75.12
451.324	93.12
451.545	82.12
451.766	93.12
451.986	79.12
452.207	82.12
452.428	84.12
452.648	83.12
452.869	68.12
453.089	89.12
453.31	92.12
453.53	79.12
453.751	75.12
453.971	75.12
454.192	80.12
454.412	79.12
454.633	77.12
454.853	75.12
455.073	83.12
455.294	76.12
455.514	81.12
455.734	75.12
455.955	75.12
456.175	67.12
456.395	85.12
456.616	83.12
456.836	76.12
457.056	70.12
457.276	74.12
457.497	78.12
457.717	77.12
457.937	85.12
458.157	81.12
458.377	88.12
458.598	80.12
458.818	83.12
459.038	68.12
459.258	69.12
459.478	91.12
459.698	85.12
459.918	78.12
460.138	76.12
460.358	83.12
460.578	78.12
460.798	83.12
461.018	77.12
461.238	58.12
461.458	75.12
461.678	76.12
461.898	75.12
462.118	75.12
462.338	88.12
462.558	85.12
462.777	70.12
462.997	79.12
463.217	67.12
463.437	88.12
463.657	80.12
463.876	90.12
464.096	81.12
464.316	90.12
464.536	79.12
464.755	75.12
464.975	75.12
465.195	79.12
465.414	84.12
465.634	74.12
465.854	82.12
466.073	94.12
466.293	100.12
466.512	82.12
466.732	79.12
466.951	74.12
467.171	82.12
467.391	91.12
467.61	86.12
467.829	93.12
468.049	97.12
468.268	97.12
468.488	89.12
468.707	88.12
468.927	81.12
469.146	75.12
469.365	79.12
469.585	85.12
469.804	81.12
470.023	76.12
470.243	84.12
470.462	83.12
470.681	84.12
470.901	66.12
471.12	69.12
471.339	82.12
471.558	83.12
471.777	72.12
471.997	89.12
472.216	137.12
472.435	152.12
472.654	86.12
472.873	90.12
473.092	62.12
473.311	81.12
473.53	86.12
473.749	75.12
473.968	82.12
474.187	80.12
474.406	79.12
474.625	82.12
474.844	71.12
475.063	72.12
475.282	78.12
475.501	71.12
475.72	79.12
475.939	83.12
476.158	89.12
476.377	74.12
476.596	68.12
476.814	88.12
477.033	77.12
477.252	76.12
477.471	77.12
477.69	89.12
477.908	90.12
478.127	72.12
478.346	78.12
478.564	85.12
478.783	76.12
479.002	81.12
479.22	75.12
479.439	79.12
479.658	78.12
479.876	80.12
480.095	85.12
480.313	87.12
480.532	95.12
480.751	103.12
480.969	128.12
481.188	213.12
481.406	137.12
481.624	79.12
481.843	65.12
482.061	88.12
482.28	81.12
482.498	83.12
482.717	73.12
482.935	86.12
483.153	73.12
483.372	83.12
483.59	77.12
483.808	82.12
484.027	79.12
484.245	70.12
484.463	79.12
484.681	65.12
484.9	85.12
485.118	70.12
485.336	73.12
485.554	89.12
485.772	77.12
485.99	84.12
486.209	67.12
486.427	87.12
486.645	68.12
486.863	81.12
487.081	77.12
487.299	81.12
487.517	82.12
487.735	70.12
487.953	88.12
488.171	84.12
488.389	85.12
488.607	77.12
488.825	72.12
489.043	71.12
489.261	80.12
489.479	85.12
489.696	94.12
489.914	69.12
490.132	77.12
490.35	84.12
490.568	80.12
490.786	72.12
491.003	75.12
491.221	74.12
491.439	78.12
491.657	67.12
491.874	87.12
492.092	79.12
492.31	89.12
492.527	88.12
492.745	69.12
492.963	86.12
493.18	82.12
493.398	85.12
493.615	75.12
493.833	90.12
494.05	82.12
494.268	86.12
494.485	82.12
494.703	81.12
494.92	83.12
495.138	82.12
495.355	77.12
495.573	88.12
495.79	76.12
496.008	88.12
496.225	86.12
496.442	91.12
496.66	77.12
496.877	96.12
497.094	96.12
497.312	83.12
497.529	79.12
497.746	90.12
497.963	80.12
498.181	93.12
498.398	85.12
498.615	78.12
498.832	83.12
499.049	78.12
499.267	75.12
499.484	93.12
499.701	85.12
499.918	89.12
500.135	73.12
500.352	71.12
500.569	84.12
500.786	95.12
501.003	72.12
501.22	75.12
501.437	94.12
501.654	76.12
501.871	79.12
502.088	104.12
502.305	79.12
502.522	85.12
502.739	84.12
502.956	75.12
503.172	77.12
503.389	71.12
503.606	71.12
503.823	82.12
504.04	76.12
504.256	91.12
504.473	80.12
504.69	81.12
504.907	79.12
505.123	80.12
505.34	87.12
505.557	79.12
505.773	93.12
505.99	86.12
506.207	78.12
506.423	80.12
506.64	71.12
506.856	69.12
507.073	84.12
507.289	76.12
507.506	95.12
507.722	87.12
507.939	78.12
508.155	71.12
508.372	83.12
508.588	86.12
508.805	87.12
509.021	83.12
509.238	79.12
509.454	89.12
509.67	80.12
509.887	91.12
510.103	85.12
510.319	97.12
510.536	137.12
510.752	192.12
510.968	118.12
511.184	79.12
511.401	94.12
511.617	90.12
511.833	82.12
512.049	78.12
512.265	75.12
512.481	85.12
512.698	88.12
512.914	87.12
513.13	76.12
513.346	71.12
513.562	81.12
513.778	66.12
513.994	82.12
514.21	93.12
514.426	98.12
514.642	76.12
514.858	91.12
515.074	84.12
515.29	121.12
515.506	170.12
515.721	114.12
515.937	78.12
516.153	81.12
516.369	86.12
516.585	85.12
516.801	101.12
517.016	103.12
517.232	74.12
517.448	82.12
517.664	82.12
517.879	86.12
518.095	98.12
518.311	93.12
518.527	71.12
518.742	68.12
518.958	82.12
519.173	91.12
519.389	90.12
519.605	88.12
519.82	82.12
