Data from Penny_3_HRD10591_00018.txt Node
Date: Wed Nov 05 15:35:17 EST 2025
User: Yrep
Spectrometer: HR+D1059
Trigger mode: 1
Integration Time (sec): 1.000000E-1
Scans to average: 1
Electric dark correction enabled: true
Nonlinearity correction enabled: false
Boxcar width: 0
XAxis mode: Wavelengths
Number of Pixels in Spectrum: 2048
>>>>>Begin Spectral Data<<<<<
223.165	-6.62
223.4	-6.62
223.635	-6.62
223.869	-24.62
224.104	-19.62
224.338	-16.62
224.573	-11.62
224.808	-5.62
225.042	-16.62
225.277	-0.62
225.511	-6.62
225.746	8.38
225.98	13.38
226.215	8.38
226.449	17.38
226.683	22.38
226.918	19.38
227.152	19.38
227.387	40.38
227.621	48.38
227.856	61.38
228.09	38.38
228.324	56.38
228.559	54.38
228.793	44.38
229.027	63.38
229.262	69.38
229.496	59.38
229.73	65.38
229.964	65.38
230.199	62.38
230.433	71.38
230.667	76.38
230.901	76.38
231.136	77.38
231.37	81.38
231.604	75.38
231.838	83.38
232.072	96.38
232.306	88.38
232.541	75.38
232.775	76.38
233.009	91.38
233.243	71.38
233.477	75.38
233.711	90.38
233.945	70.38
234.179	83.38
234.413	78.38
234.647	76.38
234.881	87.38
235.115	93.38
235.349	75.38
235.583	73.38
235.817	76.38
236.051	93.38
236.285	69.38
236.519	81.38
236.753	81.38
236.987	74.38
237.221	68.38
237.455	78.38
237.689	82.38
237.922	70.38
238.156	83.38
238.39	87.38
238.624	81.38
238.858	77.38
239.091	68.38
239.325	68.38
239.559	70.38
239.793	73.38
240.027	69.38
240.26	69.38
240.494	83.38
240.728	70.38
240.961	75.38
241.195	72.38
241.429	70.38
241.662	68.38
241.896	76.38
242.13	71.38
242.363	71.38
242.597	85.38
242.83	73.38
243.064	74.38
243.298	92.38
243.531	84.38
243.765	73.38
243.998	95.38
244.232	79.38
244.465	76.38
244.699	86.38
244.932	83.38
245.166	69.38
245.399	78.38
245.633	72.38
245.866	77.38
246.099	75.38
246.333	79.38
246.566	74.38
246.8	88.38
247.033	83.38
247.266	82.38
247.5	73.38
247.733	85.38
247.966	67.38
248.2	78.38
248.433	80.38
248.666	88.38
248.899	74.38
249.133	92.38
249.366	92.38
249.599	91.38
249.832	79.38
250.066	93.38
250.299	82.38
250.532	73.38
250.765	71.38
250.998	74.38
251.231	91.38
251.465	85.38
251.698	86.38
251.931	63.38
252.164	83.38
252.397	77.38
252.63	82.38
252.863	73.38
253.096	87.38
253.329	80.38
253.562	73.38
253.795	78.38
254.028	77.38
254.261	72.38
254.494	80.38
254.727	78.38
254.96	76.38
255.193	84.38
255.426	83.38
255.659	89.38
255.892	86.38
256.124	73.38
256.357	69.38
256.59	75.38
256.823	83.38
257.056	72.38
257.289	74.38
257.521	76.38
257.754	74.38
257.987	77.38
258.22	69.38
258.452	78.38
258.685	81.38
258.918	78.38
259.151	72.38
259.383	86.38
259.616	76.38
259.849	78.38
260.081	87.38
260.314	81.38
260.547	89.38
260.779	88.38
261.012	90.38
261.244	90.38
261.477	82.38
261.71	80.38
261.942	84.38
262.175	85.38
262.407	83.38
262.64	89.38
262.872	85.38
263.105	71.38
263.337	75.38
263.57	72.38
263.802	76.38
264.035	75.38
264.267	77.38
264.499	93.38
264.732	74.38
264.964	87.38
265.197	68.38
265.429	89.38
265.661	91.38
265.894	97.38
266.126	75.38
266.358	91.38
266.591	84.38
266.823	78.38
267.055	87.38
267.287	77.38
267.52	91.38
267.752	87.38
267.984	79.38
268.216	78.38
268.448	83.38
268.681	75.38
268.913	79.38
269.145	77.38
269.377	81.38
269.609	86.38
269.841	88.38
270.073	86.38
270.306	83.38
270.538	91.38
270.77	88.38
271.002	84.38
271.234	85.38
271.466	84.38
271.698	66.38
271.93	90.38
272.162	71.38
272.394	71.38
272.626	77.38
272.858	78.38
273.09	69.38
273.322	72.38
273.553	87.38
273.785	80.38
274.017	87.38
274.249	72.38
274.481	79.38
274.713	74.38
274.945	79.38
275.176	75.38
275.408	84.38
275.64	76.38
275.872	82.38
276.104	99.38
276.335	89.38
276.567	89.38
276.799	87.38
277.031	74.38
277.262	75.38
277.494	72.38
277.726	79.38
277.957	73.38
278.189	78.38
278.421	75.38
278.652	85.38
278.884	76.38
279.115	88.38
279.347	83.38
279.579	89.38
279.81	80.38
280.042	72.38
280.273	89.38
280.505	85.38
280.736	89.38
280.968	97.38
281.199	84.38
281.431	78.38
281.662	83.38
281.894	88.38
282.125	83.38
282.356	71.38
282.588	76.38
282.819	85.38
283.051	81.38
283.282	81.38
283.513	90.38
283.745	81.38
283.976	79.38
284.207	85.38
284.439	91.38
284.67	91.38
284.901	95.38
285.132	80.38
285.364	84.38
285.595	82.38
285.826	91.38
286.057	91.38
286.288	77.38
286.52	81.38
286.751	85.38
286.982	88.38
287.213	92.38
287.444	81.38
287.675	84.38
287.906	83.38
288.138	88.38
288.369	87.38
288.6	77.38
288.831	95.38
289.062	96.38
289.293	96.38
289.524	91.38
289.755	91.38
289.986	74.38
290.217	86.38
290.448	98.38
290.679	88.38
290.91	94.38
291.141	74.38
291.371	87.38
291.602	78.38
291.833	82.38
292.064	81.38
292.295	87.38
292.526	79.38
292.757	76.38
292.987	87.38
293.218	71.38
293.449	84.38
293.68	79.38
293.91	80.38
294.141	95.38
294.372	88.38
294.603	85.38
294.833	89.38
295.064	75.38
295.295	79.38
295.525	71.38
295.756	71.38
295.987	79.38
296.217	78.38
296.448	70.38
296.679	79.38
296.909	91.38
297.14	77.38
297.37	85.38
297.601	72.38
297.831	85.38
298.062	80.38
298.292	86.38
298.523	89.38
298.753	86.38
298.984	68.38
299.214	88.38
299.445	92.38
299.675	87.38
299.905	74.38
300.136	83.38
300.366	67.38
300.597	87.38
300.827	91.38
301.057	80.38
301.288	97.38
301.518	85.38
301.748	82.38
301.979	105.38
302.209	79.38
302.439	91.38
302.669	87.38
302.9	91.38
303.13	79.38
303.36	72.38
303.59	71.38
303.82	89.38
304.051	91.38
304.281	107.38
304.511	88.38
304.741	96.38
304.971	91.38
305.201	75.38
305.431	90.38
305.661	81.38
305.891	90.38
306.121	92.38
306.352	75.38
306.582	89.38
306.812	89.38
307.042	94.38
307.272	81.38
307.502	88.38
307.731	83.38
307.961	79.38
308.191	82.38
308.421	85.38
308.651	75.38
308.881	92.38
309.111	85.38
309.341	92.38
309.571	78.38
309.8	70.38
310.03	79.38
310.26	87.38
310.49	81.38
310.72	80.38
310.949	73.38
311.179	84.38
311.409	78.38
311.639	62.38
311.868	83.38
312.098	76.38
312.328	76.38
312.557	92.38
312.787	91.38
313.017	83.38
313.246	84.38
313.476	84.38
313.706	84.38
313.935	96.38
314.165	89.38
314.394	85.38
314.624	81.38
314.853	88.38
315.083	95.38
315.312	80.38
315.542	81.38
315.771	86.38
316.001	93.38
316.23	81.38
316.46	91.38
316.689	90.38
316.919	78.38
317.148	90.38
317.377	85.38
317.607	89.38
317.836	87.38
318.065	77.38
318.295	75.38
318.524	94.38
318.753	78.38
318.983	83.38
319.212	80.38
319.441	88.38
319.67	83.38
319.9	89.38
320.129	96.38
320.358	90.38
320.587	90.38
320.816	75.38
321.046	84.38
321.275	81.38
321.504	82.38
321.733	83.38
321.962	75.38
322.191	75.38
322.42	86.38
322.649	97.38
322.878	83.38
323.108	93.38
323.337	97.38
323.566	106.38
323.795	94.38
324.024	91.38
324.253	97.38
324.482	133.38
324.71	140.38
324.939	138.38
325.168	107.38
325.397	97.38
325.626	98.38
325.855	91.38
326.084	88.38
326.313	98.38
326.542	83.38
326.77	95.38
326.999	101.38
327.228	103.38
327.457	124.38
327.686	114.38
327.914	87.38
328.143	99.38
328.372	99.38
328.6	88.38
328.829	84.38
329.058	85.38
329.287	92.38
329.515	93.38
329.744	81.38
329.972	108.38
330.201	128.38
330.43	129.38
330.658	94.38
330.887	98.38
331.115	90.38
331.344	89.38
331.572	89.38
331.801	99.38
332.03	82.38
332.258	82.38
332.486	75.38
332.715	83.38
332.943	105.38
333.172	87.38
333.4	81.38
333.629	85.38
333.857	90.38
334.085	108.38
334.314	129.38
334.542	145.38
334.771	128.38
334.999	103.38
335.227	79.38
335.455	82.38
335.684	89.38
335.912	81.38
336.14	81.38
336.369	69.38
336.597	91.38
336.825	84.38
337.053	101.38
337.281	83.38
337.51	81.38
337.738	86.38
337.966	78.38
338.194	93.38
338.422	100.38
338.65	89.38
338.878	87.38
339.106	84.38
339.334	87.38
339.562	75.38
339.79	71.38
340.018	85.38
340.246	84.38
340.474	93.38
340.702	81.38
340.93	64.38
341.158	87.38
341.386	77.38
341.614	89.38
341.842	92.38
342.07	90.38
342.298	74.38
342.526	80.38
342.754	77.38
342.981	83.38
343.209	96.38
343.437	95.38
343.665	91.38
343.893	87.38
344.12	98.38
344.348	90.38
344.576	79.38
344.804	82.38
345.031	86.38
345.259	96.38
345.487	89.38
345.714	78.38
345.942	85.38
346.17	73.38
346.397	86.38
346.625	88.38
346.853	76.38
347.08	82.38
347.308	88.38
347.535	89.38
347.763	74.38
347.99	83.38
348.218	70.38
348.445	91.38
348.673	92.38
348.9	88.38
349.128	90.38
349.355	89.38
349.583	83.38
349.81	91.38
350.037	95.38
350.265	95.38
350.492	96.38
350.72	83.38
350.947	81.38
351.174	80.38
351.402	85.38
351.629	89.38
351.856	96.38
352.083	80.38
352.311	71.38
352.538	87.38
352.765	80.38
352.992	85.38
353.22	95.38
353.447	86.38
353.674	77.38
353.901	82.38
354.128	81.38
354.355	80.38
354.583	81.38
354.81	83.38
355.037	92.38
355.264	90.38
355.491	91.38
355.718	86.38
355.945	81.38
356.172	92.38
356.399	85.38
356.626	79.38
356.853	74.38
357.08	83.38
357.307	94.38
357.534	89.38
357.761	80.38
357.988	85.38
358.215	82.38
358.441	91.38
358.668	94.38
358.895	82.38
359.122	86.38
359.349	90.38
359.576	93.38
359.802	77.38
360.029	75.38
360.256	80.38
360.483	87.38
360.709	80.38
360.936	91.38
361.163	81.38
361.39	83.38
361.616	81.38
361.843	79.38
362.07	93.38
362.296	70.38
362.523	86.38
362.749	76.38
362.976	91.38
363.203	91.38
363.429	95.38
363.656	87.38
363.882	83.38
364.109	75.38
364.335	85.38
364.562	81.38
364.788	80.38
365.015	79.38
365.241	83.38
365.468	101.38
365.694	85.38
365.92	81.38
366.147	81.38
366.373	80.38
366.599	76.38
366.826	83.38
367.052	93.38
367.278	87.38
367.505	81.38
367.731	82.38
367.957	65.38
368.184	66.38
368.41	67.38
368.636	81.38
368.862	92.38
369.089	84.38
369.315	87.38
369.541	81.38
369.767	100.38
369.993	86.38
370.219	81.38
370.445	88.38
370.672	73.38
370.898	83.38
371.124	80.38
371.35	74.38
371.576	81.38
371.802	73.38
372.028	68.38
372.254	87.38
372.48	73.38
372.706	84.38
372.932	94.38
373.158	81.38
373.384	73.38
373.61	88.38
373.835	85.38
374.061	74.38
374.287	100.38
374.513	72.38
374.739	79.38
374.965	91.38
375.191	95.38
375.416	82.38
375.642	80.38
375.868	86.38
376.094	86.38
376.319	77.38
376.545	68.38
376.771	86.38
376.997	83.38
377.222	84.38
377.448	68.38
377.674	83.38
377.899	85.38
378.125	77.38
378.35	92.38
378.576	82.38
378.802	85.38
379.027	75.38
379.253	78.38
379.478	91.38
379.704	83.38
379.929	85.38
380.155	76.38
380.38	67.38
380.606	86.38
380.831	81.38
381.057	88.38
381.282	88.38
381.507	86.38
381.733	74.38
381.958	85.38
382.184	69.38
382.409	89.38
382.634	87.38
382.86	90.38
383.085	77.38
383.31	87.38
383.535	101.38
383.761	76.38
383.986	79.38
384.211	80.38
384.436	78.38
384.662	84.38
384.887	76.38
385.112	76.38
385.337	84.38
385.562	87.38
385.787	87.38
386.013	77.38
386.238	63.38
386.463	76.38
386.688	96.38
386.913	73.38
387.138	87.38
387.363	74.38
387.588	84.38
387.813	84.38
388.038	85.38
388.263	77.38
388.488	81.38
388.713	92.38
388.938	87.38
389.163	71.38
389.387	71.38
389.612	62.38
389.837	80.38
390.062	87.38
390.287	82.38
390.512	84.38
390.736	87.38
390.961	76.38
391.186	87.38
391.411	81.38
391.636	86.38
391.86	65.38
392.085	74.38
392.31	84.38
392.534	86.38
392.759	91.38
392.984	87.38
393.208	78.38
393.433	72.38
393.658	72.38
393.882	80.38
394.107	81.38
394.331	86.38
394.556	66.38
394.78	86.38
395.005	90.38
395.229	67.38
395.454	81.38
395.678	65.38
395.903	81.38
396.127	77.38
396.352	94.38
396.576	77.38
396.801	81.38
397.025	77.38
397.249	76.38
397.474	80.38
397.698	85.38
397.922	83.38
398.147	70.38
398.371	85.38
398.595	76.38
398.82	85.38
399.044	87.38
399.268	82.38
399.492	74.38
399.717	80.38
399.941	57.38
400.165	84.38
400.389	92.38
400.613	85.38
400.837	82.38
401.062	86.38
401.286	91.38
401.51	84.38
401.734	73.38
401.958	80.38
402.182	79.38
402.406	77.38
402.63	61.38
402.854	76.38
403.078	78.38
403.302	72.38
403.526	67.38
403.75	71.38
403.974	79.38
404.198	73.38
404.422	89.38
404.645	81.38
404.869	87.38
405.093	80.38
405.317	84.38
405.541	84.38
405.765	85.38
405.988	89.38
406.212	99.38
406.436	84.38
406.66	91.38
406.883	83.38
407.107	69.38
407.331	78.38
407.555	88.38
407.778	79.38
408.002	79.38
408.226	82.38
408.449	73.38
408.673	92.38
408.896	83.38
409.12	82.38
409.344	72.38
409.567	80.38
409.791	73.38
410.014	81.38
410.238	83.38
410.461	76.38
410.685	80.38
410.908	75.38
411.132	77.38
411.355	81.38
411.578	76.38
411.802	91.38
412.025	89.38
412.249	73.38
412.472	83.38
412.695	77.38
412.919	71.38
413.142	90.38
413.365	78.38
413.589	80.38
413.812	85.38
414.035	86.38
414.258	74.38
414.482	77.38
414.705	69.38
414.928	84.38
415.151	72.38
415.374	79.38
415.597	88.38
415.821	75.38
416.044	67.38
416.267	76.38
416.49	83.38
416.713	76.38
416.936	92.38
417.159	90.38
417.382	93.38
417.605	82.38
417.828	81.38
418.051	81.38
418.274	90.38
418.497	86.38
418.72	68.38
418.943	91.38
419.166	74.38
419.389	79.38
419.611	73.38
419.834	83.38
420.057	74.38
420.28	73.38
420.503	93.38
420.726	89.38
420.948	86.38
421.171	78.38
421.394	87.38
421.617	79.38
421.839	86.38
422.062	68.38
422.285	75.38
422.507	77.38
422.73	74.38
422.953	83.38
423.175	88.38
423.398	95.38
423.621	81.38
423.843	80.38
424.066	77.38
424.288	79.38
424.511	68.38
424.733	73.38
424.956	79.38
425.178	90.38
425.401	83.38
425.623	87.38
425.846	75.38
426.068	86.38
426.291	73.38
426.513	101.38
426.735	95.38
426.958	82.38
427.18	85.38
427.402	101.38
427.625	99.38
427.847	102.38
428.069	87.38
428.292	87.38
428.514	73.38
428.736	87.38
428.958	76.38
429.181	74.38
429.403	74.38
429.625	93.38
429.847	85.38
430.069	82.38
430.292	89.38
430.514	92.38
430.736	77.38
430.958	83.38
431.18	72.38
431.402	87.38
431.624	86.38
431.846	80.38
432.068	78.38
432.29	87.38
432.512	87.38
432.734	85.38
432.956	72.38
433.178	87.38
433.4	82.38
433.622	108.38
433.844	91.38
434.066	76.38
434.287	77.38
434.509	82.38
434.731	81.38
434.953	86.38
435.175	81.38
435.397	77.38
435.618	92.38
435.84	85.38
436.062	84.38
436.284	73.38
436.505	91.38
436.727	83.38
436.949	78.38
437.17	90.38
437.392	90.38
437.614	86.38
437.835	85.38
438.057	77.38
438.278	83.38
438.5	89.38
438.721	83.38
438.943	88.38
439.165	92.38
439.386	85.38
439.608	76.38
439.829	76.38
440.05	89.38
440.272	83.38
440.493	85.38
440.715	92.38
440.936	69.38
441.158	74.38
441.379	85.38
441.6	87.38
441.822	83.38
442.043	77.38
442.264	87.38
442.486	77.38
442.707	71.38
442.928	91.38
443.149	87.38
443.371	93.38
443.592	72.38
443.813	81.38
444.034	83.38
444.255	83.38
444.476	79.38
444.698	77.38
444.919	72.38
445.14	157.38
445.361	114.38
445.582	84.38
445.803	81.38
446.024	87.38
446.245	94.38
446.466	88.38
446.687	71.38
446.908	81.38
447.129	81.38
447.35	82.38
447.571	98.38
447.792	87.38
448.013	73.38
448.234	76.38
448.455	88.38
448.675	71.38
448.896	91.38
449.117	82.38
449.338	78.38
449.559	84.38
449.779	84.38
450	82.38
450.221	85.38
450.442	73.38
450.662	84.38
450.883	77.38
451.104	98.38
451.324	75.38
451.545	81.38
451.766	82.38
451.986	83.38
452.207	71.38
452.428	88.38
452.648	75.38
452.869	90.38
453.089	96.38
453.31	92.38
453.53	85.38
453.751	75.38
453.971	78.38
454.192	95.38
454.412	76.38
454.633	86.38
454.853	93.38
455.073	93.38
455.294	69.38
455.514	81.38
455.734	79.38
455.955	90.38
456.175	75.38
456.395	76.38
456.616	75.38
456.836	89.38
457.056	97.38
457.276	87.38
457.497	87.38
457.717	72.38
457.937	89.38
458.157	85.38
458.377	83.38
458.598	83.38
458.818	95.38
459.038	86.38
459.258	90.38
459.478	83.38
459.698	81.38
459.918	71.38
460.138	67.38
460.358	73.38
460.578	84.38
460.798	86.38
461.018	82.38
461.238	79.38
461.458	91.38
461.678	94.38
461.898	92.38
462.118	82.38
462.338	74.38
462.558	87.38
462.777	93.38
462.997	85.38
463.217	80.38
463.437	81.38
463.657	83.38
463.876	81.38
464.096	80.38
464.316	89.38
464.536	82.38
464.755	87.38
464.975	83.38
465.195	93.38
465.414	85.38
465.634	85.38
465.854	73.38
466.073	86.38
466.293	78.38
466.512	81.38
466.732	76.38
466.951	81.38
467.171	83.38
467.391	98.38
467.61	79.38
467.829	91.38
468.049	107.38
468.268	113.38
468.488	81.38
468.707	83.38
468.927	89.38
469.146	81.38
469.365	77.38
469.585	75.38
469.804	87.38
470.023	92.38
470.243	92.38
470.462	87.38
470.681	85.38
470.901	73.38
471.12	95.38
471.339	88.38
471.558	78.38
471.777	86.38
471.997	89.38
472.216	126.38
472.435	160.38
472.654	95.38
472.873	83.38
473.092	77.38
473.311	77.38
473.53	87.38
473.749	91.38
473.968	90.38
474.187	88.38
474.406	80.38
474.625	78.38
474.844	99.38
475.063	89.38
475.282	75.38
475.501	83.38
475.72	86.38
475.939	73.38
476.158	81.38
476.377	86.38
476.596	82.38
476.814	70.38
477.033	75.38
477.252	82.38
477.471	69.38
477.69	104.38
477.908	89.38
478.127	75.38
478.346	83.38
478.564	69.38
478.783	84.38
479.002	73.38
479.22	81.38
479.439	87.38
479.658	99.38
479.876	85.38
480.095	76.38
480.313	84.38
480.532	81.38
480.751	89.38
480.969	130.38
481.188	237.38
481.406	160.38
481.624	84.38
481.843	77.38
482.061	67.38
482.28	70.38
482.498	75.38
482.717	81.38
482.935	87.38
483.153	88.38
483.372	96.38
483.59	87.38
483.808	83.38
484.027	87.38
484.245	87.38
484.463	85.38
484.681	95.38
484.9	83.38
485.118	80.38
485.336	74.38
485.554	85.38
485.772	79.38
485.99	77.38
486.209	92.38
486.427	87.38
486.645	86.38
486.863	81.38
487.081	88.38
487.299	80.38
487.517	73.38
487.735	70.38
487.953	70.38
488.171	88.38
488.389	81.38
488.607	88.38
488.825	84.38
489.043	83.38
489.261	76.38
489.479	66.38
489.696	81.38
489.914	75.38
490.132	68.38
490.35	81.38
490.568	74.38
490.786	79.38
491.003	69.38
491.221	81.38
491.439	81.38
491.657	84.38
491.874	65.38
492.092	68.38
492.31	88.38
492.527	83.38
492.745	75.38
492.963	83.38
493.18	75.38
493.398	89.38
493.615	86.38
493.833	88.38
494.05	96.38
494.268	95.38
494.485	76.38
494.703	81.38
494.92	100.38
495.138	92.38
495.355	75.38
495.573	89.38
495.79	84.38
496.008	77.38
496.225	93.38
496.442	90.38
496.66	86.38
496.877	86.38
497.094	96.38
497.312	85.38
497.529	91.38
497.746	81.38
497.963	85.38
498.181	82.38
498.398	78.38
498.615	71.38
498.832	82.38
499.049	74.38
499.267	97.38
499.484	77.38
499.701	71.38
499.918	83.38
500.135	66.38
500.352	89.38
500.569	76.38
500.786	92.38
501.003	83.38
501.22	85.38
501.437	83.38
501.654	92.38
501.871	83.38
502.088	88.38
502.305	92.38
502.522	91.38
502.739	82.38
502.956	85.38
503.172	78.38
503.389	96.38
503.606	93.38
503.823	88.38
504.04	71.38
504.256	101.38
504.473	76.38
504.69	92.38
504.907	91.38
505.123	81.38
505.34	86.38
505.557	97.38
505.773	99.38
505.99	84.38
506.207	81.38
506.423	89.38
506.64	97.38
506.856	75.38
507.073	86.38
507.289	88.38
507.506	84.38
507.722	76.38
507.939	89.38
508.155	73.38
508.372	84.38
508.588	91.38
508.805	74.38
509.021	81.38
509.238	85.38
509.454	83.38
509.67	86.38
509.887	79.38
510.103	87.38
510.319	96.38
510.536	144.38
510.752	192.38
510.968	124.38
511.184	73.38
511.401	92.38
511.617	77.38
511.833	87.38
512.049	78.38
512.265	86.38
512.481	93.38
512.698	82.38
512.914	77.38
513.13	75.38
513.346	79.38
513.562	87.38
513.778	79.38
513.994	88.38
514.21	99.38
514.426	79.38
514.642	80.38
514.858	87.38
515.074	108.38
515.29	133.38
515.506	201.38
515.721	105.38
515.937	116.38
516.153	87.38
516.369	72.38
516.585	82.38
516.801	79.38
517.016	77.38
517.232	85.38
517.448	93.38
517.664	78.38
517.879	87.38
518.095	72.38
518.311	71.38
518.527	94.38
518.742	90.38
518.958	93.38
519.173	97.38
519.389	78.38
519.605	73.38
