Data from Penny_3_HRD10591_00016.txt Node
Date: Wed Nov 05 15:35:16 EST 2025
User: Yrep
Spectrometer: HR+D1059
Trigger mode: 1
Integration Time (sec): 1.000000E-1
Scans to average: 1
Electric dark correction enabled: true
Nonlinearity correction enabled: false
Boxcar width: 0
XAxis mode: Wavelengths
Number of Pixels in Spectrum: 2048
>>>>>Begin Spectral Data<<<<<
223.165	-21.38
223.4	-21.38
223.635	-21.38
223.869	-8.38
224.104	-42.38
224.338	-22.38
224.573	-6.38
224.808	0.62
225.042	-10.38
225.277	-12.38
225.511	3.62
225.746	5.62
225.98	4.62
226.215	14.62
226.449	19.62
226.683	26.62
226.918	16.62
227.152	31.62
227.387	44.62
227.621	33.62
227.856	43.62
228.09	48.62
228.324	54.62
228.559	59.62
228.793	62.62
229.027	63.62
229.262	59.62
229.496	72.62
229.73	68.62
229.964	67.62
230.199	71.62
230.433	87.62
230.667	68.62
230.901	64.62
231.136	69.62
231.37	69.62
231.604	64.62
231.838	85.62
232.072	79.62
232.306	79.62
232.541	88.62
232.775	84.62
233.009	75.62
233.243	78.62
233.477	80.62
233.711	93.62
233.945	74.62
234.179	81.62
234.413	91.62
234.647	82.62
234.881	76.62
235.115	81.62
235.349	83.62
235.583	85.62
235.817	72.62
236.051	69.62
236.285	65.62
236.519	88.62
236.753	67.62
236.987	67.62
237.221	72.62
237.455	71.62
237.689	72.62
237.922	76.62
238.156	67.62
238.39	68.62
238.624	56.62
238.858	100.62
239.091	77.62
239.325	58.62
239.559	87.62
239.793	74.62
240.027	64.62
240.26	73.62
240.494	78.62
240.728	75.62
240.961	71.62
241.195	75.62
241.429	77.62
241.662	59.62
241.896	76.62
242.13	64.62
242.363	64.62
242.597	76.62
242.83	75.62
243.064	83.62
243.298	83.62
243.531	72.62
243.765	71.62
243.998	84.62
244.232	78.62
244.465	87.62
244.699	77.62
244.932	83.62
245.166	73.62
245.399	81.62
245.633	79.62
245.866	76.62
246.099	81.62
246.333	62.62
246.566	76.62
246.8	83.62
247.033	72.62
247.266	75.62
247.5	69.62
247.733	84.62
247.966	57.62
248.2	80.62
248.433	91.62
248.666	69.62
248.899	80.62
249.133	84.62
249.366	82.62
249.599	76.62
249.832	72.62
250.066	84.62
250.299	94.62
250.532	82.62
250.765	90.62
250.998	73.62
251.231	81.62
251.465	85.62
251.698	82.62
251.931	65.62
252.164	86.62
252.397	79.62
252.63	86.62
252.863	77.62
253.096	71.62
253.329	78.62
253.562	81.62
253.795	80.62
254.028	93.62
254.261	85.62
254.494	71.62
254.727	65.62
254.96	83.62
255.193	87.62
255.426	79.62
255.659	83.62
255.892	85.62
256.124	85.62
256.357	76.62
256.59	78.62
256.823	61.62
257.056	77.62
257.289	66.62
257.521	68.62
257.754	81.62
257.987	87.62
258.22	69.62
258.452	89.62
258.685	81.62
258.918	68.62
259.151	74.62
259.383	87.62
259.616	76.62
259.849	94.62
260.081	83.62
260.314	66.62
260.547	83.62
260.779	72.62
261.012	73.62
261.244	69.62
261.477	72.62
261.71	78.62
261.942	93.62
262.175	74.62
262.407	72.62
262.64	67.62
262.872	78.62
263.105	96.62
263.337	93.62
263.57	84.62
263.802	77.62
264.035	81.62
264.267	79.62
264.499	74.62
264.732	83.62
264.964	83.62
265.197	72.62
265.429	85.62
265.661	88.62
265.894	80.62
266.126	92.62
266.358	83.62
266.591	85.62
266.823	78.62
267.055	73.62
267.287	85.62
267.52	77.62
267.752	77.62
267.984	75.62
268.216	75.62
268.448	75.62
268.681	75.62
268.913	86.62
269.145	71.62
269.377	75.62
269.609	83.62
269.841	79.62
270.073	84.62
270.306	89.62
270.538	91.62
270.77	78.62
271.002	89.62
271.234	77.62
271.466	81.62
271.698	75.62
271.93	87.62
272.162	69.62
272.394	83.62
272.626	72.62
272.858	65.62
273.09	67.62
273.322	77.62
273.553	88.62
273.785	79.62
274.017	72.62
274.249	89.62
274.481	88.62
274.713	75.62
274.945	97.62
275.176	91.62
275.408	93.62
275.64	92.62
275.872	90.62
276.104	97.62
276.335	91.62
276.567	96.62
276.799	79.62
277.031	79.62
277.262	89.62
277.494	77.62
277.726	63.62
277.957	77.62
278.189	66.62
278.421	80.62
278.652	83.62
278.884	78.62
279.115	91.62
279.347	86.62
279.579	85.62
279.81	74.62
280.042	97.62
280.273	91.62
280.505	89.62
280.736	85.62
280.968	76.62
281.199	80.62
281.431	76.62
281.662	85.62
281.894	83.62
282.125	86.62
282.356	80.62
282.588	84.62
282.819	88.62
283.051	89.62
283.282	78.62
283.513	83.62
283.745	82.62
283.976	77.62
284.207	81.62
284.439	86.62
284.67	87.62
284.901	87.62
285.132	89.62
285.364	81.62
285.595	92.62
285.826	77.62
286.057	91.62
286.288	81.62
286.52	83.62
286.751	80.62
286.982	87.62
287.213	69.62
287.444	86.62
287.675	89.62
287.906	92.62
288.138	83.62
288.369	82.62
288.6	104.62
288.831	89.62
289.062	81.62
289.293	100.62
289.524	70.62
289.755	81.62
289.986	82.62
290.217	91.62
290.448	76.62
290.679	81.62
290.91	91.62
291.141	78.62
291.371	83.62
291.602	87.62
291.833	79.62
292.064	77.62
292.295	79.62
292.526	75.62
292.757	81.62
292.987	79.62
293.218	95.62
293.449	82.62
293.68	67.62
293.91	67.62
294.141	84.62
294.372	75.62
294.603	85.62
294.833	76.62
295.064	89.62
295.295	87.62
295.525	94.62
295.756	96.62
295.987	85.62
296.217	75.62
296.448	92.62
296.679	77.62
296.909	83.62
297.14	76.62
297.37	100.62
297.601	77.62
297.831	68.62
298.062	89.62
298.292	73.62
298.523	89.62
298.753	89.62
298.984	78.62
299.214	80.62
299.445	92.62
299.675	64.62
299.905	81.62
300.136	76.62
300.366	83.62
300.597	86.62
300.827	86.62
301.057	73.62
301.288	84.62
301.518	87.62
301.748	79.62
301.979	88.62
302.209	91.62
302.439	81.62
302.669	88.62
302.9	85.62
303.13	94.62
303.36	87.62
303.59	81.62
303.82	97.62
304.051	82.62
304.281	91.62
304.511	74.62
304.741	78.62
304.971	85.62
305.201	86.62
305.431	97.62
305.661	84.62
305.891	87.62
306.121	91.62
306.352	78.62
306.582	83.62
306.812	81.62
307.042	94.62
307.272	77.62
307.502	93.62
307.731	78.62
307.961	71.62
308.191	79.62
308.421	77.62
308.651	82.62
308.881	79.62
309.111	83.62
309.341	86.62
309.571	86.62
309.8	82.62
310.03	86.62
310.26	80.62
310.49	76.62
310.72	95.62
310.949	77.62
311.179	82.62
311.409	104.62
311.639	74.62
311.868	91.62
312.098	91.62
312.328	74.62
312.557	77.62
312.787	80.62
313.017	73.62
313.246	85.62
313.476	70.62
313.706	80.62
313.935	84.62
314.165	87.62
314.394	78.62
314.624	95.62
314.853	83.62
315.083	79.62
315.312	87.62
315.542	81.62
315.771	75.62
316.001	90.62
316.23	89.62
316.46	76.62
316.689	74.62
316.919	78.62
317.148	79.62
317.377	84.62
317.607	77.62
317.836	91.62
318.065	76.62
318.295	91.62
318.524	76.62
318.753	76.62
318.983	90.62
319.212	85.62
319.441	65.62
319.67	67.62
319.9	77.62
320.129	77.62
320.358	93.62
320.587	72.62
320.816	86.62
321.046	78.62
321.275	96.62
321.504	78.62
321.733	76.62
321.962	83.62
322.191	81.62
322.42	95.62
322.649	86.62
322.878	77.62
323.108	76.62
323.337	87.62
323.566	99.62
323.795	104.62
324.024	87.62
324.253	100.62
324.482	125.62
324.71	121.62
324.939	131.62
325.168	113.62
325.397	99.62
325.626	69.62
325.855	86.62
326.084	90.62
326.313	89.62
326.542	93.62
326.77	85.62
326.999	94.62
327.228	97.62
327.457	131.62
327.686	117.62
327.914	90.62
328.143	105.62
328.372	105.62
328.6	78.62
328.829	97.62
329.058	83.62
329.287	70.62
329.515	85.62
329.744	83.62
329.972	97.62
330.201	115.62
330.43	112.62
330.658	88.62
330.887	79.62
331.115	80.62
331.344	88.62
331.572	88.62
331.801	81.62
332.03	79.62
332.258	88.62
332.486	90.62
332.715	91.62
332.943	71.62
333.172	92.62
333.4	86.62
333.629	82.62
333.857	78.62
334.085	96.62
334.314	119.62
334.542	128.62
334.771	123.62
334.999	73.62
335.227	87.62
335.455	75.62
335.684	87.62
335.912	83.62
336.14	59.62
336.369	88.62
336.597	84.62
336.825	85.62
337.053	81.62
337.281	73.62
337.51	84.62
337.738	98.62
337.966	73.62
338.194	77.62
338.422	90.62
338.65	88.62
338.878	80.62
339.106	85.62
339.334	89.62
339.562	78.62
339.79	83.62
340.018	82.62
340.246	73.62
340.474	72.62
340.702	92.62
340.93	75.62
341.158	75.62
341.386	78.62
341.614	81.62
341.842	90.62
342.07	88.62
342.298	88.62
342.526	77.62
342.754	64.62
342.981	81.62
343.209	87.62
343.437	91.62
343.665	92.62
343.893	92.62
344.12	81.62
344.348	88.62
344.576	78.62
344.804	91.62
345.031	97.62
345.259	93.62
345.487	85.62
345.714	78.62
345.942	76.62
346.17	84.62
346.397	83.62
346.625	91.62
346.853	84.62
347.08	72.62
347.308	88.62
347.535	91.62
347.763	81.62
347.99	83.62
348.218	79.62
348.445	71.62
348.673	69.62
348.9	81.62
349.128	79.62
349.355	80.62
349.583	88.62
349.81	79.62
350.037	71.62
350.265	82.62
350.492	95.62
350.72	90.62
350.947	81.62
351.174	85.62
351.402	84.62
351.629	90.62
351.856	88.62
352.083	91.62
352.311	83.62
352.538	77.62
352.765	91.62
352.992	92.62
353.22	91.62
353.447	76.62
353.674	87.62
353.901	75.62
354.128	74.62
354.355	76.62
354.583	82.62
354.81	91.62
355.037	81.62
355.264	93.62
355.491	88.62
355.718	78.62
355.945	85.62
356.172	83.62
356.399	79.62
356.626	71.62
356.853	85.62
357.08	88.62
357.307	75.62
357.534	85.62
357.761	90.62
357.988	85.62
358.215	88.62
358.441	90.62
358.668	71.62
358.895	81.62
359.122	102.62
359.349	89.62
359.576	92.62
359.802	83.62
360.029	72.62
360.256	91.62
360.483	68.62
360.709	83.62
360.936	101.62
361.163	88.62
361.39	72.62
361.616	82.62
361.843	91.62
362.07	78.62
362.296	75.62
362.523	85.62
362.749	86.62
362.976	93.62
363.203	94.62
363.429	76.62
363.656	102.62
363.882	70.62
364.109	96.62
364.335	84.62
364.562	61.62
364.788	77.62
365.015	84.62
365.241	80.62
365.468	86.62
365.694	73.62
365.92	76.62
366.147	69.62
366.373	92.62
366.599	86.62
366.826	85.62
367.052	99.62
367.278	88.62
367.505	76.62
367.731	91.62
367.957	92.62
368.184	83.62
368.41	74.62
368.636	68.62
368.862	77.62
369.089	77.62
369.315	75.62
369.541	88.62
369.767	79.62
369.993	73.62
370.219	93.62
370.445	92.62
370.672	78.62
370.898	91.62
371.124	80.62
371.35	81.62
371.576	76.62
371.802	95.62
372.028	67.62
372.254	85.62
372.48	86.62
372.706	65.62
372.932	67.62
373.158	82.62
373.384	75.62
373.61	88.62
373.835	77.62
374.061	87.62
374.287	89.62
374.513	71.62
374.739	77.62
374.965	93.62
375.191	83.62
375.416	91.62
375.642	91.62
375.868	85.62
376.094	83.62
376.319	97.62
376.545	91.62
376.771	89.62
376.997	77.62
377.222	60.62
377.448	76.62
377.674	79.62
377.899	93.62
378.125	73.62
378.35	85.62
378.576	96.62
378.802	87.62
379.027	88.62
379.253	89.62
379.478	82.62
379.704	89.62
379.929	78.62
380.155	82.62
380.38	71.62
380.606	75.62
380.831	92.62
381.057	93.62
381.282	84.62
381.507	97.62
381.733	82.62
381.958	81.62
382.184	85.62
382.409	65.62
382.634	80.62
382.86	78.62
383.085	82.62
383.31	83.62
383.535	82.62
383.761	93.62
383.986	88.62
384.211	83.62
384.436	73.62
384.662	68.62
384.887	79.62
385.112	85.62
385.337	66.62
385.562	63.62
385.787	94.62
386.013	82.62
386.238	72.62
386.463	76.62
386.688	90.62
386.913	83.62
387.138	82.62
387.363	73.62
387.588	73.62
387.813	70.62
388.038	89.62
388.263	85.62
388.488	79.62
388.713	91.62
388.938	89.62
389.163	68.62
389.387	83.62
389.612	87.62
389.837	81.62
390.062	73.62
390.287	85.62
390.512	77.62
390.736	87.62
390.961	76.62
391.186	77.62
391.411	75.62
391.636	76.62
391.86	86.62
392.085	73.62
392.31	95.62
392.534	83.62
392.759	78.62
392.984	75.62
393.208	64.62
393.433	75.62
393.658	77.62
393.882	70.62
394.107	85.62
394.331	97.62
394.556	79.62
394.78	78.62
395.005	87.62
395.229	79.62
395.454	89.62
395.678	74.62
395.903	84.62
396.127	93.62
396.352	85.62
396.576	82.62
396.801	65.62
397.025	84.62
397.249	74.62
397.474	83.62
397.698	88.62
397.922	76.62
398.147	67.62
398.371	69.62
398.595	88.62
398.82	79.62
399.044	95.62
399.268	90.62
399.492	99.62
399.717	85.62
399.941	75.62
400.165	79.62
400.389	69.62
400.613	85.62
400.837	91.62
401.062	68.62
401.286	60.62
401.51	83.62
401.734	79.62
401.958	75.62
402.182	83.62
402.406	91.62
402.63	82.62
402.854	95.62
403.078	81.62
403.302	77.62
403.526	71.62
403.75	85.62
403.974	78.62
404.198	89.62
404.422	86.62
404.645	76.62
404.869	83.62
405.093	78.62
405.317	86.62
405.541	81.62
405.765	77.62
405.988	81.62
406.212	85.62
406.436	102.62
406.66	81.62
406.883	75.62
407.107	77.62
407.331	87.62
407.555	80.62
407.778	95.62
408.002	88.62
408.226	89.62
408.449	89.62
408.673	80.62
408.896	70.62
409.12	76.62
409.344	83.62
409.567	90.62
409.791	71.62
410.014	99.62
410.238	81.62
410.461	77.62
410.685	89.62
410.908	81.62
411.132	74.62
411.355	71.62
411.578	73.62
411.802	79.62
412.025	61.62
412.249	83.62
412.472	79.62
412.695	79.62
412.919	79.62
413.142	89.62
413.365	85.62
413.589	73.62
413.812	81.62
414.035	88.62
414.258	91.62
414.482	72.62
414.705	79.62
414.928	95.62
415.151	86.62
415.374	77.62
415.597	80.62
415.821	75.62
416.044	77.62
416.267	90.62
416.49	77.62
416.713	75.62
416.936	88.62
417.159	85.62
417.382	81.62
417.605	82.62
417.828	83.62
418.051	92.62
418.274	83.62
418.497	95.62
418.72	86.62
418.943	72.62
419.166	72.62
419.389	80.62
419.611	77.62
419.834	77.62
420.057	85.62
420.28	64.62
420.503	79.62
420.726	82.62
420.948	84.62
421.171	71.62
421.394	78.62
421.617	71.62
421.839	84.62
422.062	77.62
422.285	86.62
422.507	93.62
422.73	94.62
422.953	81.62
423.175	74.62
423.398	71.62
423.621	88.62
423.843	81.62
424.066	72.62
424.288	75.62
424.511	86.62
424.733	88.62
424.956	80.62
425.178	90.62
425.401	87.62
425.623	76.62
425.846	82.62
426.068	80.62
426.291	68.62
426.513	73.62
426.735	89.62
426.958	76.62
427.18	81.62
427.402	85.62
427.625	101.62
427.847	93.62
428.069	76.62
428.292	77.62
428.514	93.62
428.736	95.62
428.958	69.62
429.181	91.62
429.403	83.62
429.625	82.62
429.847	71.62
430.069	81.62
430.292	78.62
430.514	85.62
430.736	92.62
430.958	80.62
431.18	74.62
431.402	68.62
431.624	80.62
431.846	75.62
432.068	76.62
432.29	85.62
432.512	76.62
432.734	69.62
432.956	78.62
433.178	91.62
433.4	83.62
433.622	77.62
433.844	84.62
434.066	89.62
434.287	95.62
434.509	81.62
434.731	78.62
434.953	77.62
435.175	90.62
435.397	86.62
435.618	77.62
435.84	77.62
436.062	78.62
436.284	79.62
436.505	69.62
436.727	101.62
436.949	80.62
437.17	95.62
437.392	79.62
437.614	87.62
437.835	80.62
438.057	79.62
438.278	88.62
438.5	77.62
438.721	72.62
438.943	84.62
439.165	84.62
439.386	79.62
439.608	101.62
439.829	83.62
440.05	96.62
440.272	80.62
440.493	78.62
440.715	77.62
440.936	87.62
441.158	92.62
441.379	75.62
441.6	79.62
441.822	86.62
442.043	90.62
442.264	78.62
442.486	90.62
442.707	84.62
442.928	86.62
443.149	78.62
443.371	88.62
443.592	72.62
443.813	88.62
444.034	89.62
444.255	77.62
444.476	84.62
444.698	81.62
444.919	76.62
445.14	159.62
445.361	121.62
445.582	85.62
445.803	77.62
446.024	75.62
446.245	87.62
446.466	84.62
446.687	83.62
446.908	94.62
447.129	77.62
447.35	76.62
447.571	82.62
447.792	77.62
448.013	84.62
448.234	82.62
448.455	96.62
448.675	89.62
448.896	87.62
449.117	78.62
449.338	87.62
449.559	69.62
449.779	76.62
450	73.62
450.221	72.62
450.442	83.62
450.662	89.62
450.883	88.62
451.104	103.62
451.324	87.62
451.545	88.62
451.766	101.62
451.986	85.62
452.207	78.62
452.428	84.62
452.648	96.62
452.869	77.62
453.089	84.62
453.31	87.62
453.53	85.62
453.751	78.62
453.971	72.62
454.192	77.62
454.412	73.62
454.633	96.62
454.853	78.62
455.073	95.62
455.294	79.62
455.514	80.62
455.734	69.62
455.955	83.62
456.175	96.62
456.395	86.62
456.616	84.62
456.836	83.62
457.056	64.62
457.276	86.62
457.497	81.62
457.717	78.62
457.937	60.62
458.157	74.62
458.377	92.62
458.598	67.62
458.818	74.62
459.038	67.62
459.258	81.62
459.478	83.62
459.698	95.62
459.918	86.62
460.138	84.62
460.358	81.62
460.578	90.62
460.798	90.62
461.018	84.62
461.238	83.62
461.458	95.62
461.678	93.62
461.898	74.62
462.118	89.62
462.338	76.62
462.558	76.62
462.777	84.62
462.997	84.62
463.217	75.62
463.437	71.62
463.657	92.62
463.876	85.62
464.096	73.62
464.316	85.62
464.536	85.62
464.755	101.62
464.975	78.62
465.195	86.62
465.414	81.62
465.634	83.62
465.854	87.62
466.073	93.62
466.293	64.62
466.512	89.62
466.732	84.62
466.951	74.62
467.171	85.62
467.391	98.62
467.61	89.62
467.829	79.62
468.049	111.62
468.268	97.62
468.488	83.62
468.707	84.62
468.927	75.62
469.146	79.62
469.365	74.62
469.585	92.62
469.804	77.62
470.023	74.62
470.243	83.62
470.462	81.62
470.681	92.62
470.901	96.62
471.12	87.62
471.339	79.62
471.558	91.62
471.777	80.62
471.997	101.62
472.216	126.62
472.435	144.62
472.654	92.62
472.873	100.62
473.092	82.62
473.311	93.62
473.53	86.62
473.749	75.62
473.968	78.62
474.187	73.62
474.406	79.62
474.625	82.62
474.844	83.62
475.063	68.62
475.282	89.62
475.501	82.62
475.72	83.62
475.939	77.62
476.158	67.62
476.377	71.62
476.596	61.62
476.814	79.62
477.033	83.62
477.252	78.62
477.471	74.62
477.69	88.62
477.908	81.62
478.127	88.62
478.346	79.62
478.564	91.62
478.783	72.62
479.002	87.62
479.22	85.62
479.439	84.62
479.658	81.62
479.876	99.62
480.095	76.62
480.313	83.62
480.532	99.62
480.751	103.62
480.969	116.62
481.188	211.62
481.406	131.62
481.624	73.62
481.843	71.62
482.061	103.62
482.28	70.62
482.498	92.62
482.717	79.62
482.935	82.62
483.153	81.62
483.372	80.62
483.59	75.62
483.808	72.62
484.027	84.62
484.245	88.62
484.463	63.62
484.681	87.62
484.9	87.62
485.118	72.62
485.336	83.62
485.554	75.62
485.772	89.62
485.99	86.62
486.209	81.62
486.427	87.62
486.645	85.62
486.863	65.62
487.081	79.62
487.299	73.62
487.517	86.62
487.735	68.62
487.953	80.62
488.171	67.62
488.389	83.62
488.607	81.62
488.825	76.62
489.043	96.62
489.261	77.62
489.479	82.62
489.696	75.62
489.914	86.62
490.132	75.62
490.35	90.62
490.568	87.62
490.786	75.62
491.003	80.62
491.221	92.62
491.439	71.62
491.657	90.62
491.874	77.62
492.092	85.62
492.31	79.62
492.527	73.62
492.745	75.62
492.963	96.62
493.18	92.62
493.398	87.62
493.615	89.62
493.833	77.62
494.05	80.62
494.268	99.62
494.485	91.62
494.703	79.62
494.92	75.62
495.138	96.62
495.355	86.62
495.573	85.62
495.79	76.62
496.008	82.62
496.225	92.62
496.442	86.62
496.66	72.62
496.877	87.62
497.094	93.62
497.312	89.62
497.529	84.62
497.746	89.62
497.963	80.62
498.181	92.62
498.398	74.62
498.615	83.62
498.832	83.62
499.049	79.62
499.267	85.62
499.484	90.62
499.701	82.62
499.918	74.62
500.135	80.62
500.352	73.62
500.569	74.62
500.786	100.62
501.003	95.62
501.22	79.62
501.437	74.62
501.654	98.62
501.871	83.62
502.088	93.62
502.305	94.62
502.522	90.62
502.739	103.62
502.956	88.62
503.172	73.62
503.389	90.62
503.606	76.62
503.823	81.62
504.04	71.62
504.256	88.62
504.473	84.62
504.69	78.62
504.907	77.62
505.123	77.62
505.34	76.62
505.557	81.62
505.773	82.62
505.99	80.62
506.207	88.62
506.423	87.62
506.64	89.62
506.856	97.62
507.073	87.62
507.289	75.62
507.506	83.62
507.722	83.62
507.939	78.62
508.155	93.62
508.372	81.62
508.588	84.62
508.805	67.62
509.021	89.62
509.238	94.62
509.454	81.62
509.67	83.62
509.887	74.62
510.103	74.62
510.319	96.62
510.536	128.62
510.752	189.62
510.968	105.62
511.184	83.62
511.401	88.62
511.617	90.62
511.833	81.62
512.049	77.62
512.265	90.62
512.481	93.62
512.698	83.62
512.914	87.62
513.13	89.62
513.346	93.62
513.562	80.62
513.778	83.62
513.994	83.62
514.21	89.62
514.426	77.62
514.642	85.62
514.858	89.62
515.074	103.62
515.29	115.62
515.506	161.62
515.721	95.62
515.937	88.62
516.153	78.62
516.369	78.62
516.585	79.62
516.801	74.62
517.016	83.62
517.232	95.62
517.448	90.62
517.664	88.62
517.879	93.62
518.095	83.62
518.311	73.62
518.527	72.62
518.742	75.62
518.958	89.62
519.173	76.62
519.389	78.62
519.605	73.62
