Data from Penny_3_HRD10591_00003.txt Node
Date: Wed Nov 05 15:35:10 EST 2025
User: Yrep
Spectrometer: HR+D1059
Trigger mode: 1
Integration Time (sec): 1.000000E-1
Scans to average: 1
Electric dark correction enabled: true
Nonlinearity correction enabled: false
Boxcar width: 0
XAxis mode: Wavelengths
Number of Pixels in Spectrum: 2048
>>>>>Begin Spectral Data<<<<<
223.165	-8.12
223.4	-8.12
223.635	-8.12
223.869	-26.12
224.104	-13.12
224.338	-20.12
224.573	-16.12
224.808	-21.12
225.042	6.88
225.277	-16.12
225.511	-4.12
225.746	-7.12
225.98	18.88
226.215	4.88
226.449	17.88
226.683	23.88
226.918	20.88
227.152	38.88
227.387	27.88
227.621	38.88
227.856	56.88
228.09	32.88
228.324	49.88
228.559	55.88
228.793	50.88
229.027	52.88
229.262	59.88
229.496	56.88
229.73	56.88
229.964	74.88
230.199	61.88
230.433	71.88
230.667	60.88
230.901	75.88
231.136	71.88
231.37	80.88
231.604	83.88
231.838	69.88
232.072	80.88
232.306	94.88
232.541	72.88
232.775	77.88
233.009	71.88
233.243	67.88
233.477	71.88
233.711	88.88
233.945	75.88
234.179	77.88
234.413	88.88
234.647	67.88
234.881	69.88
235.115	83.88
235.349	81.88
235.583	81.88
235.817	73.88
236.051	73.88
236.285	76.88
236.519	88.88
236.753	71.88
236.987	89.88
237.221	73.88
237.455	73.88
237.689	78.88
237.922	58.88
238.156	74.88
238.39	82.88
238.624	70.88
238.858	73.88
239.091	64.88
239.325	83.88
239.559	70.88
239.793	72.88
240.027	77.88
240.26	64.88
240.494	69.88
240.728	81.88
240.961	69.88
241.195	85.88
241.429	56.88
241.662	67.88
241.896	83.88
242.13	71.88
242.363	66.88
242.597	82.88
242.83	78.88
243.064	67.88
243.298	75.88
243.531	73.88
243.765	70.88
243.998	68.88
244.232	82.88
244.465	68.88
244.699	68.88
244.932	81.88
245.166	89.88
245.399	74.88
245.633	79.88
245.866	75.88
246.099	72.88
246.333	75.88
246.566	70.88
246.8	69.88
247.033	65.88
247.266	71.88
247.5	76.88
247.733	75.88
247.966	85.88
248.2	71.88
248.433	57.88
248.666	84.88
248.899	74.88
249.133	74.88
249.366	77.88
249.599	87.88
249.832	78.88
250.066	90.88
250.299	71.88
250.532	91.88
250.765	81.88
250.998	76.88
251.231	80.88
251.465	76.88
251.698	79.88
251.931	85.88
252.164	78.88
252.397	83.88
252.63	78.88
252.863	71.88
253.096	80.88
253.329	73.88
253.562	81.88
253.795	77.88
254.028	87.88
254.261	83.88
254.494	82.88
254.727	83.88
254.96	75.88
255.193	71.88
255.426	85.88
255.659	74.88
255.892	88.88
256.124	82.88
256.357	75.88
256.59	87.88
256.823	81.88
257.056	81.88
257.289	72.88
257.521	73.88
257.754	70.88
257.987	88.88
258.22	81.88
258.452	72.88
258.685	91.88
258.918	84.88
259.151	73.88
259.383	67.88
259.616	78.88
259.849	71.88
260.081	89.88
260.314	78.88
260.547	77.88
260.779	77.88
261.012	76.88
261.244	71.88
261.477	81.88
261.71	80.88
261.942	83.88
262.175	78.88
262.407	67.88
262.64	71.88
262.872	67.88
263.105	89.88
263.337	85.88
263.57	83.88
263.802	83.88
264.035	81.88
264.267	92.88
264.499	87.88
264.732	69.88
264.964	74.88
265.197	83.88
265.429	71.88
265.661	67.88
265.894	92.88
266.126	84.88
266.358	82.88
266.591	84.88
266.823	76.88
267.055	88.88
267.287	78.88
267.52	75.88
267.752	83.88
267.984	79.88
268.216	73.88
268.448	74.88
268.681	81.88
268.913	71.88
269.145	97.88
269.377	83.88
269.609	77.88
269.841	95.88
270.073	79.88
270.306	71.88
270.538	79.88
270.77	62.88
271.002	77.88
271.234	91.88
271.466	77.88
271.698	83.88
271.93	104.88
272.162	81.88
272.394	74.88
272.626	83.88
272.858	78.88
273.09	67.88
273.322	83.88
273.553	81.88
273.785	85.88
274.017	72.88
274.249	73.88
274.481	84.88
274.713	77.88
274.945	88.88
275.176	71.88
275.408	83.88
275.64	77.88
275.872	70.88
276.104	80.88
276.335	69.88
276.567	73.88
276.799	65.88
277.031	83.88
277.262	93.88
277.494	93.88
277.726	71.88
277.957	79.88
278.189	66.88
278.421	72.88
278.652	71.88
278.884	86.88
279.115	77.88
279.347	87.88
279.579	78.88
279.81	101.88
280.042	91.88
280.273	90.88
280.505	71.88
280.736	61.88
280.968	81.88
281.199	90.88
281.431	77.88
281.662	81.88
281.894	77.88
282.125	83.88
282.356	95.88
282.588	88.88
282.819	81.88
283.051	75.88
283.282	86.88
283.513	87.88
283.745	75.88
283.976	88.88
284.207	82.88
284.439	80.88
284.67	77.88
284.901	71.88
285.132	68.88
285.364	71.88
285.595	85.88
285.826	70.88
286.057	70.88
286.288	95.88
286.52	98.88
286.751	86.88
286.982	88.88
287.213	96.88
287.444	88.88
287.675	80.88
287.906	85.88
288.138	103.88
288.369	93.88
288.6	78.88
288.831	71.88
289.062	71.88
289.293	76.88
289.524	88.88
289.755	79.88
289.986	73.88
290.217	87.88
290.448	79.88
290.679	88.88
290.91	81.88
291.141	72.88
291.371	82.88
291.602	75.88
291.833	87.88
292.064	103.88
292.295	88.88
292.526	83.88
292.757	84.88
292.987	64.88
293.218	78.88
293.449	73.88
293.68	71.88
293.91	76.88
294.141	85.88
294.372	82.88
294.603	81.88
294.833	95.88
295.064	86.88
295.295	85.88
295.525	76.88
295.756	78.88
295.987	81.88
296.217	83.88
296.448	80.88
296.679	103.88
296.909	74.88
297.14	69.88
297.37	70.88
297.601	85.88
297.831	83.88
298.062	95.88
298.292	85.88
298.523	77.88
298.753	85.88
298.984	84.88
299.214	80.88
299.445	86.88
299.675	81.88
299.905	85.88
300.136	79.88
300.366	79.88
300.597	77.88
300.827	76.88
301.057	99.88
301.288	82.88
301.518	82.88
301.748	75.88
301.979	99.88
302.209	68.88
302.439	74.88
302.669	83.88
302.9	81.88
303.13	73.88
303.36	78.88
303.59	85.88
303.82	89.88
304.051	90.88
304.281	72.88
304.511	81.88
304.741	72.88
304.971	70.88
305.201	70.88
305.431	89.88
305.661	71.88
305.891	76.88
306.121	96.88
306.352	98.88
306.582	88.88
306.812	83.88
307.042	66.88
307.272	95.88
307.502	90.88
307.731	90.88
307.961	73.88
308.191	83.88
308.421	90.88
308.651	78.88
308.881	80.88
309.111	85.88
309.341	65.88
309.571	77.88
309.8	79.88
310.03	70.88
310.26	74.88
310.49	85.88
310.72	85.88
310.949	87.88
311.179	83.88
311.409	84.88
311.639	67.88
311.868	83.88
312.098	92.88
312.328	80.88
312.557	87.88
312.787	94.88
313.017	79.88
313.246	80.88
313.476	77.88
313.706	69.88
313.935	92.88
314.165	79.88
314.394	93.88
314.624	78.88
314.853	91.88
315.083	82.88
315.312	65.88
315.542	68.88
315.771	79.88
316.001	89.88
316.23	73.88
316.46	79.88
316.689	81.88
316.919	96.88
317.148	90.88
317.377	98.88
317.607	81.88
317.836	81.88
318.065	81.88
318.295	76.88
318.524	86.88
318.753	88.88
318.983	78.88
319.212	84.88
319.441	85.88
319.67	92.88
319.9	87.88
320.129	85.88
320.358	97.88
320.587	78.88
320.816	94.88
321.046	90.88
321.275	85.88
321.504	88.88
321.733	63.88
321.962	78.88
322.191	76.88
322.42	76.88
322.649	92.88
322.878	89.88
323.108	85.88
323.337	69.88
323.566	92.88
323.795	84.88
324.024	80.88
324.253	88.88
324.482	110.88
324.71	132.88
324.939	145.88
325.168	83.88
325.397	70.88
325.626	104.88
325.855	79.88
326.084	80.88
326.313	87.88
326.542	80.88
326.77	99.88
326.999	100.88
327.228	107.88
327.457	124.88
327.686	103.88
327.914	72.88
328.143	100.88
328.372	101.88
328.6	76.88
328.829	97.88
329.058	82.88
329.287	71.88
329.515	71.88
329.744	95.88
329.972	92.88
330.201	96.88
330.43	115.88
330.658	97.88
330.887	81.88
331.115	90.88
331.344	64.88
331.572	89.88
331.801	77.88
332.03	84.88
332.258	92.88
332.486	76.88
332.715	77.88
332.943	95.88
333.172	83.88
333.4	66.88
333.629	91.88
333.857	76.88
334.085	103.88
334.314	111.88
334.542	127.88
334.771	124.88
334.999	92.88
335.227	90.88
335.455	81.88
335.684	93.88
335.912	87.88
336.14	80.88
336.369	91.88
336.597	85.88
336.825	84.88
337.053	76.88
337.281	81.88
337.51	76.88
337.738	80.88
337.966	86.88
338.194	73.88
338.422	76.88
338.65	82.88
338.878	76.88
339.106	97.88
339.334	79.88
339.562	71.88
339.79	77.88
340.018	76.88
340.246	83.88
340.474	91.88
340.702	86.88
340.93	80.88
341.158	89.88
341.386	82.88
341.614	94.88
341.842	84.88
342.07	85.88
342.298	68.88
342.526	84.88
342.754	85.88
342.981	83.88
343.209	84.88
343.437	84.88
343.665	79.88
343.893	79.88
344.12	97.88
344.348	90.88
344.576	87.88
344.804	75.88
345.031	74.88
345.259	75.88
345.487	83.88
345.714	85.88
345.942	79.88
346.17	81.88
346.397	80.88
346.625	76.88
346.853	78.88
347.08	82.88
347.308	82.88
347.535	84.88
347.763	77.88
347.99	67.88
348.218	93.88
348.445	75.88
348.673	71.88
348.9	78.88
349.128	81.88
349.355	85.88
349.583	75.88
349.81	79.88
350.037	85.88
350.265	88.88
350.492	71.88
350.72	86.88
350.947	78.88
351.174	78.88
351.402	84.88
351.629	68.88
351.856	76.88
352.083	87.88
352.311	89.88
352.538	94.88
352.765	88.88
352.992	83.88
353.22	70.88
353.447	73.88
353.674	98.88
353.901	80.88
354.128	95.88
354.355	85.88
354.583	82.88
354.81	72.88
355.037	73.88
355.264	88.88
355.491	81.88
355.718	81.88
355.945	77.88
356.172	71.88
356.399	82.88
356.626	87.88
356.853	71.88
357.08	75.88
357.307	85.88
357.534	84.88
357.761	73.88
357.988	83.88
358.215	72.88
358.441	81.88
358.668	72.88
358.895	84.88
359.122	73.88
359.349	89.88
359.576	73.88
359.802	81.88
360.029	92.88
360.256	83.88
360.483	106.88
360.709	84.88
360.936	77.88
361.163	76.88
361.39	64.88
361.616	77.88
361.843	69.88
362.07	84.88
362.296	87.88
362.523	82.88
362.749	71.88
362.976	84.88
363.203	97.88
363.429	84.88
363.656	82.88
363.882	85.88
364.109	81.88
364.335	94.88
364.562	89.88
364.788	71.88
365.015	83.88
365.241	69.88
365.468	81.88
365.694	72.88
365.92	90.88
366.147	85.88
366.373	73.88
366.599	69.88
366.826	72.88
367.052	83.88
367.278	80.88
367.505	75.88
367.731	100.88
367.957	62.88
368.184	85.88
368.41	77.88
368.636	80.88
368.862	79.88
369.089	86.88
369.315	84.88
369.541	78.88
369.767	87.88
369.993	76.88
370.219	84.88
370.445	63.88
370.672	77.88
370.898	82.88
371.124	90.88
371.35	81.88
371.576	83.88
371.802	84.88
372.028	76.88
372.254	77.88
372.48	93.88
372.706	74.88
372.932	72.88
373.158	75.88
373.384	77.88
373.61	85.88
373.835	84.88
374.061	77.88
374.287	83.88
374.513	72.88
374.739	86.88
374.965	79.88
375.191	80.88
375.416	85.88
375.642	71.88
375.868	67.88
376.094	67.88
376.319	80.88
376.545	90.88
376.771	84.88
376.997	71.88
377.222	68.88
377.448	77.88
377.674	87.88
377.899	85.88
378.125	72.88
378.35	83.88
378.576	83.88
378.802	91.88
379.027	74.88
379.253	83.88
379.478	83.88
379.704	76.88
379.929	81.88
380.155	69.88
380.38	81.88
380.606	83.88
380.831	88.88
381.057	73.88
381.282	95.88
381.507	91.88
381.733	85.88
381.958	82.88
382.184	83.88
382.409	81.88
382.634	82.88
382.86	68.88
383.085	81.88
383.31	82.88
383.535	83.88
383.761	81.88
383.986	66.88
384.211	73.88
384.436	73.88
384.662	91.88
384.887	86.88
385.112	81.88
385.337	87.88
385.562	83.88
385.787	95.88
386.013	77.88
386.238	74.88
386.463	77.88
386.688	84.88
386.913	66.88
387.138	82.88
387.363	76.88
387.588	88.88
387.813	71.88
388.038	68.88
388.263	60.88
388.488	81.88
388.713	77.88
388.938	70.88
389.163	93.88
389.387	73.88
389.612	92.88
389.837	90.88
390.062	72.88
390.287	76.88
390.512	67.88
390.736	65.88
390.961	72.88
391.186	87.88
391.411	71.88
391.636	84.88
391.86	81.88
392.085	75.88
392.31	72.88
392.534	69.88
392.759	77.88
392.984	90.88
393.208	70.88
393.433	96.88
393.658	79.88
393.882	90.88
394.107	84.88
394.331	77.88
394.556	82.88
394.78	85.88
395.005	64.88
395.229	89.88
395.454	80.88
395.678	80.88
395.903	88.88
396.127	80.88
396.352	89.88
396.576	87.88
396.801	78.88
397.025	67.88
397.249	77.88
397.474	73.88
397.698	68.88
397.922	77.88
398.147	75.88
398.371	77.88
398.595	91.88
398.82	73.88
399.044	79.88
399.268	73.88
399.492	75.88
399.717	78.88
399.941	82.88
400.165	82.88
400.389	67.88
400.613	79.88
400.837	68.88
401.062	77.88
401.286	78.88
401.51	75.88
401.734	62.88
401.958	76.88
402.182	86.88
402.406	74.88
402.63	75.88
402.854	72.88
403.078	90.88
403.302	84.88
403.526	86.88
403.75	79.88
403.974	81.88
404.198	79.88
404.422	92.88
404.645	79.88
404.869	82.88
405.093	74.88
405.317	80.88
405.541	89.88
405.765	66.88
405.988	84.88
406.212	95.88
406.436	88.88
406.66	93.88
406.883	77.88
407.107	65.88
407.331	93.88
407.555	83.88
407.778	78.88
408.002	89.88
408.226	76.88
408.449	67.88
408.673	68.88
408.896	77.88
409.12	76.88
409.344	76.88
409.567	76.88
409.791	84.88
410.014	90.88
410.238	80.88
410.461	67.88
410.685	83.88
410.908	85.88
411.132	98.88
411.355	84.88
411.578	89.88
411.802	81.88
412.025	83.88
412.249	73.88
412.472	76.88
412.695	71.88
412.919	64.88
413.142	68.88
413.365	87.88
413.589	86.88
413.812	81.88
414.035	77.88
414.258	75.88
414.482	83.88
414.705	103.88
414.928	83.88
415.151	71.88
415.374	70.88
415.597	83.88
415.821	68.88
416.044	75.88
416.267	85.88
416.49	82.88
416.713	89.88
416.936	82.88
417.159	80.88
417.382	69.88
417.605	69.88
417.828	69.88
418.051	95.88
418.274	78.88
418.497	67.88
418.72	78.88
418.943	88.88
419.166	90.88
419.389	77.88
419.611	83.88
419.834	71.88
420.057	76.88
420.28	80.88
420.503	84.88
420.726	87.88
420.948	83.88
421.171	106.88
421.394	82.88
421.617	72.88
421.839	69.88
422.062	99.88
422.285	90.88
422.507	69.88
422.73	82.88
422.953	79.88
423.175	78.88
423.398	69.88
423.621	77.88
423.843	75.88
424.066	92.88
424.288	76.88
424.511	75.88
424.733	72.88
424.956	82.88
425.178	78.88
425.401	75.88
425.623	90.88
425.846	77.88
426.068	81.88
426.291	87.88
426.513	86.88
426.735	82.88
426.958	81.88
427.18	67.88
427.402	83.88
427.625	83.88
427.847	82.88
428.069	85.88
428.292	88.88
428.514	81.88
428.736	87.88
428.958	65.88
429.181	77.88
429.403	86.88
429.625	79.88
429.847	74.88
430.069	85.88
430.292	75.88
430.514	84.88
430.736	83.88
430.958	71.88
431.18	73.88
431.402	75.88
431.624	73.88
431.846	89.88
432.068	96.88
432.29	64.88
432.512	83.88
432.734	79.88
432.956	83.88
433.178	84.88
433.4	68.88
433.622	60.88
433.844	85.88
434.066	89.88
434.287	85.88
434.509	76.88
434.731	84.88
434.953	63.88
435.175	87.88
435.397	82.88
435.618	83.88
435.84	84.88
436.062	82.88
436.284	65.88
436.505	74.88
436.727	74.88
436.949	67.88
437.17	81.88
437.392	73.88
437.614	87.88
437.835	95.88
438.057	90.88
438.278	80.88
438.5	73.88
438.721	80.88
438.943	72.88
439.165	68.88
439.386	72.88
439.608	92.88
439.829	83.88
440.05	81.88
440.272	82.88
440.493	88.88
440.715	79.88
440.936	71.88
441.158	80.88
441.379	95.88
441.6	80.88
441.822	79.88
442.043	85.88
442.264	76.88
442.486	77.88
442.707	77.88
442.928	64.88
443.149	80.88
443.371	80.88
443.592	87.88
443.813	73.88
444.034	87.88
444.255	87.88
444.476	88.88
444.698	81.88
444.919	83.88
445.14	149.88
445.361	116.88
445.582	84.88
445.803	84.88
446.024	91.88
446.245	83.88
446.466	79.88
446.687	77.88
446.908	85.88
447.129	87.88
447.35	76.88
447.571	87.88
447.792	77.88
448.013	89.88
448.234	79.88
448.455	85.88
448.675	76.88
448.896	87.88
449.117	74.88
449.338	83.88
449.559	71.88
449.779	91.88
450	90.88
450.221	78.88
450.442	71.88
450.662	69.88
450.883	56.88
451.104	77.88
451.324	75.88
451.545	74.88
451.766	79.88
451.986	80.88
452.207	89.88
452.428	89.88
452.648	84.88
452.869	95.88
453.089	83.88
453.31	77.88
453.53	90.88
453.751	77.88
453.971	84.88
454.192	74.88
454.412	79.88
454.633	67.88
454.853	92.88
455.073	81.88
455.294	68.88
455.514	61.88
455.734	85.88
455.955	87.88
456.175	81.88
456.395	85.88
456.616	84.88
456.836	78.88
457.056	87.88
457.276	75.88
457.497	70.88
457.717	92.88
457.937	86.88
458.157	74.88
458.377	87.88
458.598	77.88
458.818	81.88
459.038	83.88
459.258	79.88
459.478	81.88
459.698	70.88
459.918	71.88
460.138	73.88
460.358	71.88
460.578	94.88
460.798	83.88
461.018	85.88
461.238	74.88
461.458	75.88
461.678	84.88
461.898	79.88
462.118	93.88
462.338	82.88
462.558	78.88
462.777	80.88
462.997	82.88
463.217	96.88
463.437	83.88
463.657	65.88
463.876	69.88
464.096	80.88
464.316	89.88
464.536	80.88
464.755	77.88
464.975	83.88
465.195	101.88
465.414	81.88
465.634	67.88
465.854	75.88
466.073	76.88
466.293	84.88
466.512	77.88
466.732	90.88
466.951	85.88
467.171	71.88
467.391	71.88
467.61	91.88
467.829	74.88
468.049	97.88
468.268	123.88
468.488	93.88
468.707	84.88
468.927	80.88
469.146	96.88
469.365	82.88
469.585	96.88
469.804	69.88
470.023	82.88
470.243	75.88
470.462	92.88
470.681	101.88
470.901	96.88
471.12	77.88
471.339	99.88
471.558	77.88
471.777	78.88
471.997	99.88
472.216	137.88
472.435	159.88
472.654	77.88
472.873	82.88
473.092	81.88
473.311	78.88
473.53	91.88
473.749	81.88
473.968	88.88
474.187	89.88
474.406	83.88
474.625	79.88
474.844	81.88
475.063	69.88
475.282	74.88
475.501	86.88
475.72	100.88
475.939	73.88
476.158	81.88
476.377	80.88
476.596	86.88
476.814	73.88
477.033	74.88
477.252	67.88
477.471	73.88
477.69	77.88
477.908	72.88
478.127	97.88
478.346	71.88
478.564	94.88
478.783	70.88
479.002	82.88
479.22	81.88
479.439	81.88
479.658	89.88
479.876	77.88
480.095	84.88
480.313	67.88
480.532	95.88
480.751	107.88
480.969	115.88
481.188	217.88
481.406	131.88
481.624	81.88
481.843	83.88
482.061	64.88
482.28	93.88
482.498	84.88
482.717	77.88
482.935	72.88
483.153	75.88
483.372	89.88
483.59	77.88
483.808	75.88
484.027	83.88
484.245	83.88
484.463	78.88
484.681	87.88
484.9	72.88
485.118	83.88
485.336	72.88
485.554	76.88
485.772	88.88
485.99	99.88
486.209	73.88
486.427	67.88
486.645	82.88
486.863	87.88
487.081	82.88
487.299	81.88
487.517	92.88
487.735	75.88
487.953	68.88
488.171	83.88
488.389	85.88
488.607	87.88
488.825	87.88
489.043	82.88
489.261	86.88
489.479	89.88
489.696	75.88
489.914	89.88
490.132	73.88
490.35	72.88
490.568	83.88
490.786	79.88
491.003	80.88
491.221	83.88
491.439	81.88
491.657	65.88
491.874	75.88
492.092	81.88
492.31	73.88
492.527	76.88
492.745	86.88
492.963	76.88
493.18	81.88
493.398	89.88
493.615	89.88
493.833	72.88
494.05	85.88
494.268	79.88
494.485	88.88
494.703	74.88
494.92	88.88
495.138	84.88
495.355	92.88
495.573	92.88
495.79	74.88
496.008	79.88
496.225	70.88
496.442	89.88
496.66	103.88
496.877	90.88
497.094	85.88
497.312	87.88
497.529	70.88
497.746	84.88
497.963	84.88
498.181	83.88
498.398	59.88
498.615	77.88
498.832	75.88
499.049	71.88
499.267	91.88
499.484	86.88
499.701	76.88
499.918	75.88
500.135	77.88
500.352	84.88
500.569	79.88
500.786	89.88
501.003	77.88
501.22	73.88
501.437	90.88
501.654	79.88
501.871	61.88
502.088	87.88
502.305	84.88
502.522	68.88
502.739	72.88
502.956	69.88
503.172	99.88
503.389	83.88
503.606	87.88
503.823	74.88
504.04	88.88
504.256	86.88
504.473	67.88
504.69	85.88
504.907	85.88
505.123	79.88
505.34	77.88
505.557	84.88
505.773	75.88
505.99	83.88
506.207	80.88
506.423	86.88
506.64	73.88
506.856	85.88
507.073	82.88
507.289	77.88
507.506	91.88
507.722	77.88
507.939	72.88
508.155	87.88
508.372	67.88
508.588	82.88
508.805	61.88
509.021	64.88
509.238	73.88
509.454	65.88
509.67	69.88
509.887	91.88
510.103	83.88
510.319	84.88
510.536	139.88
510.752	203.88
510.968	85.88
511.184	78.88
511.401	82.88
511.617	74.88
511.833	93.88
512.049	69.88
512.265	83.88
512.481	83.88
512.698	82.88
512.914	86.88
513.13	101.88
513.346	96.88
513.562	83.88
513.778	81.88
513.994	71.88
514.21	89.88
514.426	96.88
514.642	87.88
514.858	80.88
515.074	90.88
515.29	128.88
515.506	178.88
515.721	115.88
515.937	75.88
516.153	74.88
516.369	77.88
516.585	79.88
516.801	88.88
517.016	86.88
517.232	75.88
517.448	71.88
517.664	80.88
517.879	74.88
518.095	74.88
518.311	80.88
518.527	79.88
518.742	82.88
518.958	85.88
519.173	75.88
519.389	86.88
519.605	83.88
519.82	85.88
