Data from Penny_3_HRD10591_00015.txt Node
Date: Wed Nov 05 15:35:16 EST 2025
User: Yrep
Spectrometer: HR+D1059
Trigger mode: 1
Integration Time (sec): 1.000000E-1
Scans to average: 1
Electric dark correction enabled: true
Nonlinearity correction enabled: false
Boxcar width: 0
XAxis mode: Wavelengths
Number of Pixels in Spectrum: 2048
>>>>>Begin Spectral Data<<<<<
223.165	-13.38
223.4	-13.38
223.635	-13.38
223.869	-13.38
224.104	-21.38
224.338	-17.38
224.573	-10.38
224.808	-10.38
225.042	3.62
225.277	-17.38
225.511	-3.38
225.746	-1.38
225.98	13.62
226.215	10.62
226.449	21.62
226.683	16.62
226.918	20.62
227.152	21.62
227.387	30.62
227.621	37.62
227.856	51.62
228.09	33.62
228.324	59.62
228.559	44.62
228.793	57.62
229.027	86.62
229.262	67.62
229.496	58.62
229.73	71.62
229.964	89.62
230.199	72.62
230.433	75.62
230.667	72.62
230.901	60.62
231.136	67.62
231.37	85.62
231.604	80.62
231.838	85.62
232.072	89.62
232.306	80.62
232.541	75.62
232.775	74.62
233.009	87.62
233.243	67.62
233.477	72.62
233.711	90.62
233.945	84.62
234.179	74.62
234.413	91.62
234.647	78.62
234.881	80.62
235.115	71.62
235.349	79.62
235.583	85.62
235.817	77.62
236.051	83.62
236.285	89.62
236.519	64.62
236.753	91.62
236.987	62.62
237.221	67.62
237.455	84.62
237.689	97.62
237.922	74.62
238.156	77.62
238.39	87.62
238.624	69.62
238.858	81.62
239.091	75.62
239.325	81.62
239.559	87.62
239.793	85.62
240.027	77.62
240.26	75.62
240.494	81.62
240.728	74.62
240.961	77.62
241.195	77.62
241.429	73.62
241.662	80.62
241.896	60.62
242.13	81.62
242.363	71.62
242.597	87.62
242.83	70.62
243.064	65.62
243.298	77.62
243.531	77.62
243.765	77.62
243.998	68.62
244.232	87.62
244.465	78.62
244.699	87.62
244.932	68.62
245.166	73.62
245.399	78.62
245.633	66.62
245.866	77.62
246.099	85.62
246.333	84.62
246.566	89.62
246.8	70.62
247.033	71.62
247.266	87.62
247.5	69.62
247.733	71.62
247.966	79.62
248.2	78.62
248.433	69.62
248.666	83.62
248.899	71.62
249.133	95.62
249.366	73.62
249.599	77.62
249.832	68.62
250.066	76.62
250.299	78.62
250.532	79.62
250.765	66.62
250.998	77.62
251.231	67.62
251.465	82.62
251.698	75.62
251.931	75.62
252.164	80.62
252.397	71.62
252.63	77.62
252.863	63.62
253.096	61.62
253.329	82.62
253.562	80.62
253.795	75.62
254.028	73.62
254.261	84.62
254.494	89.62
254.727	68.62
254.96	75.62
255.193	99.62
255.426	83.62
255.659	91.62
255.892	86.62
256.124	71.62
256.357	86.62
256.59	79.62
256.823	91.62
257.056	86.62
257.289	93.62
257.521	77.62
257.754	66.62
257.987	82.62
258.22	74.62
258.452	85.62
258.685	81.62
258.918	85.62
259.151	83.62
259.383	81.62
259.616	78.62
259.849	91.62
260.081	78.62
260.314	75.62
260.547	72.62
260.779	88.62
261.012	81.62
261.244	93.62
261.477	74.62
261.71	72.62
261.942	68.62
262.175	76.62
262.407	79.62
262.64	76.62
262.872	80.62
263.105	71.62
263.337	76.62
263.57	77.62
263.802	80.62
264.035	79.62
264.267	75.62
264.499	87.62
264.732	89.62
264.964	89.62
265.197	78.62
265.429	83.62
265.661	82.62
265.894	69.62
266.126	87.62
266.358	79.62
266.591	99.62
266.823	76.62
267.055	80.62
267.287	74.62
267.52	87.62
267.752	84.62
267.984	73.62
268.216	80.62
268.448	85.62
268.681	86.62
268.913	86.62
269.145	85.62
269.377	73.62
269.609	85.62
269.841	64.62
270.073	97.62
270.306	88.62
270.538	79.62
270.77	72.62
271.002	82.62
271.234	83.62
271.466	77.62
271.698	79.62
271.93	78.62
272.162	81.62
272.394	83.62
272.626	76.62
272.858	77.62
273.09	83.62
273.322	85.62
273.553	84.62
273.785	82.62
274.017	72.62
274.249	84.62
274.481	68.62
274.713	73.62
274.945	89.62
275.176	85.62
275.408	89.62
275.64	92.62
275.872	90.62
276.104	80.62
276.335	85.62
276.567	84.62
276.799	78.62
277.031	85.62
277.262	71.62
277.494	98.62
277.726	89.62
277.957	83.62
278.189	81.62
278.421	72.62
278.652	98.62
278.884	84.62
279.115	79.62
279.347	97.62
279.579	78.62
279.81	95.62
280.042	95.62
280.273	79.62
280.505	77.62
280.736	77.62
280.968	92.62
281.199	87.62
281.431	87.62
281.662	90.62
281.894	91.62
282.125	77.62
282.356	84.62
282.588	90.62
282.819	80.62
283.051	86.62
283.282	80.62
283.513	75.62
283.745	74.62
283.976	84.62
284.207	87.62
284.439	87.62
284.67	86.62
284.901	67.62
285.132	88.62
285.364	83.62
285.595	86.62
285.826	80.62
286.057	89.62
286.288	79.62
286.52	89.62
286.751	82.62
286.982	79.62
287.213	73.62
287.444	78.62
287.675	88.62
287.906	95.62
288.138	82.62
288.369	75.62
288.6	97.62
288.831	97.62
289.062	85.62
289.293	85.62
289.524	93.62
289.755	92.62
289.986	81.62
290.217	94.62
290.448	79.62
290.679	84.62
290.91	77.62
291.141	77.62
291.371	87.62
291.602	91.62
291.833	80.62
292.064	74.62
292.295	87.62
292.526	98.62
292.757	73.62
292.987	81.62
293.218	76.62
293.449	91.62
293.68	65.62
293.91	66.62
294.141	92.62
294.372	83.62
294.603	87.62
294.833	83.62
295.064	82.62
295.295	80.62
295.525	91.62
295.756	81.62
295.987	85.62
296.217	79.62
296.448	89.62
296.679	93.62
296.909	75.62
297.14	85.62
297.37	94.62
297.601	80.62
297.831	81.62
298.062	88.62
298.292	75.62
298.523	76.62
298.753	80.62
298.984	80.62
299.214	75.62
299.445	93.62
299.675	84.62
299.905	89.62
300.136	83.62
300.366	73.62
300.597	71.62
300.827	89.62
301.057	83.62
301.288	90.62
301.518	72.62
301.748	63.62
301.979	87.62
302.209	74.62
302.439	79.62
302.669	77.62
302.9	78.62
303.13	82.62
303.36	83.62
303.59	82.62
303.82	94.62
304.051	77.62
304.281	103.62
304.511	100.62
304.741	93.62
304.971	78.62
305.201	89.62
305.431	79.62
305.661	68.62
305.891	85.62
306.121	89.62
306.352	73.62
306.582	88.62
306.812	87.62
307.042	89.62
307.272	83.62
307.502	89.62
307.731	80.62
307.961	87.62
308.191	87.62
308.421	87.62
308.651	80.62
308.881	78.62
309.111	86.62
309.341	89.62
309.571	84.62
309.8	70.62
310.03	90.62
310.26	90.62
310.49	92.62
310.72	94.62
310.949	88.62
311.179	93.62
311.409	87.62
311.639	64.62
311.868	77.62
312.098	82.62
312.328	85.62
312.557	103.62
312.787	77.62
313.017	79.62
313.246	85.62
313.476	78.62
313.706	79.62
313.935	77.62
314.165	90.62
314.394	72.62
314.624	92.62
314.853	86.62
315.083	86.62
315.312	76.62
315.542	92.62
315.771	80.62
316.001	96.62
316.23	80.62
316.46	67.62
316.689	77.62
316.919	85.62
317.148	95.62
317.377	101.62
317.607	99.62
317.836	88.62
318.065	63.62
318.295	84.62
318.524	89.62
318.753	83.62
318.983	74.62
319.212	94.62
319.441	82.62
319.67	100.62
319.9	76.62
320.129	77.62
320.358	87.62
320.587	86.62
320.816	89.62
321.046	71.62
321.275	84.62
321.504	76.62
321.733	78.62
321.962	75.62
322.191	69.62
322.42	103.62
322.649	88.62
322.878	81.62
323.108	87.62
323.337	84.62
323.566	93.62
323.795	99.62
324.024	85.62
324.253	105.62
324.482	107.62
324.71	139.62
324.939	140.62
325.168	97.62
325.397	95.62
325.626	78.62
325.855	89.62
326.084	84.62
326.313	85.62
326.542	87.62
326.77	92.62
326.999	111.62
327.228	125.62
327.457	135.62
327.686	123.62
327.914	111.62
328.143	97.62
328.372	96.62
328.6	95.62
328.829	97.62
329.058	91.62
329.287	95.62
329.515	74.62
329.744	102.62
329.972	112.62
330.201	102.62
330.43	106.62
330.658	85.62
330.887	84.62
331.115	79.62
331.344	81.62
331.572	89.62
331.801	72.62
332.03	95.62
332.258	91.62
332.486	77.62
332.715	71.62
332.943	81.62
333.172	97.62
333.4	80.62
333.629	84.62
333.857	81.62
334.085	94.62
334.314	114.62
334.542	121.62
334.771	117.62
334.999	91.62
335.227	84.62
335.455	80.62
335.684	90.62
335.912	87.62
336.14	94.62
336.369	84.62
336.597	85.62
336.825	78.62
337.053	80.62
337.281	75.62
337.51	85.62
337.738	75.62
337.966	79.62
338.194	84.62
338.422	83.62
338.65	79.62
338.878	102.62
339.106	82.62
339.334	85.62
339.562	84.62
339.79	77.62
340.018	74.62
340.246	94.62
340.474	83.62
340.702	77.62
340.93	80.62
341.158	79.62
341.386	82.62
341.614	73.62
341.842	74.62
342.07	90.62
342.298	86.62
342.526	79.62
342.754	72.62
342.981	93.62
343.209	71.62
343.437	96.62
343.665	79.62
343.893	87.62
344.12	85.62
344.348	92.62
344.576	72.62
344.804	77.62
345.031	75.62
345.259	87.62
345.487	70.62
345.714	92.62
345.942	94.62
346.17	97.62
346.397	77.62
346.625	69.62
346.853	85.62
347.08	95.62
347.308	84.62
347.535	87.62
347.763	103.62
347.99	82.62
348.218	78.62
348.445	100.62
348.673	83.62
348.9	91.62
349.128	87.62
349.355	80.62
349.583	89.62
349.81	80.62
350.037	92.62
350.265	82.62
350.492	82.62
350.72	108.62
350.947	87.62
351.174	85.62
351.402	77.62
351.629	95.62
351.856	97.62
352.083	73.62
352.311	83.62
352.538	85.62
352.765	86.62
352.992	82.62
353.22	85.62
353.447	89.62
353.674	86.62
353.901	84.62
354.128	88.62
354.355	91.62
354.583	83.62
354.81	74.62
355.037	79.62
355.264	91.62
355.491	69.62
355.718	81.62
355.945	91.62
356.172	85.62
356.399	86.62
356.626	89.62
356.853	80.62
357.08	88.62
357.307	69.62
357.534	71.62
357.761	87.62
357.988	85.62
358.215	82.62
358.441	90.62
358.668	104.62
358.895	79.62
359.122	69.62
359.349	75.62
359.576	79.62
359.802	83.62
360.029	69.62
360.256	80.62
360.483	86.62
360.709	70.62
360.936	89.62
361.163	94.62
361.39	81.62
361.616	79.62
361.843	85.62
362.07	92.62
362.296	93.62
362.523	85.62
362.749	69.62
362.976	69.62
363.203	79.62
363.429	75.62
363.656	82.62
363.882	79.62
364.109	93.62
364.335	77.62
364.562	70.62
364.788	90.62
365.015	77.62
365.241	73.62
365.468	75.62
365.694	87.62
365.92	83.62
366.147	66.62
366.373	91.62
366.599	82.62
366.826	99.62
367.052	80.62
367.278	89.62
367.505	81.62
367.731	93.62
367.957	91.62
368.184	79.62
368.41	83.62
368.636	87.62
368.862	104.62
369.089	97.62
369.315	84.62
369.541	94.62
369.767	89.62
369.993	95.62
370.219	70.62
370.445	75.62
370.672	82.62
370.898	82.62
371.124	82.62
371.35	93.62
371.576	79.62
371.802	87.62
372.028	74.62
372.254	100.62
372.48	93.62
372.706	85.62
372.932	86.62
373.158	85.62
373.384	67.62
373.61	77.62
373.835	82.62
374.061	78.62
374.287	90.62
374.513	86.62
374.739	84.62
374.965	78.62
375.191	88.62
375.416	76.62
375.642	93.62
375.868	79.62
376.094	76.62
376.319	87.62
376.545	69.62
376.771	78.62
376.997	79.62
377.222	86.62
377.448	73.62
377.674	75.62
377.899	76.62
378.125	89.62
378.35	86.62
378.576	92.62
378.802	83.62
379.027	80.62
379.253	79.62
379.478	85.62
379.704	74.62
379.929	85.62
380.155	96.62
380.38	85.62
380.606	77.62
380.831	87.62
381.057	95.62
381.282	84.62
381.507	89.62
381.733	83.62
381.958	68.62
382.184	94.62
382.409	69.62
382.634	71.62
382.86	78.62
383.085	92.62
383.31	93.62
383.535	95.62
383.761	82.62
383.986	80.62
384.211	89.62
384.436	67.62
384.662	75.62
384.887	79.62
385.112	75.62
385.337	74.62
385.562	79.62
385.787	77.62
386.013	79.62
386.238	89.62
386.463	85.62
386.688	103.62
386.913	88.62
387.138	81.62
387.363	80.62
387.588	77.62
387.813	81.62
388.038	72.62
388.263	82.62
388.488	100.62
388.713	76.62
388.938	84.62
389.163	83.62
389.387	96.62
389.612	88.62
389.837	78.62
390.062	70.62
390.287	89.62
390.512	93.62
390.736	83.62
390.961	82.62
391.186	77.62
391.411	77.62
391.636	90.62
391.86	83.62
392.085	88.62
392.31	68.62
392.534	77.62
392.759	80.62
392.984	79.62
393.208	97.62
393.433	80.62
393.658	82.62
393.882	91.62
394.107	85.62
394.331	79.62
394.556	67.62
394.78	75.62
395.005	92.62
395.229	73.62
395.454	88.62
395.678	92.62
395.903	85.62
396.127	83.62
396.352	85.62
396.576	71.62
396.801	87.62
397.025	78.62
397.249	74.62
397.474	86.62
397.698	73.62
397.922	71.62
398.147	83.62
398.371	81.62
398.595	76.62
398.82	84.62
399.044	74.62
399.268	76.62
399.492	69.62
399.717	100.62
399.941	99.62
400.165	69.62
400.389	76.62
400.613	85.62
400.837	86.62
401.062	79.62
401.286	82.62
401.51	74.62
401.734	77.62
401.958	82.62
402.182	87.62
402.406	94.62
402.63	97.62
402.854	89.62
403.078	90.62
403.302	89.62
403.526	93.62
403.75	86.62
403.974	73.62
404.198	80.62
404.422	75.62
404.645	89.62
404.869	80.62
405.093	79.62
405.317	92.62
405.541	91.62
405.765	88.62
405.988	74.62
406.212	93.62
406.436	79.62
406.66	83.62
406.883	90.62
407.107	67.62
407.331	79.62
407.555	80.62
407.778	78.62
408.002	100.62
408.226	90.62
408.449	83.62
408.673	98.62
408.896	89.62
409.12	81.62
409.344	82.62
409.567	90.62
409.791	82.62
410.014	67.62
410.238	77.62
410.461	83.62
410.685	82.62
410.908	75.62
411.132	92.62
411.355	93.62
411.578	80.62
411.802	72.62
412.025	83.62
412.249	52.62
412.472	87.62
412.695	75.62
412.919	73.62
413.142	87.62
413.365	83.62
413.589	87.62
413.812	71.62
414.035	80.62
414.258	77.62
414.482	73.62
414.705	73.62
414.928	82.62
415.151	82.62
415.374	75.62
415.597	74.62
415.821	65.62
416.044	73.62
416.267	76.62
416.49	84.62
416.713	67.62
416.936	80.62
417.159	74.62
417.382	70.62
417.605	93.62
417.828	87.62
418.051	79.62
418.274	69.62
418.497	77.62
418.72	70.62
418.943	87.62
419.166	81.62
419.389	87.62
419.611	82.62
419.834	72.62
420.057	88.62
420.28	73.62
420.503	79.62
420.726	70.62
420.948	83.62
421.171	74.62
421.394	91.62
421.617	83.62
421.839	73.62
422.062	81.62
422.285	90.62
422.507	83.62
422.73	84.62
422.953	81.62
423.175	81.62
423.398	85.62
423.621	89.62
423.843	85.62
424.066	73.62
424.288	85.62
424.511	72.62
424.733	85.62
424.956	92.62
425.178	70.62
425.401	76.62
425.623	75.62
425.846	80.62
426.068	83.62
426.291	82.62
426.513	87.62
426.735	92.62
426.958	84.62
427.18	75.62
427.402	87.62
427.625	95.62
427.847	77.62
428.069	88.62
428.292	62.62
428.514	90.62
428.736	89.62
428.958	65.62
429.181	85.62
429.403	79.62
429.625	87.62
429.847	88.62
430.069	86.62
430.292	99.62
430.514	74.62
430.736	71.62
430.958	96.62
431.18	77.62
431.402	87.62
431.624	75.62
431.846	79.62
432.068	88.62
432.29	86.62
432.512	87.62
432.734	78.62
432.956	75.62
433.178	70.62
433.4	83.62
433.622	88.62
433.844	70.62
434.066	85.62
434.287	79.62
434.509	85.62
434.731	91.62
434.953	94.62
435.175	85.62
435.397	77.62
435.618	75.62
435.84	79.62
436.062	87.62
436.284	96.62
436.505	85.62
436.727	79.62
436.949	78.62
437.17	71.62
437.392	79.62
437.614	68.62
437.835	78.62
438.057	69.62
438.278	83.62
438.5	86.62
438.721	79.62
438.943	85.62
439.165	83.62
439.386	74.62
439.608	87.62
439.829	78.62
440.05	73.62
440.272	73.62
440.493	83.62
440.715	77.62
440.936	79.62
441.158	76.62
441.379	66.62
441.6	71.62
441.822	71.62
442.043	75.62
442.264	89.62
442.486	79.62
442.707	67.62
442.928	91.62
443.149	75.62
443.371	83.62
443.592	62.62
443.813	71.62
444.034	86.62
444.255	90.62
444.476	85.62
444.698	79.62
444.919	81.62
445.14	147.62
445.361	124.62
445.582	93.62
445.803	83.62
446.024	88.62
446.245	83.62
446.466	73.62
446.687	89.62
446.908	78.62
447.129	69.62
447.35	85.62
447.571	91.62
447.792	86.62
448.013	69.62
448.234	70.62
448.455	85.62
448.675	89.62
448.896	77.62
449.117	79.62
449.338	74.62
449.559	67.62
449.779	75.62
450	91.62
450.221	66.62
450.442	71.62
450.662	78.62
450.883	85.62
451.104	83.62
451.324	82.62
451.545	80.62
451.766	78.62
451.986	79.62
452.207	86.62
452.428	77.62
452.648	78.62
452.869	70.62
453.089	89.62
453.31	75.62
453.53	73.62
453.751	77.62
453.971	98.62
454.192	70.62
454.412	75.62
454.633	76.62
454.853	87.62
455.073	91.62
455.294	72.62
455.514	87.62
455.734	65.62
455.955	86.62
456.175	88.62
456.395	86.62
456.616	83.62
456.836	74.62
457.056	90.62
457.276	70.62
457.497	82.62
457.717	82.62
457.937	59.62
458.157	86.62
458.377	85.62
458.598	78.62
458.818	73.62
459.038	76.62
459.258	78.62
459.478	76.62
459.698	79.62
459.918	96.62
460.138	81.62
460.358	74.62
460.578	79.62
460.798	84.62
461.018	71.62
461.238	86.62
461.458	90.62
461.678	63.62
461.898	79.62
462.118	92.62
462.338	78.62
462.558	87.62
462.777	81.62
462.997	67.62
463.217	72.62
463.437	77.62
463.657	78.62
463.876	92.62
464.096	74.62
464.316	75.62
464.536	83.62
464.755	89.62
464.975	90.62
465.195	96.62
465.414	101.62
465.634	83.62
465.854	73.62
466.073	74.62
466.293	73.62
466.512	67.62
466.732	83.62
466.951	75.62
467.171	75.62
467.391	76.62
467.61	81.62
467.829	93.62
468.049	101.62
468.268	101.62
468.488	77.62
468.707	93.62
468.927	89.62
469.146	74.62
469.365	80.62
469.585	91.62
469.804	79.62
470.023	89.62
470.243	72.62
470.462	87.62
470.681	83.62
470.901	77.62
471.12	89.62
471.339	94.62
471.558	80.62
471.777	92.62
471.997	102.62
472.216	142.62
472.435	165.62
472.654	90.62
472.873	71.62
473.092	74.62
473.311	86.62
473.53	80.62
473.749	81.62
473.968	75.62
474.187	88.62
474.406	91.62
474.625	84.62
474.844	83.62
475.063	78.62
475.282	89.62
475.501	86.62
475.72	94.62
475.939	82.62
476.158	74.62
476.377	78.62
476.596	69.62
476.814	81.62
477.033	79.62
477.252	83.62
477.471	79.62
477.69	91.62
477.908	85.62
478.127	83.62
478.346	82.62
478.564	79.62
478.783	79.62
479.002	76.62
479.22	82.62
479.439	91.62
479.658	96.62
479.876	78.62
480.095	80.62
480.313	90.62
480.532	77.62
480.751	83.62
480.969	134.62
481.188	241.62
481.406	147.62
481.624	80.62
481.843	77.62
482.061	86.62
482.28	90.62
482.498	77.62
482.717	80.62
482.935	83.62
483.153	90.62
483.372	93.62
483.59	82.62
483.808	79.62
484.027	84.62
484.245	89.62
484.463	67.62
484.681	76.62
484.9	85.62
485.118	90.62
485.336	84.62
485.554	69.62
485.772	78.62
485.99	82.62
486.209	94.62
486.427	76.62
486.645	78.62
486.863	85.62
487.081	84.62
487.299	78.62
487.517	85.62
487.735	77.62
487.953	90.62
488.171	74.62
488.389	79.62
488.607	75.62
488.825	83.62
489.043	75.62
489.261	81.62
489.479	95.62
489.696	95.62
489.914	91.62
490.132	78.62
490.35	70.62
490.568	77.62
490.786	105.62
491.003	83.62
491.221	81.62
491.439	89.62
491.657	84.62
491.874	94.62
492.092	88.62
492.31	91.62
492.527	89.62
492.745	93.62
492.963	82.62
493.18	85.62
493.398	63.62
493.615	87.62
493.833	99.62
494.05	79.62
494.268	83.62
494.485	88.62
494.703	88.62
494.92	86.62
495.138	73.62
495.355	81.62
495.573	86.62
495.79	74.62
496.008	85.62
496.225	75.62
496.442	80.62
496.66	81.62
496.877	88.62
497.094	80.62
497.312	82.62
497.529	82.62
497.746	85.62
497.963	86.62
498.181	65.62
498.398	63.62
498.615	81.62
498.832	96.62
499.049	82.62
499.267	81.62
499.484	87.62
499.701	79.62
499.918	87.62
500.135	80.62
500.352	74.62
500.569	80.62
500.786	78.62
501.003	83.62
501.22	71.62
501.437	92.62
501.654	75.62
501.871	76.62
502.088	75.62
502.305	86.62
502.522	87.62
502.739	78.62
502.956	86.62
503.172	76.62
503.389	77.62
503.606	94.62
503.823	94.62
504.04	86.62
504.256	85.62
504.473	84.62
504.69	77.62
504.907	86.62
505.123	81.62
505.34	79.62
505.557	93.62
505.773	80.62
505.99	70.62
506.207	84.62
506.423	87.62
506.64	88.62
506.856	76.62
507.073	83.62
507.289	71.62
507.506	87.62
507.722	78.62
507.939	79.62
508.155	72.62
508.372	76.62
508.588	85.62
508.805	92.62
509.021	78.62
509.238	76.62
509.454	86.62
509.67	72.62
509.887	76.62
510.103	75.62
510.319	97.62
510.536	143.62
510.752	205.62
510.968	114.62
511.184	77.62
511.401	86.62
511.617	84.62
511.833	79.62
512.049	83.62
512.265	81.62
512.481	78.62
512.698	87.62
512.914	78.62
513.13	71.62
513.346	80.62
513.562	83.62
513.778	87.62
513.994	84.62
514.21	86.62
514.426	89.62
514.642	88.62
514.858	94.62
515.074	95.62
515.29	138.62
515.506	178.62
515.721	114.62
515.937	83.62
516.153	87.62
516.369	102.62
516.585	94.62
516.801	77.62
517.016	86.62
517.232	84.62
517.448	77.62
517.664	83.62
517.879	84.62
518.095	83.62
518.311	93.62
518.527	71.62
518.742	89.62
518.958	84.62
519.173	95.62
519.389	76.62
519.605	82.62
