Data from Penny_3_HRD10591_00017.txt Node
Date: Wed Nov 05 15:35:17 EST 2025
User: Yrep
Spectrometer: HR+D1059
Trigger mode: 1
Integration Time (sec): 1.000000E-1
Scans to average: 1
Electric dark correction enabled: true
Nonlinearity correction enabled: false
Boxcar width: 0
XAxis mode: Wavelengths
Number of Pixels in Spectrum: 2048
>>>>>Begin Spectral Data<<<<<
223.165	-20.19
223.4	-20.19
223.635	-20.19
223.869	-24.19
224.104	-17.19
224.338	-19.19
224.573	-19.19
224.808	-6.19
225.042	-1.19
225.277	-13.19
225.511	-1.19
225.746	9.81
225.98	1.81
226.215	15.81
226.449	20.81
226.683	34.81
226.918	19.81
227.152	18.81
227.387	24.81
227.621	29.81
227.856	46.81
228.09	42.81
228.324	54.81
228.559	52.81
228.793	59.81
229.027	67.81
229.262	77.81
229.496	67.81
229.73	68.81
229.964	77.81
230.199	77.81
230.433	82.81
230.667	68.81
230.901	76.81
231.136	83.81
231.37	90.81
231.604	66.81
231.838	85.81
232.072	83.81
232.306	79.81
232.541	84.81
232.775	90.81
233.009	85.81
233.243	71.81
233.477	92.81
233.711	71.81
233.945	74.81
234.179	74.81
234.413	76.81
234.647	70.81
234.881	84.81
235.115	89.81
235.349	82.81
235.583	75.81
235.817	73.81
236.051	83.81
236.285	66.81
236.519	67.81
236.753	62.81
236.987	76.81
237.221	80.81
237.455	91.81
237.689	75.81
237.922	88.81
238.156	74.81
238.39	77.81
238.624	73.81
238.858	84.81
239.091	83.81
239.325	69.81
239.559	72.81
239.793	70.81
240.027	89.81
240.26	66.81
240.494	68.81
240.728	72.81
240.961	77.81
241.195	90.81
241.429	76.81
241.662	65.81
241.896	73.81
242.13	75.81
242.363	60.81
242.597	68.81
242.83	82.81
243.064	64.81
243.298	77.81
243.531	80.81
243.765	70.81
243.998	72.81
244.232	79.81
244.465	97.81
244.699	83.81
244.932	74.81
245.166	75.81
245.399	86.81
245.633	84.81
245.866	82.81
246.099	81.81
246.333	90.81
246.566	78.81
246.8	90.81
247.033	67.81
247.266	90.81
247.5	81.81
247.733	96.81
247.966	82.81
248.2	84.81
248.433	75.81
248.666	86.81
248.899	69.81
249.133	64.81
249.366	72.81
249.599	85.81
249.832	88.81
250.066	73.81
250.299	72.81
250.532	71.81
250.765	73.81
250.998	66.81
251.231	83.81
251.465	83.81
251.698	85.81
251.931	70.81
252.164	90.81
252.397	73.81
252.63	83.81
252.863	70.81
253.096	78.81
253.329	80.81
253.562	82.81
253.795	75.81
254.028	72.81
254.261	76.81
254.494	88.81
254.727	62.81
254.96	72.81
255.193	92.81
255.426	87.81
255.659	84.81
255.892	75.81
256.124	75.81
256.357	73.81
256.59	96.81
256.823	77.81
257.056	69.81
257.289	72.81
257.521	76.81
257.754	79.81
257.987	85.81
258.22	73.81
258.452	82.81
258.685	82.81
258.918	81.81
259.151	79.81
259.383	92.81
259.616	73.81
259.849	76.81
260.081	83.81
260.314	84.81
260.547	98.81
260.779	96.81
261.012	83.81
261.244	82.81
261.477	93.81
261.71	80.81
261.942	75.81
262.175	84.81
262.407	76.81
262.64	94.81
262.872	87.81
263.105	70.81
263.337	68.81
263.57	72.81
263.802	76.81
264.035	82.81
264.267	87.81
264.499	79.81
264.732	91.81
264.964	87.81
265.197	86.81
265.429	86.81
265.661	68.81
265.894	66.81
266.126	73.81
266.358	81.81
266.591	78.81
266.823	85.81
267.055	76.81
267.287	72.81
267.52	82.81
267.752	88.81
267.984	76.81
268.216	67.81
268.448	72.81
268.681	96.81
268.913	87.81
269.145	87.81
269.377	74.81
269.609	92.81
269.841	88.81
270.073	67.81
270.306	84.81
270.538	80.81
270.77	87.81
271.002	91.81
271.234	86.81
271.466	79.81
271.698	87.81
271.93	84.81
272.162	65.81
272.394	83.81
272.626	76.81
272.858	78.81
273.09	88.81
273.322	80.81
273.553	79.81
273.785	81.81
274.017	91.81
274.249	89.81
274.481	77.81
274.713	80.81
274.945	91.81
275.176	82.81
275.408	86.81
275.64	80.81
275.872	86.81
276.104	90.81
276.335	82.81
276.567	70.81
276.799	87.81
277.031	101.81
277.262	73.81
277.494	87.81
277.726	83.81
277.957	85.81
278.189	85.81
278.421	79.81
278.652	79.81
278.884	77.81
279.115	71.81
279.347	87.81
279.579	81.81
279.81	86.81
280.042	84.81
280.273	82.81
280.505	78.81
280.736	75.81
280.968	86.81
281.199	74.81
281.431	86.81
281.662	83.81
281.894	69.81
282.125	90.81
282.356	89.81
282.588	73.81
282.819	81.81
283.051	102.81
283.282	86.81
283.513	81.81
283.745	76.81
283.976	90.81
284.207	84.81
284.439	95.81
284.67	83.81
284.901	81.81
285.132	84.81
285.364	80.81
285.595	91.81
285.826	83.81
286.057	90.81
286.288	78.81
286.52	71.81
286.751	67.81
286.982	80.81
287.213	76.81
287.444	89.81
287.675	82.81
287.906	82.81
288.138	68.81
288.369	82.81
288.6	72.81
288.831	65.81
289.062	68.81
289.293	83.81
289.524	77.81
289.755	95.81
289.986	87.81
290.217	93.81
290.448	81.81
290.679	82.81
290.91	77.81
291.141	85.81
291.371	84.81
291.602	86.81
291.833	81.81
292.064	78.81
292.295	79.81
292.526	84.81
292.757	86.81
292.987	89.81
293.218	95.81
293.449	86.81
293.68	66.81
293.91	104.81
294.141	71.81
294.372	83.81
294.603	72.81
294.833	83.81
295.064	86.81
295.295	97.81
295.525	81.81
295.756	83.81
295.987	84.81
296.217	85.81
296.448	80.81
296.679	89.81
296.909	88.81
297.14	90.81
297.37	84.81
297.601	84.81
297.831	81.81
298.062	81.81
298.292	91.81
298.523	74.81
298.753	80.81
298.984	84.81
299.214	84.81
299.445	87.81
299.675	74.81
299.905	72.81
300.136	72.81
300.366	79.81
300.597	82.81
300.827	71.81
301.057	78.81
301.288	92.81
301.518	98.81
301.748	79.81
301.979	94.81
302.209	84.81
302.439	85.81
302.669	83.81
302.9	81.81
303.13	89.81
303.36	77.81
303.59	98.81
303.82	90.81
304.051	97.81
304.281	101.81
304.511	91.81
304.741	77.81
304.971	86.81
305.201	77.81
305.431	91.81
305.661	83.81
305.891	89.81
306.121	87.81
306.352	82.81
306.582	89.81
306.812	90.81
307.042	92.81
307.272	90.81
307.502	95.81
307.731	98.81
307.961	95.81
308.191	84.81
308.421	84.81
308.651	75.81
308.881	84.81
309.111	73.81
309.341	92.81
309.571	77.81
309.8	89.81
310.03	82.81
310.26	90.81
310.49	85.81
310.72	76.81
310.949	82.81
311.179	88.81
311.409	80.81
311.639	75.81
311.868	103.81
312.098	84.81
312.328	70.81
312.557	94.81
312.787	76.81
313.017	80.81
313.246	76.81
313.476	85.81
313.706	80.81
313.935	85.81
314.165	76.81
314.394	80.81
314.624	74.81
314.853	82.81
315.083	81.81
315.312	84.81
315.542	81.81
315.771	94.81
316.001	70.81
316.23	90.81
316.46	77.81
316.689	94.81
316.919	85.81
317.148	85.81
317.377	83.81
317.607	92.81
317.836	84.81
318.065	82.81
318.295	99.81
318.524	78.81
318.753	102.81
318.983	97.81
319.212	80.81
319.441	90.81
319.67	82.81
319.9	96.81
320.129	76.81
320.358	82.81
320.587	82.81
320.816	78.81
321.046	75.81
321.275	75.81
321.504	86.81
321.733	93.81
321.962	92.81
322.191	91.81
322.42	75.81
322.649	84.81
322.878	75.81
323.108	70.81
323.337	86.81
323.566	91.81
323.795	86.81
324.024	91.81
324.253	99.81
324.482	122.81
324.71	136.81
324.939	146.81
325.168	101.81
325.397	78.81
325.626	86.81
325.855	84.81
326.084	98.81
326.313	98.81
326.542	72.81
326.77	78.81
326.999	110.81
327.228	116.81
327.457	123.81
327.686	117.81
327.914	88.81
328.143	105.81
328.372	115.81
328.6	82.81
328.829	89.81
329.058	99.81
329.287	79.81
329.515	101.81
329.744	87.81
329.972	97.81
330.201	119.81
330.43	126.81
330.658	89.81
330.887	90.81
331.115	95.81
331.344	84.81
331.572	87.81
331.801	89.81
332.03	74.81
332.258	96.81
332.486	87.81
332.715	93.81
332.943	82.81
333.172	86.81
333.4	84.81
333.629	95.81
333.857	98.81
334.085	97.81
334.314	114.81
334.542	111.81
334.771	120.81
334.999	108.81
335.227	63.81
335.455	79.81
335.684	85.81
335.912	88.81
336.14	74.81
336.369	78.81
336.597	89.81
336.825	89.81
337.053	80.81
337.281	87.81
337.51	74.81
337.738	82.81
337.966	89.81
338.194	87.81
338.422	89.81
338.65	85.81
338.878	78.81
339.106	84.81
339.334	80.81
339.562	84.81
339.79	84.81
340.018	71.81
340.246	83.81
340.474	80.81
340.702	79.81
340.93	84.81
341.158	82.81
341.386	83.81
341.614	87.81
341.842	80.81
342.07	77.81
342.298	94.81
342.526	72.81
342.754	71.81
342.981	102.81
343.209	82.81
343.437	112.81
343.665	84.81
343.893	87.81
344.12	92.81
344.348	75.81
344.576	90.81
344.804	91.81
345.031	78.81
345.259	73.81
345.487	78.81
345.714	82.81
345.942	73.81
346.17	82.81
346.397	91.81
346.625	80.81
346.853	86.81
347.08	81.81
347.308	77.81
347.535	82.81
347.763	97.81
347.99	86.81
348.218	82.81
348.445	81.81
348.673	83.81
348.9	85.81
349.128	85.81
349.355	86.81
349.583	89.81
349.81	63.81
350.037	74.81
350.265	90.81
350.492	81.81
350.72	84.81
350.947	86.81
351.174	76.81
351.402	81.81
351.629	83.81
351.856	90.81
352.083	76.81
352.311	90.81
352.538	76.81
352.765	75.81
352.992	86.81
353.22	76.81
353.447	91.81
353.674	76.81
353.901	86.81
354.128	85.81
354.355	74.81
354.583	95.81
354.81	94.81
355.037	82.81
355.264	84.81
355.491	78.81
355.718	74.81
355.945	87.81
356.172	75.81
356.399	98.81
356.626	86.81
356.853	90.81
357.08	87.81
357.307	80.81
357.534	82.81
357.761	85.81
357.988	81.81
358.215	91.81
358.441	86.81
358.668	78.81
358.895	80.81
359.122	87.81
359.349	82.81
359.576	90.81
359.802	81.81
360.029	79.81
360.256	85.81
360.483	72.81
360.709	84.81
360.936	84.81
361.163	85.81
361.39	80.81
361.616	75.81
361.843	88.81
362.07	75.81
362.296	99.81
362.523	73.81
362.749	86.81
362.976	84.81
363.203	84.81
363.429	80.81
363.656	89.81
363.882	78.81
364.109	78.81
364.335	75.81
364.562	73.81
364.788	72.81
365.015	86.81
365.241	89.81
365.468	89.81
365.694	60.81
365.92	77.81
366.147	84.81
366.373	80.81
366.599	80.81
366.826	86.81
367.052	88.81
367.278	78.81
367.505	80.81
367.731	78.81
367.957	84.81
368.184	94.81
368.41	86.81
368.636	80.81
368.862	93.81
369.089	76.81
369.315	86.81
369.541	77.81
369.767	97.81
369.993	71.81
370.219	68.81
370.445	76.81
370.672	76.81
370.898	70.81
371.124	73.81
371.35	80.81
371.576	83.81
371.802	80.81
372.028	67.81
372.254	94.81
372.48	73.81
372.706	82.81
372.932	85.81
373.158	99.81
373.384	83.81
373.61	82.81
373.835	82.81
374.061	66.81
374.287	77.81
374.513	79.81
374.739	73.81
374.965	58.81
375.191	91.81
375.416	86.81
375.642	76.81
375.868	80.81
376.094	78.81
376.319	77.81
376.545	74.81
376.771	86.81
376.997	89.81
377.222	92.81
377.448	74.81
377.674	83.81
377.899	68.81
378.125	71.81
378.35	83.81
378.576	78.81
378.802	71.81
379.027	78.81
379.253	88.81
379.478	76.81
379.704	79.81
379.929	83.81
380.155	87.81
380.38	80.81
380.606	77.81
380.831	82.81
381.057	90.81
381.282	89.81
381.507	90.81
381.733	77.81
381.958	81.81
382.184	77.81
382.409	88.81
382.634	77.81
382.86	90.81
383.085	77.81
383.31	90.81
383.535	90.81
383.761	87.81
383.986	91.81
384.211	71.81
384.436	86.81
384.662	96.81
384.887	70.81
385.112	83.81
385.337	87.81
385.562	88.81
385.787	73.81
386.013	85.81
386.238	87.81
386.463	79.81
386.688	86.81
386.913	72.81
387.138	69.81
387.363	80.81
387.588	86.81
387.813	82.81
388.038	82.81
388.263	87.81
388.488	100.81
388.713	78.81
388.938	82.81
389.163	74.81
389.387	77.81
389.612	75.81
389.837	75.81
390.062	102.81
390.287	93.81
390.512	95.81
390.736	79.81
390.961	88.81
391.186	95.81
391.411	80.81
391.636	74.81
391.86	87.81
392.085	77.81
392.31	80.81
392.534	76.81
392.759	87.81
392.984	87.81
393.208	67.81
393.433	63.81
393.658	87.81
393.882	96.81
394.107	80.81
394.331	80.81
394.556	73.81
394.78	75.81
395.005	86.81
395.229	74.81
395.454	73.81
395.678	76.81
395.903	82.81
396.127	90.81
396.352	86.81
396.576	92.81
396.801	78.81
397.025	60.81
397.249	89.81
397.474	84.81
397.698	80.81
397.922	80.81
398.147	91.81
398.371	79.81
398.595	80.81
398.82	71.81
399.044	60.81
399.268	70.81
399.492	79.81
399.717	76.81
399.941	76.81
400.165	79.81
400.389	74.81
400.613	73.81
400.837	68.81
401.062	78.81
401.286	68.81
401.51	83.81
401.734	81.81
401.958	92.81
402.182	74.81
402.406	86.81
402.63	74.81
402.854	74.81
403.078	90.81
403.302	79.81
403.526	78.81
403.75	74.81
403.974	77.81
404.198	89.81
404.422	96.81
404.645	73.81
404.869	71.81
405.093	89.81
405.317	83.81
405.541	100.81
405.765	87.81
405.988	84.81
406.212	82.81
406.436	88.81
406.66	80.81
406.883	71.81
407.107	76.81
407.331	93.81
407.555	77.81
407.778	67.81
408.002	77.81
408.226	76.81
408.449	91.81
408.673	83.81
408.896	67.81
409.12	81.81
409.344	74.81
409.567	88.81
409.791	78.81
410.014	76.81
410.238	71.81
410.461	90.81
410.685	81.81
410.908	71.81
411.132	82.81
411.355	73.81
411.578	76.81
411.802	80.81
412.025	75.81
412.249	78.81
412.472	72.81
412.695	86.81
412.919	68.81
413.142	71.81
413.365	86.81
413.589	74.81
413.812	91.81
414.035	80.81
414.258	88.81
414.482	91.81
414.705	83.81
414.928	78.81
415.151	74.81
415.374	72.81
415.597	71.81
415.821	85.81
416.044	77.81
416.267	60.81
416.49	89.81
416.713	74.81
416.936	80.81
417.159	80.81
417.382	92.81
417.605	79.81
417.828	78.81
418.051	96.81
418.274	86.81
418.497	94.81
418.72	75.81
418.943	72.81
419.166	82.81
419.389	80.81
419.611	80.81
419.834	95.81
420.057	75.81
420.28	73.81
420.503	73.81
420.726	72.81
420.948	79.81
421.171	92.81
421.394	71.81
421.617	80.81
421.839	83.81
422.062	78.81
422.285	68.81
422.507	72.81
422.73	78.81
422.953	94.81
423.175	73.81
423.398	100.81
423.621	78.81
423.843	76.81
424.066	78.81
424.288	88.81
424.511	72.81
424.733	82.81
424.956	83.81
425.178	76.81
425.401	74.81
425.623	83.81
425.846	83.81
426.068	71.81
426.291	62.81
426.513	83.81
426.735	82.81
426.958	71.81
427.18	77.81
427.402	66.81
427.625	72.81
427.847	70.81
428.069	91.81
428.292	81.81
428.514	86.81
428.736	82.81
428.958	91.81
429.181	68.81
429.403	86.81
429.625	88.81
429.847	84.81
430.069	85.81
430.292	67.81
430.514	67.81
430.736	72.81
430.958	76.81
431.18	75.81
431.402	87.81
431.624	72.81
431.846	83.81
432.068	82.81
432.29	83.81
432.512	84.81
432.734	82.81
432.956	81.81
433.178	96.81
433.4	77.81
433.622	80.81
433.844	70.81
434.066	72.81
434.287	92.81
434.509	82.81
434.731	81.81
434.953	91.81
435.175	81.81
435.397	82.81
435.618	92.81
435.84	79.81
436.062	78.81
436.284	91.81
436.505	91.81
436.727	73.81
436.949	76.81
437.17	67.81
437.392	79.81
437.614	63.81
437.835	68.81
438.057	86.81
438.278	82.81
438.5	85.81
438.721	100.81
438.943	74.81
439.165	86.81
439.386	84.81
439.608	80.81
439.829	76.81
440.05	77.81
440.272	84.81
440.493	79.81
440.715	84.81
440.936	75.81
441.158	74.81
441.379	82.81
441.6	82.81
441.822	70.81
442.043	107.81
442.264	86.81
442.486	76.81
442.707	88.81
442.928	82.81
443.149	83.81
443.371	83.81
443.592	83.81
443.813	89.81
444.034	81.81
444.255	88.81
444.476	74.81
444.698	71.81
444.919	58.81
445.14	138.81
445.361	105.81
445.582	71.81
445.803	82.81
446.024	76.81
446.245	73.81
446.466	83.81
446.687	76.81
446.908	80.81
447.129	67.81
447.35	67.81
447.571	66.81
447.792	73.81
448.013	71.81
448.234	77.81
448.455	68.81
448.675	84.81
448.896	81.81
449.117	90.81
449.338	83.81
449.559	89.81
449.779	75.81
450	73.81
450.221	76.81
450.442	80.81
450.662	81.81
450.883	84.81
451.104	74.81
451.324	69.81
451.545	81.81
451.766	86.81
451.986	63.81
452.207	78.81
452.428	82.81
452.648	85.81
452.869	77.81
453.089	87.81
453.31	62.81
453.53	81.81
453.751	74.81
453.971	80.81
454.192	95.81
454.412	80.81
454.633	86.81
454.853	75.81
455.073	72.81
455.294	84.81
455.514	93.81
455.734	85.81
455.955	76.81
456.175	92.81
456.395	76.81
456.616	74.81
456.836	77.81
457.056	76.81
457.276	83.81
457.497	82.81
457.717	76.81
457.937	81.81
458.157	78.81
458.377	70.81
458.598	89.81
458.818	84.81
459.038	89.81
459.258	76.81
459.478	69.81
459.698	66.81
459.918	75.81
460.138	76.81
460.358	76.81
460.578	77.81
460.798	88.81
461.018	92.81
461.238	82.81
461.458	91.81
461.678	79.81
461.898	72.81
462.118	93.81
462.338	85.81
462.558	84.81
462.777	80.81
462.997	78.81
463.217	83.81
463.437	78.81
463.657	75.81
463.876	68.81
464.096	81.81
464.316	76.81
464.536	70.81
464.755	85.81
464.975	104.81
465.195	91.81
465.414	82.81
465.634	82.81
465.854	68.81
466.073	74.81
466.293	71.81
466.512	80.81
466.732	84.81
466.951	67.81
467.171	70.81
467.391	76.81
467.61	86.81
467.829	88.81
468.049	106.81
468.268	104.81
468.488	89.81
468.707	87.81
468.927	86.81
469.146	75.81
469.365	72.81
469.585	82.81
469.804	80.81
470.023	82.81
470.243	72.81
470.462	73.81
470.681	70.81
470.901	87.81
471.12	77.81
471.339	79.81
471.558	82.81
471.777	79.81
471.997	95.81
472.216	144.81
472.435	151.81
472.654	92.81
472.873	84.81
473.092	77.81
473.311	75.81
473.53	76.81
473.749	83.81
473.968	70.81
474.187	86.81
474.406	91.81
474.625	82.81
474.844	72.81
475.063	60.81
475.282	91.81
475.501	75.81
475.72	85.81
475.939	84.81
476.158	93.81
476.377	101.81
476.596	79.81
476.814	76.81
477.033	74.81
477.252	90.81
477.471	75.81
477.69	76.81
477.908	86.81
478.127	82.81
478.346	83.81
478.564	93.81
478.783	83.81
479.002	81.81
479.22	86.81
479.439	86.81
479.658	68.81
479.876	70.81
480.095	73.81
480.313	75.81
480.532	80.81
480.751	93.81
480.969	145.81
481.188	256.81
481.406	153.81
481.624	85.81
481.843	86.81
482.061	80.81
482.28	91.81
482.498	81.81
482.717	69.81
482.935	76.81
483.153	71.81
483.372	80.81
483.59	85.81
483.808	86.81
484.027	74.81
484.245	77.81
484.463	81.81
484.681	98.81
484.9	76.81
485.118	80.81
485.336	66.81
485.554	71.81
485.772	82.81
485.99	87.81
486.209	79.81
486.427	89.81
486.645	66.81
486.863	73.81
487.081	83.81
487.299	87.81
487.517	74.81
487.735	86.81
487.953	87.81
488.171	72.81
488.389	86.81
488.607	92.81
488.825	74.81
489.043	75.81
489.261	85.81
489.479	88.81
489.696	80.81
489.914	94.81
490.132	83.81
490.35	86.81
490.568	68.81
490.786	96.81
491.003	98.81
491.221	95.81
491.439	80.81
491.657	81.81
491.874	73.81
492.092	82.81
492.31	81.81
492.527	74.81
492.745	92.81
492.963	74.81
493.18	80.81
493.398	99.81
493.615	81.81
493.833	79.81
494.05	95.81
494.268	73.81
494.485	76.81
494.703	78.81
494.92	87.81
495.138	76.81
495.355	80.81
495.573	80.81
495.79	91.81
496.008	75.81
496.225	77.81
496.442	99.81
496.66	94.81
496.877	82.81
497.094	76.81
497.312	84.81
497.529	77.81
497.746	82.81
497.963	84.81
498.181	86.81
498.398	82.81
498.615	86.81
498.832	75.81
499.049	86.81
499.267	77.81
499.484	80.81
499.701	69.81
499.918	92.81
500.135	93.81
500.352	83.81
500.569	81.81
500.786	81.81
501.003	71.81
501.22	79.81
501.437	88.81
501.654	71.81
501.871	84.81
502.088	75.81
502.305	72.81
502.522	78.81
502.739	87.81
502.956	75.81
503.172	80.81
503.389	97.81
503.606	90.81
503.823	91.81
504.04	84.81
504.256	89.81
504.473	70.81
504.69	76.81
504.907	83.81
505.123	84.81
505.34	82.81
505.557	84.81
505.773	82.81
505.99	87.81
506.207	74.81
506.423	77.81
506.64	94.81
506.856	78.81
507.073	87.81
507.289	86.81
507.506	70.81
507.722	75.81
507.939	83.81
508.155	75.81
508.372	86.81
508.588	84.81
508.805	83.81
509.021	78.81
509.238	90.81
509.454	79.81
509.67	78.81
509.887	84.81
510.103	87.81
510.319	100.81
510.536	139.81
510.752	215.81
510.968	110.81
511.184	77.81
511.401	87.81
511.617	83.81
511.833	75.81
512.049	63.81
512.265	90.81
512.481	82.81
512.698	66.81
512.914	74.81
513.13	69.81
513.346	95.81
513.562	77.81
513.778	83.81
513.994	78.81
514.21	68.81
514.426	90.81
514.642	97.81
514.858	94.81
515.074	90.81
515.29	122.81
515.506	194.81
515.721	126.81
515.937	101.81
516.153	82.81
516.369	89.81
516.585	83.81
516.801	98.81
517.016	80.81
517.232	91.81
517.448	82.81
517.664	77.81
517.879	78.81
518.095	92.81
518.311	82.81
518.527	72.81
518.742	82.81
518.958	78.81
519.173	72.81
519.389	86.81
519.605	88.81
