Data from Penny_3_HRD10591_00012.txt Node
Date: Wed Nov 05 15:35:14 EST 2025
User: Yrep
Spectrometer: HR+D1059
Trigger mode: 1
Integration Time (sec): 1.000000E-1
Scans to average: 1
Electric dark correction enabled: true
Nonlinearity correction enabled: false
Boxcar width: 0
XAxis mode: Wavelengths
Number of Pixels in Spectrum: 2048
>>>>>Begin Spectral Data<<<<<
223.165	-14.88
223.4	-14.88
223.635	-14.88
223.869	-5.88
224.104	-7.88
224.338	-17.88
224.573	-27.88
224.808	-10.88
225.042	-20.88
225.277	-3.88
225.511	-9.88
225.746	4.12
225.98	19.12
226.215	17.12
226.449	32.12
226.683	0.12
226.918	6.12
227.152	41.12
227.387	43.12
227.621	27.12
227.856	31.12
228.09	45.12
228.324	51.12
228.559	58.12
228.793	59.12
229.027	57.12
229.262	59.12
229.496	62.12
229.73	75.12
229.964	77.12
230.199	67.12
230.433	77.12
230.667	73.12
230.901	65.12
231.136	92.12
231.37	70.12
231.604	79.12
231.838	84.12
232.072	74.12
232.306	71.12
232.541	77.12
232.775	73.12
233.009	79.12
233.243	96.12
233.477	80.12
233.711	76.12
233.945	89.12
234.179	88.12
234.413	86.12
234.647	78.12
234.881	74.12
235.115	75.12
235.349	86.12
235.583	74.12
235.817	68.12
236.051	67.12
236.285	94.12
236.519	72.12
236.753	82.12
236.987	72.12
237.221	67.12
237.455	71.12
237.689	76.12
237.922	87.12
238.156	68.12
238.39	69.12
238.624	72.12
238.858	78.12
239.091	78.12
239.325	74.12
239.559	83.12
239.793	86.12
240.027	92.12
240.26	77.12
240.494	79.12
240.728	70.12
240.961	80.12
241.195	79.12
241.429	70.12
241.662	72.12
241.896	76.12
242.13	77.12
242.363	68.12
242.597	77.12
242.83	84.12
243.064	78.12
243.298	81.12
243.531	74.12
243.765	66.12
243.998	79.12
244.232	78.12
244.465	74.12
244.699	81.12
244.932	77.12
245.166	80.12
245.399	70.12
245.633	83.12
245.866	72.12
246.099	60.12
246.333	66.12
246.566	70.12
246.8	78.12
247.033	68.12
247.266	79.12
247.5	81.12
247.733	71.12
247.966	59.12
248.2	75.12
248.433	85.12
248.666	79.12
248.899	76.12
249.133	72.12
249.366	77.12
249.599	83.12
249.832	87.12
250.066	78.12
250.299	90.12
250.532	77.12
250.765	71.12
250.998	79.12
251.231	68.12
251.465	79.12
251.698	75.12
251.931	70.12
252.164	73.12
252.397	83.12
252.63	85.12
252.863	84.12
253.096	87.12
253.329	63.12
253.562	70.12
253.795	93.12
254.028	78.12
254.261	91.12
254.494	76.12
254.727	77.12
254.96	69.12
255.193	67.12
255.426	83.12
255.659	98.12
255.892	73.12
256.124	64.12
256.357	72.12
256.59	76.12
256.823	84.12
257.056	80.12
257.289	88.12
257.521	87.12
257.754	87.12
257.987	98.12
258.22	72.12
258.452	87.12
258.685	80.12
258.918	74.12
259.151	72.12
259.383	70.12
259.616	91.12
259.849	98.12
260.081	77.12
260.314	70.12
260.547	74.12
260.779	78.12
261.012	73.12
261.244	79.12
261.477	82.12
261.71	70.12
261.942	91.12
262.175	90.12
262.407	74.12
262.64	84.12
262.872	84.12
263.105	73.12
263.337	86.12
263.57	78.12
263.802	89.12
264.035	86.12
264.267	82.12
264.499	83.12
264.732	82.12
264.964	98.12
265.197	69.12
265.429	79.12
265.661	80.12
265.894	67.12
266.126	63.12
266.358	78.12
266.591	82.12
266.823	64.12
267.055	89.12
267.287	76.12
267.52	81.12
267.752	78.12
267.984	82.12
268.216	80.12
268.448	81.12
268.681	103.12
268.913	91.12
269.145	93.12
269.377	92.12
269.609	82.12
269.841	83.12
270.073	79.12
270.306	93.12
270.538	79.12
270.77	82.12
271.002	95.12
271.234	79.12
271.466	78.12
271.698	79.12
271.93	84.12
272.162	94.12
272.394	96.12
272.626	82.12
272.858	92.12
273.09	75.12
273.322	85.12
273.553	74.12
273.785	81.12
274.017	77.12
274.249	76.12
274.481	69.12
274.713	83.12
274.945	87.12
275.176	76.12
275.408	71.12
275.64	78.12
275.872	82.12
276.104	72.12
276.335	74.12
276.567	87.12
276.799	84.12
277.031	101.12
277.262	90.12
277.494	88.12
277.726	85.12
277.957	86.12
278.189	72.12
278.421	76.12
278.652	79.12
278.884	72.12
279.115	80.12
279.347	81.12
279.579	73.12
279.81	87.12
280.042	93.12
280.273	99.12
280.505	83.12
280.736	85.12
280.968	73.12
281.199	97.12
281.431	81.12
281.662	79.12
281.894	90.12
282.125	96.12
282.356	96.12
282.588	85.12
282.819	82.12
283.051	84.12
283.282	85.12
283.513	85.12
283.745	77.12
283.976	71.12
284.207	73.12
284.439	68.12
284.67	84.12
284.901	83.12
285.132	86.12
285.364	90.12
285.595	83.12
285.826	72.12
286.057	83.12
286.288	103.12
286.52	87.12
286.751	95.12
286.982	92.12
287.213	73.12
287.444	80.12
287.675	91.12
287.906	96.12
288.138	82.12
288.369	97.12
288.6	88.12
288.831	106.12
289.062	87.12
289.293	84.12
289.524	80.12
289.755	88.12
289.986	77.12
290.217	100.12
290.448	88.12
290.679	81.12
290.91	94.12
291.141	75.12
291.371	72.12
291.602	76.12
291.833	74.12
292.064	77.12
292.295	66.12
292.526	85.12
292.757	64.12
292.987	92.12
293.218	95.12
293.449	86.12
293.68	83.12
293.91	78.12
294.141	73.12
294.372	93.12
294.603	73.12
294.833	84.12
295.064	62.12
295.295	94.12
295.525	90.12
295.756	98.12
295.987	83.12
296.217	68.12
296.448	85.12
296.679	69.12
296.909	94.12
297.14	89.12
297.37	89.12
297.601	87.12
297.831	83.12
298.062	75.12
298.292	84.12
298.523	90.12
298.753	74.12
298.984	79.12
299.214	82.12
299.445	78.12
299.675	84.12
299.905	92.12
300.136	93.12
300.366	86.12
300.597	87.12
300.827	79.12
301.057	94.12
301.288	86.12
301.518	81.12
301.748	80.12
301.979	105.12
302.209	77.12
302.439	84.12
302.669	90.12
302.9	87.12
303.13	90.12
303.36	82.12
303.59	99.12
303.82	84.12
304.051	87.12
304.281	85.12
304.511	100.12
304.741	98.12
304.971	72.12
305.201	89.12
305.431	80.12
305.661	72.12
305.891	85.12
306.121	77.12
306.352	92.12
306.582	78.12
306.812	71.12
307.042	58.12
307.272	84.12
307.502	84.12
307.731	85.12
307.961	94.12
308.191	78.12
308.421	79.12
308.651	82.12
308.881	90.12
309.111	77.12
309.341	66.12
309.571	77.12
309.8	76.12
310.03	95.12
310.26	87.12
310.49	72.12
310.72	83.12
310.949	84.12
311.179	74.12
311.409	79.12
311.639	84.12
311.868	84.12
312.098	93.12
312.328	71.12
312.557	77.12
312.787	86.12
313.017	78.12
313.246	90.12
313.476	77.12
313.706	73.12
313.935	82.12
314.165	83.12
314.394	98.12
314.624	93.12
314.853	76.12
315.083	84.12
315.312	69.12
315.542	79.12
315.771	88.12
316.001	79.12
316.23	85.12
316.46	71.12
316.689	81.12
316.919	74.12
317.148	87.12
317.377	95.12
317.607	83.12
317.836	87.12
318.065	87.12
318.295	88.12
318.524	71.12
318.753	85.12
318.983	97.12
319.212	109.12
319.441	86.12
319.67	80.12
319.9	84.12
320.129	82.12
320.358	88.12
320.587	97.12
320.816	76.12
321.046	90.12
321.275	75.12
321.504	78.12
321.733	89.12
321.962	84.12
322.191	68.12
322.42	71.12
322.649	86.12
322.878	82.12
323.108	90.12
323.337	93.12
323.566	78.12
323.795	92.12
324.024	77.12
324.253	100.12
324.482	116.12
324.71	139.12
324.939	128.12
325.168	115.12
325.397	80.12
325.626	74.12
325.855	77.12
326.084	81.12
326.313	90.12
326.542	91.12
326.77	101.12
326.999	87.12
327.228	107.12
327.457	137.12
327.686	120.12
327.914	83.12
328.143	96.12
328.372	108.12
328.6	91.12
328.829	86.12
329.058	84.12
329.287	100.12
329.515	94.12
329.744	83.12
329.972	117.12
330.201	118.12
330.43	129.12
330.658	103.12
330.887	94.12
331.115	92.12
331.344	89.12
331.572	96.12
331.801	78.12
332.03	96.12
332.258	91.12
332.486	87.12
332.715	78.12
332.943	96.12
333.172	89.12
333.4	80.12
333.629	91.12
333.857	101.12
334.085	113.12
334.314	116.12
334.542	136.12
334.771	131.12
334.999	88.12
335.227	80.12
335.455	90.12
335.684	91.12
335.912	96.12
336.14	74.12
336.369	76.12
336.597	96.12
336.825	90.12
337.053	83.12
337.281	98.12
337.51	88.12
337.738	77.12
337.966	75.12
338.194	89.12
338.422	73.12
338.65	94.12
338.878	77.12
339.106	90.12
339.334	78.12
339.562	87.12
339.79	83.12
340.018	87.12
340.246	85.12
340.474	109.12
340.702	82.12
340.93	73.12
341.158	71.12
341.386	91.12
341.614	98.12
341.842	96.12
342.07	91.12
342.298	84.12
342.526	86.12
342.754	85.12
342.981	86.12
343.209	88.12
343.437	98.12
343.665	97.12
343.893	91.12
344.12	84.12
344.348	99.12
344.576	84.12
344.804	89.12
345.031	78.12
345.259	86.12
345.487	84.12
345.714	85.12
345.942	73.12
346.17	84.12
346.397	84.12
346.625	75.12
346.853	88.12
347.08	68.12
347.308	86.12
347.535	92.12
347.763	94.12
347.99	86.12
348.218	84.12
348.445	86.12
348.673	86.12
348.9	84.12
349.128	81.12
349.355	97.12
349.583	81.12
349.81	87.12
350.037	96.12
350.265	82.12
350.492	91.12
350.72	84.12
350.947	82.12
351.174	87.12
351.402	97.12
351.629	88.12
351.856	98.12
352.083	76.12
352.311	100.12
352.538	74.12
352.765	88.12
352.992	75.12
353.22	80.12
353.447	90.12
353.674	81.12
353.901	92.12
354.128	98.12
354.355	83.12
354.583	78.12
354.81	73.12
355.037	88.12
355.264	83.12
355.491	74.12
355.718	88.12
355.945	84.12
356.172	66.12
356.399	92.12
356.626	83.12
356.853	86.12
357.08	77.12
357.307	91.12
357.534	78.12
357.761	83.12
357.988	91.12
358.215	84.12
358.441	82.12
358.668	95.12
358.895	68.12
359.122	85.12
359.349	87.12
359.576	85.12
359.802	88.12
360.029	81.12
360.256	81.12
360.483	93.12
360.709	83.12
360.936	90.12
361.163	88.12
361.39	72.12
361.616	86.12
361.843	98.12
362.07	75.12
362.296	101.12
362.523	79.12
362.749	74.12
362.976	64.12
363.203	78.12
363.429	82.12
363.656	78.12
363.882	77.12
364.109	96.12
364.335	78.12
364.562	77.12
364.788	72.12
365.015	90.12
365.241	88.12
365.468	78.12
365.694	86.12
365.92	88.12
366.147	84.12
366.373	83.12
366.599	81.12
366.826	76.12
367.052	73.12
367.278	84.12
367.505	82.12
367.731	92.12
367.957	89.12
368.184	83.12
368.41	73.12
368.636	96.12
368.862	94.12
369.089	81.12
369.315	86.12
369.541	94.12
369.767	81.12
369.993	89.12
370.219	87.12
370.445	80.12
370.672	84.12
370.898	82.12
371.124	77.12
371.35	83.12
371.576	76.12
371.802	89.12
372.028	84.12
372.254	92.12
372.48	85.12
372.706	86.12
372.932	74.12
373.158	89.12
373.384	75.12
373.61	73.12
373.835	70.12
374.061	70.12
374.287	85.12
374.513	90.12
374.739	80.12
374.965	70.12
375.191	73.12
375.416	82.12
375.642	88.12
375.868	74.12
376.094	88.12
376.319	84.12
376.545	89.12
376.771	66.12
376.997	90.12
377.222	88.12
377.448	77.12
377.674	78.12
377.899	90.12
378.125	97.12
378.35	74.12
378.576	84.12
378.802	85.12
379.027	79.12
379.253	84.12
379.478	69.12
379.704	90.12
379.929	90.12
380.155	79.12
380.38	76.12
380.606	71.12
380.831	83.12
381.057	87.12
381.282	79.12
381.507	84.12
381.733	86.12
381.958	88.12
382.184	90.12
382.409	69.12
382.634	85.12
382.86	80.12
383.085	82.12
383.31	83.12
383.535	74.12
383.761	84.12
383.986	89.12
384.211	81.12
384.436	82.12
384.662	84.12
384.887	78.12
385.112	77.12
385.337	82.12
385.562	92.12
385.787	71.12
386.013	89.12
386.238	95.12
386.463	84.12
386.688	97.12
386.913	88.12
387.138	82.12
387.363	81.12
387.588	60.12
387.813	76.12
388.038	79.12
388.263	80.12
388.488	77.12
388.713	70.12
388.938	82.12
389.163	72.12
389.387	82.12
389.612	74.12
389.837	90.12
390.062	65.12
390.287	77.12
390.512	76.12
390.736	101.12
390.961	88.12
391.186	65.12
391.411	68.12
391.636	77.12
391.86	65.12
392.085	74.12
392.31	92.12
392.534	71.12
392.759	79.12
392.984	94.12
393.208	96.12
393.433	90.12
393.658	77.12
393.882	77.12
394.107	84.12
394.331	87.12
394.556	71.12
394.78	81.12
395.005	80.12
395.229	92.12
395.454	90.12
395.678	81.12
395.903	93.12
396.127	69.12
396.352	70.12
396.576	88.12
396.801	74.12
397.025	85.12
397.249	76.12
397.474	68.12
397.698	73.12
397.922	90.12
398.147	58.12
398.371	91.12
398.595	82.12
398.82	69.12
399.044	69.12
399.268	80.12
399.492	84.12
399.717	91.12
399.941	76.12
400.165	73.12
400.389	82.12
400.613	72.12
400.837	79.12
401.062	74.12
401.286	68.12
401.51	84.12
401.734	82.12
401.958	84.12
402.182	101.12
402.406	81.12
402.63	73.12
402.854	77.12
403.078	85.12
403.302	74.12
403.526	79.12
403.75	82.12
403.974	68.12
404.198	90.12
404.422	78.12
404.645	81.12
404.869	88.12
405.093	84.12
405.317	71.12
405.541	82.12
405.765	76.12
405.988	78.12
406.212	84.12
406.436	93.12
406.66	93.12
406.883	94.12
407.107	84.12
407.331	92.12
407.555	80.12
407.778	77.12
408.002	76.12
408.226	81.12
408.449	76.12
408.673	96.12
408.896	74.12
409.12	82.12
409.344	77.12
409.567	85.12
409.791	73.12
410.014	84.12
410.238	78.12
410.461	68.12
410.685	76.12
410.908	80.12
411.132	88.12
411.355	72.12
411.578	75.12
411.802	88.12
412.025	79.12
412.249	71.12
412.472	87.12
412.695	82.12
412.919	73.12
413.142	73.12
413.365	86.12
413.589	84.12
413.812	74.12
414.035	57.12
414.258	87.12
414.482	88.12
414.705	68.12
414.928	98.12
415.151	89.12
415.374	85.12
415.597	74.12
415.821	86.12
416.044	82.12
416.267	79.12
416.49	73.12
416.713	71.12
416.936	71.12
417.159	85.12
417.382	82.12
417.605	87.12
417.828	93.12
418.051	57.12
418.274	82.12
418.497	79.12
418.72	84.12
418.943	94.12
419.166	84.12
419.389	71.12
419.611	77.12
419.834	80.12
420.057	68.12
420.28	79.12
420.503	86.12
420.726	78.12
420.948	73.12
421.171	79.12
421.394	83.12
421.617	74.12
421.839	90.12
422.062	81.12
422.285	71.12
422.507	79.12
422.73	79.12
422.953	87.12
423.175	95.12
423.398	70.12
423.621	75.12
423.843	78.12
424.066	83.12
424.288	80.12
424.511	81.12
424.733	79.12
424.956	86.12
425.178	73.12
425.401	80.12
425.623	84.12
425.846	65.12
426.068	59.12
426.291	82.12
426.513	68.12
426.735	93.12
426.958	80.12
427.18	83.12
427.402	76.12
427.625	92.12
427.847	80.12
428.069	92.12
428.292	82.12
428.514	82.12
428.736	78.12
428.958	79.12
429.181	82.12
429.403	85.12
429.625	87.12
429.847	77.12
430.069	97.12
430.292	82.12
430.514	85.12
430.736	91.12
430.958	80.12
431.18	75.12
431.402	64.12
431.624	93.12
431.846	94.12
432.068	87.12
432.29	93.12
432.512	76.12
432.734	74.12
432.956	88.12
433.178	85.12
433.4	89.12
433.622	94.12
433.844	75.12
434.066	79.12
434.287	81.12
434.509	72.12
434.731	68.12
434.953	86.12
435.175	72.12
435.397	66.12
435.618	80.12
435.84	78.12
436.062	69.12
436.284	72.12
436.505	79.12
436.727	84.12
436.949	88.12
437.17	89.12
437.392	81.12
437.614	78.12
437.835	86.12
438.057	86.12
438.278	76.12
438.5	77.12
438.721	81.12
438.943	78.12
439.165	98.12
439.386	78.12
439.608	78.12
439.829	90.12
440.05	84.12
440.272	71.12
440.493	94.12
440.715	89.12
440.936	67.12
441.158	90.12
441.379	78.12
441.6	77.12
441.822	79.12
442.043	74.12
442.264	80.12
442.486	70.12
442.707	74.12
442.928	83.12
443.149	89.12
443.371	90.12
443.592	88.12
443.813	84.12
444.034	89.12
444.255	104.12
444.476	75.12
444.698	82.12
444.919	61.12
445.14	140.12
445.361	109.12
445.582	75.12
445.803	61.12
446.024	84.12
446.245	71.12
446.466	77.12
446.687	75.12
446.908	78.12
447.129	82.12
447.35	75.12
447.571	74.12
447.792	88.12
448.013	83.12
448.234	88.12
448.455	96.12
448.675	75.12
448.896	82.12
449.117	89.12
449.338	75.12
449.559	94.12
449.779	79.12
450	97.12
450.221	63.12
450.442	87.12
450.662	94.12
450.883	82.12
451.104	88.12
451.324	76.12
451.545	82.12
451.766	92.12
451.986	79.12
452.207	87.12
452.428	84.12
452.648	75.12
452.869	93.12
453.089	94.12
453.31	73.12
453.53	82.12
453.751	86.12
453.971	70.12
454.192	77.12
454.412	77.12
454.633	84.12
454.853	89.12
455.073	84.12
455.294	79.12
455.514	87.12
455.734	92.12
455.955	89.12
456.175	87.12
456.395	74.12
456.616	94.12
456.836	74.12
457.056	87.12
457.276	82.12
457.497	90.12
457.717	78.12
457.937	88.12
458.157	88.12
458.377	78.12
458.598	72.12
458.818	98.12
459.038	94.12
459.258	88.12
459.478	90.12
459.698	73.12
459.918	92.12
460.138	85.12
460.358	89.12
460.578	77.12
460.798	75.12
461.018	82.12
461.238	74.12
461.458	87.12
461.678	90.12
461.898	71.12
462.118	85.12
462.338	63.12
462.558	72.12
462.777	81.12
462.997	90.12
463.217	75.12
463.437	76.12
463.657	87.12
463.876	76.12
464.096	89.12
464.316	88.12
464.536	75.12
464.755	84.12
464.975	83.12
465.195	89.12
465.414	81.12
465.634	87.12
465.854	89.12
466.073	85.12
466.293	83.12
466.512	76.12
466.732	88.12
466.951	90.12
467.171	77.12
467.391	84.12
467.61	89.12
467.829	103.12
468.049	111.12
468.268	107.12
468.488	86.12
468.707	82.12
468.927	78.12
469.146	72.12
469.365	71.12
469.585	75.12
469.804	66.12
470.023	90.12
470.243	84.12
470.462	72.12
470.681	96.12
470.901	68.12
471.12	85.12
471.339	88.12
471.558	91.12
471.777	76.12
471.997	104.12
472.216	137.12
472.435	164.12
472.654	87.12
472.873	101.12
473.092	91.12
473.311	90.12
473.53	88.12
473.749	82.12
473.968	88.12
474.187	74.12
474.406	86.12
474.625	80.12
474.844	70.12
475.063	81.12
475.282	87.12
475.501	96.12
475.72	101.12
475.939	71.12
476.158	62.12
476.377	87.12
476.596	77.12
476.814	81.12
477.033	68.12
477.252	68.12
477.471	74.12
477.69	85.12
477.908	84.12
478.127	81.12
478.346	74.12
478.564	66.12
478.783	87.12
479.002	76.12
479.22	87.12
479.439	82.12
479.658	88.12
479.876	88.12
480.095	82.12
480.313	79.12
480.532	85.12
480.751	100.12
480.969	130.12
481.188	213.12
481.406	150.12
481.624	89.12
481.843	78.12
482.061	90.12
482.28	73.12
482.498	64.12
482.717	66.12
482.935	97.12
483.153	74.12
483.372	78.12
483.59	89.12
483.808	89.12
484.027	66.12
484.245	82.12
484.463	79.12
484.681	79.12
484.9	82.12
485.118	80.12
485.336	63.12
485.554	81.12
485.772	90.12
485.99	77.12
486.209	78.12
486.427	84.12
486.645	88.12
486.863	90.12
487.081	83.12
487.299	78.12
487.517	83.12
487.735	92.12
487.953	83.12
488.171	89.12
488.389	92.12
488.607	76.12
488.825	74.12
489.043	84.12
489.261	88.12
489.479	76.12
489.696	87.12
489.914	85.12
490.132	79.12
490.35	83.12
490.568	77.12
490.786	68.12
491.003	74.12
491.221	86.12
491.439	94.12
491.657	68.12
491.874	84.12
492.092	63.12
492.31	92.12
492.527	86.12
492.745	85.12
492.963	86.12
493.18	72.12
493.398	88.12
493.615	82.12
493.833	84.12
494.05	84.12
494.268	78.12
494.485	84.12
494.703	94.12
494.92	86.12
495.138	85.12
495.355	78.12
495.573	99.12
495.79	89.12
496.008	74.12
496.225	81.12
496.442	78.12
496.66	96.12
496.877	88.12
497.094	79.12
497.312	89.12
497.529	91.12
497.746	79.12
497.963	88.12
498.181	89.12
498.398	78.12
498.615	75.12
498.832	86.12
499.049	78.12
499.267	78.12
499.484	81.12
499.701	82.12
499.918	85.12
500.135	71.12
500.352	85.12
500.569	84.12
500.786	82.12
501.003	89.12
501.22	74.12
501.437	81.12
501.654	78.12
501.871	84.12
502.088	77.12
502.305	92.12
502.522	82.12
502.739	81.12
502.956	85.12
503.172	97.12
503.389	89.12
503.606	76.12
503.823	88.12
504.04	74.12
504.256	77.12
504.473	73.12
504.69	81.12
504.907	96.12
505.123	84.12
505.34	67.12
505.557	78.12
505.773	78.12
505.99	70.12
506.207	72.12
506.423	94.12
506.64	70.12
506.856	75.12
507.073	88.12
507.289	81.12
507.506	77.12
507.722	79.12
507.939	80.12
508.155	73.12
508.372	87.12
508.588	69.12
508.805	78.12
509.021	84.12
509.238	92.12
509.454	76.12
509.67	75.12
509.887	79.12
510.103	87.12
510.319	99.12
510.536	142.12
510.752	206.12
510.968	99.12
511.184	90.12
511.401	89.12
511.617	90.12
511.833	85.12
512.049	69.12
512.265	72.12
512.481	74.12
512.698	85.12
512.914	80.12
513.13	87.12
513.346	72.12
513.562	80.12
513.778	73.12
513.994	84.12
514.21	92.12
514.426	85.12
514.642	84.12
514.858	72.12
515.074	88.12
515.29	134.12
515.506	186.12
515.721	125.12
515.937	83.12
516.153	85.12
516.369	86.12
516.585	74.12
516.801	68.12
517.016	97.12
517.232	87.12
517.448	67.12
517.664	79.12
517.879	86.12
518.095	74.12
518.311	75.12
518.527	82.12
518.742	94.12
518.958	75.12
519.173	79.12
519.389	79.12
519.605	85.12
