Data from Penny_3_HRD10591_00014.txt Node
Date: Wed Nov 05 15:35:15 EST 2025
User: Yrep
Spectrometer: HR+D1059
Trigger mode: 1
Integration Time (sec): 1.000000E-1
Scans to average: 1
Electric dark correction enabled: true
Nonlinearity correction enabled: false
Boxcar width: 0
XAxis mode: Wavelengths
Number of Pixels in Spectrum: 2048
>>>>>Begin Spectral Data<<<<<
223.165	-11.06
223.4	-11.06
223.635	-11.06
223.869	-19.06
224.104	-27.06
224.338	-20.06
224.573	-6.06
224.808	-4.06
225.042	-9.06
225.277	-1.06
225.511	-5.06
225.746	1.94
225.98	-9.06
226.215	3.94
226.449	21.94
226.683	25.94
226.918	23.94
227.152	33.94
227.387	39.94
227.621	39.94
227.856	43.94
228.09	46.94
228.324	45.94
228.559	61.94
228.793	62.94
229.027	69.94
229.262	62.94
229.496	53.94
229.73	67.94
229.964	80.94
230.199	61.94
230.433	64.94
230.667	71.94
230.901	72.94
231.136	78.94
231.37	73.94
231.604	75.94
231.838	76.94
232.072	75.94
232.306	85.94
232.541	78.94
232.775	64.94
233.009	76.94
233.243	84.94
233.477	95.94
233.711	93.94
233.945	72.94
234.179	70.94
234.413	80.94
234.647	76.94
234.881	79.94
235.115	60.94
235.349	68.94
235.583	69.94
235.817	62.94
236.051	76.94
236.285	73.94
236.519	80.94
236.753	79.94
236.987	81.94
237.221	62.94
237.455	85.94
237.689	75.94
237.922	80.94
238.156	70.94
238.39	65.94
238.624	72.94
238.858	73.94
239.091	63.94
239.325	55.94
239.559	77.94
239.793	77.94
240.027	80.94
240.26	81.94
240.494	73.94
240.728	76.94
240.961	69.94
241.195	75.94
241.429	70.94
241.662	73.94
241.896	82.94
242.13	71.94
242.363	64.94
242.597	65.94
242.83	69.94
243.064	78.94
243.298	76.94
243.531	87.94
243.765	68.94
243.998	76.94
244.232	88.94
244.465	70.94
244.699	78.94
244.932	78.94
245.166	59.94
245.399	60.94
245.633	71.94
245.866	78.94
246.099	73.94
246.333	69.94
246.566	56.94
246.8	65.94
247.033	80.94
247.266	72.94
247.5	85.94
247.733	75.94
247.966	66.94
248.2	88.94
248.433	75.94
248.666	71.94
248.899	76.94
249.133	79.94
249.366	84.94
249.599	78.94
249.832	85.94
250.066	73.94
250.299	86.94
250.532	85.94
250.765	63.94
250.998	81.94
251.231	74.94
251.465	74.94
251.698	71.94
251.931	74.94
252.164	82.94
252.397	78.94
252.63	80.94
252.863	70.94
253.096	71.94
253.329	67.94
253.562	78.94
253.795	80.94
254.028	85.94
254.261	69.94
254.494	76.94
254.727	88.94
254.96	73.94
255.193	73.94
255.426	80.94
255.659	82.94
255.892	89.94
256.124	87.94
256.357	84.94
256.59	81.94
256.823	75.94
257.056	90.94
257.289	77.94
257.521	73.94
257.754	77.94
257.987	82.94
258.22	83.94
258.452	81.94
258.685	85.94
258.918	76.94
259.151	69.94
259.383	66.94
259.616	75.94
259.849	81.94
260.081	81.94
260.314	66.94
260.547	79.94
260.779	87.94
261.012	86.94
261.244	71.94
261.477	71.94
261.71	66.94
261.942	66.94
262.175	83.94
262.407	72.94
262.64	63.94
262.872	83.94
263.105	84.94
263.337	83.94
263.57	82.94
263.802	78.94
264.035	90.94
264.267	90.94
264.499	70.94
264.732	84.94
264.964	84.94
265.197	75.94
265.429	87.94
265.661	76.94
265.894	64.94
266.126	90.94
266.358	77.94
266.591	71.94
266.823	85.94
267.055	95.94
267.287	75.94
267.52	75.94
267.752	83.94
267.984	84.94
268.216	78.94
268.448	80.94
268.681	81.94
268.913	80.94
269.145	78.94
269.377	82.94
269.609	85.94
269.841	76.94
270.073	76.94
270.306	83.94
270.538	80.94
270.77	78.94
271.002	79.94
271.234	76.94
271.466	88.94
271.698	66.94
271.93	78.94
272.162	81.94
272.394	82.94
272.626	86.94
272.858	95.94
273.09	87.94
273.322	89.94
273.553	66.94
273.785	79.94
274.017	87.94
274.249	77.94
274.481	86.94
274.713	90.94
274.945	93.94
275.176	89.94
275.408	99.94
275.64	81.94
275.872	72.94
276.104	93.94
276.335	89.94
276.567	83.94
276.799	79.94
277.031	83.94
277.262	73.94
277.494	87.94
277.726	80.94
277.957	86.94
278.189	78.94
278.421	73.94
278.652	86.94
278.884	89.94
279.115	84.94
279.347	69.94
279.579	70.94
279.81	83.94
280.042	77.94
280.273	91.94
280.505	82.94
280.736	85.94
280.968	92.94
281.199	78.94
281.431	83.94
281.662	82.94
281.894	81.94
282.125	78.94
282.356	76.94
282.588	74.94
282.819	85.94
283.051	67.94
283.282	84.94
283.513	86.94
283.745	88.94
283.976	84.94
284.207	77.94
284.439	67.94
284.67	79.94
284.901	93.94
285.132	79.94
285.364	78.94
285.595	93.94
285.826	82.94
286.057	76.94
286.288	86.94
286.52	79.94
286.751	66.94
286.982	73.94
287.213	88.94
287.444	93.94
287.675	83.94
287.906	77.94
288.138	76.94
288.369	88.94
288.6	85.94
288.831	74.94
289.062	82.94
289.293	72.94
289.524	91.94
289.755	93.94
289.986	89.94
290.217	96.94
290.448	72.94
290.679	80.94
290.91	80.94
291.141	80.94
291.371	85.94
291.602	68.94
291.833	92.94
292.064	75.94
292.295	83.94
292.526	74.94
292.757	92.94
292.987	75.94
293.218	80.94
293.449	76.94
293.68	87.94
293.91	90.94
294.141	91.94
294.372	90.94
294.603	80.94
294.833	77.94
295.064	85.94
295.295	80.94
295.525	69.94
295.756	97.94
295.987	97.94
296.217	92.94
296.448	83.94
296.679	83.94
296.909	99.94
297.14	80.94
297.37	77.94
297.601	77.94
297.831	86.94
298.062	76.94
298.292	89.94
298.523	83.94
298.753	77.94
298.984	77.94
299.214	68.94
299.445	79.94
299.675	69.94
299.905	77.94
300.136	84.94
300.366	83.94
300.597	100.94
300.827	87.94
301.057	74.94
301.288	78.94
301.518	85.94
301.748	81.94
301.979	103.94
302.209	91.94
302.439	83.94
302.669	92.94
302.9	92.94
303.13	83.94
303.36	87.94
303.59	76.94
303.82	72.94
304.051	89.94
304.281	97.94
304.511	81.94
304.741	77.94
304.971	77.94
305.201	97.94
305.431	89.94
305.661	85.94
305.891	76.94
306.121	85.94
306.352	81.94
306.582	84.94
306.812	75.94
307.042	88.94
307.272	97.94
307.502	89.94
307.731	74.94
307.961	87.94
308.191	90.94
308.421	77.94
308.651	82.94
308.881	91.94
309.111	91.94
309.341	90.94
309.571	85.94
309.8	93.94
310.03	91.94
310.26	78.94
310.49	82.94
310.72	88.94
310.949	75.94
311.179	83.94
311.409	69.94
311.639	84.94
311.868	82.94
312.098	84.94
312.328	90.94
312.557	82.94
312.787	73.94
313.017	84.94
313.246	88.94
313.476	87.94
313.706	81.94
313.935	82.94
314.165	96.94
314.394	94.94
314.624	87.94
314.853	81.94
315.083	83.94
315.312	86.94
315.542	83.94
315.771	76.94
316.001	80.94
316.23	87.94
316.46	93.94
316.689	83.94
316.919	81.94
317.148	88.94
317.377	85.94
317.607	83.94
317.836	72.94
318.065	80.94
318.295	83.94
318.524	74.94
318.753	100.94
318.983	99.94
319.212	92.94
319.441	96.94
319.67	76.94
319.9	85.94
320.129	71.94
320.358	81.94
320.587	89.94
320.816	82.94
321.046	83.94
321.275	78.94
321.504	73.94
321.733	85.94
321.962	85.94
322.191	89.94
322.42	93.94
322.649	97.94
322.878	84.94
323.108	90.94
323.337	77.94
323.566	93.94
323.795	91.94
324.024	90.94
324.253	99.94
324.482	108.94
324.71	151.94
324.939	151.94
325.168	109.94
325.397	94.94
325.626	99.94
325.855	96.94
326.084	89.94
326.313	88.94
326.542	89.94
326.77	76.94
326.999	97.94
327.228	130.94
327.457	126.94
327.686	114.94
327.914	103.94
328.143	117.94
328.372	101.94
328.6	97.94
328.829	94.94
329.058	84.94
329.287	86.94
329.515	97.94
329.744	98.94
329.972	107.94
330.201	98.94
330.43	142.94
330.658	103.94
330.887	92.94
331.115	88.94
331.344	83.94
331.572	96.94
331.801	102.94
332.03	101.94
332.258	86.94
332.486	85.94
332.715	76.94
332.943	84.94
333.172	70.94
333.4	86.94
333.629	69.94
333.857	99.94
334.085	108.94
334.314	145.94
334.542	137.94
334.771	121.94
334.999	94.94
335.227	92.94
335.455	83.94
335.684	87.94
335.912	88.94
336.14	83.94
336.369	95.94
336.597	69.94
336.825	91.94
337.053	87.94
337.281	78.94
337.51	81.94
337.738	95.94
337.966	95.94
338.194	80.94
338.422	87.94
338.65	81.94
338.878	70.94
339.106	77.94
339.334	81.94
339.562	81.94
339.79	84.94
340.018	92.94
340.246	82.94
340.474	84.94
340.702	82.94
340.93	92.94
341.158	85.94
341.386	80.94
341.614	84.94
341.842	75.94
342.07	94.94
342.298	83.94
342.526	83.94
342.754	86.94
342.981	74.94
343.209	75.94
343.437	90.94
343.665	88.94
343.893	90.94
344.12	82.94
344.348	76.94
344.576	83.94
344.804	71.94
345.031	64.94
345.259	81.94
345.487	80.94
345.714	78.94
345.942	85.94
346.17	75.94
346.397	98.94
346.625	65.94
346.853	85.94
347.08	74.94
347.308	81.94
347.535	77.94
347.763	85.94
347.99	78.94
348.218	71.94
348.445	85.94
348.673	88.94
348.9	82.94
349.128	79.94
349.355	78.94
349.583	82.94
349.81	74.94
350.037	88.94
350.265	77.94
350.492	94.94
350.72	89.94
350.947	91.94
351.174	79.94
351.402	84.94
351.629	79.94
351.856	83.94
352.083	97.94
352.311	77.94
352.538	82.94
352.765	99.94
352.992	75.94
353.22	75.94
353.447	77.94
353.674	90.94
353.901	76.94
354.128	77.94
354.355	83.94
354.583	83.94
354.81	90.94
355.037	82.94
355.264	70.94
355.491	78.94
355.718	85.94
355.945	98.94
356.172	69.94
356.399	83.94
356.626	75.94
356.853	90.94
357.08	82.94
357.307	78.94
357.534	87.94
357.761	84.94
357.988	81.94
358.215	88.94
358.441	79.94
358.668	78.94
358.895	86.94
359.122	85.94
359.349	81.94
359.576	77.94
359.802	79.94
360.029	78.94
360.256	86.94
360.483	68.94
360.709	79.94
360.936	88.94
361.163	81.94
361.39	70.94
361.616	89.94
361.843	80.94
362.07	80.94
362.296	83.94
362.523	82.94
362.749	77.94
362.976	78.94
363.203	81.94
363.429	87.94
363.656	75.94
363.882	93.94
364.109	78.94
364.335	87.94
364.562	63.94
364.788	75.94
365.015	81.94
365.241	88.94
365.468	85.94
365.694	81.94
365.92	71.94
366.147	69.94
366.373	96.94
366.599	88.94
366.826	68.94
367.052	69.94
367.278	86.94
367.505	90.94
367.731	87.94
367.957	89.94
368.184	91.94
368.41	82.94
368.636	83.94
368.862	69.94
369.089	91.94
369.315	84.94
369.541	84.94
369.767	87.94
369.993	75.94
370.219	86.94
370.445	74.94
370.672	78.94
370.898	95.94
371.124	96.94
371.35	83.94
371.576	78.94
371.802	75.94
372.028	86.94
372.254	74.94
372.48	67.94
372.706	72.94
372.932	84.94
373.158	83.94
373.384	77.94
373.61	93.94
373.835	75.94
374.061	74.94
374.287	76.94
374.513	82.94
374.739	85.94
374.965	77.94
375.191	74.94
375.416	83.94
375.642	85.94
375.868	94.94
376.094	86.94
376.319	83.94
376.545	82.94
376.771	77.94
376.997	71.94
377.222	70.94
377.448	75.94
377.674	83.94
377.899	85.94
378.125	76.94
378.35	87.94
378.576	79.94
378.802	89.94
379.027	80.94
379.253	91.94
379.478	72.94
379.704	77.94
379.929	82.94
380.155	81.94
380.38	72.94
380.606	86.94
380.831	79.94
381.057	85.94
381.282	67.94
381.507	79.94
381.733	69.94
381.958	75.94
382.184	87.94
382.409	79.94
382.634	77.94
382.86	69.94
383.085	87.94
383.31	77.94
383.535	83.94
383.761	67.94
383.986	77.94
384.211	82.94
384.436	81.94
384.662	79.94
384.887	77.94
385.112	69.94
385.337	81.94
385.562	72.94
385.787	89.94
386.013	88.94
386.238	72.94
386.463	82.94
386.688	100.94
386.913	92.94
387.138	80.94
387.363	83.94
387.588	74.94
387.813	76.94
388.038	77.94
388.263	76.94
388.488	84.94
388.713	89.94
388.938	75.94
389.163	81.94
389.387	81.94
389.612	90.94
389.837	75.94
390.062	75.94
390.287	66.94
390.512	80.94
390.736	71.94
390.961	70.94
391.186	80.94
391.411	76.94
391.636	74.94
391.86	88.94
392.085	81.94
392.31	72.94
392.534	82.94
392.759	79.94
392.984	71.94
393.208	91.94
393.433	79.94
393.658	75.94
393.882	77.94
394.107	78.94
394.331	78.94
394.556	83.94
394.78	83.94
395.005	80.94
395.229	91.94
395.454	71.94
395.678	81.94
395.903	85.94
396.127	86.94
396.352	80.94
396.576	77.94
396.801	77.94
397.025	85.94
397.249	88.94
397.474	92.94
397.698	77.94
397.922	83.94
398.147	58.94
398.371	76.94
398.595	76.94
398.82	72.94
399.044	84.94
399.268	70.94
399.492	77.94
399.717	74.94
399.941	65.94
400.165	95.94
400.389	85.94
400.613	73.94
400.837	85.94
401.062	96.94
401.286	88.94
401.51	86.94
401.734	82.94
401.958	68.94
402.182	81.94
402.406	81.94
402.63	90.94
402.854	76.94
403.078	83.94
403.302	82.94
403.526	86.94
403.75	71.94
403.974	61.94
404.198	91.94
404.422	97.94
404.645	82.94
404.869	81.94
405.093	87.94
405.317	81.94
405.541	73.94
405.765	87.94
405.988	85.94
406.212	85.94
406.436	91.94
406.66	83.94
406.883	67.94
407.107	79.94
407.331	81.94
407.555	73.94
407.778	77.94
408.002	92.94
408.226	83.94
408.449	79.94
408.673	80.94
408.896	95.94
409.12	76.94
409.344	84.94
409.567	75.94
409.791	83.94
410.014	89.94
410.238	68.94
410.461	78.94
410.685	83.94
410.908	74.94
411.132	82.94
411.355	76.94
411.578	77.94
411.802	87.94
412.025	82.94
412.249	72.94
412.472	80.94
412.695	85.94
412.919	58.94
413.142	76.94
413.365	80.94
413.589	77.94
413.812	80.94
414.035	81.94
414.258	84.94
414.482	85.94
414.705	85.94
414.928	76.94
415.151	71.94
415.374	88.94
415.597	79.94
415.821	73.94
416.044	83.94
416.267	79.94
416.49	83.94
416.713	90.94
416.936	89.94
417.159	63.94
417.382	94.94
417.605	74.94
417.828	85.94
418.051	73.94
418.274	70.94
418.497	79.94
418.72	81.94
418.943	93.94
419.166	90.94
419.389	75.94
419.611	76.94
419.834	77.94
420.057	82.94
420.28	75.94
420.503	75.94
420.726	64.94
420.948	67.94
421.171	68.94
421.394	87.94
421.617	76.94
421.839	79.94
422.062	88.94
422.285	60.94
422.507	71.94
422.73	73.94
422.953	88.94
423.175	83.94
423.398	83.94
423.621	76.94
423.843	77.94
424.066	70.94
424.288	78.94
424.511	84.94
424.733	89.94
424.956	63.94
425.178	66.94
425.401	80.94
425.623	87.94
425.846	75.94
426.068	78.94
426.291	78.94
426.513	81.94
426.735	72.94
426.958	75.94
427.18	80.94
427.402	77.94
427.625	82.94
427.847	76.94
428.069	98.94
428.292	96.94
428.514	87.94
428.736	73.94
428.958	69.94
429.181	77.94
429.403	84.94
429.625	72.94
429.847	77.94
430.069	92.94
430.292	89.94
430.514	72.94
430.736	80.94
430.958	86.94
431.18	84.94
431.402	73.94
431.624	87.94
431.846	69.94
432.068	93.94
432.29	83.94
432.512	71.94
432.734	69.94
432.956	77.94
433.178	78.94
433.4	81.94
433.622	68.94
433.844	88.94
434.066	69.94
434.287	76.94
434.509	72.94
434.731	72.94
434.953	76.94
435.175	69.94
435.397	86.94
435.618	75.94
435.84	77.94
436.062	79.94
436.284	71.94
436.505	79.94
436.727	101.94
436.949	69.94
437.17	68.94
437.392	80.94
437.614	71.94
437.835	88.94
438.057	86.94
438.278	91.94
438.5	92.94
438.721	71.94
438.943	94.94
439.165	72.94
439.386	89.94
439.608	87.94
439.829	84.94
440.05	72.94
440.272	78.94
440.493	83.94
440.715	75.94
440.936	84.94
441.158	80.94
441.379	71.94
441.6	73.94
441.822	68.94
442.043	88.94
442.264	80.94
442.486	87.94
442.707	72.94
442.928	70.94
443.149	77.94
443.371	70.94
443.592	87.94
443.813	108.94
444.034	83.94
444.255	96.94
444.476	85.94
444.698	75.94
444.919	67.94
445.14	154.94
445.361	107.94
445.582	82.94
445.803	75.94
446.024	83.94
446.245	82.94
446.466	93.94
446.687	70.94
446.908	73.94
447.129	72.94
447.35	83.94
447.571	87.94
447.792	73.94
448.013	76.94
448.234	97.94
448.455	85.94
448.675	87.94
448.896	77.94
449.117	76.94
449.338	85.94
449.559	89.94
449.779	74.94
450	74.94
450.221	68.94
450.442	88.94
450.662	73.94
450.883	86.94
451.104	91.94
451.324	76.94
451.545	68.94
451.766	88.94
451.986	69.94
452.207	70.94
452.428	66.94
452.648	75.94
452.869	91.94
453.089	77.94
453.31	67.94
453.53	82.94
453.751	71.94
453.971	71.94
454.192	79.94
454.412	82.94
454.633	79.94
454.853	73.94
455.073	79.94
455.294	91.94
455.514	75.94
455.734	71.94
455.955	73.94
456.175	75.94
456.395	82.94
456.616	84.94
456.836	74.94
457.056	68.94
457.276	71.94
457.497	61.94
457.717	83.94
457.937	77.94
458.157	77.94
458.377	74.94
458.598	71.94
458.818	76.94
459.038	76.94
459.258	78.94
459.478	73.94
459.698	73.94
459.918	83.94
460.138	79.94
460.358	77.94
460.578	87.94
460.798	81.94
461.018	74.94
461.238	77.94
461.458	82.94
461.678	66.94
461.898	79.94
462.118	78.94
462.338	91.94
462.558	72.94
462.777	89.94
462.997	73.94
463.217	80.94
463.437	72.94
463.657	75.94
463.876	77.94
464.096	71.94
464.316	75.94
464.536	74.94
464.755	61.94
464.975	76.94
465.195	85.94
465.414	93.94
465.634	76.94
465.854	75.94
466.073	89.94
466.293	67.94
466.512	76.94
466.732	75.94
466.951	77.94
467.171	76.94
467.391	67.94
467.61	66.94
467.829	80.94
468.049	107.94
468.268	108.94
468.488	93.94
468.707	70.94
468.927	78.94
469.146	82.94
469.365	81.94
469.585	68.94
469.804	75.94
470.023	65.94
470.243	83.94
470.462	76.94
470.681	84.94
470.901	97.94
471.12	77.94
471.339	80.94
471.558	72.94
471.777	90.94
471.997	100.94
472.216	143.94
472.435	165.94
472.654	95.94
472.873	84.94
473.092	84.94
473.311	82.94
473.53	85.94
473.749	80.94
473.968	97.94
474.187	71.94
474.406	83.94
474.625	78.94
474.844	86.94
475.063	66.94
475.282	68.94
475.501	84.94
475.72	73.94
475.939	77.94
476.158	71.94
476.377	72.94
476.596	82.94
476.814	85.94
477.033	79.94
477.252	84.94
477.471	85.94
477.69	66.94
477.908	88.94
478.127	83.94
478.346	93.94
478.564	82.94
478.783	80.94
479.002	60.94
479.22	75.94
479.439	70.94
479.658	84.94
479.876	79.94
480.095	95.94
480.313	100.94
480.532	75.94
480.751	92.94
480.969	135.94
481.188	249.94
481.406	158.94
481.624	95.94
481.843	84.94
482.061	86.94
482.28	61.94
482.498	67.94
482.717	89.94
482.935	81.94
483.153	81.94
483.372	85.94
483.59	75.94
483.808	89.94
484.027	90.94
484.245	75.94
484.463	76.94
484.681	87.94
484.9	75.94
485.118	70.94
485.336	75.94
485.554	81.94
485.772	83.94
485.99	78.94
486.209	84.94
486.427	83.94
486.645	91.94
486.863	88.94
487.081	80.94
487.299	76.94
487.517	91.94
487.735	94.94
487.953	81.94
488.171	68.94
488.389	87.94
488.607	77.94
488.825	72.94
489.043	82.94
489.261	89.94
489.479	71.94
489.696	90.94
489.914	86.94
490.132	77.94
490.35	84.94
490.568	85.94
490.786	88.94
491.003	72.94
491.221	78.94
491.439	71.94
491.657	81.94
491.874	95.94
492.092	85.94
492.31	81.94
492.527	88.94
492.745	95.94
492.963	89.94
493.18	76.94
493.398	75.94
493.615	77.94
493.833	83.94
494.05	89.94
494.268	83.94
494.485	76.94
494.703	82.94
494.92	78.94
495.138	83.94
495.355	92.94
495.573	75.94
495.79	77.94
496.008	80.94
496.225	79.94
496.442	79.94
496.66	78.94
496.877	82.94
497.094	76.94
497.312	75.94
497.529	79.94
497.746	91.94
497.963	79.94
498.181	86.94
498.398	64.94
498.615	83.94
498.832	79.94
499.049	72.94
499.267	78.94
499.484	82.94
499.701	73.94
499.918	69.94
500.135	66.94
500.352	74.94
500.569	80.94
500.786	75.94
501.003	87.94
501.22	96.94
501.437	83.94
501.654	79.94
501.871	75.94
502.088	85.94
502.305	79.94
502.522	84.94
502.739	74.94
502.956	77.94
503.172	82.94
503.389	83.94
503.606	76.94
503.823	85.94
504.04	87.94
504.256	81.94
504.473	89.94
504.69	92.94
504.907	91.94
505.123	81.94
505.34	84.94
505.557	70.94
505.773	83.94
505.99	76.94
506.207	83.94
506.423	75.94
506.64	89.94
506.856	79.94
507.073	77.94
507.289	89.94
507.506	74.94
507.722	75.94
507.939	91.94
508.155	89.94
508.372	64.94
508.588	83.94
508.805	77.94
509.021	80.94
509.238	76.94
509.454	75.94
509.67	84.94
509.887	87.94
510.103	86.94
510.319	89.94
510.536	132.94
510.752	201.94
510.968	125.94
511.184	89.94
511.401	69.94
511.617	69.94
511.833	84.94
512.049	77.94
512.265	84.94
512.481	93.94
512.698	76.94
512.914	69.94
513.13	87.94
513.346	75.94
513.562	99.94
513.778	88.94
513.994	81.94
514.21	91.94
514.426	83.94
514.642	90.94
514.858	80.94
515.074	99.94
515.29	144.94
515.506	178.94
515.721	105.94
515.937	87.94
516.153	87.94
516.369	85.94
516.585	60.94
516.801	79.94
517.016	86.94
517.232	75.94
517.448	76.94
517.664	80.94
517.879	87.94
518.095	87.94
518.311	75.94
518.527	78.94
518.742	95.94
518.958	75.94
519.173	76.94
519.389	85.94
519.605	87.94
519.82	91.94
