Data from Penny_3_HRD10591_00001.txt Node
Date: Wed Nov 05 15:35:09 EST 2025
User: Yrep
Spectrometer: HR+D1059
Trigger mode: 1
Integration Time (sec): 1.000000E-1
Scans to average: 1
Electric dark correction enabled: true
Nonlinearity correction enabled: false
Boxcar width: 0
XAxis mode: Wavelengths
Number of Pixels in Spectrum: 2048
>>>>>Begin Spectral Data<<<<<
223.165	-9.31
223.4	-9.31
223.635	-9.31
223.869	-22.31
224.104	-19.31
224.338	-5.31
224.573	-23.31
224.808	-11.31
225.042	-10.31
225.277	-3.31
225.511	14.69
225.746	12.69
225.98	13.69
226.215	-11.31
226.449	15.69
226.683	10.69
226.918	29.69
227.152	18.69
227.387	45.69
227.621	28.69
227.856	42.69
228.09	64.69
228.324	46.69
228.559	66.69
228.793	60.69
229.027	68.69
229.262	66.69
229.496	71.69
229.73	75.69
229.964	70.69
230.199	71.69
230.433	75.69
230.667	77.69
230.901	75.69
231.136	77.69
231.37	80.69
231.604	79.69
231.838	88.69
232.072	78.69
232.306	85.69
232.541	86.69
232.775	91.69
233.009	84.69
233.243	90.69
233.477	96.69
233.711	81.69
233.945	88.69
234.179	84.69
234.413	87.69
234.647	82.69
234.881	70.69
235.115	85.69
235.349	74.69
235.583	70.69
235.817	88.69
236.051	93.69
236.285	97.69
236.519	83.69
236.753	75.69
236.987	63.69
237.221	80.69
237.455	94.69
237.689	77.69
237.922	69.69
238.156	77.69
238.39	83.69
238.624	71.69
238.858	88.69
239.091	70.69
239.325	66.69
239.559	69.69
239.793	68.69
240.027	90.69
240.26	64.69
240.494	88.69
240.728	82.69
240.961	61.69
241.195	61.69
241.429	78.69
241.662	78.69
241.896	65.69
242.13	79.69
242.363	71.69
242.597	69.69
242.83	76.69
243.064	71.69
243.298	78.69
243.531	79.69
243.765	89.69
243.998	84.69
244.232	81.69
244.465	85.69
244.699	80.69
244.932	78.69
245.166	75.69
245.399	80.69
245.633	83.69
245.866	71.69
246.099	62.69
246.333	80.69
246.566	86.69
246.8	79.69
247.033	83.69
247.266	72.69
247.5	66.69
247.733	84.69
247.966	83.69
248.2	81.69
248.433	77.69
248.666	80.69
248.899	76.69
249.133	78.69
249.366	84.69
249.599	91.69
249.832	79.69
250.066	78.69
250.299	85.69
250.532	68.69
250.765	98.69
250.998	96.69
251.231	78.69
251.465	70.69
251.698	84.69
251.931	79.69
252.164	82.69
252.397	71.69
252.63	86.69
252.863	67.69
253.096	95.69
253.329	88.69
253.562	71.69
253.795	64.69
254.028	76.69
254.261	74.69
254.494	87.69
254.727	90.69
254.96	79.69
255.193	70.69
255.426	90.69
255.659	88.69
255.892	81.69
256.124	88.69
256.357	79.69
256.59	82.69
256.823	98.69
257.056	76.69
257.289	81.69
257.521	86.69
257.754	68.69
257.987	78.69
258.22	96.69
258.452	75.69
258.685	80.69
258.918	73.69
259.151	85.69
259.383	80.69
259.616	72.69
259.849	78.69
260.081	92.69
260.314	80.69
260.547	74.69
260.779	80.69
261.012	94.69
261.244	69.69
261.477	95.69
261.71	79.69
261.942	70.69
262.175	74.69
262.407	88.69
262.64	81.69
262.872	83.69
263.105	78.69
263.337	68.69
263.57	75.69
263.802	78.69
264.035	90.69
264.267	81.69
264.499	72.69
264.732	85.69
264.964	80.69
265.197	70.69
265.429	76.69
265.661	79.69
265.894	91.69
266.126	80.69
266.358	78.69
266.591	74.69
266.823	84.69
267.055	66.69
267.287	88.69
267.52	70.69
267.752	77.69
267.984	83.69
268.216	78.69
268.448	76.69
268.681	75.69
268.913	90.69
269.145	71.69
269.377	87.69
269.609	73.69
269.841	93.69
270.073	79.69
270.306	90.69
270.538	89.69
270.77	79.69
271.002	98.69
271.234	84.69
271.466	88.69
271.698	65.69
271.93	86.69
272.162	79.69
272.394	84.69
272.626	68.69
272.858	87.69
273.09	84.69
273.322	73.69
273.553	72.69
273.785	86.69
274.017	80.69
274.249	91.69
274.481	92.69
274.713	85.69
274.945	94.69
275.176	72.69
275.408	90.69
275.64	90.69
275.872	72.69
276.104	96.69
276.335	92.69
276.567	68.69
276.799	77.69
277.031	94.69
277.262	92.69
277.494	86.69
277.726	97.69
277.957	89.69
278.189	79.69
278.421	84.69
278.652	86.69
278.884	78.69
279.115	87.69
279.347	74.69
279.579	85.69
279.81	76.69
280.042	78.69
280.273	92.69
280.505	90.69
280.736	89.69
280.968	98.69
281.199	78.69
281.431	63.69
281.662	84.69
281.894	87.69
282.125	80.69
282.356	83.69
282.588	79.69
282.819	88.69
283.051	70.69
283.282	88.69
283.513	83.69
283.745	77.69
283.976	88.69
284.207	74.69
284.439	90.69
284.67	75.69
284.901	95.69
285.132	83.69
285.364	83.69
285.595	89.69
285.826	90.69
286.057	86.69
286.288	87.69
286.52	86.69
286.751	80.69
286.982	92.69
287.213	86.69
287.444	72.69
287.675	84.69
287.906	96.69
288.138	77.69
288.369	83.69
288.6	90.69
288.831	76.69
289.062	76.69
289.293	86.69
289.524	78.69
289.755	77.69
289.986	86.69
290.217	93.69
290.448	84.69
290.679	88.69
290.91	82.69
291.141	80.69
291.371	86.69
291.602	88.69
291.833	80.69
292.064	94.69
292.295	98.69
292.526	93.69
292.757	87.69
292.987	80.69
293.218	80.69
293.449	80.69
293.68	71.69
293.91	84.69
294.141	86.69
294.372	84.69
294.603	94.69
294.833	84.69
295.064	83.69
295.295	82.69
295.525	79.69
295.756	84.69
295.987	102.69
296.217	76.69
296.448	100.69
296.679	84.69
296.909	85.69
297.14	92.69
297.37	87.69
297.601	76.69
297.831	70.69
298.062	90.69
298.292	102.69
298.523	85.69
298.753	87.69
298.984	106.69
299.214	88.69
299.445	86.69
299.675	99.69
299.905	93.69
300.136	72.69
300.366	90.69
300.597	80.69
300.827	84.69
301.057	82.69
301.288	78.69
301.518	73.69
301.748	78.69
301.979	91.69
302.209	76.69
302.439	76.69
302.669	85.69
302.9	85.69
303.13	88.69
303.36	79.69
303.59	96.69
303.82	90.69
304.051	88.69
304.281	100.69
304.511	89.69
304.741	101.69
304.971	77.69
305.201	82.69
305.431	97.69
305.661	77.69
305.891	81.69
306.121	79.69
306.352	79.69
306.582	77.69
306.812	81.69
307.042	91.69
307.272	95.69
307.502	85.69
307.731	94.69
307.961	74.69
308.191	76.69
308.421	77.69
308.651	74.69
308.881	87.69
309.111	84.69
309.341	80.69
309.571	86.69
309.8	85.69
310.03	66.69
310.26	82.69
310.49	79.69
310.72	84.69
310.949	80.69
311.179	78.69
311.409	76.69
311.639	92.69
311.868	87.69
312.098	72.69
312.328	80.69
312.557	87.69
312.787	90.69
313.017	84.69
313.246	82.69
313.476	80.69
313.706	94.69
313.935	83.69
314.165	86.69
314.394	95.69
314.624	90.69
314.853	104.69
315.083	74.69
315.312	71.69
315.542	82.69
315.771	75.69
316.001	99.69
316.23	82.69
316.46	86.69
316.689	96.69
316.919	96.69
317.148	88.69
317.377	85.69
317.607	90.69
317.836	72.69
318.065	80.69
318.295	89.69
318.524	79.69
318.753	86.69
318.983	101.69
319.212	98.69
319.441	89.69
319.67	82.69
319.9	78.69
320.129	91.69
320.358	68.69
320.587	78.69
320.816	84.69
321.046	83.69
321.275	89.69
321.504	67.69
321.733	86.69
321.962	76.69
322.191	91.69
322.42	105.69
322.649	74.69
322.878	88.69
323.108	88.69
323.337	96.69
323.566	84.69
323.795	88.69
324.024	82.69
324.253	99.69
324.482	127.69
324.71	151.69
324.939	129.69
325.168	96.69
325.397	85.69
325.626	84.69
325.855	73.69
326.084	73.69
326.313	83.69
326.542	86.69
326.77	90.69
326.999	109.69
327.228	116.69
327.457	124.69
327.686	107.69
327.914	102.69
328.143	103.69
328.372	99.69
328.6	88.69
328.829	87.69
329.058	108.69
329.287	98.69
329.515	88.69
329.744	95.69
329.972	98.69
330.201	118.69
330.43	133.69
330.658	108.69
330.887	82.69
331.115	84.69
331.344	85.69
331.572	80.69
331.801	102.69
332.03	77.69
332.258	86.69
332.486	77.69
332.715	76.69
332.943	95.69
333.172	101.69
333.4	88.69
333.629	95.69
333.857	100.69
334.085	98.69
334.314	110.69
334.542	158.69
334.771	136.69
334.999	83.69
335.227	91.69
335.455	83.69
335.684	81.69
335.912	82.69
336.14	70.69
336.369	72.69
336.597	75.69
336.825	79.69
337.053	102.69
337.281	79.69
337.51	78.69
337.738	85.69
337.966	75.69
338.194	94.69
338.422	91.69
338.65	82.69
338.878	89.69
339.106	75.69
339.334	92.69
339.562	88.69
339.79	91.69
340.018	94.69
340.246	92.69
340.474	85.69
340.702	97.69
340.93	87.69
341.158	86.69
341.386	88.69
341.614	81.69
341.842	80.69
342.07	89.69
342.298	81.69
342.526	88.69
342.754	92.69
342.981	90.69
343.209	78.69
343.437	94.69
343.665	71.69
343.893	89.69
344.12	90.69
344.348	93.69
344.576	86.69
344.804	83.69
345.031	83.69
345.259	67.69
345.487	86.69
345.714	84.69
345.942	87.69
346.17	82.69
346.397	74.69
346.625	79.69
346.853	88.69
347.08	79.69
347.308	88.69
347.535	86.69
347.763	105.69
347.99	84.69
348.218	74.69
348.445	76.69
348.673	80.69
348.9	87.69
349.128	99.69
349.355	81.69
349.583	96.69
349.81	87.69
350.037	76.69
350.265	90.69
350.492	96.69
350.72	92.69
350.947	88.69
351.174	99.69
351.402	85.69
351.629	90.69
351.856	74.69
352.083	85.69
352.311	92.69
352.538	75.69
352.765	76.69
352.992	99.69
353.22	82.69
353.447	77.69
353.674	93.69
353.901	89.69
354.128	95.69
354.355	87.69
354.583	86.69
354.81	80.69
355.037	75.69
355.264	88.69
355.491	80.69
355.718	88.69
355.945	80.69
356.172	70.69
356.399	86.69
356.626	63.69
356.853	90.69
357.08	87.69
357.307	85.69
357.534	84.69
357.761	90.69
357.988	70.69
358.215	95.69
358.441	103.69
358.668	100.69
358.895	82.69
359.122	80.69
359.349	77.69
359.576	83.69
359.802	84.69
360.029	68.69
360.256	83.69
360.483	81.69
360.709	81.69
360.936	85.69
361.163	90.69
361.39	79.69
361.616	87.69
361.843	85.69
362.07	84.69
362.296	86.69
362.523	83.69
362.749	72.69
362.976	70.69
363.203	77.69
363.429	84.69
363.656	94.69
363.882	80.69
364.109	84.69
364.335	95.69
364.562	88.69
364.788	79.69
365.015	87.69
365.241	92.69
365.468	90.69
365.694	77.69
365.92	90.69
366.147	65.69
366.373	93.69
366.599	90.69
366.826	89.69
367.052	85.69
367.278	93.69
367.505	74.69
367.731	102.69
367.957	88.69
368.184	91.69
368.41	85.69
368.636	84.69
368.862	97.69
369.089	80.69
369.315	79.69
369.541	88.69
369.767	99.69
369.993	84.69
370.219	85.69
370.445	73.69
370.672	79.69
370.898	81.69
371.124	76.69
371.35	81.69
371.576	70.69
371.802	74.69
372.028	89.69
372.254	79.69
372.48	84.69
372.706	90.69
372.932	78.69
373.158	77.69
373.384	86.69
373.61	77.69
373.835	72.69
374.061	86.69
374.287	100.69
374.513	67.69
374.739	77.69
374.965	92.69
375.191	78.69
375.416	90.69
375.642	74.69
375.868	85.69
376.094	89.69
376.319	77.69
376.545	95.69
376.771	88.69
376.997	88.69
377.222	79.69
377.448	93.69
377.674	84.69
377.899	88.69
378.125	89.69
378.35	79.69
378.576	81.69
378.802	79.69
379.027	69.69
379.253	76.69
379.478	75.69
379.704	71.69
379.929	84.69
380.155	99.69
380.38	80.69
380.606	93.69
380.831	73.69
381.057	90.69
381.282	79.69
381.507	95.69
381.733	78.69
381.958	75.69
382.184	96.69
382.409	87.69
382.634	77.69
382.86	94.69
383.085	87.69
383.31	75.69
383.535	79.69
383.761	87.69
383.986	73.69
384.211	76.69
384.436	86.69
384.662	70.69
384.887	88.69
385.112	84.69
385.337	80.69
385.562	83.69
385.787	78.69
386.013	88.69
386.238	75.69
386.463	89.69
386.688	92.69
386.913	101.69
387.138	79.69
387.363	95.69
387.588	95.69
387.813	94.69
388.038	85.69
388.263	71.69
388.488	80.69
388.713	80.69
388.938	88.69
389.163	80.69
389.387	76.69
389.612	87.69
389.837	81.69
390.062	84.69
390.287	96.69
390.512	105.69
390.736	78.69
390.961	75.69
391.186	73.69
391.411	93.69
391.636	81.69
391.86	71.69
392.085	84.69
392.31	76.69
392.534	84.69
392.759	87.69
392.984	80.69
393.208	80.69
393.433	97.69
393.658	84.69
393.882	83.69
394.107	83.69
394.331	75.69
394.556	74.69
394.78	86.69
395.005	84.69
395.229	92.69
395.454	77.69
395.678	80.69
395.903	88.69
396.127	80.69
396.352	75.69
396.576	77.69
396.801	81.69
397.025	70.69
397.249	83.69
397.474	81.69
397.698	93.69
397.922	92.69
398.147	84.69
398.371	80.69
398.595	91.69
398.82	90.69
399.044	88.69
399.268	79.69
399.492	90.69
399.717	81.69
399.941	67.69
400.165	85.69
400.389	93.69
400.613	75.69
400.837	88.69
401.062	81.69
401.286	90.69
401.51	96.69
401.734	77.69
401.958	92.69
402.182	84.69
402.406	79.69
402.63	76.69
402.854	73.69
403.078	82.69
403.302	83.69
403.526	79.69
403.75	95.69
403.974	76.69
404.198	77.69
404.422	95.69
404.645	80.69
404.869	81.69
405.093	80.69
405.317	73.69
405.541	83.69
405.765	73.69
405.988	91.69
406.212	96.69
406.436	83.69
406.66	77.69
406.883	74.69
407.107	65.69
407.331	80.69
407.555	87.69
407.778	77.69
408.002	84.69
408.226	84.69
408.449	77.69
408.673	77.69
408.896	86.69
409.12	89.69
409.344	101.69
409.567	77.69
409.791	80.69
410.014	80.69
410.238	83.69
410.461	74.69
410.685	81.69
410.908	70.69
411.132	88.69
411.355	85.69
411.578	88.69
411.802	86.69
412.025	78.69
412.249	83.69
412.472	92.69
412.695	93.69
412.919	82.69
413.142	80.69
413.365	71.69
413.589	74.69
413.812	86.69
414.035	71.69
414.258	84.69
414.482	90.69
414.705	84.69
414.928	76.69
415.151	88.69
415.374	84.69
415.597	89.69
415.821	81.69
416.044	80.69
416.267	94.69
416.49	93.69
416.713	93.69
416.936	81.69
417.159	80.69
417.382	95.69
417.605	80.69
417.828	69.69
418.051	79.69
418.274	86.69
418.497	63.69
418.72	77.69
418.943	80.69
419.166	87.69
419.389	79.69
419.611	71.69
419.834	89.69
420.057	78.69
420.28	88.69
420.503	98.69
420.726	84.69
420.948	86.69
421.171	85.69
421.394	82.69
421.617	71.69
421.839	85.69
422.062	81.69
422.285	87.69
422.507	63.69
422.73	75.69
422.953	86.69
423.175	78.69
423.398	86.69
423.621	97.69
423.843	86.69
424.066	72.69
424.288	87.69
424.511	80.69
424.733	84.69
424.956	93.69
425.178	78.69
425.401	91.69
425.623	82.69
425.846	73.69
426.068	92.69
426.291	87.69
426.513	66.69
426.735	86.69
426.958	81.69
427.18	97.69
427.402	93.69
427.625	100.69
427.847	78.69
428.069	86.69
428.292	86.69
428.514	78.69
428.736	80.69
428.958	73.69
429.181	86.69
429.403	87.69
429.625	84.69
429.847	89.69
430.069	84.69
430.292	90.69
430.514	75.69
430.736	91.69
430.958	91.69
431.18	85.69
431.402	96.69
431.624	85.69
431.846	68.69
432.068	90.69
432.29	90.69
432.512	100.69
432.734	81.69
432.956	93.69
433.178	90.69
433.4	100.69
433.622	99.69
433.844	84.69
434.066	70.69
434.287	78.69
434.509	78.69
434.731	89.69
434.953	76.69
435.175	96.69
435.397	88.69
435.618	83.69
435.84	78.69
436.062	89.69
436.284	90.69
436.505	98.69
436.727	92.69
436.949	84.69
437.17	74.69
437.392	85.69
437.614	84.69
437.835	85.69
438.057	81.69
438.278	85.69
438.5	81.69
438.721	87.69
438.943	73.69
439.165	74.69
439.386	75.69
439.608	90.69
439.829	80.69
440.05	78.69
440.272	78.69
440.493	83.69
440.715	84.69
440.936	74.69
441.158	92.69
441.379	94.69
441.6	98.69
441.822	76.69
442.043	77.69
442.264	86.69
442.486	70.69
442.707	72.69
442.928	87.69
443.149	78.69
443.371	90.69
443.592	93.69
443.813	79.69
444.034	77.69
444.255	85.69
444.476	69.69
444.698	72.69
444.919	72.69
445.14	165.69
445.361	110.69
445.582	84.69
445.803	93.69
446.024	76.69
446.245	78.69
446.466	81.69
446.687	80.69
446.908	84.69
447.129	75.69
447.35	84.69
447.571	82.69
447.792	72.69
448.013	78.69
448.234	72.69
448.455	74.69
448.675	88.69
448.896	82.69
449.117	81.69
449.338	73.69
449.559	93.69
449.779	78.69
450	87.69
450.221	82.69
450.442	75.69
450.662	94.69
450.883	89.69
451.104	85.69
451.324	86.69
451.545	93.69
451.766	79.69
451.986	77.69
452.207	92.69
452.428	88.69
452.648	99.69
452.869	93.69
453.089	87.69
453.31	78.69
453.53	82.69
453.751	84.69
453.971	86.69
454.192	85.69
454.412	66.69
454.633	81.69
454.853	81.69
455.073	88.69
455.294	96.69
455.514	95.69
455.734	71.69
455.955	68.69
456.175	80.69
456.395	73.69
456.616	72.69
456.836	76.69
457.056	80.69
457.276	80.69
457.497	69.69
457.717	74.69
457.937	86.69
458.157	70.69
458.377	90.69
458.598	63.69
458.818	88.69
459.038	76.69
459.258	90.69
459.478	72.69
459.698	64.69
459.918	75.69
460.138	77.69
460.358	62.69
460.578	68.69
460.798	84.69
461.018	92.69
461.238	72.69
461.458	84.69
461.678	85.69
461.898	87.69
462.118	76.69
462.338	90.69
462.558	79.69
462.777	90.69
462.997	86.69
463.217	82.69
463.437	84.69
463.657	80.69
463.876	82.69
464.096	94.69
464.316	62.69
464.536	88.69
464.755	81.69
464.975	93.69
465.195	78.69
465.414	94.69
465.634	77.69
465.854	88.69
466.073	80.69
466.293	87.69
466.512	88.69
466.732	69.69
466.951	84.69
467.171	92.69
467.391	83.69
467.61	89.69
467.829	91.69
468.049	107.69
468.268	111.69
468.488	81.69
468.707	68.69
468.927	88.69
469.146	88.69
469.365	81.69
469.585	88.69
469.804	93.69
470.023	83.69
470.243	78.69
470.462	94.69
470.681	82.69
470.901	72.69
471.12	79.69
471.339	86.69
471.558	88.69
471.777	74.69
471.997	96.69
472.216	138.69
472.435	180.69
472.654	111.69
472.873	92.69
473.092	71.69
473.311	88.69
473.53	88.69
473.749	86.69
473.968	93.69
474.187	92.69
474.406	86.69
474.625	71.69
474.844	80.69
475.063	83.69
475.282	79.69
475.501	90.69
475.72	78.69
475.939	82.69
476.158	80.69
476.377	87.69
476.596	64.69
476.814	86.69
477.033	79.69
477.252	66.69
477.471	92.69
477.69	87.69
477.908	94.69
478.127	84.69
478.346	80.69
478.564	90.69
478.783	85.69
479.002	102.69
479.22	88.69
479.439	91.69
479.658	88.69
479.876	83.69
480.095	83.69
480.313	87.69
480.532	78.69
480.751	90.69
480.969	133.69
481.188	230.69
481.406	154.69
481.624	76.69
481.843	80.69
482.061	84.69
482.28	81.69
482.498	78.69
482.717	92.69
482.935	88.69
483.153	93.69
483.372	100.69
483.59	99.69
483.808	90.69
484.027	85.69
484.245	87.69
484.463	87.69
484.681	96.69
484.9	89.69
485.118	75.69
485.336	68.69
485.554	91.69
485.772	96.69
485.99	85.69
486.209	87.69
486.427	84.69
486.645	85.69
486.863	84.69
487.081	80.69
487.299	72.69
487.517	86.69
487.735	76.69
487.953	81.69
488.171	78.69
488.389	65.69
488.607	68.69
488.825	86.69
489.043	99.69
489.261	91.69
489.479	76.69
489.696	90.69
489.914	77.69
490.132	69.69
490.35	95.69
490.568	95.69
490.786	88.69
491.003	89.69
491.221	82.69
491.439	78.69
491.657	88.69
491.874	88.69
492.092	87.69
492.31	85.69
492.527	87.69
492.745	85.69
492.963	79.69
493.18	87.69
493.398	95.69
493.615	71.69
493.833	80.69
494.05	96.69
494.268	81.69
494.485	71.69
494.703	98.69
494.92	92.69
495.138	89.69
495.355	86.69
495.573	92.69
495.79	87.69
496.008	80.69
496.225	90.69
496.442	91.69
496.66	93.69
496.877	86.69
497.094	86.69
497.312	71.69
497.529	87.69
497.746	93.69
497.963	78.69
498.181	85.69
498.398	83.69
498.615	84.69
498.832	81.69
499.049	77.69
499.267	81.69
499.484	68.69
499.701	81.69
499.918	75.69
500.135	78.69
500.352	71.69
500.569	79.69
500.786	79.69
501.003	83.69
501.22	91.69
501.437	85.69
501.654	79.69
501.871	79.69
502.088	78.69
502.305	89.69
502.522	82.69
502.739	85.69
502.956	87.69
503.172	88.69
503.389	94.69
503.606	84.69
503.823	78.69
504.04	92.69
504.256	88.69
504.473	85.69
504.69	90.69
504.907	81.69
505.123	85.69
505.34	90.69
505.557	84.69
505.773	73.69
505.99	87.69
506.207	75.69
506.423	66.69
506.64	82.69
506.856	82.69
507.073	82.69
507.289	88.69
507.506	81.69
507.722	93.69
507.939	93.69
508.155	83.69
508.372	90.69
508.588	74.69
508.805	80.69
509.021	75.69
509.238	91.69
509.454	90.69
509.67	85.69
509.887	76.69
510.103	81.69
510.319	88.69
510.536	141.69
510.752	201.69
510.968	116.69
511.184	95.69
511.401	86.69
511.617	90.69
511.833	80.69
512.049	71.69
512.265	85.69
512.481	92.69
512.698	93.69
512.914	80.69
513.13	70.69
513.346	78.69
513.562	82.69
513.778	89.69
513.994	88.69
514.21	73.69
514.426	94.69
514.642	93.69
514.858	90.69
515.074	95.69
515.29	124.69
515.506	187.69
515.721	102.69
515.937	93.69
516.153	84.69
516.369	86.69
516.585	78.69
516.801	88.69
517.016	79.69
517.232	88.69
517.448	111.69
517.664	86.69
517.879	71.69
518.095	83.69
518.311	79.69
518.527	79.69
518.742	98.69
518.958	79.69
519.173	102.69
519.389	86.69
