Data from Penny_3_HRD10591_00008.txt Node
Date: Wed Nov 05 15:35:12 EST 2025
User: Yrep
Spectrometer: HR+D1059
Trigger mode: 1
Integration Time (sec): 1.000000E-1
Scans to average: 1
Electric dark correction enabled: true
Nonlinearity correction enabled: false
Boxcar width: 0
XAxis mode: Wavelengths
Number of Pixels in Spectrum: 2048
>>>>>Begin Spectral Data<<<<<
223.165	-12.62
223.4	-12.62
223.635	-12.62
223.869	-7.62
224.104	-13.62
224.338	-25.62
224.573	1.38
224.808	-10.62
225.042	-13.62
225.277	-4.62
225.511	-4.62
225.746	-4.62
225.98	0.38
226.215	3.38
226.449	9.38
226.683	18.38
226.918	36.38
227.152	28.38
227.387	20.38
227.621	30.38
227.856	50.38
228.09	31.38
228.324	53.38
228.559	55.38
228.793	52.38
229.027	62.38
229.262	70.38
229.496	58.38
229.73	74.38
229.964	70.38
230.199	76.38
230.433	66.38
230.667	71.38
230.901	80.38
231.136	74.38
231.37	90.38
231.604	58.38
231.838	69.38
232.072	76.38
232.306	86.38
232.541	85.38
232.775	63.38
233.009	83.38
233.243	72.38
233.477	81.38
233.711	84.38
233.945	75.38
234.179	66.38
234.413	80.38
234.647	85.38
234.881	69.38
235.115	72.38
235.349	89.38
235.583	73.38
235.817	86.38
236.051	62.38
236.285	70.38
236.519	77.38
236.753	66.38
236.987	63.38
237.221	82.38
237.455	66.38
237.689	76.38
237.922	78.38
238.156	79.38
238.39	74.38
238.624	73.38
238.858	69.38
239.091	76.38
239.325	72.38
239.559	69.38
239.793	75.38
240.027	89.38
240.26	67.38
240.494	96.38
240.728	82.38
240.961	64.38
241.195	64.38
241.429	71.38
241.662	82.38
241.896	77.38
242.13	77.38
242.363	74.38
242.597	73.38
242.83	83.38
243.064	77.38
243.298	68.38
243.531	85.38
243.765	77.38
243.998	89.38
244.232	78.38
244.465	84.38
244.699	83.38
244.932	76.38
245.166	73.38
245.399	67.38
245.633	78.38
245.866	70.38
246.099	78.38
246.333	91.38
246.566	62.38
246.8	80.38
247.033	84.38
247.266	70.38
247.5	70.38
247.733	75.38
247.966	71.38
248.2	71.38
248.433	65.38
248.666	61.38
248.899	84.38
249.133	94.38
249.366	77.38
249.599	73.38
249.832	70.38
250.066	81.38
250.299	75.38
250.532	73.38
250.765	77.38
250.998	68.38
251.231	77.38
251.465	90.38
251.698	87.38
251.931	91.38
252.164	66.38
252.397	78.38
252.63	79.38
252.863	75.38
253.096	82.38
253.329	85.38
253.562	79.38
253.795	78.38
254.028	93.38
254.261	74.38
254.494	72.38
254.727	78.38
254.96	89.38
255.193	82.38
255.426	77.38
255.659	79.38
255.892	83.38
256.124	74.38
256.357	78.38
256.59	62.38
256.823	72.38
257.056	74.38
257.289	85.38
257.521	69.38
257.754	73.38
257.987	87.38
258.22	83.38
258.452	71.38
258.685	85.38
258.918	63.38
259.151	89.38
259.383	91.38
259.616	85.38
259.849	75.38
260.081	76.38
260.314	75.38
260.547	69.38
260.779	83.38
261.012	86.38
261.244	96.38
261.477	82.38
261.71	88.38
261.942	71.38
262.175	89.38
262.407	66.38
262.64	69.38
262.872	92.38
263.105	84.38
263.337	81.38
263.57	86.38
263.802	80.38
264.035	84.38
264.267	76.38
264.499	74.38
264.732	77.38
264.964	92.38
265.197	75.38
265.429	76.38
265.661	81.38
265.894	77.38
266.126	80.38
266.358	66.38
266.591	80.38
266.823	74.38
267.055	68.38
267.287	73.38
267.52	74.38
267.752	74.38
267.984	80.38
268.216	76.38
268.448	86.38
268.681	82.38
268.913	71.38
269.145	84.38
269.377	74.38
269.609	80.38
269.841	69.38
270.073	64.38
270.306	69.38
270.538	76.38
270.77	85.38
271.002	68.38
271.234	72.38
271.466	86.38
271.698	70.38
271.93	60.38
272.162	86.38
272.394	85.38
272.626	73.38
272.858	94.38
273.09	66.38
273.322	77.38
273.553	77.38
273.785	77.38
274.017	79.38
274.249	77.38
274.481	81.38
274.713	80.38
274.945	69.38
275.176	77.38
275.408	83.38
275.64	87.38
275.872	91.38
276.104	88.38
276.335	87.38
276.567	77.38
276.799	81.38
277.031	86.38
277.262	66.38
277.494	76.38
277.726	83.38
277.957	68.38
278.189	74.38
278.421	76.38
278.652	75.38
278.884	76.38
279.115	81.38
279.347	81.38
279.579	72.38
279.81	76.38
280.042	71.38
280.273	81.38
280.505	89.38
280.736	90.38
280.968	83.38
281.199	77.38
281.431	73.38
281.662	72.38
281.894	76.38
282.125	78.38
282.356	87.38
282.588	87.38
282.819	83.38
283.051	87.38
283.282	84.38
283.513	86.38
283.745	77.38
283.976	66.38
284.207	78.38
284.439	84.38
284.67	86.38
284.901	69.38
285.132	79.38
285.364	79.38
285.595	71.38
285.826	78.38
286.057	87.38
286.288	79.38
286.52	80.38
286.751	79.38
286.982	69.38
287.213	74.38
287.444	92.38
287.675	86.38
287.906	90.38
288.138	74.38
288.369	88.38
288.6	86.38
288.831	83.38
289.062	92.38
289.293	83.38
289.524	92.38
289.755	78.38
289.986	83.38
290.217	70.38
290.448	90.38
290.679	97.38
290.91	74.38
291.141	89.38
291.371	72.38
291.602	75.38
291.833	83.38
292.064	75.38
292.295	65.38
292.526	85.38
292.757	87.38
292.987	59.38
293.218	84.38
293.449	75.38
293.68	87.38
293.91	91.38
294.141	94.38
294.372	70.38
294.603	70.38
294.833	81.38
295.064	76.38
295.295	80.38
295.525	85.38
295.756	84.38
295.987	80.38
296.217	80.38
296.448	72.38
296.679	74.38
296.909	84.38
297.14	70.38
297.37	76.38
297.601	79.38
297.831	78.38
298.062	98.38
298.292	80.38
298.523	87.38
298.753	86.38
298.984	84.38
299.214	78.38
299.445	74.38
299.675	82.38
299.905	84.38
300.136	87.38
300.366	83.38
300.597	76.38
300.827	77.38
301.057	79.38
301.288	89.38
301.518	76.38
301.748	78.38
301.979	90.38
302.209	81.38
302.439	82.38
302.669	96.38
302.9	91.38
303.13	88.38
303.36	79.38
303.59	84.38
303.82	88.38
304.051	90.38
304.281	87.38
304.511	64.38
304.741	78.38
304.971	86.38
305.201	75.38
305.431	72.38
305.661	82.38
305.891	81.38
306.121	89.38
306.352	77.38
306.582	74.38
306.812	76.38
307.042	79.38
307.272	89.38
307.502	77.38
307.731	65.38
307.961	77.38
308.191	82.38
308.421	93.38
308.651	71.38
308.881	86.38
309.111	70.38
309.341	66.38
309.571	77.38
309.8	96.38
310.03	81.38
310.26	72.38
310.49	86.38
310.72	80.38
310.949	71.38
311.179	64.38
311.409	67.38
311.639	82.38
311.868	90.38
312.098	90.38
312.328	73.38
312.557	76.38
312.787	88.38
313.017	82.38
313.246	68.38
313.476	58.38
313.706	57.38
313.935	75.38
314.165	91.38
314.394	91.38
314.624	86.38
314.853	86.38
315.083	83.38
315.312	84.38
315.542	81.38
315.771	95.38
316.001	78.38
316.23	76.38
316.46	80.38
316.689	67.38
316.919	80.38
317.148	86.38
317.377	89.38
317.607	83.38
317.836	80.38
318.065	76.38
318.295	82.38
318.524	78.38
318.753	82.38
318.983	81.38
319.212	76.38
319.441	85.38
319.67	90.38
319.9	69.38
320.129	82.38
320.358	71.38
320.587	84.38
320.816	89.38
321.046	70.38
321.275	72.38
321.504	84.38
321.733	91.38
321.962	91.38
322.191	84.38
322.42	79.38
322.649	87.38
322.878	82.38
323.108	87.38
323.337	91.38
323.566	85.38
323.795	80.38
324.024	96.38
324.253	98.38
324.482	127.38
324.71	144.38
324.939	156.38
325.168	94.38
325.397	81.38
325.626	74.38
325.855	80.38
326.084	79.38
326.313	85.38
326.542	83.38
326.77	90.38
326.999	100.38
327.228	120.38
327.457	136.38
327.686	137.38
327.914	105.38
328.143	104.38
328.372	91.38
328.6	91.38
328.829	84.38
329.058	98.38
329.287	82.38
329.515	89.38
329.744	92.38
329.972	105.38
330.201	124.38
330.43	131.38
330.658	93.38
330.887	90.38
331.115	77.38
331.344	82.38
331.572	78.38
331.801	83.38
332.03	69.38
332.258	74.38
332.486	82.38
332.715	84.38
332.943	68.38
333.172	80.38
333.4	68.38
333.629	75.38
333.857	100.38
334.085	83.38
334.314	120.38
334.542	148.38
334.771	122.38
334.999	91.38
335.227	96.38
335.455	73.38
335.684	76.38
335.912	70.38
336.14	88.38
336.369	77.38
336.597	89.38
336.825	83.38
337.053	91.38
337.281	74.38
337.51	76.38
337.738	76.38
337.966	71.38
338.194	77.38
338.422	83.38
338.65	92.38
338.878	87.38
339.106	87.38
339.334	85.38
339.562	73.38
339.79	81.38
340.018	83.38
340.246	73.38
340.474	64.38
340.702	78.38
340.93	75.38
341.158	76.38
341.386	84.38
341.614	80.38
341.842	80.38
342.07	90.38
342.298	66.38
342.526	80.38
342.754	73.38
342.981	75.38
343.209	89.38
343.437	76.38
343.665	72.38
343.893	84.38
344.12	93.38
344.348	70.38
344.576	52.38
344.804	92.38
345.031	75.38
345.259	76.38
345.487	85.38
345.714	86.38
345.942	75.38
346.17	72.38
346.397	72.38
346.625	82.38
346.853	73.38
347.08	69.38
347.308	76.38
347.535	74.38
347.763	73.38
347.99	79.38
348.218	72.38
348.445	81.38
348.673	82.38
348.9	75.38
349.128	82.38
349.355	96.38
349.583	85.38
349.81	78.38
350.037	71.38
350.265	83.38
350.492	78.38
350.72	80.38
350.947	82.38
351.174	79.38
351.402	87.38
351.629	89.38
351.856	84.38
352.083	85.38
352.311	75.38
352.538	74.38
352.765	83.38
352.992	88.38
353.22	88.38
353.447	83.38
353.674	91.38
353.901	76.38
354.128	77.38
354.355	90.38
354.583	84.38
354.81	74.38
355.037	75.38
355.264	72.38
355.491	74.38
355.718	66.38
355.945	89.38
356.172	74.38
356.399	86.38
356.626	78.38
356.853	78.38
357.08	86.38
357.307	95.38
357.534	73.38
357.761	84.38
357.988	84.38
358.215	86.38
358.441	74.38
358.668	75.38
358.895	87.38
359.122	89.38
359.349	83.38
359.576	67.38
359.802	70.38
360.029	90.38
360.256	81.38
360.483	74.38
360.709	75.38
360.936	79.38
361.163	66.38
361.39	85.38
361.616	86.38
361.843	86.38
362.07	80.38
362.296	73.38
362.523	80.38
362.749	66.38
362.976	80.38
363.203	91.38
363.429	70.38
363.656	80.38
363.882	90.38
364.109	71.38
364.335	70.38
364.562	64.38
364.788	56.38
365.015	72.38
365.241	74.38
365.468	72.38
365.694	79.38
365.92	67.38
366.147	64.38
366.373	75.38
366.599	70.38
366.826	86.38
367.052	74.38
367.278	84.38
367.505	70.38
367.731	81.38
367.957	72.38
368.184	74.38
368.41	76.38
368.636	88.38
368.862	81.38
369.089	81.38
369.315	98.38
369.541	90.38
369.767	75.38
369.993	67.38
370.219	82.38
370.445	63.38
370.672	83.38
370.898	67.38
371.124	62.38
371.35	64.38
371.576	74.38
371.802	81.38
372.028	72.38
372.254	84.38
372.48	86.38
372.706	81.38
372.932	78.38
373.158	78.38
373.384	67.38
373.61	66.38
373.835	81.38
374.061	83.38
374.287	68.38
374.513	78.38
374.739	84.38
374.965	72.38
375.191	81.38
375.416	80.38
375.642	87.38
375.868	86.38
376.094	67.38
376.319	78.38
376.545	70.38
376.771	74.38
376.997	72.38
377.222	73.38
377.448	79.38
377.674	72.38
377.899	77.38
378.125	85.38
378.35	81.38
378.576	76.38
378.802	74.38
379.027	81.38
379.253	81.38
379.478	81.38
379.704	68.38
379.929	87.38
380.155	89.38
380.38	78.38
380.606	86.38
380.831	92.38
381.057	86.38
381.282	80.38
381.507	81.38
381.733	80.38
381.958	87.38
382.184	76.38
382.409	66.38
382.634	76.38
382.86	68.38
383.085	73.38
383.31	72.38
383.535	84.38
383.761	88.38
383.986	90.38
384.211	71.38
384.436	84.38
384.662	59.38
384.887	75.38
385.112	75.38
385.337	81.38
385.562	82.38
385.787	73.38
386.013	75.38
386.238	90.38
386.463	88.38
386.688	82.38
386.913	69.38
387.138	62.38
387.363	69.38
387.588	78.38
387.813	72.38
388.038	75.38
388.263	72.38
388.488	83.38
388.713	76.38
388.938	76.38
389.163	64.38
389.387	70.38
389.612	65.38
389.837	75.38
390.062	71.38
390.287	79.38
390.512	69.38
390.736	70.38
390.961	73.38
391.186	73.38
391.411	75.38
391.636	66.38
391.86	85.38
392.085	78.38
392.31	67.38
392.534	90.38
392.759	85.38
392.984	68.38
393.208	72.38
393.433	68.38
393.658	83.38
393.882	82.38
394.107	74.38
394.331	88.38
394.556	75.38
394.78	78.38
395.005	80.38
395.229	90.38
395.454	78.38
395.678	67.38
395.903	84.38
396.127	73.38
396.352	90.38
396.576	73.38
396.801	72.38
397.025	70.38
397.249	72.38
397.474	84.38
397.698	67.38
397.922	80.38
398.147	80.38
398.371	87.38
398.595	82.38
398.82	74.38
399.044	74.38
399.268	83.38
399.492	76.38
399.717	66.38
399.941	69.38
400.165	72.38
400.389	83.38
400.613	70.38
400.837	66.38
401.062	83.38
401.286	75.38
401.51	91.38
401.734	82.38
401.958	84.38
402.182	74.38
402.406	80.38
402.63	75.38
402.854	84.38
403.078	71.38
403.302	69.38
403.526	81.38
403.75	84.38
403.974	62.38
404.198	78.38
404.422	84.38
404.645	81.38
404.869	81.38
405.093	77.38
405.317	73.38
405.541	77.38
405.765	87.38
405.988	91.38
406.212	96.38
406.436	88.38
406.66	76.38
406.883	79.38
407.107	87.38
407.331	74.38
407.555	68.38
407.778	66.38
408.002	73.38
408.226	82.38
408.449	77.38
408.673	65.38
408.896	77.38
409.12	82.38
409.344	87.38
409.567	80.38
409.791	72.38
410.014	75.38
410.238	75.38
410.461	84.38
410.685	84.38
410.908	70.38
411.132	92.38
411.355	82.38
411.578	87.38
411.802	68.38
412.025	78.38
412.249	85.38
412.472	91.38
412.695	90.38
412.919	85.38
413.142	96.38
413.365	74.38
413.589	84.38
413.812	84.38
414.035	75.38
414.258	81.38
414.482	83.38
414.705	74.38
414.928	72.38
415.151	77.38
415.374	73.38
415.597	79.38
415.821	68.38
416.044	94.38
416.267	71.38
416.49	72.38
416.713	84.38
416.936	80.38
417.159	69.38
417.382	82.38
417.605	72.38
417.828	81.38
418.051	94.38
418.274	89.38
418.497	83.38
418.72	80.38
418.943	81.38
419.166	88.38
419.389	85.38
419.611	81.38
419.834	83.38
420.057	78.38
420.28	72.38
420.503	79.38
420.726	82.38
420.948	90.38
421.171	74.38
421.394	76.38
421.617	92.38
421.839	85.38
422.062	74.38
422.285	90.38
422.507	64.38
422.73	87.38
422.953	82.38
423.175	68.38
423.398	70.38
423.621	67.38
423.843	86.38
424.066	62.38
424.288	77.38
424.511	85.38
424.733	93.38
424.956	83.38
425.178	66.38
425.401	85.38
425.623	81.38
425.846	78.38
426.068	72.38
426.291	78.38
426.513	73.38
426.735	86.38
426.958	86.38
427.18	78.38
427.402	80.38
427.625	67.38
427.847	69.38
428.069	85.38
428.292	80.38
428.514	62.38
428.736	74.38
428.958	80.38
429.181	84.38
429.403	79.38
429.625	83.38
429.847	82.38
430.069	76.38
430.292	74.38
430.514	72.38
430.736	91.38
430.958	80.38
431.18	97.38
431.402	92.38
431.624	72.38
431.846	75.38
432.068	88.38
432.29	74.38
432.512	78.38
432.734	72.38
432.956	95.38
433.178	85.38
433.4	83.38
433.622	69.38
433.844	74.38
434.066	89.38
434.287	84.38
434.509	79.38
434.731	80.38
434.953	94.38
435.175	84.38
435.397	93.38
435.618	90.38
435.84	82.38
436.062	73.38
436.284	75.38
436.505	70.38
436.727	76.38
436.949	84.38
437.17	83.38
437.392	70.38
437.614	75.38
437.835	80.38
438.057	72.38
438.278	74.38
438.5	95.38
438.721	72.38
438.943	70.38
439.165	81.38
439.386	84.38
439.608	80.38
439.829	72.38
440.05	76.38
440.272	68.38
440.493	72.38
440.715	81.38
440.936	82.38
441.158	83.38
441.379	85.38
441.6	69.38
441.822	79.38
442.043	83.38
442.264	91.38
442.486	75.38
442.707	80.38
442.928	82.38
443.149	88.38
443.371	78.38
443.592	81.38
443.813	86.38
444.034	81.38
444.255	78.38
444.476	75.38
444.698	61.38
444.919	85.38
445.14	155.38
445.361	120.38
445.582	88.38
445.803	81.38
446.024	75.38
446.245	78.38
446.466	70.38
446.687	89.38
446.908	82.38
447.129	71.38
447.35	82.38
447.571	90.38
447.792	70.38
448.013	80.38
448.234	84.38
448.455	67.38
448.675	77.38
448.896	68.38
449.117	81.38
449.338	87.38
449.559	84.38
449.779	82.38
450	84.38
450.221	64.38
450.442	89.38
450.662	81.38
450.883	85.38
451.104	75.38
451.324	77.38
451.545	81.38
451.766	76.38
451.986	80.38
452.207	84.38
452.428	81.38
452.648	90.38
452.869	90.38
453.089	81.38
453.31	69.38
453.53	70.38
453.751	64.38
453.971	86.38
454.192	75.38
454.412	74.38
454.633	86.38
454.853	74.38
455.073	79.38
455.294	70.38
455.514	87.38
455.734	80.38
455.955	70.38
456.175	76.38
456.395	68.38
456.616	88.38
456.836	82.38
457.056	72.38
457.276	88.38
457.497	68.38
457.717	87.38
457.937	72.38
458.157	62.38
458.377	69.38
458.598	73.38
458.818	90.38
459.038	77.38
459.258	83.38
459.478	80.38
459.698	82.38
459.918	92.38
460.138	68.38
460.358	67.38
460.578	67.38
460.798	75.38
461.018	81.38
461.238	82.38
461.458	80.38
461.678	78.38
461.898	79.38
462.118	81.38
462.338	73.38
462.558	72.38
462.777	81.38
462.997	82.38
463.217	52.38
463.437	81.38
463.657	87.38
463.876	88.38
464.096	92.38
464.316	70.38
464.536	73.38
464.755	81.38
464.975	89.38
465.195	86.38
465.414	89.38
465.634	97.38
465.854	70.38
466.073	59.38
466.293	70.38
466.512	93.38
466.732	87.38
466.951	83.38
467.171	82.38
467.391	78.38
467.61	95.38
467.829	103.38
468.049	92.38
468.268	113.38
468.488	83.38
468.707	84.38
468.927	88.38
469.146	83.38
469.365	88.38
469.585	81.38
469.804	79.38
470.023	83.38
470.243	99.38
470.462	81.38
470.681	81.38
470.901	80.38
471.12	75.38
471.339	87.38
471.558	84.38
471.777	70.38
471.997	90.38
472.216	137.38
472.435	163.38
472.654	87.38
472.873	81.38
473.092	83.38
473.311	75.38
473.53	84.38
473.749	64.38
473.968	83.38
474.187	68.38
474.406	82.38
474.625	92.38
474.844	69.38
475.063	92.38
475.282	74.38
475.501	83.38
475.72	79.38
475.939	82.38
476.158	81.38
476.377	86.38
476.596	82.38
476.814	77.38
477.033	71.38
477.252	83.38
477.471	84.38
477.69	81.38
477.908	76.38
478.127	77.38
478.346	82.38
478.564	70.38
478.783	86.38
479.002	82.38
479.22	77.38
479.439	77.38
479.658	90.38
479.876	78.38
480.095	87.38
480.313	86.38
480.532	79.38
480.751	83.38
480.969	139.38
481.188	251.38
481.406	158.38
481.624	82.38
481.843	85.38
482.061	74.38
482.28	84.38
482.498	65.38
482.717	85.38
482.935	64.38
483.153	80.38
483.372	77.38
483.59	86.38
483.808	84.38
484.027	91.38
484.245	80.38
484.463	80.38
484.681	85.38
484.9	94.38
485.118	86.38
485.336	79.38
485.554	90.38
485.772	73.38
485.99	69.38
486.209	74.38
486.427	67.38
486.645	83.38
486.863	74.38
487.081	80.38
487.299	74.38
487.517	83.38
487.735	78.38
487.953	74.38
488.171	81.38
488.389	90.38
488.607	72.38
488.825	84.38
489.043	80.38
489.261	78.38
489.479	78.38
489.696	83.38
489.914	80.38
490.132	67.38
490.35	80.38
490.568	75.38
490.786	81.38
491.003	104.38
491.221	72.38
491.439	75.38
491.657	85.38
491.874	90.38
492.092	86.38
492.31	77.38
492.527	91.38
492.745	91.38
492.963	92.38
493.18	74.38
493.398	86.38
493.615	75.38
493.833	94.38
494.05	71.38
494.268	84.38
494.485	86.38
494.703	85.38
494.92	81.38
495.138	95.38
495.355	92.38
495.573	92.38
495.79	88.38
496.008	99.38
496.225	88.38
496.442	84.38
496.66	74.38
496.877	86.38
497.094	68.38
497.312	92.38
497.529	81.38
497.746	72.38
497.963	83.38
498.181	91.38
498.398	83.38
498.615	77.38
498.832	74.38
499.049	73.38
499.267	74.38
499.484	79.38
499.701	81.38
499.918	69.38
500.135	73.38
500.352	72.38
500.569	72.38
500.786	80.38
501.003	81.38
501.22	82.38
501.437	76.38
501.654	73.38
501.871	80.38
502.088	98.38
502.305	85.38
502.522	87.38
502.739	81.38
502.956	101.38
503.172	78.38
503.389	83.38
503.606	66.38
503.823	59.38
504.04	86.38
504.256	78.38
504.473	75.38
504.69	86.38
504.907	101.38
505.123	68.38
505.34	90.38
505.557	78.38
505.773	85.38
505.99	92.38
506.207	88.38
506.423	83.38
506.64	77.38
506.856	82.38
507.073	69.38
507.289	66.38
507.506	104.38
507.722	93.38
507.939	84.38
508.155	74.38
508.372	69.38
508.588	79.38
508.805	87.38
509.021	85.38
509.238	79.38
509.454	81.38
509.67	71.38
509.887	76.38
510.103	90.38
510.319	87.38
510.536	134.38
510.752	208.38
510.968	118.38
511.184	89.38
511.401	82.38
511.617	73.38
511.833	78.38
512.049	84.38
512.265	83.38
512.481	82.38
512.698	71.38
512.914	80.38
513.13	93.38
513.346	70.38
513.562	74.38
513.778	75.38
513.994	79.38
514.21	78.38
514.426	71.38
514.642	78.38
514.858	86.38
515.074	86.38
515.29	134.38
515.506	200.38
515.721	130.38
515.937	76.38
516.153	94.38
516.369	76.38
516.585	72.38
516.801	82.38
517.016	89.38
517.232	73.38
517.448	71.38
517.664	76.38
517.879	76.38
518.095	89.38
518.311	89.38
518.527	89.38
518.742	89.38
518.958	76.38
519.173	85.38
519.389	67.38
519.605	78.38
519.82	78.38
