Data from Penny_3_HRD10591_00005.txt Node
Date: Wed Nov 05 15:35:11 EST 2025
User: Yrep
Spectrometer: HR+D1059
Trigger mode: 1
Integration Time (sec): 1.000000E-1
Scans to average: 1
Electric dark correction enabled: true
Nonlinearity correction enabled: false
Boxcar width: 0
XAxis mode: Wavelengths
Number of Pixels in Spectrum: 2048
>>>>>Begin Spectral Data<<<<<
223.165	-9.69
223.4	-9.69
223.635	-9.69
223.869	-20.69
224.104	-14.69
224.338	-25.69
224.573	-4.69
224.808	-3.69
225.042	-5.69
225.277	-4.69
225.511	-15.69
225.746	7.31
225.98	12.31
226.215	2.31
226.449	14.31
226.683	22.31
226.918	17.31
227.152	29.31
227.387	31.31
227.621	38.31
227.856	43.31
228.09	44.31
228.324	56.31
228.559	55.31
228.793	52.31
229.027	61.31
229.262	69.31
229.496	56.31
229.73	64.31
229.964	57.31
230.199	76.31
230.433	65.31
230.667	72.31
230.901	91.31
231.136	73.31
231.37	74.31
231.604	90.31
231.838	86.31
232.072	89.31
232.306	79.31
232.541	83.31
232.775	95.31
233.009	80.31
233.243	74.31
233.477	84.31
233.711	95.31
233.945	56.31
234.179	89.31
234.413	85.31
234.647	69.31
234.881	69.31
235.115	68.31
235.349	64.31
235.583	78.31
235.817	80.31
236.051	84.31
236.285	68.31
236.519	83.31
236.753	82.31
236.987	72.31
237.221	93.31
237.455	68.31
237.689	73.31
237.922	70.31
238.156	71.31
238.39	78.31
238.624	88.31
238.858	86.31
239.091	78.31
239.325	78.31
239.559	74.31
239.793	73.31
240.027	69.31
240.26	66.31
240.494	74.31
240.728	81.31
240.961	68.31
241.195	71.31
241.429	81.31
241.662	58.31
241.896	71.31
242.13	78.31
242.363	77.31
242.597	69.31
242.83	85.31
243.064	70.31
243.298	69.31
243.531	73.31
243.765	73.31
243.998	71.31
244.232	81.31
244.465	73.31
244.699	78.31
244.932	83.31
245.166	73.31
245.399	87.31
245.633	88.31
245.866	80.31
246.099	83.31
246.333	84.31
246.566	83.31
246.8	84.31
247.033	81.31
247.266	92.31
247.5	82.31
247.733	72.31
247.966	73.31
248.2	69.31
248.433	74.31
248.666	80.31
248.899	81.31
249.133	78.31
249.366	73.31
249.599	76.31
249.832	63.31
250.066	81.31
250.299	81.31
250.532	85.31
250.765	64.31
250.998	70.31
251.231	74.31
251.465	73.31
251.698	67.31
251.931	77.31
252.164	84.31
252.397	88.31
252.63	79.31
252.863	80.31
253.096	82.31
253.329	93.31
253.562	86.31
253.795	73.31
254.028	87.31
254.261	65.31
254.494	74.31
254.727	82.31
254.96	77.31
255.193	72.31
255.426	82.31
255.659	77.31
255.892	74.31
256.124	82.31
256.357	76.31
256.59	79.31
256.823	76.31
257.056	100.31
257.289	86.31
257.521	83.31
257.754	65.31
257.987	71.31
258.22	85.31
258.452	66.31
258.685	68.31
258.918	77.31
259.151	68.31
259.383	74.31
259.616	95.31
259.849	72.31
260.081	72.31
260.314	64.31
260.547	78.31
260.779	80.31
261.012	80.31
261.244	80.31
261.477	67.31
261.71	80.31
261.942	72.31
262.175	67.31
262.407	73.31
262.64	81.31
262.872	88.31
263.105	66.31
263.337	81.31
263.57	79.31
263.802	80.31
264.035	72.31
264.267	81.31
264.499	63.31
264.732	72.31
264.964	61.31
265.197	75.31
265.429	87.31
265.661	75.31
265.894	81.31
266.126	77.31
266.358	85.31
266.591	69.31
266.823	75.31
267.055	89.31
267.287	76.31
267.52	75.31
267.752	88.31
267.984	70.31
268.216	73.31
268.448	91.31
268.681	74.31
268.913	76.31
269.145	70.31
269.377	75.31
269.609	73.31
269.841	81.31
270.073	96.31
270.306	76.31
270.538	81.31
270.77	82.31
271.002	76.31
271.234	89.31
271.466	93.31
271.698	77.31
271.93	68.31
272.162	83.31
272.394	73.31
272.626	81.31
272.858	88.31
273.09	72.31
273.322	76.31
273.553	87.31
273.785	83.31
274.017	78.31
274.249	70.31
274.481	62.31
274.713	74.31
274.945	67.31
275.176	75.31
275.408	77.31
275.64	93.31
275.872	63.31
276.104	86.31
276.335	90.31
276.567	72.31
276.799	83.31
277.031	83.31
277.262	63.31
277.494	85.31
277.726	80.31
277.957	87.31
278.189	86.31
278.421	87.31
278.652	91.31
278.884	90.31
279.115	76.31
279.347	76.31
279.579	91.31
279.81	79.31
280.042	83.31
280.273	82.31
280.505	85.31
280.736	76.31
280.968	80.31
281.199	65.31
281.431	81.31
281.662	83.31
281.894	86.31
282.125	83.31
282.356	78.31
282.588	79.31
282.819	71.31
283.051	85.31
283.282	81.31
283.513	83.31
283.745	69.31
283.976	78.31
284.207	90.31
284.439	72.31
284.67	97.31
284.901	88.31
285.132	76.31
285.364	85.31
285.595	83.31
285.826	78.31
286.057	91.31
286.288	69.31
286.52	80.31
286.751	67.31
286.982	70.31
287.213	83.31
287.444	84.31
287.675	87.31
287.906	84.31
288.138	75.31
288.369	89.31
288.6	74.31
288.831	68.31
289.062	76.31
289.293	85.31
289.524	79.31
289.755	81.31
289.986	88.31
290.217	96.31
290.448	76.31
290.679	71.31
290.91	95.31
291.141	77.31
291.371	67.31
291.602	81.31
291.833	73.31
292.064	87.31
292.295	72.31
292.526	80.31
292.757	86.31
292.987	90.31
293.218	92.31
293.449	68.31
293.68	68.31
293.91	72.31
294.141	75.31
294.372	74.31
294.603	81.31
294.833	95.31
295.064	76.31
295.295	68.31
295.525	83.31
295.756	87.31
295.987	71.31
296.217	81.31
296.448	79.31
296.679	90.31
296.909	75.31
297.14	65.31
297.37	81.31
297.601	85.31
297.831	88.31
298.062	86.31
298.292	82.31
298.523	91.31
298.753	71.31
298.984	65.31
299.214	73.31
299.445	77.31
299.675	85.31
299.905	80.31
300.136	68.31
300.366	84.31
300.597	83.31
300.827	92.31
301.057	77.31
301.288	88.31
301.518	87.31
301.748	74.31
301.979	99.31
302.209	94.31
302.439	100.31
302.669	81.31
302.9	73.31
303.13	82.31
303.36	87.31
303.59	88.31
303.82	81.31
304.051	99.31
304.281	81.31
304.511	94.31
304.741	78.31
304.971	87.31
305.201	85.31
305.431	86.31
305.661	79.31
305.891	78.31
306.121	83.31
306.352	91.31
306.582	81.31
306.812	81.31
307.042	82.31
307.272	88.31
307.502	81.31
307.731	91.31
307.961	82.31
308.191	72.31
308.421	86.31
308.651	64.31
308.881	75.31
309.111	76.31
309.341	72.31
309.571	90.31
309.8	82.31
310.03	91.31
310.26	78.31
310.49	89.31
310.72	76.31
310.949	85.31
311.179	76.31
311.409	76.31
311.639	83.31
311.868	75.31
312.098	95.31
312.328	82.31
312.557	91.31
312.787	91.31
313.017	63.31
313.246	103.31
313.476	89.31
313.706	84.31
313.935	78.31
314.165	98.31
314.394	81.31
314.624	74.31
314.853	75.31
315.083	79.31
315.312	83.31
315.542	65.31
315.771	83.31
316.001	77.31
316.23	77.31
316.46	88.31
316.689	70.31
316.919	87.31
317.148	88.31
317.377	78.31
317.607	71.31
317.836	90.31
318.065	80.31
318.295	70.31
318.524	75.31
318.753	74.31
318.983	85.31
319.212	83.31
319.441	81.31
319.67	88.31
319.9	75.31
320.129	80.31
320.358	89.31
320.587	92.31
320.816	93.31
321.046	67.31
321.275	63.31
321.504	66.31
321.733	92.31
321.962	81.31
322.191	87.31
322.42	71.31
322.649	75.31
322.878	88.31
323.108	92.31
323.337	86.31
323.566	88.31
323.795	90.31
324.024	84.31
324.253	89.31
324.482	139.31
324.71	140.31
324.939	145.31
325.168	108.31
325.397	89.31
325.626	72.31
325.855	90.31
326.084	88.31
326.313	86.31
326.542	83.31
326.77	101.31
326.999	100.31
327.228	125.31
327.457	121.31
327.686	114.31
327.914	116.31
328.143	100.31
328.372	100.31
328.6	90.31
328.829	95.31
329.058	83.31
329.287	92.31
329.515	83.31
329.744	88.31
329.972	103.31
330.201	125.31
330.43	129.31
330.658	93.31
330.887	79.31
331.115	87.31
331.344	83.31
331.572	88.31
331.801	84.31
332.03	85.31
332.258	72.31
332.486	86.31
332.715	95.31
332.943	75.31
333.172	81.31
333.4	85.31
333.629	77.31
333.857	98.31
334.085	90.31
334.314	106.31
334.542	132.31
334.771	131.31
334.999	73.31
335.227	77.31
335.455	88.31
335.684	88.31
335.912	84.31
336.14	92.31
336.369	88.31
336.597	83.31
336.825	71.31
337.053	73.31
337.281	76.31
337.51	78.31
337.738	87.31
337.966	92.31
338.194	83.31
338.422	81.31
338.65	91.31
338.878	74.31
339.106	82.31
339.334	89.31
339.562	75.31
339.79	77.31
340.018	98.31
340.246	75.31
340.474	74.31
340.702	85.31
340.93	69.31
341.158	86.31
341.386	84.31
341.614	97.31
341.842	77.31
342.07	82.31
342.298	83.31
342.526	86.31
342.754	75.31
342.981	69.31
343.209	76.31
343.437	100.31
343.665	73.31
343.893	87.31
344.12	85.31
344.348	77.31
344.576	76.31
344.804	90.31
345.031	87.31
345.259	88.31
345.487	88.31
345.714	81.31
345.942	87.31
346.17	71.31
346.397	75.31
346.625	77.31
346.853	83.31
347.08	85.31
347.308	86.31
347.535	81.31
347.763	93.31
347.99	89.31
348.218	80.31
348.445	87.31
348.673	74.31
348.9	86.31
349.128	81.31
349.355	88.31
349.583	81.31
349.81	72.31
350.037	78.31
350.265	86.31
350.492	72.31
350.72	79.31
350.947	80.31
351.174	90.31
351.402	97.31
351.629	94.31
351.856	95.31
352.083	76.31
352.311	81.31
352.538	69.31
352.765	67.31
352.992	88.31
353.22	88.31
353.447	71.31
353.674	78.31
353.901	88.31
354.128	91.31
354.355	96.31
354.583	86.31
354.81	86.31
355.037	77.31
355.264	83.31
355.491	70.31
355.718	78.31
355.945	78.31
356.172	81.31
356.399	74.31
356.626	66.31
356.853	70.31
357.08	85.31
357.307	81.31
357.534	90.31
357.761	82.31
357.988	82.31
358.215	78.31
358.441	74.31
358.668	73.31
358.895	89.31
359.122	93.31
359.349	80.31
359.576	84.31
359.802	80.31
360.029	93.31
360.256	80.31
360.483	83.31
360.709	77.31
360.936	82.31
361.163	73.31
361.39	79.31
361.616	82.31
361.843	92.31
362.07	95.31
362.296	80.31
362.523	73.31
362.749	77.31
362.976	96.31
363.203	89.31
363.429	81.31
363.656	74.31
363.882	91.31
364.109	70.31
364.335	81.31
364.562	74.31
364.788	83.31
365.015	89.31
365.241	83.31
365.468	78.31
365.694	70.31
365.92	71.31
366.147	74.31
366.373	76.31
366.599	67.31
366.826	88.31
367.052	78.31
367.278	71.31
367.505	74.31
367.731	83.31
367.957	84.31
368.184	91.31
368.41	82.31
368.636	81.31
368.862	74.31
369.089	73.31
369.315	81.31
369.541	90.31
369.767	78.31
369.993	73.31
370.219	76.31
370.445	78.31
370.672	71.31
370.898	83.31
371.124	70.31
371.35	81.31
371.576	75.31
371.802	83.31
372.028	74.31
372.254	78.31
372.48	84.31
372.706	89.31
372.932	79.31
373.158	77.31
373.384	75.31
373.61	71.31
373.835	77.31
374.061	94.31
374.287	77.31
374.513	86.31
374.739	82.31
374.965	76.31
375.191	79.31
375.416	92.31
375.642	90.31
375.868	78.31
376.094	75.31
376.319	84.31
376.545	69.31
376.771	83.31
376.997	71.31
377.222	81.31
377.448	82.31
377.674	69.31
377.899	79.31
378.125	83.31
378.35	97.31
378.576	76.31
378.802	69.31
379.027	85.31
379.253	70.31
379.478	92.31
379.704	83.31
379.929	79.31
380.155	68.31
380.38	95.31
380.606	85.31
380.831	73.31
381.057	78.31
381.282	83.31
381.507	83.31
381.733	84.31
381.958	74.31
382.184	85.31
382.409	75.31
382.634	88.31
382.86	75.31
383.085	83.31
383.31	83.31
383.535	73.31
383.761	86.31
383.986	90.31
384.211	76.31
384.436	88.31
384.662	69.31
384.887	79.31
385.112	77.31
385.337	63.31
385.562	82.31
385.787	82.31
386.013	91.31
386.238	82.31
386.463	85.31
386.688	92.31
386.913	90.31
387.138	89.31
387.363	69.31
387.588	77.31
387.813	83.31
388.038	73.31
388.263	81.31
388.488	86.31
388.713	83.31
388.938	78.31
389.163	81.31
389.387	84.31
389.612	77.31
389.837	75.31
390.062	88.31
390.287	70.31
390.512	72.31
390.736	81.31
390.961	71.31
391.186	82.31
391.411	80.31
391.636	74.31
391.86	85.31
392.085	77.31
392.31	69.31
392.534	86.31
392.759	77.31
392.984	85.31
393.208	82.31
393.433	88.31
393.658	83.31
393.882	69.31
394.107	82.31
394.331	69.31
394.556	79.31
394.78	78.31
395.005	82.31
395.229	82.31
395.454	89.31
395.678	81.31
395.903	75.31
396.127	74.31
396.352	72.31
396.576	86.31
396.801	83.31
397.025	79.31
397.249	104.31
397.474	85.31
397.698	88.31
397.922	89.31
398.147	77.31
398.371	95.31
398.595	92.31
398.82	71.31
399.044	77.31
399.268	73.31
399.492	80.31
399.717	85.31
399.941	73.31
400.165	75.31
400.389	76.31
400.613	83.31
400.837	89.31
401.062	76.31
401.286	75.31
401.51	73.31
401.734	72.31
401.958	84.31
402.182	76.31
402.406	83.31
402.63	85.31
402.854	78.31
403.078	81.31
403.302	96.31
403.526	84.31
403.75	70.31
403.974	83.31
404.198	73.31
404.422	67.31
404.645	69.31
404.869	66.31
405.093	82.31
405.317	83.31
405.541	94.31
405.765	85.31
405.988	73.31
406.212	95.31
406.436	94.31
406.66	81.31
406.883	88.31
407.107	73.31
407.331	74.31
407.555	82.31
407.778	60.31
408.002	85.31
408.226	69.31
408.449	63.31
408.673	70.31
408.896	95.31
409.12	81.31
409.344	72.31
409.567	74.31
409.791	81.31
410.014	93.31
410.238	85.31
410.461	93.31
410.685	76.31
410.908	75.31
411.132	73.31
411.355	82.31
411.578	75.31
411.802	87.31
412.025	77.31
412.249	67.31
412.472	72.31
412.695	74.31
412.919	81.31
413.142	76.31
413.365	79.31
413.589	76.31
413.812	85.31
414.035	83.31
414.258	75.31
414.482	83.31
414.705	91.31
414.928	89.31
415.151	83.31
415.374	81.31
415.597	77.31
415.821	74.31
416.044	95.31
416.267	84.31
416.49	69.31
416.713	94.31
416.936	74.31
417.159	95.31
417.382	91.31
417.605	82.31
417.828	87.31
418.051	71.31
418.274	80.31
418.497	68.31
418.72	76.31
418.943	89.31
419.166	78.31
419.389	75.31
419.611	79.31
419.834	67.31
420.057	75.31
420.28	81.31
420.503	70.31
420.726	85.31
420.948	97.31
421.171	89.31
421.394	72.31
421.617	86.31
421.839	81.31
422.062	85.31
422.285	69.31
422.507	82.31
422.73	76.31
422.953	86.31
423.175	71.31
423.398	84.31
423.621	82.31
423.843	74.31
424.066	82.31
424.288	72.31
424.511	77.31
424.733	77.31
424.956	76.31
425.178	69.31
425.401	84.31
425.623	84.31
425.846	75.31
426.068	74.31
426.291	85.31
426.513	80.31
426.735	88.31
426.958	88.31
427.18	78.31
427.402	80.31
427.625	96.31
427.847	78.31
428.069	78.31
428.292	80.31
428.514	89.31
428.736	88.31
428.958	82.31
429.181	72.31
429.403	79.31
429.625	70.31
429.847	84.31
430.069	87.31
430.292	76.31
430.514	77.31
430.736	71.31
430.958	69.31
431.18	80.31
431.402	79.31
431.624	79.31
431.846	86.31
432.068	83.31
432.29	81.31
432.512	74.31
432.734	89.31
432.956	80.31
433.178	89.31
433.4	83.31
433.622	89.31
433.844	97.31
434.066	74.31
434.287	79.31
434.509	93.31
434.731	90.31
434.953	76.31
435.175	83.31
435.397	86.31
435.618	76.31
435.84	81.31
436.062	72.31
436.284	75.31
436.505	72.31
436.727	79.31
436.949	78.31
437.17	87.31
437.392	94.31
437.614	77.31
437.835	72.31
438.057	63.31
438.278	65.31
438.5	66.31
438.721	78.31
438.943	84.31
439.165	55.31
439.386	88.31
439.608	83.31
439.829	85.31
440.05	83.31
440.272	81.31
440.493	74.31
440.715	75.31
440.936	83.31
441.158	90.31
441.379	76.31
441.6	81.31
441.822	63.31
442.043	77.31
442.264	73.31
442.486	73.31
442.707	85.31
442.928	83.31
443.149	77.31
443.371	95.31
443.592	76.31
443.813	80.31
444.034	86.31
444.255	83.31
444.476	79.31
444.698	106.31
444.919	81.31
445.14	148.31
445.361	111.31
445.582	84.31
445.803	78.31
446.024	80.31
446.245	86.31
446.466	87.31
446.687	68.31
446.908	85.31
447.129	91.31
447.35	76.31
447.571	85.31
447.792	73.31
448.013	76.31
448.234	84.31
448.455	78.31
448.675	92.31
448.896	83.31
449.117	72.31
449.338	84.31
449.559	89.31
449.779	72.31
450	83.31
450.221	66.31
450.442	54.31
450.662	86.31
450.883	74.31
451.104	80.31
451.324	81.31
451.545	68.31
451.766	82.31
451.986	79.31
452.207	77.31
452.428	83.31
452.648	92.31
452.869	77.31
453.089	84.31
453.31	83.31
453.53	78.31
453.751	84.31
453.971	73.31
454.192	61.31
454.412	84.31
454.633	88.31
454.853	82.31
455.073	89.31
455.294	85.31
455.514	75.31
455.734	78.31
455.955	81.31
456.175	97.31
456.395	83.31
456.616	80.31
456.836	86.31
457.056	83.31
457.276	73.31
457.497	92.31
457.717	90.31
457.937	87.31
458.157	63.31
458.377	82.31
458.598	73.31
458.818	87.31
459.038	78.31
459.258	75.31
459.478	80.31
459.698	91.31
459.918	79.31
460.138	82.31
460.358	80.31
460.578	94.31
460.798	83.31
461.018	82.31
461.238	79.31
461.458	86.31
461.678	78.31
461.898	86.31
462.118	75.31
462.338	95.31
462.558	78.31
462.777	76.31
462.997	82.31
463.217	78.31
463.437	83.31
463.657	86.31
463.876	77.31
464.096	81.31
464.316	73.31
464.536	82.31
464.755	94.31
464.975	76.31
465.195	101.31
465.414	83.31
465.634	86.31
465.854	77.31
466.073	80.31
466.293	89.31
466.512	89.31
466.732	76.31
466.951	71.31
467.171	85.31
467.391	74.31
467.61	78.31
467.829	81.31
468.049	115.31
468.268	111.31
468.488	80.31
468.707	71.31
468.927	84.31
469.146	77.31
469.365	79.31
469.585	87.31
469.804	80.31
470.023	83.31
470.243	82.31
470.462	82.31
470.681	73.31
470.901	83.31
471.12	81.31
471.339	99.31
471.558	84.31
471.777	88.31
471.997	103.31
472.216	137.31
472.435	172.31
472.654	100.31
472.873	89.31
473.092	86.31
473.311	74.31
473.53	89.31
473.749	71.31
473.968	65.31
474.187	80.31
474.406	75.31
474.625	65.31
474.844	79.31
475.063	77.31
475.282	83.31
475.501	80.31
475.72	95.31
475.939	80.31
476.158	82.31
476.377	73.31
476.596	75.31
476.814	83.31
477.033	81.31
477.252	95.31
477.471	85.31
477.69	93.31
477.908	77.31
478.127	77.31
478.346	81.31
478.564	69.31
478.783	63.31
479.002	89.31
479.22	70.31
479.439	87.31
479.658	79.31
479.876	76.31
480.095	92.31
480.313	83.31
480.532	87.31
480.751	91.31
480.969	134.31
481.188	239.31
481.406	154.31
481.624	93.31
481.843	75.31
482.061	93.31
482.28	89.31
482.498	76.31
482.717	73.31
482.935	65.31
483.153	80.31
483.372	90.31
483.59	83.31
483.808	78.31
484.027	71.31
484.245	72.31
484.463	59.31
484.681	86.31
484.9	78.31
485.118	84.31
485.336	81.31
485.554	97.31
485.772	83.31
485.99	83.31
486.209	68.31
486.427	72.31
486.645	90.31
486.863	80.31
487.081	77.31
487.299	80.31
487.517	89.31
487.735	82.31
487.953	83.31
488.171	77.31
488.389	86.31
488.607	95.31
488.825	80.31
489.043	80.31
489.261	92.31
489.479	81.31
489.696	84.31
489.914	89.31
490.132	83.31
490.35	86.31
490.568	89.31
490.786	75.31
491.003	81.31
491.221	85.31
491.439	83.31
491.657	83.31
491.874	89.31
492.092	72.31
492.31	87.31
492.527	102.31
492.745	61.31
492.963	81.31
493.18	99.31
493.398	90.31
493.615	86.31
493.833	83.31
494.05	77.31
494.268	69.31
494.485	98.31
494.703	90.31
494.92	90.31
495.138	74.31
495.355	87.31
495.573	81.31
495.79	82.31
496.008	77.31
496.225	79.31
496.442	87.31
496.66	83.31
496.877	76.31
497.094	85.31
497.312	76.31
497.529	73.31
497.746	88.31
497.963	77.31
498.181	74.31
498.398	93.31
498.615	87.31
498.832	75.31
499.049	83.31
499.267	77.31
499.484	78.31
499.701	83.31
499.918	91.31
500.135	82.31
500.352	76.31
500.569	86.31
500.786	86.31
501.003	69.31
501.22	80.31
501.437	76.31
501.654	83.31
501.871	69.31
502.088	79.31
502.305	85.31
502.522	74.31
502.739	85.31
502.956	77.31
503.172	76.31
503.389	80.31
503.606	81.31
503.823	71.31
504.04	79.31
504.256	75.31
504.473	80.31
504.69	88.31
504.907	81.31
505.123	87.31
505.34	71.31
505.557	82.31
505.773	84.31
505.99	77.31
506.207	83.31
506.423	82.31
506.64	95.31
506.856	79.31
507.073	88.31
507.289	77.31
507.506	87.31
507.722	79.31
507.939	79.31
508.155	72.31
508.372	79.31
508.588	79.31
508.805	83.31
509.021	67.31
509.238	77.31
509.454	92.31
509.67	95.31
509.887	73.31
510.103	77.31
510.319	77.31
510.536	130.31
510.752	185.31
510.968	105.31
511.184	92.31
511.401	76.31
511.617	86.31
511.833	75.31
512.049	72.31
512.265	85.31
512.481	77.31
512.698	81.31
512.914	87.31
513.13	89.31
513.346	84.31
513.562	81.31
513.778	92.31
513.994	82.31
514.21	78.31
514.426	85.31
514.642	86.31
514.858	102.31
515.074	84.31
515.29	125.31
515.506	187.31
515.721	107.31
515.937	97.31
516.153	75.31
516.369	74.31
516.585	84.31
516.801	88.31
517.016	86.31
517.232	76.31
517.448	81.31
517.664	77.31
517.879	84.31
518.095	85.31
518.311	82.31
518.527	81.31
518.742	83.31
518.958	73.31
519.173	72.31
519.389	93.31
519.605	81.31
519.82	95.31
