Data from Penny_3_HRD10591_00013.txt Node
Date: Wed Nov 05 15:35:15 EST 2025
User: Yrep
Spectrometer: HR+D1059
Trigger mode: 1
Integration Time (sec): 1.000000E-1
Scans to average: 1
Electric dark correction enabled: true
Nonlinearity correction enabled: false
Boxcar width: 0
XAxis mode: Wavelengths
Number of Pixels in Spectrum: 2048
>>>>>Begin Spectral Data<<<<<
223.165	-30.25
223.4	-30.25
223.635	-30.25
223.869	-22.25
224.104	-20.25
224.338	-3.25
224.573	-12.25
224.808	-17.25
225.042	-6.25
225.277	-8.25
225.511	-4.25
225.746	17.75
225.98	5.75
226.215	16.75
226.449	12.75
226.683	25.75
226.918	24.75
227.152	20.75
227.387	23.75
227.621	32.75
227.856	57.75
228.09	48.75
228.324	59.75
228.559	67.75
228.793	42.75
229.027	54.75
229.262	54.75
229.496	62.75
229.73	65.75
229.964	69.75
230.199	75.75
230.433	64.75
230.667	73.75
230.901	63.75
231.136	64.75
231.37	65.75
231.604	70.75
231.838	87.75
232.072	87.75
232.306	90.75
232.541	80.75
232.775	91.75
233.009	87.75
233.243	76.75
233.477	84.75
233.711	76.75
233.945	75.75
234.179	85.75
234.413	84.75
234.647	69.75
234.881	83.75
235.115	77.75
235.349	73.75
235.583	88.75
235.817	85.75
236.051	79.75
236.285	70.75
236.519	88.75
236.753	81.75
236.987	67.75
237.221	70.75
237.455	91.75
237.689	71.75
237.922	70.75
238.156	67.75
238.39	82.75
238.624	89.75
238.858	82.75
239.091	71.75
239.325	84.75
239.559	65.75
239.793	69.75
240.027	90.75
240.26	65.75
240.494	74.75
240.728	69.75
240.961	89.75
241.195	79.75
241.429	69.75
241.662	84.75
241.896	98.75
242.13	75.75
242.363	81.75
242.597	78.75
242.83	71.75
243.064	73.75
243.298	78.75
243.531	77.75
243.765	78.75
243.998	83.75
244.232	73.75
244.465	85.75
244.699	75.75
244.932	69.75
245.166	78.75
245.399	90.75
245.633	75.75
245.866	77.75
246.099	83.75
246.333	77.75
246.566	70.75
246.8	71.75
247.033	69.75
247.266	71.75
247.5	80.75
247.733	83.75
247.966	78.75
248.2	85.75
248.433	83.75
248.666	69.75
248.899	72.75
249.133	75.75
249.366	86.75
249.599	80.75
249.832	73.75
250.066	78.75
250.299	75.75
250.532	71.75
250.765	90.75
250.998	79.75
251.231	66.75
251.465	75.75
251.698	65.75
251.931	71.75
252.164	73.75
252.397	80.75
252.63	71.75
252.863	91.75
253.096	86.75
253.329	80.75
253.562	81.75
253.795	70.75
254.028	71.75
254.261	83.75
254.494	73.75
254.727	79.75
254.96	95.75
255.193	61.75
255.426	92.75
255.659	76.75
255.892	81.75
256.124	66.75
256.357	80.75
256.59	90.75
256.823	71.75
257.056	81.75
257.289	77.75
257.521	90.75
257.754	85.75
257.987	91.75
258.22	76.75
258.452	84.75
258.685	105.75
258.918	98.75
259.151	79.75
259.383	69.75
259.616	77.75
259.849	77.75
260.081	88.75
260.314	89.75
260.547	80.75
260.779	79.75
261.012	69.75
261.244	76.75
261.477	85.75
261.71	78.75
261.942	88.75
262.175	88.75
262.407	78.75
262.64	74.75
262.872	91.75
263.105	76.75
263.337	85.75
263.57	90.75
263.802	65.75
264.035	90.75
264.267	86.75
264.499	92.75
264.732	83.75
264.964	83.75
265.197	72.75
265.429	76.75
265.661	75.75
265.894	79.75
266.126	65.75
266.358	90.75
266.591	75.75
266.823	81.75
267.055	85.75
267.287	68.75
267.52	89.75
267.752	92.75
267.984	80.75
268.216	79.75
268.448	73.75
268.681	93.75
268.913	86.75
269.145	81.75
269.377	79.75
269.609	76.75
269.841	76.75
270.073	82.75
270.306	79.75
270.538	81.75
270.77	75.75
271.002	94.75
271.234	85.75
271.466	84.75
271.698	95.75
271.93	92.75
272.162	75.75
272.394	102.75
272.626	91.75
272.858	87.75
273.09	87.75
273.322	104.75
273.553	74.75
273.785	83.75
274.017	90.75
274.249	101.75
274.481	95.75
274.713	83.75
274.945	85.75
275.176	87.75
275.408	72.75
275.64	71.75
275.872	92.75
276.104	75.75
276.335	87.75
276.567	73.75
276.799	85.75
277.031	79.75
277.262	91.75
277.494	95.75
277.726	88.75
277.957	77.75
278.189	81.75
278.421	84.75
278.652	83.75
278.884	85.75
279.115	84.75
279.347	91.75
279.579	85.75
279.81	86.75
280.042	86.75
280.273	88.75
280.505	83.75
280.736	90.75
280.968	82.75
281.199	92.75
281.431	79.75
281.662	76.75
281.894	86.75
282.125	91.75
282.356	88.75
282.588	94.75
282.819	98.75
283.051	95.75
283.282	83.75
283.513	107.75
283.745	90.75
283.976	82.75
284.207	97.75
284.439	81.75
284.67	85.75
284.901	79.75
285.132	92.75
285.364	74.75
285.595	83.75
285.826	78.75
286.057	91.75
286.288	83.75
286.52	90.75
286.751	89.75
286.982	87.75
287.213	81.75
287.444	80.75
287.675	90.75
287.906	78.75
288.138	86.75
288.369	90.75
288.6	77.75
288.831	83.75
289.062	80.75
289.293	91.75
289.524	81.75
289.755	85.75
289.986	79.75
290.217	83.75
290.448	72.75
290.679	86.75
290.91	79.75
291.141	83.75
291.371	78.75
291.602	91.75
291.833	89.75
292.064	86.75
292.295	89.75
292.526	91.75
292.757	90.75
292.987	87.75
293.218	90.75
293.449	87.75
293.68	106.75
293.91	79.75
294.141	93.75
294.372	79.75
294.603	81.75
294.833	84.75
295.064	79.75
295.295	77.75
295.525	85.75
295.756	96.75
295.987	79.75
296.217	79.75
296.448	78.75
296.679	87.75
296.909	86.75
297.14	92.75
297.37	87.75
297.601	99.75
297.831	85.75
298.062	90.75
298.292	76.75
298.523	97.75
298.753	84.75
298.984	87.75
299.214	93.75
299.445	88.75
299.675	69.75
299.905	98.75
300.136	76.75
300.366	84.75
300.597	67.75
300.827	84.75
301.057	78.75
301.288	93.75
301.518	75.75
301.748	85.75
301.979	96.75
302.209	91.75
302.439	72.75
302.669	77.75
302.9	82.75
303.13	87.75
303.36	94.75
303.59	96.75
303.82	73.75
304.051	87.75
304.281	94.75
304.511	73.75
304.741	89.75
304.971	70.75
305.201	87.75
305.431	85.75
305.661	80.75
305.891	80.75
306.121	80.75
306.352	95.75
306.582	86.75
306.812	84.75
307.042	90.75
307.272	86.75
307.502	80.75
307.731	85.75
307.961	73.75
308.191	70.75
308.421	93.75
308.651	96.75
308.881	92.75
309.111	93.75
309.341	80.75
309.571	73.75
309.8	78.75
310.03	74.75
310.26	82.75
310.49	89.75
310.72	93.75
310.949	90.75
311.179	83.75
311.409	74.75
311.639	101.75
311.868	75.75
312.098	71.75
312.328	86.75
312.557	92.75
312.787	89.75
313.017	89.75
313.246	74.75
313.476	61.75
313.706	73.75
313.935	101.75
314.165	83.75
314.394	89.75
314.624	91.75
314.853	82.75
315.083	92.75
315.312	94.75
315.542	77.75
315.771	93.75
316.001	106.75
316.23	86.75
316.46	80.75
316.689	93.75
316.919	87.75
317.148	90.75
317.377	69.75
317.607	89.75
317.836	90.75
318.065	89.75
318.295	99.75
318.524	97.75
318.753	84.75
318.983	81.75
319.212	76.75
319.441	83.75
319.67	79.75
319.9	93.75
320.129	82.75
320.358	69.75
320.587	95.75
320.816	90.75
321.046	80.75
321.275	100.75
321.504	92.75
321.733	75.75
321.962	75.75
322.191	72.75
322.42	81.75
322.649	93.75
322.878	76.75
323.108	87.75
323.337	95.75
323.566	85.75
323.795	80.75
324.024	90.75
324.253	97.75
324.482	101.75
324.71	142.75
324.939	147.75
325.168	107.75
325.397	91.75
325.626	93.75
325.855	84.75
326.084	88.75
326.313	76.75
326.542	101.75
326.77	97.75
326.999	105.75
327.228	106.75
327.457	130.75
327.686	112.75
327.914	104.75
328.143	108.75
328.372	106.75
328.6	72.75
328.829	89.75
329.058	98.75
329.287	89.75
329.515	90.75
329.744	98.75
329.972	103.75
330.201	142.75
330.43	127.75
330.658	98.75
330.887	98.75
331.115	80.75
331.344	85.75
331.572	97.75
331.801	84.75
332.03	90.75
332.258	91.75
332.486	72.75
332.715	70.75
332.943	77.75
333.172	84.75
333.4	86.75
333.629	83.75
333.857	90.75
334.085	95.75
334.314	107.75
334.542	133.75
334.771	119.75
334.999	93.75
335.227	89.75
335.455	82.75
335.684	91.75
335.912	76.75
336.14	82.75
336.369	94.75
336.597	83.75
336.825	91.75
337.053	84.75
337.281	83.75
337.51	86.75
337.738	91.75
337.966	76.75
338.194	88.75
338.422	85.75
338.65	92.75
338.878	80.75
339.106	63.75
339.334	98.75
339.562	75.75
339.79	74.75
340.018	84.75
340.246	85.75
340.474	82.75
340.702	79.75
340.93	83.75
341.158	76.75
341.386	81.75
341.614	78.75
341.842	77.75
342.07	80.75
342.298	84.75
342.526	87.75
342.754	73.75
342.981	83.75
343.209	86.75
343.437	99.75
343.665	92.75
343.893	100.75
344.12	77.75
344.348	80.75
344.576	85.75
344.804	73.75
345.031	78.75
345.259	76.75
345.487	75.75
345.714	91.75
345.942	83.75
346.17	79.75
346.397	79.75
346.625	85.75
346.853	77.75
347.08	69.75
347.308	79.75
347.535	97.75
347.763	78.75
347.99	90.75
348.218	97.75
348.445	83.75
348.673	84.75
348.9	99.75
349.128	89.75
349.355	84.75
349.583	87.75
349.81	79.75
350.037	87.75
350.265	87.75
350.492	78.75
350.72	93.75
350.947	85.75
351.174	80.75
351.402	77.75
351.629	83.75
351.856	77.75
352.083	69.75
352.311	85.75
352.538	85.75
352.765	69.75
352.992	79.75
353.22	105.75
353.447	95.75
353.674	92.75
353.901	76.75
354.128	76.75
354.355	85.75
354.583	82.75
354.81	96.75
355.037	86.75
355.264	83.75
355.491	80.75
355.718	90.75
355.945	88.75
356.172	74.75
356.399	82.75
356.626	81.75
356.853	69.75
357.08	78.75
357.307	91.75
357.534	77.75
357.761	91.75
357.988	89.75
358.215	84.75
358.441	77.75
358.668	87.75
358.895	79.75
359.122	71.75
359.349	78.75
359.576	83.75
359.802	68.75
360.029	86.75
360.256	94.75
360.483	83.75
360.709	68.75
360.936	83.75
361.163	73.75
361.39	67.75
361.616	71.75
361.843	71.75
362.07	76.75
362.296	81.75
362.523	71.75
362.749	80.75
362.976	79.75
363.203	87.75
363.429	89.75
363.656	73.75
363.882	72.75
364.109	74.75
364.335	85.75
364.562	87.75
364.788	80.75
365.015	89.75
365.241	69.75
365.468	87.75
365.694	75.75
365.92	85.75
366.147	83.75
366.373	72.75
366.599	76.75
366.826	80.75
367.052	81.75
367.278	90.75
367.505	93.75
367.731	100.75
367.957	77.75
368.184	77.75
368.41	94.75
368.636	83.75
368.862	83.75
369.089	85.75
369.315	72.75
369.541	73.75
369.767	90.75
369.993	71.75
370.219	89.75
370.445	88.75
370.672	82.75
370.898	88.75
371.124	85.75
371.35	89.75
371.576	78.75
371.802	86.75
372.028	86.75
372.254	83.75
372.48	72.75
372.706	85.75
372.932	80.75
373.158	81.75
373.384	79.75
373.61	78.75
373.835	85.75
374.061	91.75
374.287	69.75
374.513	78.75
374.739	68.75
374.965	73.75
375.191	78.75
375.416	67.75
375.642	84.75
375.868	77.75
376.094	74.75
376.319	88.75
376.545	83.75
376.771	82.75
376.997	77.75
377.222	80.75
377.448	81.75
377.674	83.75
377.899	84.75
378.125	82.75
378.35	99.75
378.576	86.75
378.802	73.75
379.027	109.75
379.253	80.75
379.478	79.75
379.704	70.75
379.929	66.75
380.155	80.75
380.38	93.75
380.606	77.75
380.831	86.75
381.057	99.75
381.282	88.75
381.507	77.75
381.733	88.75
381.958	79.75
382.184	93.75
382.409	93.75
382.634	90.75
382.86	78.75
383.085	77.75
383.31	65.75
383.535	77.75
383.761	78.75
383.986	88.75
384.211	67.75
384.436	75.75
384.662	75.75
384.887	86.75
385.112	75.75
385.337	90.75
385.562	74.75
385.787	91.75
386.013	90.75
386.238	76.75
386.463	84.75
386.688	98.75
386.913	59.75
387.138	83.75
387.363	75.75
387.588	83.75
387.813	78.75
388.038	84.75
388.263	84.75
388.488	69.75
388.713	74.75
388.938	72.75
389.163	73.75
389.387	83.75
389.612	84.75
389.837	83.75
390.062	85.75
390.287	71.75
390.512	75.75
390.736	71.75
390.961	79.75
391.186	87.75
391.411	78.75
391.636	71.75
391.86	82.75
392.085	67.75
392.31	68.75
392.534	95.75
392.759	73.75
392.984	77.75
393.208	88.75
393.433	85.75
393.658	75.75
393.882	78.75
394.107	87.75
394.331	84.75
394.556	88.75
394.78	93.75
395.005	79.75
395.229	80.75
395.454	81.75
395.678	79.75
395.903	89.75
396.127	74.75
396.352	84.75
396.576	79.75
396.801	91.75
397.025	77.75
397.249	86.75
397.474	92.75
397.698	80.75
397.922	79.75
398.147	86.75
398.371	68.75
398.595	74.75
398.82	71.75
399.044	85.75
399.268	94.75
399.492	75.75
399.717	93.75
399.941	83.75
400.165	94.75
400.389	78.75
400.613	84.75
400.837	83.75
401.062	80.75
401.286	86.75
401.51	97.75
401.734	87.75
401.958	82.75
402.182	84.75
402.406	79.75
402.63	86.75
402.854	74.75
403.078	65.75
403.302	85.75
403.526	69.75
403.75	83.75
403.974	86.75
404.198	70.75
404.422	81.75
404.645	91.75
404.869	90.75
405.093	78.75
405.317	77.75
405.541	83.75
405.765	73.75
405.988	74.75
406.212	82.75
406.436	82.75
406.66	82.75
406.883	87.75
407.107	88.75
407.331	83.75
407.555	73.75
407.778	70.75
408.002	84.75
408.226	65.75
408.449	77.75
408.673	97.75
408.896	74.75
409.12	83.75
409.344	74.75
409.567	70.75
409.791	82.75
410.014	85.75
410.238	81.75
410.461	69.75
410.685	71.75
410.908	83.75
411.132	83.75
411.355	79.75
411.578	73.75
411.802	79.75
412.025	73.75
412.249	68.75
412.472	82.75
412.695	83.75
412.919	94.75
413.142	75.75
413.365	62.75
413.589	65.75
413.812	84.75
414.035	77.75
414.258	71.75
414.482	74.75
414.705	76.75
414.928	84.75
415.151	66.75
415.374	75.75
415.597	78.75
415.821	86.75
416.044	71.75
416.267	69.75
416.49	87.75
416.713	86.75
416.936	81.75
417.159	85.75
417.382	79.75
417.605	92.75
417.828	89.75
418.051	79.75
418.274	84.75
418.497	91.75
418.72	67.75
418.943	89.75
419.166	77.75
419.389	84.75
419.611	87.75
419.834	71.75
420.057	85.75
420.28	79.75
420.503	80.75
420.726	93.75
420.948	79.75
421.171	88.75
421.394	81.75
421.617	95.75
421.839	90.75
422.062	89.75
422.285	86.75
422.507	69.75
422.73	76.75
422.953	80.75
423.175	88.75
423.398	79.75
423.621	86.75
423.843	79.75
424.066	77.75
424.288	70.75
424.511	84.75
424.733	86.75
424.956	99.75
425.178	74.75
425.401	81.75
425.623	85.75
425.846	80.75
426.068	90.75
426.291	77.75
426.513	91.75
426.735	77.75
426.958	74.75
427.18	91.75
427.402	78.75
427.625	82.75
427.847	90.75
428.069	79.75
428.292	90.75
428.514	75.75
428.736	77.75
428.958	77.75
429.181	81.75
429.403	79.75
429.625	70.75
429.847	91.75
430.069	91.75
430.292	79.75
430.514	83.75
430.736	76.75
430.958	77.75
431.18	88.75
431.402	85.75
431.624	72.75
431.846	79.75
432.068	82.75
432.29	71.75
432.512	85.75
432.734	71.75
432.956	82.75
433.178	97.75
433.4	72.75
433.622	78.75
433.844	85.75
434.066	83.75
434.287	69.75
434.509	77.75
434.731	83.75
434.953	74.75
435.175	85.75
435.397	77.75
435.618	79.75
435.84	78.75
436.062	74.75
436.284	73.75
436.505	74.75
436.727	80.75
436.949	75.75
437.17	73.75
437.392	69.75
437.614	95.75
437.835	80.75
438.057	73.75
438.278	85.75
438.5	81.75
438.721	72.75
438.943	65.75
439.165	77.75
439.386	85.75
439.608	91.75
439.829	62.75
440.05	91.75
440.272	73.75
440.493	74.75
440.715	88.75
440.936	76.75
441.158	76.75
441.379	74.75
441.6	76.75
441.822	101.75
442.043	90.75
442.264	79.75
442.486	83.75
442.707	88.75
442.928	75.75
443.149	93.75
443.371	87.75
443.592	83.75
443.813	75.75
444.034	88.75
444.255	89.75
444.476	72.75
444.698	81.75
444.919	77.75
445.14	166.75
445.361	129.75
445.582	78.75
445.803	86.75
446.024	83.75
446.245	74.75
446.466	86.75
446.687	73.75
446.908	80.75
447.129	84.75
447.35	74.75
447.571	85.75
447.792	82.75
448.013	83.75
448.234	69.75
448.455	74.75
448.675	82.75
448.896	96.75
449.117	74.75
449.338	92.75
449.559	84.75
449.779	75.75
450	84.75
450.221	83.75
450.442	75.75
450.662	73.75
450.883	77.75
451.104	94.75
451.324	77.75
451.545	75.75
451.766	78.75
451.986	75.75
452.207	65.75
452.428	86.75
452.648	100.75
452.869	70.75
453.089	90.75
453.31	95.75
453.53	70.75
453.751	78.75
453.971	78.75
454.192	80.75
454.412	87.75
454.633	73.75
454.853	80.75
455.073	80.75
455.294	86.75
455.514	85.75
455.734	72.75
455.955	79.75
456.175	77.75
456.395	71.75
456.616	76.75
456.836	94.75
457.056	71.75
457.276	80.75
457.497	74.75
457.717	83.75
457.937	77.75
458.157	75.75
458.377	92.75
458.598	65.75
458.818	85.75
459.038	83.75
459.258	85.75
459.478	83.75
459.698	70.75
459.918	75.75
460.138	76.75
460.358	80.75
460.578	77.75
460.798	75.75
461.018	82.75
461.238	86.75
461.458	85.75
461.678	74.75
461.898	76.75
462.118	90.75
462.338	78.75
462.558	77.75
462.777	73.75
462.997	89.75
463.217	76.75
463.437	88.75
463.657	80.75
463.876	81.75
464.096	99.75
464.316	88.75
464.536	83.75
464.755	81.75
464.975	94.75
465.195	87.75
465.414	80.75
465.634	77.75
465.854	89.75
466.073	90.75
466.293	78.75
466.512	85.75
466.732	83.75
466.951	77.75
467.171	95.75
467.391	80.75
467.61	68.75
467.829	79.75
468.049	99.75
468.268	99.75
468.488	90.75
468.707	90.75
468.927	84.75
469.146	79.75
469.365	92.75
469.585	105.75
469.804	84.75
470.023	79.75
470.243	79.75
470.462	85.75
470.681	74.75
470.901	77.75
471.12	62.75
471.339	91.75
471.558	94.75
471.777	84.75
471.997	94.75
472.216	130.75
472.435	151.75
472.654	93.75
472.873	88.75
473.092	82.75
473.311	81.75
473.53	69.75
473.749	93.75
473.968	83.75
474.187	86.75
474.406	74.75
474.625	65.75
474.844	72.75
475.063	77.75
475.282	81.75
475.501	97.75
475.72	78.75
475.939	93.75
476.158	86.75
476.377	76.75
476.596	91.75
476.814	73.75
477.033	75.75
477.252	86.75
477.471	87.75
477.69	79.75
477.908	88.75
478.127	84.75
478.346	75.75
478.564	76.75
478.783	85.75
479.002	85.75
479.22	78.75
479.439	85.75
479.658	75.75
479.876	89.75
480.095	72.75
480.313	76.75
480.532	89.75
480.751	103.75
480.969	131.75
481.188	199.75
481.406	161.75
481.624	87.75
481.843	83.75
482.061	96.75
482.28	78.75
482.498	85.75
482.717	71.75
482.935	85.75
483.153	67.75
483.372	87.75
483.59	76.75
483.808	87.75
484.027	93.75
484.245	90.75
484.463	70.75
484.681	72.75
484.9	85.75
485.118	80.75
485.336	75.75
485.554	89.75
485.772	80.75
485.99	74.75
486.209	67.75
486.427	88.75
486.645	73.75
486.863	73.75
487.081	76.75
487.299	79.75
487.517	78.75
487.735	75.75
487.953	80.75
488.171	75.75
488.389	81.75
488.607	78.75
488.825	78.75
489.043	69.75
489.261	81.75
489.479	90.75
489.696	87.75
489.914	80.75
490.132	84.75
490.35	85.75
490.568	83.75
490.786	100.75
491.003	81.75
491.221	83.75
491.439	103.75
491.657	86.75
491.874	96.75
492.092	81.75
492.31	84.75
492.527	81.75
492.745	80.75
492.963	84.75
493.18	89.75
493.398	89.75
493.615	87.75
493.833	88.75
494.05	79.75
494.268	82.75
494.485	91.75
494.703	83.75
494.92	92.75
495.138	84.75
495.355	78.75
495.573	79.75
495.79	94.75
496.008	91.75
496.225	83.75
496.442	85.75
496.66	86.75
496.877	92.75
497.094	84.75
497.312	83.75
497.529	78.75
497.746	89.75
497.963	83.75
498.181	86.75
498.398	71.75
498.615	83.75
498.832	85.75
499.049	69.75
499.267	71.75
499.484	80.75
499.701	78.75
499.918	85.75
500.135	77.75
500.352	77.75
500.569	77.75
500.786	75.75
501.003	91.75
501.22	86.75
501.437	77.75
501.654	77.75
501.871	76.75
502.088	78.75
502.305	83.75
502.522	85.75
502.739	92.75
502.956	96.75
503.172	89.75
503.389	87.75
503.606	97.75
503.823	91.75
504.04	90.75
504.256	76.75
504.473	80.75
504.69	82.75
504.907	78.75
505.123	81.75
505.34	83.75
505.557	83.75
505.773	79.75
505.99	103.75
506.207	67.75
506.423	69.75
506.64	83.75
506.856	92.75
507.073	77.75
507.289	91.75
507.506	85.75
507.722	91.75
507.939	93.75
508.155	74.75
508.372	83.75
508.588	87.75
508.805	90.75
509.021	82.75
509.238	90.75
509.454	78.75
509.67	92.75
509.887	79.75
510.103	86.75
510.319	87.75
510.536	113.75
510.752	204.75
510.968	109.75
511.184	84.75
511.401	88.75
511.617	74.75
511.833	83.75
512.049	71.75
512.265	69.75
512.481	78.75
512.698	84.75
512.914	79.75
513.13	89.75
513.346	89.75
513.562	91.75
513.778	82.75
513.994	82.75
514.21	95.75
514.426	82.75
514.642	86.75
514.858	73.75
515.074	83.75
515.29	130.75
515.506	179.75
515.721	105.75
515.937	77.75
516.153	91.75
516.369	81.75
516.585	91.75
516.801	88.75
517.016	80.75
517.232	88.75
517.448	96.75
517.664	80.75
517.879	83.75
518.095	94.75
518.311	93.75
518.527	72.75
518.742	72.75
518.958	66.75
519.173	88.75
519.389	103.75
519.605	71.75
