Data from BG_HRD10591_059.txt Node
Date: Fri May 16 15:33:36 EDT 2025
User: Yrep
Spectrometer: HR+D1059
Trigger mode: 1
Integration Time (sec): 1.000000E-1
Scans to average: 1
Electric dark correction enabled: true
Nonlinearity correction enabled: false
Boxcar width: 0
XAxis mode: Wavelengths
Number of Pixels in Spectrum: 2048
>>>>>Begin Spectral Data<<<<<
223.165	-7.62
223.4	-7.62
223.635	-7.62
223.869	-33.62
224.104	-21.62
224.338	-25.62
224.573	-18.62
224.808	-6.62
225.042	-11.62
225.277	-8.62
225.511	-15.62
225.746	18.38
225.98	18.38
226.215	16.38
226.449	22.38
226.683	12.38
226.918	25.38
227.152	36.38
227.387	35.38
227.621	43.38
227.856	45.38
228.09	30.38
228.324	50.38
228.559	33.38
228.793	59.38
229.027	57.38
229.262	64.38
229.496	54.38
229.73	76.38
229.964	82.38
230.199	68.38
230.433	86.38
230.667	79.38
230.901	98.38
231.136	81.38
231.37	81.38
231.604	95.38
231.838	82.38
232.072	70.38
232.306	56.38
232.541	72.38
232.775	79.38
233.009	83.38
233.243	73.38
233.477	87.38
233.711	84.38
233.945	82.38
234.179	80.38
234.413	72.38
234.647	90.38
234.881	87.38
235.115	62.38
235.349	63.38
235.583	80.38
235.817	93.38
236.051	77.38
236.285	72.38
236.519	80.38
236.753	61.38
236.987	80.38
237.221	86.38
237.455	82.38
237.689	63.38
237.922	69.38
238.156	71.38
238.39	74.38
238.624	72.38
238.858	79.38
239.091	70.38
239.325	65.38
239.559	70.38
239.793	79.38
240.027	76.38
240.26	66.38
240.494	73.38
240.728	81.38
240.961	72.38
241.195	71.38
241.429	75.38
241.662	74.38
241.896	68.38
242.13	60.38
242.363	88.38
242.597	77.38
242.83	82.38
243.064	71.38
243.298	74.38
243.531	79.38
243.765	80.38
243.998	87.38
244.232	76.38
244.465	83.38
244.699	61.38
244.932	81.38
245.166	72.38
245.399	78.38
245.633	78.38
245.866	70.38
246.099	70.38
246.333	65.38
246.566	77.38
246.8	81.38
247.033	71.38
247.266	76.38
247.5	72.38
247.733	80.38
247.966	85.38
248.2	78.38
248.433	80.38
248.666	81.38
248.899	96.38
249.133	71.38
249.366	86.38
249.599	81.38
249.832	90.38
250.066	92.38
250.299	92.38
250.532	81.38
250.765	84.38
250.998	81.38
251.231	78.38
251.465	85.38
251.698	77.38
251.931	81.38
252.164	70.38
252.397	87.38
252.63	83.38
252.863	73.38
253.096	84.38
253.329	81.38
253.562	74.38
253.795	79.38
254.028	80.38
254.261	82.38
254.494	86.38
254.727	76.38
254.96	80.38
255.193	77.38
255.426	78.38
255.659	85.38
255.892	85.38
256.124	79.38
256.357	84.38
256.59	84.38
256.823	87.38
257.056	83.38
257.289	75.38
257.521	85.38
257.754	76.38
257.987	68.38
258.22	73.38
258.452	94.38
258.685	72.38
258.918	81.38
259.151	66.38
259.383	64.38
259.616	81.38
259.849	86.38
260.081	79.38
260.314	94.38
260.547	74.38
260.779	66.38
261.012	93.38
261.244	78.38
261.477	82.38
261.71	89.38
261.942	80.38
262.175	80.38
262.407	82.38
262.64	88.38
262.872	89.38
263.105	95.38
263.337	85.38
263.57	92.38
263.802	90.38
264.035	95.38
264.267	89.38
264.499	88.38
264.732	85.38
264.964	87.38
265.197	78.38
265.429	92.38
265.661	76.38
265.894	78.38
266.126	78.38
266.358	75.38
266.591	103.38
266.823	100.38
267.055	81.38
267.287	78.38
267.52	67.38
267.752	74.38
267.984	78.38
268.216	74.38
268.448	81.38
268.681	83.38
268.913	84.38
269.145	84.38
269.377	90.38
269.609	84.38
269.841	72.38
270.073	90.38
270.306	71.38
270.538	87.38
270.77	93.38
271.002	90.38
271.234	89.38
271.466	90.38
271.698	101.38
271.93	86.38
272.162	89.38
272.394	77.38
272.626	73.38
272.858	82.38
273.09	83.38
273.322	88.38
273.553	92.38
273.785	84.38
274.017	81.38
274.249	84.38
274.481	89.38
274.713	78.38
274.945	88.38
275.176	75.38
275.408	84.38
275.64	76.38
275.872	88.38
276.104	86.38
276.335	81.38
276.567	84.38
276.799	94.38
277.031	61.38
277.262	96.38
277.494	94.38
277.726	91.38
277.957	85.38
278.189	77.38
278.421	89.38
278.652	93.38
278.884	104.38
279.115	92.38
279.347	71.38
279.579	74.38
279.81	76.38
280.042	86.38
280.273	77.38
280.505	85.38
280.736	76.38
280.968	81.38
281.199	72.38
281.431	77.38
281.662	90.38
281.894	76.38
282.125	88.38
282.356	86.38
282.588	88.38
282.819	82.38
283.051	89.38
283.282	92.38
283.513	80.38
283.745	91.38
283.976	85.38
284.207	79.38
284.439	84.38
284.67	81.38
284.901	93.38
285.132	97.38
285.364	86.38
285.595	83.38
285.826	83.38
286.057	89.38
286.288	91.38
286.52	62.38
286.751	83.38
286.982	76.38
287.213	91.38
287.444	76.38
287.675	79.38
287.906	89.38
288.138	103.38
288.369	85.38
288.6	94.38
288.831	92.38
289.062	101.38
289.293	81.38
289.524	94.38
289.755	78.38
289.986	92.38
290.217	84.38
290.448	78.38
290.679	101.38
290.91	98.38
291.141	82.38
291.371	85.38
291.602	97.38
291.833	81.38
292.064	90.38
292.295	92.38
292.526	80.38
292.757	79.38
292.987	84.38
293.218	91.38
293.449	75.38
293.68	72.38
293.91	90.38
294.141	88.38
294.372	77.38
294.603	98.38
294.833	100.38
295.064	96.38
295.295	74.38
295.525	97.38
295.756	84.38
295.987	78.38
296.217	100.38
296.448	82.38
296.679	74.38
296.909	85.38
297.14	89.38
297.37	88.38
297.601	89.38
297.831	86.38
298.062	94.38
298.292	89.38
298.523	96.38
298.753	85.38
298.984	81.38
299.214	100.38
299.445	98.38
299.675	88.38
299.905	74.38
300.136	86.38
300.366	96.38
300.597	75.38
300.827	71.38
301.057	84.38
301.288	84.38
301.518	90.38
301.748	97.38
301.979	92.38
302.209	88.38
302.439	100.38
302.669	92.38
302.9	93.38
303.13	87.38
303.36	76.38
303.59	86.38
303.82	90.38
304.051	78.38
304.281	81.38
304.511	90.38
304.741	84.38
304.971	79.38
305.201	82.38
305.431	92.38
305.661	82.38
305.891	83.38
306.121	90.38
306.352	88.38
306.582	86.38
306.812	94.38
307.042	92.38
307.272	86.38
307.502	82.38
307.731	89.38
307.961	73.38
308.191	75.38
308.421	93.38
308.651	89.38
308.881	74.38
309.111	77.38
309.341	82.38
309.571	88.38
309.8	84.38
310.03	86.38
310.26	92.38
310.49	88.38
310.72	96.38
310.949	90.38
311.179	87.38
311.409	76.38
311.639	86.38
311.868	76.38
312.098	85.38
312.328	80.38
312.557	79.38
312.787	98.38
313.017	81.38
313.246	88.38
313.476	95.38
313.706	95.38
313.935	102.38
314.165	87.38
314.394	82.38
314.624	82.38
314.853	82.38
315.083	96.38
315.312	86.38
315.542	96.38
315.771	91.38
316.001	77.38
316.23	92.38
316.46	78.38
316.689	94.38
316.919	91.38
317.148	100.38
317.377	95.38
317.607	81.38
317.836	84.38
318.065	92.38
318.295	80.38
318.524	81.38
318.753	74.38
318.983	78.38
319.212	97.38
319.441	76.38
319.67	75.38
319.9	77.38
320.129	79.38
320.358	96.38
320.587	94.38
320.816	79.38
321.046	88.38
321.275	87.38
321.504	96.38
321.733	88.38
321.962	74.38
322.191	82.38
322.42	99.38
322.649	89.38
322.878	91.38
323.108	84.38
323.337	82.38
323.566	87.38
323.795	92.38
324.024	76.38
324.253	93.38
324.482	80.38
324.71	84.38
324.939	78.38
325.168	85.38
325.397	103.38
325.626	76.38
325.855	89.38
326.084	80.38
326.313	91.38
326.542	83.38
326.77	98.38
326.999	84.38
327.228	82.38
327.457	100.38
327.686	86.38
327.914	88.38
328.143	100.38
328.372	87.38
328.6	86.38
328.829	93.38
329.058	74.38
329.287	83.38
329.515	91.38
329.744	82.38
329.972	94.38
330.201	87.38
330.43	92.38
330.658	87.38
330.887	95.38
331.115	87.38
331.344	84.38
331.572	77.38
331.801	85.38
332.03	93.38
332.258	88.38
332.486	84.38
332.715	94.38
332.943	88.38
333.172	76.38
333.4	82.38
333.629	89.38
333.857	74.38
334.085	86.38
334.314	84.38
334.542	88.38
334.771	91.38
334.999	94.38
335.227	80.38
335.455	82.38
335.684	96.38
335.912	94.38
336.14	92.38
336.369	97.38
336.597	101.38
336.825	86.38
337.053	97.38
337.281	97.38
337.51	92.38
337.738	85.38
337.966	91.38
338.194	102.38
338.422	86.38
338.65	74.38
338.878	84.38
339.106	90.38
339.334	102.38
339.562	89.38
339.79	76.38
340.018	92.38
340.246	87.38
340.474	82.38
340.702	86.38
340.93	77.38
341.158	88.38
341.386	70.38
341.614	81.38
341.842	87.38
342.07	82.38
342.298	93.38
342.526	97.38
342.754	80.38
342.981	89.38
343.209	89.38
343.437	80.38
343.665	81.38
343.893	97.38
344.12	108.38
344.348	86.38
344.576	95.38
344.804	80.38
345.031	88.38
345.259	77.38
345.487	78.38
345.714	84.38
345.942	85.38
346.17	82.38
346.397	93.38
346.625	98.38
346.853	81.38
347.08	90.38
347.308	98.38
347.535	86.38
347.763	80.38
347.99	78.38
348.218	87.38
348.445	74.38
348.673	84.38
348.9	89.38
349.128	84.38
349.355	94.38
349.583	96.38
349.81	77.38
350.037	94.38
350.265	87.38
350.492	78.38
350.72	84.38
350.947	81.38
351.174	93.38
351.402	80.38
351.629	85.38
351.856	92.38
352.083	68.38
352.311	76.38
352.538	98.38
352.765	91.38
352.992	98.38
353.22	97.38
353.447	93.38
353.674	79.38
353.901	88.38
354.128	73.38
354.355	90.38
354.583	88.38
354.81	86.38
355.037	93.38
355.264	88.38
355.491	97.38
355.718	84.38
355.945	76.38
356.172	78.38
356.399	81.38
356.626	69.38
356.853	91.38
357.08	96.38
357.307	88.38
357.534	89.38
357.761	95.38
357.988	87.38
358.215	87.38
358.441	76.38
358.668	85.38
358.895	91.38
359.122	96.38
359.349	83.38
359.576	90.38
359.802	83.38
360.029	85.38
360.256	89.38
360.483	85.38
360.709	92.38
360.936	105.38
361.163	84.38
361.39	80.38
361.616	84.38
361.843	80.38
362.07	77.38
362.296	89.38
362.523	81.38
362.749	91.38
362.976	80.38
363.203	88.38
363.429	74.38
363.656	72.38
363.882	87.38
364.109	81.38
364.335	81.38
364.562	96.38
364.788	74.38
365.015	94.38
365.241	85.38
365.468	91.38
365.694	81.38
365.92	85.38
366.147	81.38
366.373	75.38
366.599	78.38
366.826	82.38
367.052	62.38
367.278	90.38
367.505	91.38
367.731	92.38
367.957	84.38
368.184	84.38
368.41	95.38
368.636	80.38
368.862	96.38
369.089	102.38
369.315	86.38
369.541	82.38
369.767	87.38
369.993	93.38
370.219	94.38
370.445	96.38
370.672	105.38
370.898	91.38
371.124	76.38
371.35	95.38
371.576	97.38
371.802	71.38
372.028	80.38
372.254	88.38
372.48	88.38
372.706	88.38
372.932	85.38
373.158	86.38
373.384	85.38
373.61	93.38
373.835	78.38
374.061	80.38
374.287	84.38
374.513	81.38
374.739	90.38
374.965	86.38
375.191	80.38
375.416	87.38
375.642	84.38
375.868	96.38
376.094	73.38
376.319	82.38
376.545	77.38
376.771	107.38
376.997	73.38
377.222	75.38
377.448	84.38
377.674	90.38
377.899	90.38
378.125	88.38
378.35	84.38
378.576	100.38
378.802	88.38
379.027	80.38
379.253	97.38
379.478	89.38
379.704	84.38
379.929	92.38
380.155	83.38
380.38	87.38
380.606	89.38
380.831	103.38
381.057	91.38
381.282	70.38
381.507	88.38
381.733	88.38
381.958	80.38
382.184	76.38
382.409	89.38
382.634	80.38
382.86	89.38
383.085	102.38
383.31	80.38
383.535	87.38
383.761	85.38
383.986	79.38
384.211	90.38
384.436	88.38
384.662	86.38
384.887	84.38
385.112	90.38
385.337	86.38
385.562	82.38
385.787	92.38
386.013	93.38
386.238	92.38
386.463	66.38
386.688	104.38
386.913	76.38
387.138	89.38
387.363	83.38
387.588	93.38
387.813	81.38
388.038	87.38
388.263	84.38
388.488	92.38
388.713	86.38
388.938	84.38
389.163	81.38
389.387	84.38
389.612	72.38
389.837	87.38
390.062	86.38
390.287	93.38
390.512	88.38
390.736	70.38
390.961	105.38
391.186	89.38
391.411	77.38
391.636	88.38
391.86	94.38
392.085	91.38
392.31	74.38
392.534	102.38
392.759	87.38
392.984	95.38
393.208	88.38
393.433	79.38
393.658	79.38
393.882	75.38
394.107	74.38
394.331	88.38
394.556	95.38
394.78	92.38
395.005	104.38
395.229	96.38
395.454	84.38
395.678	91.38
395.903	88.38
396.127	97.38
396.352	98.38
396.576	86.38
396.801	105.38
397.025	90.38
397.249	82.38
397.474	90.38
397.698	103.38
397.922	88.38
398.147	84.38
398.371	81.38
398.595	86.38
398.82	89.38
399.044	96.38
399.268	80.38
399.492	82.38
399.717	86.38
399.941	95.38
400.165	96.38
400.389	92.38
400.613	112.38
400.837	93.38
401.062	92.38
401.286	89.38
401.51	85.38
401.734	87.38
401.958	88.38
402.182	78.38
402.406	72.38
402.63	88.38
402.854	112.38
403.078	88.38
403.302	90.38
403.526	78.38
403.75	85.38
403.974	78.38
404.198	80.38
404.422	94.38
404.645	85.38
404.869	91.38
405.093	74.38
405.317	100.38
405.541	79.38
405.765	88.38
405.988	93.38
406.212	85.38
406.436	87.38
406.66	84.38
406.883	97.38
407.107	83.38
407.331	108.38
407.555	87.38
407.778	76.38
408.002	93.38
408.226	90.38
408.449	88.38
408.673	89.38
408.896	69.38
409.12	88.38
409.344	94.38
409.567	79.38
409.791	88.38
410.014	86.38
410.238	72.38
410.461	80.38
410.685	92.38
410.908	80.38
411.132	98.38
411.355	93.38
411.578	84.38
411.802	81.38
412.025	74.38
412.249	75.38
412.472	84.38
412.695	91.38
412.919	101.38
413.142	89.38
413.365	90.38
413.589	88.38
413.812	85.38
414.035	99.38
414.258	97.38
414.482	70.38
414.705	72.38
414.928	92.38
415.151	94.38
415.374	88.38
415.597	89.38
415.821	89.38
416.044	102.38
416.267	80.38
416.49	84.38
416.713	88.38
416.936	82.38
417.159	91.38
417.382	91.38
417.605	94.38
417.828	87.38
418.051	80.38
418.274	79.38
418.497	86.38
418.72	100.38
418.943	90.38
419.166	86.38
419.389	77.38
419.611	89.38
419.834	78.38
420.057	98.38
420.28	80.38
420.503	92.38
420.726	89.38
420.948	92.38
421.171	93.38
421.394	81.38
421.617	82.38
421.839	88.38
422.062	87.38
422.285	92.38
422.507	91.38
422.73	81.38
422.953	76.38
423.175	86.38
423.398	98.38
423.621	87.38
423.843	86.38
424.066	90.38
424.288	93.38
424.511	89.38
424.733	74.38
424.956	89.38
425.178	91.38
425.401	87.38
425.623	82.38
425.846	98.38
426.068	84.38
426.291	88.38
426.513	89.38
426.735	104.38
426.958	94.38
427.18	88.38
427.402	76.38
427.625	77.38
427.847	80.38
428.069	87.38
428.292	73.38
428.514	94.38
428.736	80.38
428.958	93.38
429.181	93.38
429.403	71.38
429.625	81.38
429.847	94.38
430.069	95.38
430.292	106.38
430.514	75.38
430.736	96.38
430.958	96.38
431.18	107.38
431.402	92.38
431.624	79.38
431.846	86.38
432.068	82.38
432.29	95.38
432.512	84.38
432.734	90.38
432.956	84.38
433.178	86.38
433.4	87.38
433.622	95.38
433.844	85.38
434.066	89.38
434.287	90.38
434.509	90.38
434.731	90.38
434.953	92.38
435.175	96.38
435.397	83.38
435.618	81.38
435.84	83.38
436.062	87.38
436.284	97.38
436.505	75.38
436.727	87.38
436.949	97.38
437.17	94.38
437.392	89.38
437.614	88.38
437.835	95.38
438.057	93.38
438.278	90.38
438.5	86.38
438.721	95.38
438.943	89.38
439.165	79.38
439.386	82.38
439.608	82.38
439.829	85.38
440.05	89.38
440.272	92.38
440.493	93.38
440.715	84.38
440.936	92.38
441.158	88.38
441.379	88.38
441.6	98.38
441.822	72.38
442.043	89.38
442.264	81.38
442.486	89.38
442.707	93.38
442.928	95.38
443.149	87.38
443.371	82.38
443.592	91.38
443.813	74.38
444.034	82.38
444.255	96.38
444.476	90.38
444.698	105.38
444.919	102.38
445.14	174.38
445.361	131.38
445.582	92.38
445.803	92.38
446.024	103.38
446.245	98.38
446.466	81.38
446.687	94.38
446.908	86.38
447.129	97.38
447.35	92.38
447.571	84.38
447.792	87.38
448.013	108.38
448.234	72.38
448.455	80.38
448.675	79.38
448.896	88.38
449.117	76.38
449.338	85.38
449.559	88.38
449.779	82.38
450	94.38
450.221	86.38
450.442	82.38
450.662	68.38
450.883	84.38
451.104	92.38
451.324	78.38
451.545	94.38
451.766	68.38
451.986	74.38
452.207	72.38
452.428	82.38
452.648	85.38
452.869	90.38
453.089	78.38
453.31	73.38
453.53	85.38
453.751	68.38
453.971	97.38
454.192	79.38
454.412	74.38
454.633	72.38
454.853	83.38
455.073	92.38
455.294	97.38
455.514	79.38
455.734	83.38
455.955	87.38
456.175	94.38
456.395	100.38
456.616	102.38
456.836	95.38
457.056	83.38
457.276	85.38
457.497	74.38
457.717	86.38
457.937	79.38
458.157	81.38
458.377	75.38
458.598	87.38
458.818	87.38
459.038	95.38
459.258	96.38
459.478	84.38
459.698	95.38
459.918	84.38
460.138	84.38
460.358	77.38
460.578	102.38
460.798	87.38
461.018	84.38
461.238	72.38
461.458	93.38
461.678	92.38
461.898	89.38
462.118	92.38
462.338	81.38
462.558	79.38
462.777	83.38
462.997	82.38
463.217	89.38
463.437	75.38
463.657	84.38
463.876	78.38
464.096	92.38
464.316	96.38
464.536	83.38
464.755	96.38
464.975	98.38
465.195	89.38
465.414	88.38
465.634	85.38
465.854	74.38
466.073	93.38
466.293	76.38
466.512	88.38
466.732	99.38
466.951	95.38
467.171	86.38
467.391	100.38
467.61	81.38
467.829	81.38
468.049	80.38
468.268	87.38
468.488	73.38
468.707	88.38
468.927	64.38
469.146	93.38
469.365	90.38
469.585	72.38
469.804	92.38
470.023	85.38
470.243	89.38
470.462	92.38
470.681	99.38
470.901	87.38
471.12	94.38
471.339	74.38
471.558	90.38
471.777	89.38
471.997	83.38
472.216	80.38
472.435	79.38
472.654	94.38
472.873	85.38
473.092	85.38
473.311	90.38
473.53	86.38
473.749	102.38
473.968	89.38
474.187	87.38
474.406	77.38
474.625	92.38
474.844	88.38
475.063	77.38
475.282	96.38
475.501	81.38
475.72	80.38
475.939	87.38
476.158	75.38
476.377	69.38
476.596	84.38
476.814	91.38
477.033	76.38
477.252	96.38
477.471	100.38
477.69	76.38
477.908	88.38
478.127	81.38
478.346	90.38
478.564	94.38
478.783	98.38
479.002	92.38
479.22	70.38
479.439	98.38
479.658	81.38
479.876	89.38
480.095	97.38
480.313	87.38
480.532	88.38
480.751	84.38
480.969	87.38
481.188	107.38
481.406	84.38
481.624	73.38
481.843	91.38
482.061	84.38
482.28	89.38
482.498	88.38
482.717	76.38
482.935	66.38
483.153	81.38
483.372	99.38
483.59	92.38
483.808	97.38
484.027	89.38
484.245	101.38
484.463	106.38
484.681	82.38
484.9	78.38
485.118	86.38
485.336	86.38
485.554	81.38
485.772	98.38
485.99	94.38
486.209	81.38
486.427	78.38
486.645	79.38
486.863	104.38
487.081	81.38
487.299	74.38
487.517	90.38
487.735	109.38
487.953	80.38
488.171	92.38
488.389	80.38
488.607	88.38
488.825	81.38
489.043	94.38
489.261	94.38
489.479	85.38
489.696	91.38
489.914	85.38
490.132	78.38
490.35	89.38
490.568	72.38
490.786	92.38
491.003	87.38
491.221	81.38
491.439	84.38
491.657	86.38
491.874	88.38
492.092	94.38
492.31	102.38
492.527	92.38
492.745	80.38
492.963	89.38
493.18	90.38
493.398	84.38
493.615	86.38
493.833	93.38
494.05	93.38
494.268	93.38
494.485	90.38
494.703	95.38
494.92	94.38
495.138	80.38
495.355	92.38
495.573	77.38
495.79	79.38
496.008	97.38
496.225	87.38
496.442	102.38
496.66	86.38
496.877	78.38
497.094	85.38
497.312	89.38
497.529	91.38
497.746	94.38
497.963	88.38
498.181	87.38
498.398	90.38
498.615	86.38
498.832	94.38
499.049	91.38
499.267	109.38
499.484	84.38
499.701	102.38
499.918	107.38
500.135	96.38
500.352	110.38
500.569	108.38
500.786	114.38
501.003	106.38
501.22	102.38
501.437	99.38
501.654	106.38
501.871	97.38
502.088	102.38
502.305	91.38
502.522	94.38
502.739	87.38
502.956	88.38
503.172	94.38
503.389	90.38
503.606	83.38
503.823	90.38
504.04	94.38
504.256	98.38
504.473	91.38
504.69	97.38
504.907	88.38
505.123	77.38
505.34	95.38
505.557	107.38
505.773	81.38
505.99	72.38
506.207	82.38
506.423	89.38
506.64	86.38
506.856	95.38
507.073	82.38
507.289	90.38
507.506	76.38
507.722	84.38
507.939	87.38
508.155	86.38
508.372	87.38
508.588	83.38
508.805	86.38
509.021	110.38
509.238	84.38
509.454	90.38
509.67	81.38
509.887	100.38
510.103	91.38
510.319	86.38
510.536	90.38
510.752	95.38
510.968	90.38
511.184	86.38
511.401	74.38
511.617	87.38
511.833	84.38
512.049	87.38
512.265	85.38
512.481	88.38
512.698	81.38
512.914	90.38
513.13	108.38
513.346	84.38
513.562	85.38
513.778	94.38
513.994	85.38
514.21	77.38
514.426	93.38
514.642	100.38
514.858	89.38
515.074	90.38
515.29	96.38
515.506	93.38
515.721	87.38
515.937	94.38
516.153	91.38
516.369	103.38
516.585	107.38
516.801	97.38
517.016	84.38
517.232	83.38
517.448	87.38
517.664	80.38
517.879	90.38
518.095	100.38
518.311	93.38
518.527	96.38
518.742	86.38
518.958	89.38
519.173	92.38
