Data from BG_HRD10591_048.txt Node
Date: Fri May 16 15:33:31 EDT 2025
User: Yrep
Spectrometer: HR+D1059
Trigger mode: 1
Integration Time (sec): 1.000000E-1
Scans to average: 1
Electric dark correction enabled: true
Nonlinearity correction enabled: false
Boxcar width: 0
XAxis mode: Wavelengths
Number of Pixels in Spectrum: 2048
>>>>>Begin Spectral Data<<<<<
223.165	-10.38
223.4	-10.38
223.635	-10.38
223.869	-12.38
224.104	-29.38
224.338	-21.38
224.573	-8.38
224.808	-14.38
225.042	4.62
225.277	-10.38
225.511	-10.38
225.746	4.62
225.98	-1.38
226.215	12.62
226.449	17.62
226.683	20.62
226.918	25.62
227.152	32.62
227.387	29.62
227.621	39.62
227.856	55.62
228.09	42.62
228.324	46.62
228.559	49.62
228.793	46.62
229.027	55.62
229.262	49.62
229.496	56.62
229.73	72.62
229.964	70.62
230.199	73.62
230.433	67.62
230.667	55.62
230.901	85.62
231.136	66.62
231.37	99.62
231.604	87.62
231.838	61.62
232.072	92.62
232.306	88.62
232.541	73.62
232.775	58.62
233.009	81.62
233.243	80.62
233.477	70.62
233.711	72.62
233.945	75.62
234.179	63.62
234.413	79.62
234.647	66.62
234.881	78.62
235.115	80.62
235.349	72.62
235.583	79.62
235.817	76.62
236.051	87.62
236.285	78.62
236.519	72.62
236.753	72.62
236.987	62.62
237.221	71.62
237.455	78.62
237.689	78.62
237.922	75.62
238.156	70.62
238.39	62.62
238.624	70.62
238.858	75.62
239.091	68.62
239.325	63.62
239.559	83.62
239.793	74.62
240.027	62.62
240.26	77.62
240.494	83.62
240.728	70.62
240.961	69.62
241.195	70.62
241.429	83.62
241.662	83.62
241.896	83.62
242.13	74.62
242.363	79.62
242.597	71.62
242.83	71.62
243.064	78.62
243.298	70.62
243.531	59.62
243.765	77.62
243.998	63.62
244.232	71.62
244.465	66.62
244.699	71.62
244.932	84.62
245.166	59.62
245.399	79.62
245.633	64.62
245.866	75.62
246.099	74.62
246.333	80.62
246.566	69.62
246.8	69.62
247.033	65.62
247.266	88.62
247.5	63.62
247.733	72.62
247.966	83.62
248.2	80.62
248.433	73.62
248.666	75.62
248.899	73.62
249.133	74.62
249.366	83.62
249.599	71.62
249.832	66.62
250.066	67.62
250.299	78.62
250.532	76.62
250.765	77.62
250.998	72.62
251.231	80.62
251.465	89.62
251.698	66.62
251.931	71.62
252.164	65.62
252.397	59.62
252.63	76.62
252.863	79.62
253.096	88.62
253.329	77.62
253.562	69.62
253.795	68.62
254.028	85.62
254.261	83.62
254.494	81.62
254.727	85.62
254.96	84.62
255.193	92.62
255.426	71.62
255.659	71.62
255.892	78.62
256.124	79.62
256.357	80.62
256.59	74.62
256.823	66.62
257.056	84.62
257.289	77.62
257.521	78.62
257.754	83.62
257.987	81.62
258.22	83.62
258.452	70.62
258.685	87.62
258.918	76.62
259.151	87.62
259.383	73.62
259.616	77.62
259.849	60.62
260.081	62.62
260.314	87.62
260.547	83.62
260.779	63.62
261.012	75.62
261.244	77.62
261.477	88.62
261.71	73.62
261.942	81.62
262.175	60.62
262.407	77.62
262.64	76.62
262.872	78.62
263.105	79.62
263.337	102.62
263.57	93.62
263.802	79.62
264.035	76.62
264.267	62.62
264.499	91.62
264.732	78.62
264.964	85.62
265.197	79.62
265.429	73.62
265.661	75.62
265.894	69.62
266.126	103.62
266.358	81.62
266.591	64.62
266.823	96.62
267.055	89.62
267.287	93.62
267.52	65.62
267.752	74.62
267.984	79.62
268.216	75.62
268.448	77.62
268.681	62.62
268.913	79.62
269.145	73.62
269.377	65.62
269.609	90.62
269.841	86.62
270.073	81.62
270.306	83.62
270.538	89.62
270.77	81.62
271.002	92.62
271.234	65.62
271.466	75.62
271.698	79.62
271.93	83.62
272.162	67.62
272.394	81.62
272.626	75.62
272.858	77.62
273.09	83.62
273.322	95.62
273.553	83.62
273.785	84.62
274.017	68.62
274.249	90.62
274.481	84.62
274.713	79.62
274.945	80.62
275.176	73.62
275.408	65.62
275.64	75.62
275.872	89.62
276.104	72.62
276.335	76.62
276.567	79.62
276.799	77.62
277.031	76.62
277.262	93.62
277.494	83.62
277.726	78.62
277.957	83.62
278.189	66.62
278.421	88.62
278.652	80.62
278.884	87.62
279.115	73.62
279.347	97.62
279.579	92.62
279.81	81.62
280.042	75.62
280.273	79.62
280.505	69.62
280.736	63.62
280.968	71.62
281.199	68.62
281.431	76.62
281.662	80.62
281.894	82.62
282.125	83.62
282.356	86.62
282.588	87.62
282.819	72.62
283.051	80.62
283.282	93.62
283.513	81.62
283.745	88.62
283.976	75.62
284.207	84.62
284.439	75.62
284.67	78.62
284.901	85.62
285.132	82.62
285.364	79.62
285.595	79.62
285.826	80.62
286.057	79.62
286.288	80.62
286.52	67.62
286.751	82.62
286.982	71.62
287.213	89.62
287.444	84.62
287.675	71.62
287.906	91.62
288.138	84.62
288.369	83.62
288.6	74.62
288.831	79.62
289.062	85.62
289.293	80.62
289.524	81.62
289.755	85.62
289.986	87.62
290.217	90.62
290.448	89.62
290.679	78.62
290.91	81.62
291.141	83.62
291.371	86.62
291.602	65.62
291.833	87.62
292.064	83.62
292.295	75.62
292.526	88.62
292.757	80.62
292.987	84.62
293.218	79.62
293.449	91.62
293.68	103.62
293.91	89.62
294.141	68.62
294.372	79.62
294.603	79.62
294.833	77.62
295.064	90.62
295.295	77.62
295.525	82.62
295.756	85.62
295.987	78.62
296.217	74.62
296.448	75.62
296.679	71.62
296.909	86.62
297.14	80.62
297.37	79.62
297.601	88.62
297.831	75.62
298.062	72.62
298.292	93.62
298.523	77.62
298.753	80.62
298.984	79.62
299.214	76.62
299.445	77.62
299.675	83.62
299.905	94.62
300.136	77.62
300.366	83.62
300.597	76.62
300.827	87.62
301.057	71.62
301.288	79.62
301.518	80.62
301.748	77.62
301.979	102.62
302.209	89.62
302.439	87.62
302.669	86.62
302.9	75.62
303.13	94.62
303.36	83.62
303.59	76.62
303.82	93.62
304.051	86.62
304.281	84.62
304.511	77.62
304.741	82.62
304.971	71.62
305.201	95.62
305.431	83.62
305.661	95.62
305.891	87.62
306.121	89.62
306.352	85.62
306.582	91.62
306.812	85.62
307.042	86.62
307.272	91.62
307.502	85.62
307.731	87.62
307.961	91.62
308.191	81.62
308.421	64.62
308.651	84.62
308.881	97.62
309.111	83.62
309.341	73.62
309.571	84.62
309.8	85.62
310.03	86.62
310.26	81.62
310.49	77.62
310.72	78.62
310.949	84.62
311.179	83.62
311.409	80.62
311.639	79.62
311.868	69.62
312.098	94.62
312.328	87.62
312.557	90.62
312.787	75.62
313.017	79.62
313.246	84.62
313.476	83.62
313.706	75.62
313.935	84.62
314.165	84.62
314.394	81.62
314.624	80.62
314.853	87.62
315.083	85.62
315.312	89.62
315.542	64.62
315.771	96.62
316.001	94.62
316.23	91.62
316.46	86.62
316.689	76.62
316.919	85.62
317.148	86.62
317.377	90.62
317.607	83.62
317.836	86.62
318.065	70.62
318.295	86.62
318.524	83.62
318.753	85.62
318.983	83.62
319.212	90.62
319.441	92.62
319.67	93.62
319.9	85.62
320.129	71.62
320.358	90.62
320.587	77.62
320.816	75.62
321.046	85.62
321.275	93.62
321.504	77.62
321.733	93.62
321.962	85.62
322.191	84.62
322.42	81.62
322.649	83.62
322.878	70.62
323.108	74.62
323.337	80.62
323.566	61.62
323.795	77.62
324.024	84.62
324.253	74.62
324.482	85.62
324.71	77.62
324.939	76.62
325.168	85.62
325.397	87.62
325.626	94.62
325.855	85.62
326.084	87.62
326.313	91.62
326.542	64.62
326.77	97.62
326.999	85.62
327.228	94.62
327.457	93.62
327.686	79.62
327.914	72.62
328.143	83.62
328.372	83.62
328.6	91.62
328.829	87.62
329.058	80.62
329.287	81.62
329.515	87.62
329.744	85.62
329.972	78.62
330.201	92.62
330.43	89.62
330.658	73.62
330.887	92.62
331.115	81.62
331.344	87.62
331.572	93.62
331.801	65.62
332.03	80.62
332.258	84.62
332.486	85.62
332.715	78.62
332.943	82.62
333.172	87.62
333.4	87.62
333.629	83.62
333.857	83.62
334.085	90.62
334.314	94.62
334.542	80.62
334.771	78.62
334.999	100.62
335.227	78.62
335.455	79.62
335.684	93.62
335.912	83.62
336.14	83.62
336.369	73.62
336.597	88.62
336.825	85.62
337.053	90.62
337.281	103.62
337.51	76.62
337.738	73.62
337.966	85.62
338.194	88.62
338.422	90.62
338.65	86.62
338.878	79.62
339.106	86.62
339.334	81.62
339.562	84.62
339.79	69.62
340.018	83.62
340.246	91.62
340.474	63.62
340.702	74.62
340.93	101.62
341.158	73.62
341.386	79.62
341.614	75.62
341.842	81.62
342.07	90.62
342.298	76.62
342.526	83.62
342.754	80.62
342.981	76.62
343.209	94.62
343.437	92.62
343.665	77.62
343.893	74.62
344.12	88.62
344.348	84.62
344.576	99.62
344.804	83.62
345.031	94.62
345.259	78.62
345.487	84.62
345.714	84.62
345.942	77.62
346.17	76.62
346.397	66.62
346.625	96.62
346.853	91.62
347.08	86.62
347.308	86.62
347.535	76.62
347.763	87.62
347.99	85.62
348.218	91.62
348.445	76.62
348.673	71.62
348.9	86.62
349.128	88.62
349.355	88.62
349.583	89.62
349.81	80.62
350.037	73.62
350.265	97.62
350.492	84.62
350.72	72.62
350.947	77.62
351.174	79.62
351.402	93.62
351.629	83.62
351.856	105.62
352.083	92.62
352.311	73.62
352.538	76.62
352.765	86.62
352.992	97.62
353.22	71.62
353.447	77.62
353.674	76.62
353.901	93.62
354.128	84.62
354.355	87.62
354.583	76.62
354.81	92.62
355.037	76.62
355.264	86.62
355.491	94.62
355.718	87.62
355.945	85.62
356.172	78.62
356.399	67.62
356.626	75.62
356.853	64.62
357.08	85.62
357.307	85.62
357.534	100.62
357.761	95.62
357.988	77.62
358.215	82.62
358.441	93.62
358.668	87.62
358.895	92.62
359.122	71.62
359.349	88.62
359.576	82.62
359.802	88.62
360.029	82.62
360.256	83.62
360.483	87.62
360.709	68.62
360.936	80.62
361.163	86.62
361.39	87.62
361.616	79.62
361.843	75.62
362.07	80.62
362.296	79.62
362.523	94.62
362.749	81.62
362.976	73.62
363.203	82.62
363.429	74.62
363.656	77.62
363.882	78.62
364.109	99.62
364.335	72.62
364.562	78.62
364.788	86.62
365.015	96.62
365.241	88.62
365.468	93.62
365.694	96.62
365.92	110.62
366.147	75.62
366.373	91.62
366.599	87.62
366.826	78.62
367.052	87.62
367.278	73.62
367.505	79.62
367.731	94.62
367.957	101.62
368.184	91.62
368.41	85.62
368.636	87.62
368.862	83.62
369.089	84.62
369.315	78.62
369.541	101.62
369.767	95.62
369.993	82.62
370.219	83.62
370.445	72.62
370.672	85.62
370.898	85.62
371.124	76.62
371.35	85.62
371.576	80.62
371.802	77.62
372.028	80.62
372.254	77.62
372.48	66.62
372.706	77.62
372.932	96.62
373.158	83.62
373.384	103.62
373.61	81.62
373.835	85.62
374.061	72.62
374.287	72.62
374.513	78.62
374.739	76.62
374.965	75.62
375.191	93.62
375.416	80.62
375.642	84.62
375.868	86.62
376.094	84.62
376.319	78.62
376.545	77.62
376.771	91.62
376.997	84.62
377.222	89.62
377.448	64.62
377.674	85.62
377.899	78.62
378.125	89.62
378.35	87.62
378.576	85.62
378.802	85.62
379.027	92.62
379.253	88.62
379.478	92.62
379.704	95.62
379.929	87.62
380.155	74.62
380.38	74.62
380.606	68.62
380.831	85.62
381.057	85.62
381.282	78.62
381.507	94.62
381.733	76.62
381.958	83.62
382.184	85.62
382.409	65.62
382.634	72.62
382.86	66.62
383.085	94.62
383.31	90.62
383.535	87.62
383.761	76.62
383.986	79.62
384.211	84.62
384.436	62.62
384.662	83.62
384.887	97.62
385.112	87.62
385.337	89.62
385.562	83.62
385.787	84.62
386.013	90.62
386.238	83.62
386.463	81.62
386.688	102.62
386.913	71.62
387.138	88.62
387.363	69.62
387.588	82.62
387.813	80.62
388.038	81.62
388.263	85.62
388.488	93.62
388.713	80.62
388.938	80.62
389.163	65.62
389.387	71.62
389.612	73.62
389.837	77.62
390.062	81.62
390.287	77.62
390.512	69.62
390.736	85.62
390.961	95.62
391.186	83.62
391.411	79.62
391.636	81.62
391.86	95.62
392.085	89.62
392.31	76.62
392.534	71.62
392.759	83.62
392.984	81.62
393.208	76.62
393.433	73.62
393.658	85.62
393.882	77.62
394.107	85.62
394.331	85.62
394.556	90.62
394.78	89.62
395.005	72.62
395.229	85.62
395.454	79.62
395.678	87.62
395.903	75.62
396.127	97.62
396.352	82.62
396.576	78.62
396.801	96.62
397.025	65.62
397.249	85.62
397.474	75.62
397.698	80.62
397.922	95.62
398.147	96.62
398.371	84.62
398.595	74.62
398.82	81.62
399.044	86.62
399.268	84.62
399.492	100.62
399.717	103.62
399.941	92.62
400.165	91.62
400.389	87.62
400.613	87.62
400.837	89.62
401.062	81.62
401.286	92.62
401.51	75.62
401.734	79.62
401.958	92.62
402.182	78.62
402.406	76.62
402.63	77.62
402.854	95.62
403.078	65.62
403.302	84.62
403.526	72.62
403.75	101.62
403.974	81.62
404.198	70.62
404.422	79.62
404.645	74.62
404.869	89.62
405.093	90.62
405.317	76.62
405.541	97.62
405.765	98.62
405.988	73.62
406.212	93.62
406.436	93.62
406.66	87.62
406.883	92.62
407.107	96.62
407.331	88.62
407.555	77.62
407.778	94.62
408.002	84.62
408.226	78.62
408.449	74.62
408.673	86.62
408.896	92.62
409.12	93.62
409.344	71.62
409.567	80.62
409.791	95.62
410.014	73.62
410.238	65.62
410.461	75.62
410.685	83.62
410.908	74.62
411.132	76.62
411.355	78.62
411.578	75.62
411.802	71.62
412.025	82.62
412.249	89.62
412.472	80.62
412.695	77.62
412.919	74.62
413.142	79.62
413.365	93.62
413.589	84.62
413.812	82.62
414.035	92.62
414.258	76.62
414.482	87.62
414.705	81.62
414.928	77.62
415.151	86.62
415.374	85.62
415.597	87.62
415.821	87.62
416.044	79.62
416.267	74.62
416.49	84.62
416.713	81.62
416.936	83.62
417.159	61.62
417.382	81.62
417.605	95.62
417.828	76.62
418.051	94.62
418.274	72.62
418.497	84.62
418.72	78.62
418.943	93.62
419.166	96.62
419.389	80.62
419.611	86.62
419.834	80.62
420.057	81.62
420.28	69.62
420.503	71.62
420.726	63.62
420.948	95.62
421.171	77.62
421.394	83.62
421.617	84.62
421.839	96.62
422.062	103.62
422.285	95.62
422.507	84.62
422.73	81.62
422.953	71.62
423.175	92.62
423.398	68.62
423.621	78.62
423.843	85.62
424.066	87.62
424.288	74.62
424.511	73.62
424.733	77.62
424.956	86.62
425.178	95.62
425.401	86.62
425.623	75.62
425.846	65.62
426.068	88.62
426.291	79.62
426.513	71.62
426.735	84.62
426.958	81.62
427.18	86.62
427.402	87.62
427.625	74.62
427.847	85.62
428.069	83.62
428.292	75.62
428.514	75.62
428.736	73.62
428.958	71.62
429.181	83.62
429.403	86.62
429.625	86.62
429.847	92.62
430.069	91.62
430.292	74.62
430.514	75.62
430.736	88.62
430.958	75.62
431.18	90.62
431.402	89.62
431.624	89.62
431.846	80.62
432.068	81.62
432.29	75.62
432.512	79.62
432.734	64.62
432.956	92.62
433.178	88.62
433.4	72.62
433.622	85.62
433.844	85.62
434.066	96.62
434.287	74.62
434.509	73.62
434.731	83.62
434.953	91.62
435.175	101.62
435.397	81.62
435.618	84.62
435.84	87.62
436.062	84.62
436.284	78.62
436.505	78.62
436.727	77.62
436.949	78.62
437.17	84.62
437.392	72.62
437.614	81.62
437.835	70.62
438.057	75.62
438.278	88.62
438.5	104.62
438.721	82.62
438.943	86.62
439.165	80.62
439.386	75.62
439.608	80.62
439.829	85.62
440.05	77.62
440.272	72.62
440.493	89.62
440.715	72.62
440.936	93.62
441.158	93.62
441.379	99.62
441.6	85.62
441.822	81.62
442.043	90.62
442.264	88.62
442.486	79.62
442.707	74.62
442.928	89.62
443.149	79.62
443.371	78.62
443.592	76.62
443.813	71.62
444.034	83.62
444.255	89.62
444.476	76.62
444.698	81.62
444.919	90.62
445.14	160.62
445.361	126.62
445.582	88.62
445.803	92.62
446.024	81.62
446.245	83.62
446.466	86.62
446.687	85.62
446.908	76.62
447.129	83.62
447.35	80.62
447.571	90.62
447.792	77.62
448.013	84.62
448.234	75.62
448.455	79.62
448.675	72.62
448.896	78.62
449.117	85.62
449.338	74.62
449.559	86.62
449.779	74.62
450	61.62
450.221	73.62
450.442	71.62
450.662	85.62
450.883	55.62
451.104	79.62
451.324	83.62
451.545	75.62
451.766	82.62
451.986	77.62
452.207	90.62
452.428	69.62
452.648	89.62
452.869	80.62
453.089	83.62
453.31	88.62
453.53	83.62
453.751	70.62
453.971	85.62
454.192	81.62
454.412	84.62
454.633	92.62
454.853	91.62
455.073	83.62
455.294	102.62
455.514	89.62
455.734	78.62
455.955	86.62
456.175	76.62
456.395	66.62
456.616	88.62
456.836	89.62
457.056	72.62
457.276	77.62
457.497	79.62
457.717	72.62
457.937	84.62
458.157	79.62
458.377	87.62
458.598	100.62
458.818	90.62
459.038	72.62
459.258	71.62
459.478	86.62
459.698	77.62
459.918	69.62
460.138	83.62
460.358	81.62
460.578	91.62
460.798	102.62
461.018	86.62
461.238	93.62
461.458	82.62
461.678	73.62
461.898	86.62
462.118	90.62
462.338	85.62
462.558	88.62
462.777	87.62
462.997	75.62
463.217	87.62
463.437	88.62
463.657	82.62
463.876	93.62
464.096	76.62
464.316	86.62
464.536	94.62
464.755	85.62
464.975	84.62
465.195	97.62
465.414	81.62
465.634	72.62
465.854	90.62
466.073	69.62
466.293	87.62
466.512	79.62
466.732	93.62
466.951	87.62
467.171	86.62
467.391	84.62
467.61	69.62
467.829	80.62
468.049	85.62
468.268	87.62
468.488	94.62
468.707	87.62
468.927	84.62
469.146	83.62
469.365	74.62
469.585	74.62
469.804	75.62
470.023	81.62
470.243	74.62
470.462	86.62
470.681	81.62
470.901	71.62
471.12	86.62
471.339	94.62
471.558	73.62
471.777	87.62
471.997	77.62
472.216	84.62
472.435	83.62
472.654	77.62
472.873	71.62
473.092	101.62
473.311	76.62
473.53	79.62
473.749	86.62
473.968	71.62
474.187	76.62
474.406	72.62
474.625	98.62
474.844	77.62
475.063	85.62
475.282	78.62
475.501	79.62
475.72	84.62
475.939	77.62
476.158	84.62
476.377	93.62
476.596	81.62
476.814	71.62
477.033	83.62
477.252	81.62
477.471	86.62
477.69	79.62
477.908	73.62
478.127	76.62
478.346	87.62
478.564	93.62
478.783	74.62
479.002	87.62
479.22	76.62
479.439	77.62
479.658	83.62
479.876	78.62
480.095	72.62
480.313	104.62
480.532	93.62
480.751	76.62
480.969	88.62
481.188	90.62
481.406	72.62
481.624	80.62
481.843	92.62
482.061	74.62
482.28	90.62
482.498	81.62
482.717	78.62
482.935	87.62
483.153	95.62
483.372	81.62
483.59	80.62
483.808	104.62
484.027	103.62
484.245	81.62
484.463	97.62
484.681	99.62
484.9	71.62
485.118	87.62
485.336	69.62
485.554	85.62
485.772	95.62
485.99	87.62
486.209	82.62
486.427	90.62
486.645	87.62
486.863	66.62
487.081	89.62
487.299	91.62
487.517	91.62
487.735	77.62
487.953	85.62
488.171	80.62
488.389	88.62
488.607	72.62
488.825	90.62
489.043	81.62
489.261	71.62
489.479	72.62
489.696	81.62
489.914	91.62
490.132	86.62
490.35	91.62
490.568	81.62
490.786	88.62
491.003	100.62
491.221	70.62
491.439	72.62
491.657	97.62
491.874	92.62
492.092	93.62
492.31	97.62
492.527	88.62
492.745	81.62
492.963	101.62
493.18	83.62
493.398	89.62
493.615	71.62
493.833	81.62
494.05	91.62
494.268	90.62
494.485	79.62
494.703	66.62
494.92	80.62
495.138	88.62
495.355	102.62
495.573	99.62
495.79	84.62
496.008	98.62
496.225	87.62
496.442	92.62
496.66	84.62
496.877	80.62
497.094	83.62
497.312	85.62
497.529	84.62
497.746	79.62
497.963	104.62
498.181	80.62
498.398	64.62
498.615	80.62
498.832	95.62
499.049	99.62
499.267	83.62
499.484	85.62
499.701	102.62
499.918	109.62
500.135	106.62
500.352	99.62
500.569	102.62
500.786	110.62
501.003	106.62
501.22	97.62
501.437	103.62
501.654	86.62
501.871	92.62
502.088	88.62
502.305	84.62
502.522	87.62
502.739	84.62
502.956	72.62
503.172	83.62
503.389	93.62
503.606	110.62
503.823	79.62
504.04	85.62
504.256	100.62
504.473	87.62
504.69	79.62
504.907	84.62
505.123	77.62
505.34	97.62
505.557	85.62
505.773	74.62
505.99	86.62
506.207	86.62
506.423	76.62
506.64	88.62
506.856	75.62
507.073	102.62
507.289	91.62
507.506	83.62
507.722	91.62
507.939	89.62
508.155	79.62
508.372	85.62
508.588	79.62
508.805	76.62
509.021	91.62
509.238	92.62
509.454	93.62
509.67	83.62
509.887	80.62
510.103	76.62
510.319	85.62
510.536	85.62
510.752	84.62
510.968	77.62
511.184	101.62
511.401	85.62
511.617	92.62
511.833	92.62
512.049	77.62
512.265	85.62
512.481	71.62
512.698	79.62
512.914	69.62
513.13	72.62
513.346	73.62
513.562	83.62
513.778	104.62
513.994	84.62
514.21	80.62
514.426	93.62
514.642	88.62
514.858	84.62
515.074	87.62
515.29	89.62
515.506	80.62
515.721	74.62
515.937	81.62
516.153	92.62
516.369	79.62
516.585	87.62
516.801	85.62
517.016	75.62
517.232	94.62
517.448	83.62
517.664	89.62
517.879	91.62
518.095	92.62
518.311	88.62
518.527	87.62
518.742	83.62
518.958	77.62
519.173	90.62
519.389	82.62
519.605	84.62
519.82	88.62
