Data from BG_HRD10591_012.txt Node
Date: Fri May 16 15:33:13 EDT 2025
User: Yrep
Spectrometer: HR+D1059
Trigger mode: 1
Integration Time (sec): 1.000000E-1
Scans to average: 1
Electric dark correction enabled: true
Nonlinearity correction enabled: false
Boxcar width: 0
XAxis mode: Wavelengths
Number of Pixels in Spectrum: 2048
>>>>>Begin Spectral Data<<<<<
223.165	-18.44
223.4	-18.44
223.635	-18.44
223.869	-22.44
224.104	-22.44
224.338	-15.44
224.573	-1.44
224.808	-15.44
225.042	-2.44
225.277	-1.44
225.511	10.56
225.746	-4.44
225.98	8.56
226.215	7.56
226.449	22.56
226.683	7.56
226.918	18.56
227.152	28.56
227.387	41.56
227.621	37.56
227.856	37.56
228.09	47.56
228.324	50.56
228.559	54.56
228.793	61.56
229.027	68.56
229.262	55.56
229.496	73.56
229.73	60.56
229.964	74.56
230.199	61.56
230.433	60.56
230.667	71.56
230.901	61.56
231.136	64.56
231.37	62.56
231.604	77.56
231.838	71.56
232.072	60.56
232.306	85.56
232.541	83.56
232.775	69.56
233.009	76.56
233.243	83.56
233.477	74.56
233.711	72.56
233.945	77.56
234.179	75.56
234.413	67.56
234.647	76.56
234.881	66.56
235.115	70.56
235.349	77.56
235.583	62.56
235.817	71.56
236.051	78.56
236.285	62.56
236.519	73.56
236.753	82.56
236.987	69.56
237.221	79.56
237.455	74.56
237.689	69.56
237.922	85.56
238.156	79.56
238.39	65.56
238.624	54.56
238.858	65.56
239.091	71.56
239.325	92.56
239.559	73.56
239.793	76.56
240.027	72.56
240.26	93.56
240.494	81.56
240.728	74.56
240.961	76.56
241.195	69.56
241.429	75.56
241.662	82.56
241.896	78.56
242.13	75.56
242.363	82.56
242.597	68.56
242.83	70.56
243.064	70.56
243.298	75.56
243.531	67.56
243.765	74.56
243.998	78.56
244.232	78.56
244.465	79.56
244.699	71.56
244.932	78.56
245.166	86.56
245.399	78.56
245.633	69.56
245.866	70.56
246.099	70.56
246.333	74.56
246.566	67.56
246.8	77.56
247.033	55.56
247.266	69.56
247.5	59.56
247.733	69.56
247.966	75.56
248.2	66.56
248.433	58.56
248.666	65.56
248.899	71.56
249.133	77.56
249.366	76.56
249.599	63.56
249.832	64.56
250.066	86.56
250.299	66.56
250.532	80.56
250.765	79.56
250.998	88.56
251.231	65.56
251.465	78.56
251.698	66.56
251.931	82.56
252.164	74.56
252.397	78.56
252.63	66.56
252.863	81.56
253.096	77.56
253.329	77.56
253.562	78.56
253.795	66.56
254.028	71.56
254.261	62.56
254.494	72.56
254.727	80.56
254.96	87.56
255.193	78.56
255.426	70.56
255.659	77.56
255.892	83.56
256.124	81.56
256.357	83.56
256.59	75.56
256.823	83.56
257.056	75.56
257.289	74.56
257.521	75.56
257.754	71.56
257.987	75.56
258.22	81.56
258.452	73.56
258.685	76.56
258.918	70.56
259.151	79.56
259.383	78.56
259.616	74.56
259.849	66.56
260.081	81.56
260.314	75.56
260.547	67.56
260.779	74.56
261.012	85.56
261.244	65.56
261.477	72.56
261.71	89.56
261.942	75.56
262.175	74.56
262.407	71.56
262.64	79.56
262.872	66.56
263.105	72.56
263.337	81.56
263.57	85.56
263.802	83.56
264.035	68.56
264.267	78.56
264.499	61.56
264.732	86.56
264.964	86.56
265.197	79.56
265.429	92.56
265.661	77.56
265.894	70.56
266.126	87.56
266.358	77.56
266.591	91.56
266.823	65.56
267.055	77.56
267.287	88.56
267.52	86.56
267.752	70.56
267.984	77.56
268.216	82.56
268.448	77.56
268.681	71.56
268.913	71.56
269.145	71.56
269.377	85.56
269.609	67.56
269.841	91.56
270.073	84.56
270.306	55.56
270.538	88.56
270.77	87.56
271.002	73.56
271.234	77.56
271.466	82.56
271.698	70.56
271.93	83.56
272.162	73.56
272.394	84.56
272.626	76.56
272.858	80.56
273.09	75.56
273.322	83.56
273.553	82.56
273.785	81.56
274.017	91.56
274.249	77.56
274.481	67.56
274.713	74.56
274.945	75.56
275.176	77.56
275.408	73.56
275.64	86.56
275.872	75.56
276.104	63.56
276.335	76.56
276.567	85.56
276.799	77.56
277.031	73.56
277.262	78.56
277.494	81.56
277.726	75.56
277.957	88.56
278.189	81.56
278.421	65.56
278.652	75.56
278.884	82.56
279.115	73.56
279.347	82.56
279.579	85.56
279.81	76.56
280.042	86.56
280.273	75.56
280.505	90.56
280.736	73.56
280.968	75.56
281.199	81.56
281.431	79.56
281.662	79.56
281.894	73.56
282.125	61.56
282.356	78.56
282.588	73.56
282.819	65.56
283.051	88.56
283.282	92.56
283.513	90.56
283.745	78.56
283.976	72.56
284.207	88.56
284.439	87.56
284.67	82.56
284.901	73.56
285.132	81.56
285.364	81.56
285.595	74.56
285.826	77.56
286.057	78.56
286.288	65.56
286.52	80.56
286.751	78.56
286.982	68.56
287.213	73.56
287.444	63.56
287.675	76.56
287.906	78.56
288.138	79.56
288.369	92.56
288.6	89.56
288.831	97.56
289.062	79.56
289.293	84.56
289.524	80.56
289.755	73.56
289.986	70.56
290.217	73.56
290.448	76.56
290.679	78.56
290.91	83.56
291.141	93.56
291.371	82.56
291.602	80.56
291.833	81.56
292.064	93.56
292.295	82.56
292.526	83.56
292.757	70.56
292.987	81.56
293.218	81.56
293.449	85.56
293.68	87.56
293.91	76.56
294.141	69.56
294.372	77.56
294.603	87.56
294.833	88.56
295.064	87.56
295.295	85.56
295.525	85.56
295.756	90.56
295.987	84.56
296.217	90.56
296.448	83.56
296.679	91.56
296.909	79.56
297.14	79.56
297.37	85.56
297.601	91.56
297.831	88.56
298.062	84.56
298.292	81.56
298.523	88.56
298.753	88.56
298.984	83.56
299.214	71.56
299.445	85.56
299.675	87.56
299.905	91.56
300.136	70.56
300.366	70.56
300.597	99.56
300.827	99.56
301.057	82.56
301.288	76.56
301.518	63.56
301.748	86.56
301.979	83.56
302.209	73.56
302.439	74.56
302.669	77.56
302.9	64.56
303.13	85.56
303.36	91.56
303.59	76.56
303.82	85.56
304.051	78.56
304.281	64.56
304.511	89.56
304.741	88.56
304.971	89.56
305.201	74.56
305.431	74.56
305.661	73.56
305.891	84.56
306.121	78.56
306.352	91.56
306.582	73.56
306.812	79.56
307.042	74.56
307.272	83.56
307.502	86.56
307.731	82.56
307.961	88.56
308.191	85.56
308.421	79.56
308.651	82.56
308.881	81.56
309.111	92.56
309.341	67.56
309.571	75.56
309.8	72.56
310.03	80.56
310.26	89.56
310.49	76.56
310.72	86.56
310.949	64.56
311.179	79.56
311.409	84.56
311.639	78.56
311.868	71.56
312.098	71.56
312.328	85.56
312.557	84.56
312.787	82.56
313.017	78.56
313.246	86.56
313.476	76.56
313.706	84.56
313.935	78.56
314.165	83.56
314.394	86.56
314.624	83.56
314.853	70.56
315.083	77.56
315.312	70.56
315.542	81.56
315.771	89.56
316.001	73.56
316.23	87.56
316.46	97.56
316.689	70.56
316.919	82.56
317.148	87.56
317.377	93.56
317.607	73.56
317.836	78.56
318.065	84.56
318.295	82.56
318.524	77.56
318.753	79.56
318.983	67.56
319.212	96.56
319.441	76.56
319.67	78.56
319.9	86.56
320.129	76.56
320.358	91.56
320.587	91.56
320.816	82.56
321.046	92.56
321.275	87.56
321.504	75.56
321.733	102.56
321.962	89.56
322.191	83.56
322.42	83.56
322.649	77.56
322.878	87.56
323.108	75.56
323.337	85.56
323.566	86.56
323.795	89.56
324.024	97.56
324.253	89.56
324.482	87.56
324.71	81.56
324.939	88.56
325.168	76.56
325.397	77.56
325.626	82.56
325.855	89.56
326.084	83.56
326.313	82.56
326.542	77.56
326.77	82.56
326.999	83.56
327.228	89.56
327.457	77.56
327.686	78.56
327.914	94.56
328.143	81.56
328.372	78.56
328.6	74.56
328.829	76.56
329.058	65.56
329.287	77.56
329.515	82.56
329.744	83.56
329.972	90.56
330.201	85.56
330.43	87.56
330.658	82.56
330.887	103.56
331.115	93.56
331.344	88.56
331.572	72.56
331.801	73.56
332.03	83.56
332.258	75.56
332.486	94.56
332.715	94.56
332.943	93.56
333.172	75.56
333.4	68.56
333.629	84.56
333.857	86.56
334.085	74.56
334.314	98.56
334.542	83.56
334.771	90.56
334.999	86.56
335.227	86.56
335.455	82.56
335.684	90.56
335.912	75.56
336.14	77.56
336.369	92.56
336.597	83.56
336.825	86.56
337.053	87.56
337.281	89.56
337.51	97.56
337.738	91.56
337.966	75.56
338.194	90.56
338.422	90.56
338.65	79.56
338.878	68.56
339.106	80.56
339.334	73.56
339.562	78.56
339.79	86.56
340.018	99.56
340.246	87.56
340.474	81.56
340.702	93.56
340.93	91.56
341.158	74.56
341.386	76.56
341.614	91.56
341.842	87.56
342.07	99.56
342.298	86.56
342.526	81.56
342.754	79.56
342.981	72.56
343.209	79.56
343.437	88.56
343.665	77.56
343.893	86.56
344.12	87.56
344.348	79.56
344.576	83.56
344.804	78.56
345.031	75.56
345.259	79.56
345.487	89.56
345.714	79.56
345.942	81.56
346.17	70.56
346.397	81.56
346.625	81.56
346.853	97.56
347.08	75.56
347.308	87.56
347.535	87.56
347.763	85.56
347.99	81.56
348.218	90.56
348.445	77.56
348.673	74.56
348.9	75.56
349.128	75.56
349.355	82.56
349.583	77.56
349.81	84.56
350.037	80.56
350.265	94.56
350.492	52.56
350.72	83.56
350.947	90.56
351.174	84.56
351.402	88.56
351.629	84.56
351.856	87.56
352.083	83.56
352.311	78.56
352.538	90.56
352.765	93.56
352.992	85.56
353.22	66.56
353.447	83.56
353.674	90.56
353.901	72.56
354.128	89.56
354.355	94.56
354.583	76.56
354.81	91.56
355.037	83.56
355.264	75.56
355.491	78.56
355.718	75.56
355.945	81.56
356.172	89.56
356.399	67.56
356.626	70.56
356.853	64.56
357.08	78.56
357.307	88.56
357.534	79.56
357.761	93.56
357.988	71.56
358.215	71.56
358.441	82.56
358.668	101.56
358.895	74.56
359.122	87.56
359.349	85.56
359.576	77.56
359.802	77.56
360.029	80.56
360.256	91.56
360.483	74.56
360.709	78.56
360.936	100.56
361.163	79.56
361.39	83.56
361.616	72.56
361.843	86.56
362.07	74.56
362.296	69.56
362.523	85.56
362.749	90.56
362.976	82.56
363.203	74.56
363.429	92.56
363.656	85.56
363.882	71.56
364.109	80.56
364.335	67.56
364.562	82.56
364.788	86.56
365.015	91.56
365.241	85.56
365.468	81.56
365.694	69.56
365.92	81.56
366.147	70.56
366.373	77.56
366.599	77.56
366.826	88.56
367.052	87.56
367.278	79.56
367.505	63.56
367.731	82.56
367.957	91.56
368.184	73.56
368.41	80.56
368.636	90.56
368.862	70.56
369.089	87.56
369.315	89.56
369.541	73.56
369.767	86.56
369.993	75.56
370.219	62.56
370.445	77.56
370.672	82.56
370.898	70.56
371.124	87.56
371.35	78.56
371.576	73.56
371.802	83.56
372.028	90.56
372.254	88.56
372.48	94.56
372.706	80.56
372.932	79.56
373.158	95.56
373.384	85.56
373.61	75.56
373.835	75.56
374.061	70.56
374.287	81.56
374.513	83.56
374.739	81.56
374.965	71.56
375.191	81.56
375.416	82.56
375.642	85.56
375.868	94.56
376.094	86.56
376.319	83.56
376.545	81.56
376.771	90.56
376.997	67.56
377.222	81.56
377.448	76.56
377.674	69.56
377.899	81.56
378.125	70.56
378.35	76.56
378.576	89.56
378.802	83.56
379.027	79.56
379.253	85.56
379.478	101.56
379.704	78.56
379.929	89.56
380.155	89.56
380.38	68.56
380.606	76.56
380.831	80.56
381.057	85.56
381.282	73.56
381.507	88.56
381.733	82.56
381.958	79.56
382.184	72.56
382.409	89.56
382.634	91.56
382.86	70.56
383.085	87.56
383.31	92.56
383.535	94.56
383.761	80.56
383.986	83.56
384.211	79.56
384.436	74.56
384.662	81.56
384.887	90.56
385.112	71.56
385.337	77.56
385.562	79.56
385.787	78.56
386.013	84.56
386.238	90.56
386.463	74.56
386.688	97.56
386.913	71.56
387.138	77.56
387.363	88.56
387.588	97.56
387.813	78.56
388.038	84.56
388.263	83.56
388.488	74.56
388.713	82.56
388.938	77.56
389.163	78.56
389.387	90.56
389.612	87.56
389.837	73.56
390.062	81.56
390.287	93.56
390.512	85.56
390.736	60.56
390.961	84.56
391.186	80.56
391.411	74.56
391.636	81.56
391.86	81.56
392.085	70.56
392.31	74.56
392.534	88.56
392.759	93.56
392.984	80.56
393.208	77.56
393.433	78.56
393.658	84.56
393.882	83.56
394.107	92.56
394.331	91.56
394.556	81.56
394.78	71.56
395.005	78.56
395.229	74.56
395.454	96.56
395.678	83.56
395.903	73.56
396.127	83.56
396.352	73.56
396.576	67.56
396.801	61.56
397.025	90.56
397.249	99.56
397.474	81.56
397.698	88.56
397.922	82.56
398.147	67.56
398.371	82.56
398.595	68.56
398.82	78.56
399.044	71.56
399.268	73.56
399.492	83.56
399.717	80.56
399.941	79.56
400.165	81.56
400.389	90.56
400.613	78.56
400.837	83.56
401.062	74.56
401.286	69.56
401.51	85.56
401.734	82.56
401.958	85.56
402.182	78.56
402.406	77.56
402.63	83.56
402.854	76.56
403.078	91.56
403.302	76.56
403.526	73.56
403.75	87.56
403.974	81.56
404.198	65.56
404.422	79.56
404.645	79.56
404.869	81.56
405.093	84.56
405.317	89.56
405.541	92.56
405.765	82.56
405.988	84.56
406.212	78.56
406.436	90.56
406.66	91.56
406.883	88.56
407.107	94.56
407.331	73.56
407.555	85.56
407.778	85.56
408.002	85.56
408.226	79.56
408.449	75.56
408.673	84.56
408.896	89.56
409.12	84.56
409.344	87.56
409.567	76.56
409.791	74.56
410.014	101.56
410.238	85.56
410.461	83.56
410.685	84.56
410.908	90.56
411.132	77.56
411.355	81.56
411.578	90.56
411.802	71.56
412.025	78.56
412.249	81.56
412.472	73.56
412.695	83.56
412.919	85.56
413.142	84.56
413.365	74.56
413.589	91.56
413.812	79.56
414.035	92.56
414.258	75.56
414.482	84.56
414.705	81.56
414.928	83.56
415.151	82.56
415.374	69.56
415.597	80.56
415.821	89.56
416.044	73.56
416.267	75.56
416.49	92.56
416.713	71.56
416.936	72.56
417.159	69.56
417.382	77.56
417.605	86.56
417.828	74.56
418.051	81.56
418.274	83.56
418.497	89.56
418.72	85.56
418.943	88.56
419.166	75.56
419.389	95.56
419.611	83.56
419.834	81.56
420.057	88.56
420.28	81.56
420.503	63.56
420.726	90.56
420.948	71.56
421.171	79.56
421.394	77.56
421.617	77.56
421.839	71.56
422.062	80.56
422.285	83.56
422.507	84.56
422.73	77.56
422.953	59.56
423.175	81.56
423.398	80.56
423.621	95.56
423.843	86.56
424.066	92.56
424.288	98.56
424.511	78.56
424.733	85.56
424.956	81.56
425.178	81.56
425.401	81.56
425.623	72.56
425.846	68.56
426.068	82.56
426.291	72.56
426.513	74.56
426.735	101.56
426.958	99.56
427.18	83.56
427.402	91.56
427.625	85.56
427.847	86.56
428.069	81.56
428.292	92.56
428.514	86.56
428.736	79.56
428.958	88.56
429.181	90.56
429.403	83.56
429.625	75.56
429.847	81.56
430.069	82.56
430.292	89.56
430.514	86.56
430.736	88.56
430.958	76.56
431.18	73.56
431.402	83.56
431.624	74.56
431.846	69.56
432.068	67.56
432.29	87.56
432.512	64.56
432.734	69.56
432.956	83.56
433.178	72.56
433.4	90.56
433.622	86.56
433.844	77.56
434.066	84.56
434.287	84.56
434.509	77.56
434.731	75.56
434.953	89.56
435.175	74.56
435.397	88.56
435.618	85.56
435.84	89.56
436.062	70.56
436.284	68.56
436.505	85.56
436.727	86.56
436.949	87.56
437.17	71.56
437.392	78.56
437.614	86.56
437.835	66.56
438.057	92.56
438.278	90.56
438.5	84.56
438.721	65.56
438.943	81.56
439.165	67.56
439.386	80.56
439.608	79.56
439.829	77.56
440.05	74.56
440.272	82.56
440.493	72.56
440.715	84.56
440.936	69.56
441.158	82.56
441.379	92.56
441.6	71.56
441.822	69.56
442.043	76.56
442.264	83.56
442.486	84.56
442.707	85.56
442.928	84.56
443.149	74.56
443.371	87.56
443.592	88.56
443.813	85.56
444.034	80.56
444.255	78.56
444.476	87.56
444.698	90.56
444.919	82.56
445.14	169.56
445.361	124.56
445.582	77.56
445.803	83.56
446.024	64.56
446.245	82.56
446.466	85.56
446.687	85.56
446.908	86.56
447.129	89.56
447.35	72.56
447.571	85.56
447.792	83.56
448.013	73.56
448.234	81.56
448.455	71.56
448.675	83.56
448.896	76.56
449.117	85.56
449.338	78.56
449.559	101.56
449.779	78.56
450	77.56
450.221	82.56
450.442	62.56
450.662	90.56
450.883	100.56
451.104	84.56
451.324	71.56
451.545	74.56
451.766	74.56
451.986	73.56
452.207	77.56
452.428	74.56
452.648	82.56
452.869	84.56
453.089	86.56
453.31	97.56
453.53	92.56
453.751	54.56
453.971	91.56
454.192	72.56
454.412	79.56
454.633	83.56
454.853	95.56
455.073	74.56
455.294	77.56
455.514	78.56
455.734	72.56
455.955	73.56
456.175	80.56
456.395	86.56
456.616	78.56
456.836	75.56
457.056	88.56
457.276	74.56
457.497	82.56
457.717	86.56
457.937	77.56
458.157	73.56
458.377	73.56
458.598	71.56
458.818	84.56
459.038	79.56
459.258	81.56
459.478	63.56
459.698	85.56
459.918	84.56
460.138	81.56
460.358	87.56
460.578	81.56
460.798	67.56
461.018	89.56
461.238	75.56
461.458	86.56
461.678	77.56
461.898	78.56
462.118	89.56
462.338	74.56
462.558	76.56
462.777	77.56
462.997	90.56
463.217	86.56
463.437	88.56
463.657	67.56
463.876	78.56
464.096	90.56
464.316	82.56
464.536	85.56
464.755	80.56
464.975	81.56
465.195	71.56
465.414	76.56
465.634	77.56
465.854	78.56
466.073	73.56
466.293	79.56
466.512	75.56
466.732	78.56
466.951	74.56
467.171	78.56
467.391	93.56
467.61	77.56
467.829	75.56
468.049	75.56
468.268	89.56
468.488	75.56
468.707	72.56
468.927	83.56
469.146	90.56
469.365	75.56
469.585	76.56
469.804	82.56
470.023	83.56
470.243	82.56
470.462	86.56
470.681	75.56
470.901	85.56
471.12	86.56
471.339	73.56
471.558	75.56
471.777	64.56
471.997	82.56
472.216	67.56
472.435	86.56
472.654	85.56
472.873	94.56
473.092	82.56
473.311	79.56
473.53	81.56
473.749	87.56
473.968	89.56
474.187	85.56
474.406	64.56
474.625	78.56
474.844	84.56
475.063	84.56
475.282	84.56
475.501	78.56
475.72	90.56
475.939	91.56
476.158	75.56
476.377	82.56
476.596	79.56
476.814	73.56
477.033	86.56
477.252	80.56
477.471	74.56
477.69	82.56
477.908	82.56
478.127	93.56
478.346	76.56
478.564	79.56
478.783	69.56
479.002	82.56
479.22	86.56
479.439	73.56
479.658	75.56
479.876	86.56
480.095	71.56
480.313	79.56
480.532	80.56
480.751	102.56
480.969	92.56
481.188	75.56
481.406	85.56
481.624	92.56
481.843	86.56
482.061	93.56
482.28	94.56
482.498	79.56
482.717	70.56
482.935	86.56
483.153	92.56
483.372	79.56
483.59	93.56
483.808	68.56
484.027	73.56
484.245	75.56
484.463	69.56
484.681	75.56
484.9	89.56
485.118	87.56
485.336	92.56
485.554	81.56
485.772	78.56
485.99	87.56
486.209	87.56
486.427	88.56
486.645	76.56
486.863	82.56
487.081	91.56
487.299	73.56
487.517	76.56
487.735	71.56
487.953	77.56
488.171	73.56
488.389	69.56
488.607	77.56
488.825	100.56
489.043	81.56
489.261	89.56
489.479	81.56
489.696	83.56
489.914	68.56
490.132	75.56
490.35	93.56
490.568	71.56
490.786	71.56
491.003	69.56
491.221	83.56
491.439	92.56
491.657	102.56
491.874	83.56
492.092	73.56
492.31	68.56
492.527	90.56
492.745	61.56
492.963	77.56
493.18	88.56
493.398	86.56
493.615	93.56
493.833	77.56
494.05	81.56
494.268	76.56
494.485	85.56
494.703	76.56
494.92	76.56
495.138	83.56
495.355	79.56
495.573	75.56
495.79	72.56
496.008	78.56
496.225	81.56
496.442	81.56
496.66	102.56
496.877	89.56
497.094	71.56
497.312	84.56
497.529	87.56
497.746	97.56
497.963	87.56
498.181	90.56
498.398	85.56
498.615	88.56
498.832	78.56
499.049	97.56
499.267	96.56
499.484	92.56
499.701	87.56
499.918	97.56
500.135	95.56
500.352	106.56
500.569	89.56
500.786	106.56
501.003	108.56
501.22	89.56
501.437	91.56
501.654	91.56
501.871	100.56
502.088	83.56
502.305	92.56
502.522	83.56
502.739	99.56
502.956	87.56
503.172	79.56
503.389	90.56
503.606	81.56
503.823	98.56
504.04	78.56
504.256	86.56
504.473	76.56
504.69	73.56
504.907	80.56
505.123	82.56
505.34	98.56
505.557	88.56
505.773	99.56
505.99	85.56
506.207	82.56
506.423	83.56
506.64	82.56
506.856	81.56
507.073	83.56
507.289	86.56
507.506	88.56
507.722	78.56
507.939	87.56
508.155	78.56
508.372	80.56
508.588	73.56
508.805	89.56
509.021	91.56
509.238	81.56
509.454	88.56
509.67	82.56
509.887	83.56
510.103	79.56
510.319	71.56
510.536	85.56
510.752	76.56
510.968	77.56
511.184	89.56
511.401	85.56
511.617	78.56
511.833	78.56
512.049	88.56
512.265	87.56
512.481	77.56
512.698	86.56
512.914	89.56
513.13	75.56
513.346	78.56
513.562	72.56
513.778	88.56
513.994	71.56
514.21	69.56
514.426	74.56
514.642	67.56
514.858	74.56
515.074	91.56
515.29	108.56
515.506	77.56
515.721	83.56
515.937	72.56
516.153	82.56
516.369	74.56
516.585	82.56
516.801	87.56
517.016	71.56
517.232	73.56
517.448	89.56
517.664	92.56
517.879	83.56
518.095	91.56
518.311	87.56
518.527	68.56
518.742	79.56
518.958	90.56
519.173	71.56
519.389	84.56
519.605	85.56
519.82	94.56
520.036	90.56
520.251	71.56
