Data from BG_HRD10591_036.txt Node
Date: Fri May 16 15:33:25 EDT 2025
User: Yrep
Spectrometer: HR+D1059
Trigger mode: 1
Integration Time (sec): 1.000000E-1
Scans to average: 1
Electric dark correction enabled: true
Nonlinearity correction enabled: false
Boxcar width: 0
XAxis mode: Wavelengths
Number of Pixels in Spectrum: 2048
>>>>>Begin Spectral Data<<<<<
223.165	-20.81
223.4	-20.81
223.635	-20.81
223.869	-11.81
224.104	-29.81
224.338	-18.81
224.573	-8.81
224.808	-11.81
225.042	-7.81
225.277	1.19
225.511	-1.81
225.746	6.19
225.98	5.19
226.215	9.19
226.449	23.19
226.683	19.19
226.918	7.19
227.152	40.19
227.387	40.19
227.621	44.19
227.856	54.19
228.09	54.19
228.324	51.19
228.559	57.19
228.793	60.19
229.027	68.19
229.262	72.19
229.496	79.19
229.73	73.19
229.964	79.19
230.199	81.19
230.433	84.19
230.667	74.19
230.901	89.19
231.136	79.19
231.37	75.19
231.604	77.19
231.838	76.19
232.072	85.19
232.306	87.19
232.541	78.19
232.775	70.19
233.009	79.19
233.243	76.19
233.477	82.19
233.711	82.19
233.945	85.19
234.179	92.19
234.413	82.19
234.647	94.19
234.881	88.19
235.115	87.19
235.349	83.19
235.583	94.19
235.817	86.19
236.051	73.19
236.285	85.19
236.519	85.19
236.753	75.19
236.987	79.19
237.221	84.19
237.455	69.19
237.689	75.19
237.922	84.19
238.156	81.19
238.39	59.19
238.624	67.19
238.858	80.19
239.091	73.19
239.325	73.19
239.559	76.19
239.793	67.19
240.027	68.19
240.26	75.19
240.494	74.19
240.728	77.19
240.961	79.19
241.195	64.19
241.429	79.19
241.662	79.19
241.896	78.19
242.13	68.19
242.363	104.19
242.597	89.19
242.83	82.19
243.064	75.19
243.298	68.19
243.531	80.19
243.765	77.19
243.998	60.19
244.232	77.19
244.465	76.19
244.699	85.19
244.932	78.19
245.166	69.19
245.399	73.19
245.633	78.19
245.866	86.19
246.099	81.19
246.333	77.19
246.566	76.19
246.8	72.19
247.033	74.19
247.266	73.19
247.5	78.19
247.733	75.19
247.966	76.19
248.2	80.19
248.433	77.19
248.666	70.19
248.899	80.19
249.133	76.19
249.366	81.19
249.599	71.19
249.832	62.19
250.066	85.19
250.299	76.19
250.532	87.19
250.765	83.19
250.998	68.19
251.231	82.19
251.465	77.19
251.698	88.19
251.931	96.19
252.164	79.19
252.397	90.19
252.63	71.19
252.863	88.19
253.096	74.19
253.329	80.19
253.562	75.19
253.795	73.19
254.028	85.19
254.261	92.19
254.494	79.19
254.727	80.19
254.96	68.19
255.193	94.19
255.426	84.19
255.659	72.19
255.892	79.19
256.124	86.19
256.357	81.19
256.59	83.19
256.823	93.19
257.056	62.19
257.289	77.19
257.521	93.19
257.754	93.19
257.987	80.19
258.22	91.19
258.452	76.19
258.685	82.19
258.918	80.19
259.151	74.19
259.383	83.19
259.616	86.19
259.849	86.19
260.081	84.19
260.314	83.19
260.547	71.19
260.779	64.19
261.012	93.19
261.244	68.19
261.477	90.19
261.71	88.19
261.942	74.19
262.175	87.19
262.407	73.19
262.64	69.19
262.872	72.19
263.105	81.19
263.337	84.19
263.57	76.19
263.802	101.19
264.035	74.19
264.267	92.19
264.499	90.19
264.732	75.19
264.964	83.19
265.197	78.19
265.429	89.19
265.661	89.19
265.894	90.19
266.126	81.19
266.358	65.19
266.591	80.19
266.823	78.19
267.055	85.19
267.287	75.19
267.52	82.19
267.752	86.19
267.984	89.19
268.216	83.19
268.448	85.19
268.681	81.19
268.913	89.19
269.145	80.19
269.377	86.19
269.609	85.19
269.841	94.19
270.073	76.19
270.306	82.19
270.538	80.19
270.77	82.19
271.002	77.19
271.234	74.19
271.466	95.19
271.698	105.19
271.93	78.19
272.162	84.19
272.394	58.19
272.626	86.19
272.858	79.19
273.09	82.19
273.322	80.19
273.553	113.19
273.785	90.19
274.017	90.19
274.249	79.19
274.481	95.19
274.713	64.19
274.945	75.19
275.176	83.19
275.408	88.19
275.64	80.19
275.872	82.19
276.104	82.19
276.335	98.19
276.567	82.19
276.799	83.19
277.031	95.19
277.262	87.19
277.494	101.19
277.726	73.19
277.957	94.19
278.189	91.19
278.421	95.19
278.652	91.19
278.884	86.19
279.115	81.19
279.347	77.19
279.579	90.19
279.81	94.19
280.042	94.19
280.273	84.19
280.505	87.19
280.736	81.19
280.968	76.19
281.199	90.19
281.431	84.19
281.662	83.19
281.894	97.19
282.125	95.19
282.356	91.19
282.588	80.19
282.819	74.19
283.051	82.19
283.282	90.19
283.513	96.19
283.745	83.19
283.976	81.19
284.207	103.19
284.439	83.19
284.67	77.19
284.901	76.19
285.132	91.19
285.364	95.19
285.595	74.19
285.826	88.19
286.057	80.19
286.288	87.19
286.52	88.19
286.751	88.19
286.982	81.19
287.213	87.19
287.444	77.19
287.675	82.19
287.906	76.19
288.138	94.19
288.369	99.19
288.6	87.19
288.831	88.19
289.062	101.19
289.293	82.19
289.524	81.19
289.755	88.19
289.986	79.19
290.217	85.19
290.448	95.19
290.679	77.19
290.91	92.19
291.141	72.19
291.371	82.19
291.602	78.19
291.833	105.19
292.064	95.19
292.295	93.19
292.526	86.19
292.757	82.19
292.987	91.19
293.218	79.19
293.449	84.19
293.68	94.19
293.91	70.19
294.141	88.19
294.372	82.19
294.603	84.19
294.833	90.19
295.064	77.19
295.295	67.19
295.525	69.19
295.756	71.19
295.987	69.19
296.217	80.19
296.448	92.19
296.679	92.19
296.909	89.19
297.14	86.19
297.37	85.19
297.601	72.19
297.831	92.19
298.062	91.19
298.292	98.19
298.523	99.19
298.753	90.19
298.984	81.19
299.214	90.19
299.445	90.19
299.675	80.19
299.905	74.19
300.136	89.19
300.366	91.19
300.597	90.19
300.827	77.19
301.057	83.19
301.288	92.19
301.518	91.19
301.748	89.19
301.979	94.19
302.209	72.19
302.439	90.19
302.669	78.19
302.9	90.19
303.13	83.19
303.36	83.19
303.59	80.19
303.82	89.19
304.051	92.19
304.281	95.19
304.511	91.19
304.741	86.19
304.971	97.19
305.201	91.19
305.431	88.19
305.661	91.19
305.891	89.19
306.121	84.19
306.352	83.19
306.582	91.19
306.812	76.19
307.042	86.19
307.272	72.19
307.502	79.19
307.731	89.19
307.961	82.19
308.191	79.19
308.421	82.19
308.651	83.19
308.881	91.19
309.111	97.19
309.341	80.19
309.571	70.19
309.8	96.19
310.03	87.19
310.26	85.19
310.49	85.19
310.72	82.19
310.949	90.19
311.179	74.19
311.409	95.19
311.639	86.19
311.868	82.19
312.098	83.19
312.328	90.19
312.557	100.19
312.787	92.19
313.017	91.19
313.246	90.19
313.476	75.19
313.706	109.19
313.935	98.19
314.165	102.19
314.394	82.19
314.624	95.19
314.853	79.19
315.083	88.19
315.312	89.19
315.542	90.19
315.771	74.19
316.001	94.19
316.23	80.19
316.46	87.19
316.689	100.19
316.919	85.19
317.148	90.19
317.377	81.19
317.607	102.19
317.836	65.19
318.065	82.19
318.295	104.19
318.524	81.19
318.753	85.19
318.983	97.19
319.212	77.19
319.441	87.19
319.67	91.19
319.9	91.19
320.129	81.19
320.358	83.19
320.587	76.19
320.816	81.19
321.046	96.19
321.275	98.19
321.504	96.19
321.733	88.19
321.962	64.19
322.191	96.19
322.42	85.19
322.649	101.19
322.878	86.19
323.108	88.19
323.337	79.19
323.566	85.19
323.795	76.19
324.024	80.19
324.253	96.19
324.482	92.19
324.71	78.19
324.939	80.19
325.168	90.19
325.397	104.19
325.626	81.19
325.855	93.19
326.084	76.19
326.313	102.19
326.542	76.19
326.77	87.19
326.999	88.19
327.228	87.19
327.457	74.19
327.686	82.19
327.914	90.19
328.143	97.19
328.372	93.19
328.6	90.19
328.829	96.19
329.058	80.19
329.287	89.19
329.515	96.19
329.744	79.19
329.972	80.19
330.201	83.19
330.43	93.19
330.658	90.19
330.887	92.19
331.115	89.19
331.344	89.19
331.572	90.19
331.801	78.19
332.03	83.19
332.258	80.19
332.486	78.19
332.715	96.19
332.943	96.19
333.172	97.19
333.4	89.19
333.629	96.19
333.857	90.19
334.085	78.19
334.314	91.19
334.542	94.19
334.771	85.19
334.999	90.19
335.227	89.19
335.455	82.19
335.684	82.19
335.912	88.19
336.14	79.19
336.369	85.19
336.597	84.19
336.825	97.19
337.053	90.19
337.281	90.19
337.51	96.19
337.738	92.19
337.966	86.19
338.194	83.19
338.422	88.19
338.65	87.19
338.878	89.19
339.106	76.19
339.334	108.19
339.562	89.19
339.79	87.19
340.018	81.19
340.246	86.19
340.474	79.19
340.702	83.19
340.93	80.19
341.158	88.19
341.386	90.19
341.614	85.19
341.842	82.19
342.07	83.19
342.298	92.19
342.526	79.19
342.754	80.19
342.981	81.19
343.209	88.19
343.437	89.19
343.665	86.19
343.893	87.19
344.12	96.19
344.348	99.19
344.576	75.19
344.804	91.19
345.031	95.19
345.259	86.19
345.487	86.19
345.714	91.19
345.942	87.19
346.17	96.19
346.397	83.19
346.625	85.19
346.853	81.19
347.08	78.19
347.308	71.19
347.535	89.19
347.763	96.19
347.99	87.19
348.218	81.19
348.445	90.19
348.673	93.19
348.9	86.19
349.128	92.19
349.355	77.19
349.583	76.19
349.81	84.19
350.037	77.19
350.265	100.19
350.492	88.19
350.72	80.19
350.947	88.19
351.174	99.19
351.402	85.19
351.629	89.19
351.856	84.19
352.083	90.19
352.311	82.19
352.538	96.19
352.765	76.19
352.992	94.19
353.22	89.19
353.447	83.19
353.674	87.19
353.901	76.19
354.128	80.19
354.355	74.19
354.583	82.19
354.81	89.19
355.037	87.19
355.264	88.19
355.491	87.19
355.718	89.19
355.945	90.19
356.172	92.19
356.399	90.19
356.626	76.19
356.853	83.19
357.08	94.19
357.307	74.19
357.534	80.19
357.761	98.19
357.988	84.19
358.215	93.19
358.441	90.19
358.668	83.19
358.895	92.19
359.122	90.19
359.349	90.19
359.576	91.19
359.802	92.19
360.029	87.19
360.256	74.19
360.483	72.19
360.709	77.19
360.936	95.19
361.163	86.19
361.39	88.19
361.616	83.19
361.843	66.19
362.07	83.19
362.296	86.19
362.523	102.19
362.749	86.19
362.976	77.19
363.203	85.19
363.429	90.19
363.656	89.19
363.882	97.19
364.109	83.19
364.335	84.19
364.562	72.19
364.788	78.19
365.015	79.19
365.241	86.19
365.468	82.19
365.694	81.19
365.92	79.19
366.147	94.19
366.373	90.19
366.599	82.19
366.826	87.19
367.052	99.19
367.278	89.19
367.505	94.19
367.731	88.19
367.957	83.19
368.184	97.19
368.41	76.19
368.636	80.19
368.862	83.19
369.089	83.19
369.315	87.19
369.541	87.19
369.767	92.19
369.993	83.19
370.219	89.19
370.445	78.19
370.672	85.19
370.898	86.19
371.124	81.19
371.35	87.19
371.576	81.19
371.802	88.19
372.028	96.19
372.254	76.19
372.48	73.19
372.706	85.19
372.932	84.19
373.158	94.19
373.384	86.19
373.61	84.19
373.835	86.19
374.061	74.19
374.287	74.19
374.513	73.19
374.739	77.19
374.965	84.19
375.191	81.19
375.416	74.19
375.642	89.19
375.868	96.19
376.094	78.19
376.319	84.19
376.545	81.19
376.771	96.19
376.997	88.19
377.222	82.19
377.448	93.19
377.674	95.19
377.899	82.19
378.125	82.19
378.35	81.19
378.576	89.19
378.802	89.19
379.027	75.19
379.253	83.19
379.478	90.19
379.704	103.19
379.929	80.19
380.155	82.19
380.38	81.19
380.606	90.19
380.831	88.19
381.057	89.19
381.282	103.19
381.507	87.19
381.733	86.19
381.958	87.19
382.184	90.19
382.409	76.19
382.634	78.19
382.86	90.19
383.085	86.19
383.31	74.19
383.535	95.19
383.761	86.19
383.986	81.19
384.211	97.19
384.436	88.19
384.662	97.19
384.887	85.19
385.112	86.19
385.337	96.19
385.562	76.19
385.787	89.19
386.013	83.19
386.238	81.19
386.463	88.19
386.688	107.19
386.913	79.19
387.138	78.19
387.363	86.19
387.588	91.19
387.813	93.19
388.038	96.19
388.263	88.19
388.488	106.19
388.713	74.19
388.938	81.19
389.163	86.19
389.387	84.19
389.612	90.19
389.837	88.19
390.062	85.19
390.287	77.19
390.512	71.19
390.736	95.19
390.961	78.19
391.186	104.19
391.411	96.19
391.636	86.19
391.86	88.19
392.085	91.19
392.31	88.19
392.534	93.19
392.759	86.19
392.984	90.19
393.208	81.19
393.433	74.19
393.658	93.19
393.882	85.19
394.107	80.19
394.331	101.19
394.556	84.19
394.78	83.19
395.005	93.19
395.229	91.19
395.454	79.19
395.678	77.19
395.903	92.19
396.127	88.19
396.352	75.19
396.576	95.19
396.801	86.19
397.025	86.19
397.249	97.19
397.474	92.19
397.698	75.19
397.922	97.19
398.147	96.19
398.371	103.19
398.595	93.19
398.82	92.19
399.044	87.19
399.268	76.19
399.492	93.19
399.717	75.19
399.941	89.19
400.165	93.19
400.389	74.19
400.613	92.19
400.837	72.19
401.062	85.19
401.286	88.19
401.51	105.19
401.734	98.19
401.958	88.19
402.182	91.19
402.406	97.19
402.63	90.19
402.854	85.19
403.078	83.19
403.302	97.19
403.526	93.19
403.75	100.19
403.974	87.19
404.198	94.19
404.422	86.19
404.645	84.19
404.869	76.19
405.093	81.19
405.317	106.19
405.541	98.19
405.765	92.19
405.988	80.19
406.212	95.19
406.436	82.19
406.66	74.19
406.883	94.19
407.107	75.19
407.331	88.19
407.555	97.19
407.778	106.19
408.002	79.19
408.226	86.19
408.449	80.19
408.673	81.19
408.896	99.19
409.12	91.19
409.344	95.19
409.567	83.19
409.791	83.19
410.014	90.19
410.238	96.19
410.461	80.19
410.685	95.19
410.908	82.19
411.132	90.19
411.355	94.19
411.578	89.19
411.802	94.19
412.025	81.19
412.249	95.19
412.472	89.19
412.695	92.19
412.919	88.19
413.142	81.19
413.365	98.19
413.589	98.19
413.812	84.19
414.035	92.19
414.258	98.19
414.482	87.19
414.705	79.19
414.928	92.19
415.151	75.19
415.374	90.19
415.597	75.19
415.821	88.19
416.044	90.19
416.267	78.19
416.49	81.19
416.713	92.19
416.936	93.19
417.159	87.19
417.382	79.19
417.605	74.19
417.828	103.19
418.051	94.19
418.274	89.19
418.497	69.19
418.72	65.19
418.943	91.19
419.166	82.19
419.389	91.19
419.611	81.19
419.834	91.19
420.057	96.19
420.28	83.19
420.503	77.19
420.726	82.19
420.948	101.19
421.171	91.19
421.394	85.19
421.617	80.19
421.839	76.19
422.062	91.19
422.285	77.19
422.507	75.19
422.73	89.19
422.953	88.19
423.175	78.19
423.398	90.19
423.621	87.19
423.843	93.19
424.066	96.19
424.288	89.19
424.511	93.19
424.733	90.19
424.956	88.19
425.178	97.19
425.401	88.19
425.623	76.19
425.846	82.19
426.068	89.19
426.291	82.19
426.513	84.19
426.735	92.19
426.958	75.19
427.18	92.19
427.402	83.19
427.625	93.19
427.847	91.19
428.069	82.19
428.292	75.19
428.514	74.19
428.736	82.19
428.958	88.19
429.181	90.19
429.403	78.19
429.625	78.19
429.847	108.19
430.069	91.19
430.292	83.19
430.514	80.19
430.736	89.19
430.958	81.19
431.18	89.19
431.402	79.19
431.624	93.19
431.846	94.19
432.068	78.19
432.29	71.19
432.512	83.19
432.734	78.19
432.956	82.19
433.178	87.19
433.4	77.19
433.622	88.19
433.844	88.19
434.066	80.19
434.287	92.19
434.509	97.19
434.731	106.19
434.953	78.19
435.175	95.19
435.397	84.19
435.618	76.19
435.84	87.19
436.062	97.19
436.284	82.19
436.505	76.19
436.727	92.19
436.949	68.19
437.17	78.19
437.392	81.19
437.614	94.19
437.835	74.19
438.057	89.19
438.278	96.19
438.5	82.19
438.721	112.19
438.943	86.19
439.165	82.19
439.386	83.19
439.608	80.19
439.829	95.19
440.05	90.19
440.272	88.19
440.493	88.19
440.715	97.19
440.936	86.19
441.158	93.19
441.379	67.19
441.6	80.19
441.822	85.19
442.043	102.19
442.264	94.19
442.486	82.19
442.707	82.19
442.928	87.19
443.149	86.19
443.371	84.19
443.592	81.19
443.813	87.19
444.034	92.19
444.255	86.19
444.476	84.19
444.698	88.19
444.919	89.19
445.14	151.19
445.361	111.19
445.582	69.19
445.803	93.19
446.024	92.19
446.245	95.19
446.466	86.19
446.687	78.19
446.908	63.19
447.129	92.19
447.35	95.19
447.571	93.19
447.792	78.19
448.013	68.19
448.234	89.19
448.455	99.19
448.675	82.19
448.896	86.19
449.117	86.19
449.338	73.19
449.559	83.19
449.779	81.19
450	83.19
450.221	92.19
450.442	85.19
450.662	100.19
450.883	85.19
451.104	99.19
451.324	84.19
451.545	95.19
451.766	104.19
451.986	99.19
452.207	89.19
452.428	93.19
452.648	87.19
452.869	89.19
453.089	97.19
453.31	75.19
453.53	82.19
453.751	83.19
453.971	89.19
454.192	90.19
454.412	83.19
454.633	86.19
454.853	74.19
455.073	88.19
455.294	90.19
455.514	86.19
455.734	80.19
455.955	86.19
456.175	86.19
456.395	94.19
456.616	84.19
456.836	89.19
457.056	88.19
457.276	77.19
457.497	84.19
457.717	64.19
457.937	97.19
458.157	79.19
458.377	90.19
458.598	90.19
458.818	82.19
459.038	91.19
459.258	78.19
459.478	77.19
459.698	77.19
459.918	87.19
460.138	73.19
460.358	87.19
460.578	96.19
460.798	91.19
461.018	87.19
461.238	92.19
461.458	93.19
461.678	86.19
461.898	88.19
462.118	94.19
462.338	79.19
462.558	91.19
462.777	89.19
462.997	85.19
463.217	81.19
463.437	92.19
463.657	95.19
463.876	81.19
464.096	94.19
464.316	99.19
464.536	82.19
464.755	99.19
464.975	86.19
465.195	99.19
465.414	92.19
465.634	84.19
465.854	83.19
466.073	67.19
466.293	94.19
466.512	96.19
466.732	84.19
466.951	76.19
467.171	77.19
467.391	86.19
467.61	100.19
467.829	78.19
468.049	74.19
468.268	79.19
468.488	80.19
468.707	112.19
468.927	87.19
469.146	87.19
469.365	83.19
469.585	72.19
469.804	90.19
470.023	98.19
470.243	94.19
470.462	91.19
470.681	78.19
470.901	84.19
471.12	91.19
471.339	87.19
471.558	72.19
471.777	89.19
471.997	75.19
472.216	88.19
472.435	83.19
472.654	66.19
472.873	94.19
473.092	79.19
473.311	84.19
473.53	86.19
473.749	87.19
473.968	94.19
474.187	88.19
474.406	91.19
474.625	81.19
474.844	89.19
475.063	97.19
475.282	106.19
475.501	94.19
475.72	99.19
475.939	56.19
476.158	79.19
476.377	89.19
476.596	86.19
476.814	86.19
477.033	90.19
477.252	81.19
477.471	78.19
477.69	80.19
477.908	94.19
478.127	81.19
478.346	88.19
478.564	90.19
478.783	93.19
479.002	95.19
479.22	96.19
479.439	89.19
479.658	85.19
479.876	76.19
480.095	88.19
480.313	96.19
480.532	88.19
480.751	94.19
480.969	84.19
481.188	84.19
481.406	79.19
481.624	92.19
481.843	83.19
482.061	87.19
482.28	83.19
482.498	85.19
482.717	79.19
482.935	77.19
483.153	80.19
483.372	107.19
483.59	99.19
483.808	79.19
484.027	76.19
484.245	82.19
484.463	94.19
484.681	79.19
484.9	99.19
485.118	82.19
485.336	69.19
485.554	77.19
485.772	98.19
485.99	73.19
486.209	96.19
486.427	75.19
486.645	86.19
486.863	84.19
487.081	81.19
487.299	81.19
487.517	91.19
487.735	78.19
487.953	91.19
488.171	75.19
488.389	81.19
488.607	95.19
488.825	88.19
489.043	86.19
489.261	84.19
489.479	104.19
489.696	80.19
489.914	88.19
490.132	76.19
490.35	88.19
490.568	94.19
490.786	81.19
491.003	76.19
491.221	104.19
491.439	86.19
491.657	87.19
491.874	99.19
492.092	90.19
492.31	99.19
492.527	83.19
492.745	86.19
492.963	95.19
493.18	83.19
493.398	95.19
493.615	91.19
493.833	85.19
494.05	95.19
494.268	73.19
494.485	89.19
494.703	86.19
494.92	91.19
495.138	76.19
495.355	96.19
495.573	85.19
495.79	97.19
496.008	82.19
496.225	97.19
496.442	105.19
496.66	99.19
496.877	82.19
497.094	94.19
497.312	88.19
497.529	97.19
497.746	90.19
497.963	88.19
498.181	92.19
498.398	89.19
498.615	119.19
498.832	104.19
499.049	92.19
499.267	97.19
499.484	98.19
499.701	107.19
499.918	91.19
500.135	95.19
500.352	117.19
500.569	111.19
500.786	106.19
501.003	104.19
501.22	88.19
501.437	103.19
501.654	108.19
501.871	95.19
502.088	106.19
502.305	102.19
502.522	85.19
502.739	86.19
502.956	93.19
503.172	92.19
503.389	83.19
503.606	84.19
503.823	88.19
504.04	94.19
504.256	83.19
504.473	77.19
504.69	87.19
504.907	98.19
505.123	88.19
505.34	95.19
505.557	105.19
505.773	104.19
505.99	105.19
506.207	81.19
506.423	83.19
506.64	92.19
506.856	85.19
507.073	104.19
507.289	95.19
507.506	97.19
507.722	86.19
507.939	86.19
508.155	78.19
508.372	92.19
508.588	97.19
508.805	84.19
509.021	100.19
509.238	91.19
509.454	83.19
509.67	88.19
509.887	74.19
510.103	82.19
510.319	91.19
510.536	86.19
510.752	90.19
510.968	78.19
511.184	84.19
511.401	92.19
511.617	93.19
511.833	91.19
512.049	85.19
512.265	88.19
512.481	91.19
512.698	73.19
512.914	91.19
513.13	76.19
513.346	94.19
513.562	78.19
513.778	87.19
513.994	86.19
514.21	95.19
514.426	87.19
514.642	88.19
514.858	88.19
515.074	91.19
515.29	94.19
515.506	103.19
515.721	101.19
515.937	81.19
516.153	80.19
516.369	81.19
516.585	78.19
516.801	99.19
517.016	79.19
517.232	88.19
517.448	97.19
517.664	93.19
517.879	96.19
518.095	80.19
518.311	88.19
518.527	95.19
518.742	111.19
518.958	90.19
519.173	82.19
519.389	80.19
