Data from BG_HRD10591_065.txt Node
Date: Fri May 16 15:33:39 EDT 2025
User: Yrep
Spectrometer: HR+D1059
Trigger mode: 1
Integration Time (sec): 1.000000E-1
Scans to average: 1
Electric dark correction enabled: true
Nonlinearity correction enabled: false
Boxcar width: 0
XAxis mode: Wavelengths
Number of Pixels in Spectrum: 2048
>>>>>Begin Spectral Data<<<<<
223.165	-17.62
223.4	-17.62
223.635	-17.62
223.869	-14.62
224.104	-15.62
224.338	-22.62
224.573	-11.62
224.808	-6.62
225.042	-19.62
225.277	-0.62
225.511	-3.62
225.746	2.38
225.98	-1.62
226.215	23.38
226.449	15.38
226.683	10.38
226.918	21.38
227.152	41.38
227.387	45.38
227.621	35.38
227.856	50.38
228.09	31.38
228.324	43.38
228.559	55.38
228.793	55.38
229.027	58.38
229.262	62.38
229.496	64.38
229.73	71.38
229.964	74.38
230.199	80.38
230.433	68.38
230.667	81.38
230.901	65.38
231.136	63.38
231.37	65.38
231.604	72.38
231.838	83.38
232.072	77.38
232.306	78.38
232.541	67.38
232.775	87.38
233.009	62.38
233.243	77.38
233.477	71.38
233.711	84.38
233.945	83.38
234.179	66.38
234.413	93.38
234.647	66.38
234.881	88.38
235.115	71.38
235.349	74.38
235.583	54.38
235.817	68.38
236.051	63.38
236.285	83.38
236.519	82.38
236.753	75.38
236.987	72.38
237.221	78.38
237.455	84.38
237.689	81.38
237.922	92.38
238.156	69.38
238.39	69.38
238.624	79.38
238.858	76.38
239.091	66.38
239.325	64.38
239.559	68.38
239.793	86.38
240.027	63.38
240.26	74.38
240.494	59.38
240.728	70.38
240.961	67.38
241.195	79.38
241.429	69.38
241.662	67.38
241.896	74.38
242.13	69.38
242.363	74.38
242.597	73.38
242.83	73.38
243.064	82.38
243.298	67.38
243.531	74.38
243.765	73.38
243.998	100.38
244.232	80.38
244.465	83.38
244.699	66.38
244.932	67.38
245.166	83.38
245.399	83.38
245.633	75.38
245.866	86.38
246.099	72.38
246.333	77.38
246.566	72.38
246.8	95.38
247.033	77.38
247.266	74.38
247.5	77.38
247.733	88.38
247.966	79.38
248.2	74.38
248.433	79.38
248.666	65.38
248.899	67.38
249.133	72.38
249.366	93.38
249.599	80.38
249.832	90.38
250.066	72.38
250.299	77.38
250.532	77.38
250.765	60.38
250.998	72.38
251.231	81.38
251.465	75.38
251.698	92.38
251.931	80.38
252.164	78.38
252.397	71.38
252.63	67.38
252.863	69.38
253.096	79.38
253.329	82.38
253.562	66.38
253.795	76.38
254.028	85.38
254.261	87.38
254.494	89.38
254.727	75.38
254.96	64.38
255.193	91.38
255.426	57.38
255.659	80.38
255.892	86.38
256.124	77.38
256.357	87.38
256.59	91.38
256.823	81.38
257.056	70.38
257.289	76.38
257.521	87.38
257.754	79.38
257.987	80.38
258.22	76.38
258.452	87.38
258.685	84.38
258.918	73.38
259.151	82.38
259.383	73.38
259.616	88.38
259.849	75.38
260.081	79.38
260.314	88.38
260.547	79.38
260.779	63.38
261.012	74.38
261.244	79.38
261.477	77.38
261.71	67.38
261.942	84.38
262.175	85.38
262.407	78.38
262.64	69.38
262.872	69.38
263.105	79.38
263.337	87.38
263.57	67.38
263.802	70.38
264.035	89.38
264.267	92.38
264.499	86.38
264.732	74.38
264.964	82.38
265.197	61.38
265.429	74.38
265.661	70.38
265.894	94.38
266.126	74.38
266.358	77.38
266.591	77.38
266.823	78.38
267.055	65.38
267.287	72.38
267.52	83.38
267.752	73.38
267.984	65.38
268.216	87.38
268.448	90.38
268.681	64.38
268.913	92.38
269.145	74.38
269.377	88.38
269.609	82.38
269.841	79.38
270.073	80.38
270.306	82.38
270.538	76.38
270.77	96.38
271.002	76.38
271.234	88.38
271.466	84.38
271.698	87.38
271.93	65.38
272.162	84.38
272.394	87.38
272.626	81.38
272.858	90.38
273.09	89.38
273.322	75.38
273.553	73.38
273.785	84.38
274.017	72.38
274.249	79.38
274.481	75.38
274.713	84.38
274.945	81.38
275.176	88.38
275.408	76.38
275.64	92.38
275.872	80.38
276.104	86.38
276.335	73.38
276.567	68.38
276.799	80.38
277.031	77.38
277.262	72.38
277.494	90.38
277.726	86.38
277.957	78.38
278.189	77.38
278.421	84.38
278.652	80.38
278.884	87.38
279.115	87.38
279.347	74.38
279.579	89.38
279.81	81.38
280.042	84.38
280.273	92.38
280.505	89.38
280.736	87.38
280.968	90.38
281.199	72.38
281.431	95.38
281.662	87.38
281.894	65.38
282.125	74.38
282.356	71.38
282.588	90.38
282.819	77.38
283.051	85.38
283.282	84.38
283.513	81.38
283.745	65.38
283.976	86.38
284.207	88.38
284.439	78.38
284.67	82.38
284.901	88.38
285.132	99.38
285.364	71.38
285.595	84.38
285.826	75.38
286.057	76.38
286.288	75.38
286.52	94.38
286.751	79.38
286.982	88.38
287.213	67.38
287.444	90.38
287.675	93.38
287.906	89.38
288.138	79.38
288.369	92.38
288.6	88.38
288.831	89.38
289.062	83.38
289.293	78.38
289.524	72.38
289.755	86.38
289.986	94.38
290.217	78.38
290.448	79.38
290.679	83.38
290.91	88.38
291.141	78.38
291.371	76.38
291.602	80.38
291.833	84.38
292.064	89.38
292.295	92.38
292.526	57.38
292.757	84.38
292.987	80.38
293.218	80.38
293.449	73.38
293.68	62.38
293.91	81.38
294.141	73.38
294.372	90.38
294.603	83.38
294.833	82.38
295.064	99.38
295.295	93.38
295.525	76.38
295.756	76.38
295.987	75.38
296.217	77.38
296.448	88.38
296.679	90.38
296.909	86.38
297.14	81.38
297.37	85.38
297.601	87.38
297.831	82.38
298.062	97.38
298.292	76.38
298.523	81.38
298.753	75.38
298.984	89.38
299.214	84.38
299.445	89.38
299.675	77.38
299.905	81.38
300.136	92.38
300.366	87.38
300.597	106.38
300.827	90.38
301.057	86.38
301.288	79.38
301.518	91.38
301.748	75.38
301.979	96.38
302.209	86.38
302.439	85.38
302.669	81.38
302.9	82.38
303.13	78.38
303.36	82.38
303.59	85.38
303.82	75.38
304.051	79.38
304.281	84.38
304.511	82.38
304.741	80.38
304.971	72.38
305.201	84.38
305.431	77.38
305.661	82.38
305.891	80.38
306.121	91.38
306.352	87.38
306.582	90.38
306.812	77.38
307.042	97.38
307.272	64.38
307.502	90.38
307.731	88.38
307.961	96.38
308.191	78.38
308.421	80.38
308.651	78.38
308.881	78.38
309.111	78.38
309.341	97.38
309.571	80.38
309.8	82.38
310.03	78.38
310.26	87.38
310.49	94.38
310.72	93.38
310.949	64.38
311.179	79.38
311.409	92.38
311.639	76.38
311.868	87.38
312.098	86.38
312.328	83.38
312.557	71.38
312.787	85.38
313.017	91.38
313.246	82.38
313.476	86.38
313.706	93.38
313.935	78.38
314.165	88.38
314.394	85.38
314.624	98.38
314.853	101.38
315.083	67.38
315.312	82.38
315.542	68.38
315.771	81.38
316.001	82.38
316.23	78.38
316.46	78.38
316.689	80.38
316.919	73.38
317.148	76.38
317.377	94.38
317.607	75.38
317.836	95.38
318.065	88.38
318.295	89.38
318.524	72.38
318.753	94.38
318.983	78.38
319.212	90.38
319.441	91.38
319.67	85.38
319.9	87.38
320.129	94.38
320.358	72.38
320.587	81.38
320.816	80.38
321.046	90.38
321.275	74.38
321.504	91.38
321.733	84.38
321.962	100.38
322.191	87.38
322.42	81.38
322.649	71.38
322.878	84.38
323.108	84.38
323.337	78.38
323.566	81.38
323.795	81.38
324.024	81.38
324.253	98.38
324.482	82.38
324.71	86.38
324.939	75.38
325.168	65.38
325.397	79.38
325.626	80.38
325.855	90.38
326.084	81.38
326.313	79.38
326.542	80.38
326.77	93.38
326.999	82.38
327.228	96.38
327.457	79.38
327.686	82.38
327.914	86.38
328.143	97.38
328.372	84.38
328.6	78.38
328.829	83.38
329.058	82.38
329.287	77.38
329.515	80.38
329.744	72.38
329.972	89.38
330.201	65.38
330.43	76.38
330.658	86.38
330.887	85.38
331.115	90.38
331.344	78.38
331.572	78.38
331.801	73.38
332.03	80.38
332.258	69.38
332.486	83.38
332.715	88.38
332.943	77.38
333.172	82.38
333.4	90.38
333.629	79.38
333.857	91.38
334.085	65.38
334.314	93.38
334.542	82.38
334.771	83.38
334.999	86.38
335.227	93.38
335.455	80.38
335.684	89.38
335.912	70.38
336.14	64.38
336.369	80.38
336.597	83.38
336.825	83.38
337.053	69.38
337.281	86.38
337.51	87.38
337.738	82.38
337.966	104.38
338.194	86.38
338.422	98.38
338.65	91.38
338.878	91.38
339.106	97.38
339.334	79.38
339.562	88.38
339.79	77.38
340.018	72.38
340.246	76.38
340.474	88.38
340.702	84.38
340.93	90.38
341.158	92.38
341.386	80.38
341.614	81.38
341.842	79.38
342.07	83.38
342.298	84.38
342.526	79.38
342.754	95.38
342.981	90.38
343.209	76.38
343.437	103.38
343.665	86.38
343.893	86.38
344.12	84.38
344.348	88.38
344.576	98.38
344.804	91.38
345.031	99.38
345.259	97.38
345.487	79.38
345.714	79.38
345.942	76.38
346.17	93.38
346.397	84.38
346.625	78.38
346.853	91.38
347.08	77.38
347.308	88.38
347.535	80.38
347.763	80.38
347.99	84.38
348.218	69.38
348.445	74.38
348.673	92.38
348.9	80.38
349.128	74.38
349.355	87.38
349.583	84.38
349.81	67.38
350.037	81.38
350.265	73.38
350.492	82.38
350.72	82.38
350.947	79.38
351.174	85.38
351.402	92.38
351.629	84.38
351.856	80.38
352.083	88.38
352.311	85.38
352.538	97.38
352.765	82.38
352.992	97.38
353.22	87.38
353.447	83.38
353.674	78.38
353.901	86.38
354.128	80.38
354.355	76.38
354.583	80.38
354.81	86.38
355.037	74.38
355.264	81.38
355.491	73.38
355.718	87.38
355.945	74.38
356.172	102.38
356.399	91.38
356.626	77.38
356.853	90.38
357.08	70.38
357.307	91.38
357.534	82.38
357.761	64.38
357.988	83.38
358.215	81.38
358.441	72.38
358.668	91.38
358.895	85.38
359.122	88.38
359.349	82.38
359.576	68.38
359.802	75.38
360.029	76.38
360.256	83.38
360.483	85.38
360.709	87.38
360.936	90.38
361.163	89.38
361.39	88.38
361.616	80.38
361.843	77.38
362.07	84.38
362.296	86.38
362.523	89.38
362.749	88.38
362.976	84.38
363.203	85.38
363.429	86.38
363.656	82.38
363.882	72.38
364.109	73.38
364.335	92.38
364.562	73.38
364.788	62.38
365.015	87.38
365.241	80.38
365.468	89.38
365.694	84.38
365.92	80.38
366.147	88.38
366.373	81.38
366.599	77.38
366.826	76.38
367.052	76.38
367.278	83.38
367.505	76.38
367.731	90.38
367.957	87.38
368.184	86.38
368.41	88.38
368.636	82.38
368.862	70.38
369.089	92.38
369.315	75.38
369.541	76.38
369.767	80.38
369.993	67.38
370.219	82.38
370.445	72.38
370.672	74.38
370.898	89.38
371.124	76.38
371.35	69.38
371.576	88.38
371.802	93.38
372.028	81.38
372.254	82.38
372.48	97.38
372.706	74.38
372.932	81.38
373.158	76.38
373.384	77.38
373.61	82.38
373.835	98.38
374.061	83.38
374.287	75.38
374.513	88.38
374.739	82.38
374.965	82.38
375.191	88.38
375.416	79.38
375.642	82.38
375.868	86.38
376.094	88.38
376.319	78.38
376.545	95.38
376.771	74.38
376.997	78.38
377.222	87.38
377.448	87.38
377.674	89.38
377.899	65.38
378.125	90.38
378.35	92.38
378.576	89.38
378.802	77.38
379.027	86.38
379.253	82.38
379.478	73.38
379.704	95.38
379.929	77.38
380.155	72.38
380.38	81.38
380.606	81.38
380.831	80.38
381.057	81.38
381.282	87.38
381.507	86.38
381.733	77.38
381.958	79.38
382.184	65.38
382.409	69.38
382.634	60.38
382.86	84.38
383.085	97.38
383.31	80.38
383.535	80.38
383.761	81.38
383.986	79.38
384.211	78.38
384.436	94.38
384.662	81.38
384.887	81.38
385.112	74.38
385.337	86.38
385.562	72.38
385.787	83.38
386.013	79.38
386.238	83.38
386.463	83.38
386.688	90.38
386.913	83.38
387.138	86.38
387.363	76.38
387.588	73.38
387.813	72.38
388.038	83.38
388.263	97.38
388.488	86.38
388.713	96.38
388.938	87.38
389.163	91.38
389.387	75.38
389.612	98.38
389.837	86.38
390.062	76.38
390.287	71.38
390.512	85.38
390.736	88.38
390.961	82.38
391.186	76.38
391.411	91.38
391.636	78.38
391.86	78.38
392.085	74.38
392.31	68.38
392.534	86.38
392.759	74.38
392.984	86.38
393.208	81.38
393.433	93.38
393.658	73.38
393.882	86.38
394.107	86.38
394.331	91.38
394.556	109.38
394.78	83.38
395.005	78.38
395.229	78.38
395.454	83.38
395.678	69.38
395.903	74.38
396.127	88.38
396.352	67.38
396.576	89.38
396.801	78.38
397.025	68.38
397.249	95.38
397.474	94.38
397.698	76.38
397.922	70.38
398.147	83.38
398.371	80.38
398.595	81.38
398.82	91.38
399.044	86.38
399.268	96.38
399.492	82.38
399.717	86.38
399.941	75.38
400.165	71.38
400.389	75.38
400.613	84.38
400.837	78.38
401.062	87.38
401.286	74.38
401.51	90.38
401.734	91.38
401.958	82.38
402.182	69.38
402.406	86.38
402.63	73.38
402.854	87.38
403.078	80.38
403.302	76.38
403.526	90.38
403.75	91.38
403.974	79.38
404.198	80.38
404.422	86.38
404.645	85.38
404.869	81.38
405.093	73.38
405.317	72.38
405.541	76.38
405.765	89.38
405.988	86.38
406.212	88.38
406.436	83.38
406.66	91.38
406.883	80.38
407.107	72.38
407.331	92.38
407.555	80.38
407.778	82.38
408.002	72.38
408.226	78.38
408.449	74.38
408.673	80.38
408.896	86.38
409.12	90.38
409.344	74.38
409.567	73.38
409.791	98.38
410.014	68.38
410.238	91.38
410.461	79.38
410.685	77.38
410.908	82.38
411.132	84.38
411.355	91.38
411.578	82.38
411.802	80.38
412.025	75.38
412.249	88.38
412.472	70.38
412.695	89.38
412.919	92.38
413.142	89.38
413.365	84.38
413.589	73.38
413.812	81.38
414.035	79.38
414.258	84.38
414.482	74.38
414.705	83.38
414.928	91.38
415.151	91.38
415.374	74.38
415.597	65.38
415.821	86.38
416.044	68.38
416.267	77.38
416.49	63.38
416.713	64.38
416.936	82.38
417.159	83.38
417.382	74.38
417.605	84.38
417.828	80.38
418.051	84.38
418.274	85.38
418.497	76.38
418.72	81.38
418.943	72.38
419.166	86.38
419.389	86.38
419.611	80.38
419.834	80.38
420.057	72.38
420.28	74.38
420.503	82.38
420.726	78.38
420.948	79.38
421.171	78.38
421.394	84.38
421.617	78.38
421.839	85.38
422.062	72.38
422.285	76.38
422.507	84.38
422.73	89.38
422.953	81.38
423.175	83.38
423.398	79.38
423.621	90.38
423.843	83.38
424.066	72.38
424.288	75.38
424.511	77.38
424.733	63.38
424.956	78.38
425.178	91.38
425.401	86.38
425.623	80.38
425.846	76.38
426.068	86.38
426.291	67.38
426.513	75.38
426.735	86.38
426.958	59.38
427.18	71.38
427.402	79.38
427.625	78.38
427.847	76.38
428.069	76.38
428.292	74.38
428.514	65.38
428.736	75.38
428.958	76.38
429.181	61.38
429.403	79.38
429.625	70.38
429.847	83.38
430.069	86.38
430.292	78.38
430.514	79.38
430.736	80.38
430.958	71.38
431.18	86.38
431.402	90.38
431.624	83.38
431.846	82.38
432.068	71.38
432.29	88.38
432.512	83.38
432.734	83.38
432.956	88.38
433.178	90.38
433.4	75.38
433.622	71.38
433.844	73.38
434.066	77.38
434.287	75.38
434.509	78.38
434.731	80.38
434.953	82.38
435.175	86.38
435.397	85.38
435.618	85.38
435.84	81.38
436.062	76.38
436.284	79.38
436.505	76.38
436.727	78.38
436.949	81.38
437.17	68.38
437.392	74.38
437.614	78.38
437.835	76.38
438.057	92.38
438.278	78.38
438.5	78.38
438.721	77.38
438.943	75.38
439.165	76.38
439.386	77.38
439.608	78.38
439.829	76.38
440.05	78.38
440.272	82.38
440.493	72.38
440.715	86.38
440.936	65.38
441.158	78.38
441.379	80.38
441.6	92.38
441.822	65.38
442.043	70.38
442.264	85.38
442.486	82.38
442.707	84.38
442.928	75.38
443.149	89.38
443.371	88.38
443.592	79.38
443.813	78.38
444.034	73.38
444.255	88.38
444.476	82.38
444.698	66.38
444.919	88.38
445.14	153.38
445.361	124.38
445.582	82.38
445.803	87.38
446.024	86.38
446.245	89.38
446.466	78.38
446.687	75.38
446.908	87.38
447.129	63.38
447.35	68.38
447.571	80.38
447.792	80.38
448.013	80.38
448.234	82.38
448.455	68.38
448.675	90.38
448.896	73.38
449.117	83.38
449.338	82.38
449.559	77.38
449.779	82.38
450	67.38
450.221	88.38
450.442	74.38
450.662	86.38
450.883	79.38
451.104	89.38
451.324	65.38
451.545	82.38
451.766	75.38
451.986	85.38
452.207	77.38
452.428	81.38
452.648	89.38
452.869	84.38
453.089	85.38
453.31	74.38
453.53	82.38
453.751	76.38
453.971	86.38
454.192	94.38
454.412	74.38
454.633	68.38
454.853	74.38
455.073	86.38
455.294	84.38
455.514	77.38
455.734	79.38
455.955	78.38
456.175	64.38
456.395	77.38
456.616	91.38
456.836	86.38
457.056	74.38
457.276	76.38
457.497	79.38
457.717	77.38
457.937	71.38
458.157	78.38
458.377	76.38
458.598	78.38
458.818	79.38
459.038	66.38
459.258	84.38
459.478	92.38
459.698	81.38
459.918	71.38
460.138	72.38
460.358	84.38
460.578	74.38
460.798	78.38
461.018	80.38
461.238	79.38
461.458	77.38
461.678	79.38
461.898	78.38
462.118	75.38
462.338	82.38
462.558	94.38
462.777	83.38
462.997	80.38
463.217	83.38
463.437	71.38
463.657	71.38
463.876	74.38
464.096	74.38
464.316	84.38
464.536	69.38
464.755	96.38
464.975	80.38
465.195	69.38
465.414	82.38
465.634	78.38
465.854	83.38
466.073	65.38
466.293	92.38
466.512	87.38
466.732	67.38
466.951	79.38
467.171	69.38
467.391	69.38
467.61	70.38
467.829	86.38
468.049	74.38
468.268	77.38
468.488	87.38
468.707	83.38
468.927	88.38
469.146	84.38
469.365	72.38
469.585	80.38
469.804	80.38
470.023	73.38
470.243	86.38
470.462	77.38
470.681	74.38
470.901	88.38
471.12	77.38
471.339	74.38
471.558	75.38
471.777	81.38
471.997	77.38
472.216	81.38
472.435	89.38
472.654	78.38
472.873	78.38
473.092	90.38
473.311	71.38
473.53	81.38
473.749	72.38
473.968	89.38
474.187	76.38
474.406	86.38
474.625	86.38
474.844	79.38
475.063	74.38
475.282	66.38
475.501	86.38
475.72	94.38
475.939	78.38
476.158	70.38
476.377	80.38
476.596	75.38
476.814	76.38
477.033	94.38
477.252	58.38
477.471	83.38
477.69	86.38
477.908	89.38
478.127	85.38
478.346	83.38
478.564	64.38
478.783	79.38
479.002	86.38
479.22	62.38
479.439	86.38
479.658	79.38
479.876	79.38
480.095	80.38
480.313	79.38
480.532	78.38
480.751	74.38
480.969	86.38
481.188	72.38
481.406	79.38
481.624	87.38
481.843	90.38
482.061	78.38
482.28	78.38
482.498	76.38
482.717	80.38
482.935	75.38
483.153	69.38
483.372	77.38
483.59	82.38
483.808	73.38
484.027	89.38
484.245	82.38
484.463	74.38
484.681	93.38
484.9	89.38
485.118	82.38
485.336	89.38
485.554	76.38
485.772	78.38
485.99	81.38
486.209	80.38
486.427	85.38
486.645	92.38
486.863	80.38
487.081	80.38
487.299	71.38
487.517	86.38
487.735	79.38
487.953	88.38
488.171	77.38
488.389	83.38
488.607	74.38
488.825	86.38
489.043	70.38
489.261	93.38
489.479	91.38
489.696	75.38
489.914	73.38
490.132	90.38
490.35	83.38
490.568	74.38
490.786	74.38
491.003	87.38
491.221	82.38
491.439	74.38
491.657	87.38
491.874	77.38
492.092	85.38
492.31	80.38
492.527	80.38
492.745	83.38
492.963	74.38
493.18	70.38
493.398	95.38
493.615	82.38
493.833	89.38
494.05	91.38
494.268	77.38
494.485	79.38
494.703	89.38
494.92	90.38
495.138	83.38
495.355	75.38
495.573	87.38
495.79	90.38
496.008	72.38
496.225	81.38
496.442	68.38
496.66	95.38
496.877	72.38
497.094	82.38
497.312	64.38
497.529	88.38
497.746	92.38
497.963	83.38
498.181	82.38
498.398	66.38
498.615	62.38
498.832	69.38
499.049	75.38
499.267	90.38
499.484	77.38
499.701	82.38
499.918	94.38
500.135	72.38
500.352	85.38
500.569	82.38
500.786	86.38
501.003	71.38
501.22	85.38
501.437	85.38
501.654	82.38
501.871	84.38
502.088	82.38
502.305	81.38
502.522	78.38
502.739	99.38
502.956	79.38
503.172	91.38
503.389	82.38
503.606	69.38
503.823	83.38
504.04	85.38
504.256	92.38
504.473	92.38
504.69	68.38
504.907	67.38
505.123	77.38
505.34	70.38
505.557	74.38
505.773	83.38
505.99	90.38
506.207	70.38
506.423	80.38
506.64	90.38
506.856	78.38
507.073	88.38
507.289	87.38
507.506	70.38
507.722	76.38
507.939	73.38
508.155	78.38
508.372	82.38
508.588	81.38
508.805	89.38
509.021	80.38
509.238	83.38
509.454	88.38
509.67	89.38
509.887	82.38
510.103	83.38
510.319	74.38
510.536	77.38
510.752	77.38
510.968	75.38
511.184	77.38
511.401	79.38
511.617	89.38
511.833	68.38
512.049	74.38
512.265	74.38
512.481	92.38
512.698	71.38
512.914	88.38
513.13	81.38
513.346	88.38
513.562	74.38
513.778	74.38
513.994	74.38
514.21	82.38
514.426	85.38
514.642	83.38
514.858	82.38
515.074	97.38
515.29	72.38
515.506	83.38
515.721	83.38
515.937	75.38
516.153	79.38
516.369	81.38
516.585	74.38
516.801	87.38
517.016	76.38
517.232	78.38
517.448	87.38
517.664	78.38
517.879	83.38
518.095	82.38
518.311	72.38
518.527	68.38
518.742	74.38
518.958	78.38
519.173	82.38
519.389	68.38
519.605	74.38
519.82	81.38
520.036	64.38
520.251	70.38
