Data from BG_HRD10591_083.txt Node
Date: Fri May 16 15:33:48 EDT 2025
User: Yrep
Spectrometer: HR+D1059
Trigger mode: 1
Integration Time (sec): 1.000000E-1
Scans to average: 1
Electric dark correction enabled: true
Nonlinearity correction enabled: false
Boxcar width: 0
XAxis mode: Wavelengths
Number of Pixels in Spectrum: 2048
>>>>>Begin Spectral Data<<<<<
223.165	-13.38
223.4	-13.38
223.635	-13.38
223.869	-17.38
224.104	-11.38
224.338	-18.38
224.573	-21.38
224.808	-20.38
225.042	-8.38
225.277	-13.38
225.511	-5.38
225.746	-5.38
225.98	18.62
226.215	14.62
226.449	16.62
226.683	31.62
226.918	14.62
227.152	38.62
227.387	32.62
227.621	28.62
227.856	41.62
228.09	49.62
228.324	45.62
228.559	53.62
228.793	51.62
229.027	57.62
229.262	66.62
229.496	64.62
229.73	56.62
229.964	63.62
230.199	72.62
230.433	66.62
230.667	67.62
230.901	76.62
231.136	74.62
231.37	72.62
231.604	67.62
231.838	69.62
232.072	57.62
232.306	75.62
232.541	61.62
232.775	72.62
233.009	85.62
233.243	63.62
233.477	75.62
233.711	84.62
233.945	79.62
234.179	69.62
234.413	75.62
234.647	80.62
234.881	72.62
235.115	70.62
235.349	84.62
235.583	71.62
235.817	61.62
236.051	83.62
236.285	78.62
236.519	61.62
236.753	71.62
236.987	68.62
237.221	59.62
237.455	70.62
237.689	64.62
237.922	74.62
238.156	66.62
238.39	59.62
238.624	77.62
238.858	70.62
239.091	70.62
239.325	71.62
239.559	85.62
239.793	69.62
240.027	69.62
240.26	79.62
240.494	52.62
240.728	66.62
240.961	62.62
241.195	76.62
241.429	81.62
241.662	78.62
241.896	71.62
242.13	70.62
242.363	70.62
242.597	71.62
242.83	68.62
243.064	64.62
243.298	69.62
243.531	80.62
243.765	83.62
243.998	87.62
244.232	83.62
244.465	76.62
244.699	83.62
244.932	48.62
245.166	73.62
245.399	73.62
245.633	73.62
245.866	76.62
246.099	88.62
246.333	73.62
246.566	79.62
246.8	84.62
247.033	77.62
247.266	68.62
247.5	82.62
247.733	68.62
247.966	77.62
248.2	81.62
248.433	89.62
248.666	61.62
248.899	72.62
249.133	78.62
249.366	91.62
249.599	75.62
249.832	63.62
250.066	74.62
250.299	76.62
250.532	65.62
250.765	88.62
250.998	82.62
251.231	68.62
251.465	80.62
251.698	77.62
251.931	72.62
252.164	62.62
252.397	70.62
252.63	76.62
252.863	63.62
253.096	76.62
253.329	78.62
253.562	68.62
253.795	72.62
254.028	85.62
254.261	80.62
254.494	78.62
254.727	86.62
254.96	75.62
255.193	80.62
255.426	73.62
255.659	71.62
255.892	72.62
256.124	72.62
256.357	86.62
256.59	77.62
256.823	67.62
257.056	65.62
257.289	66.62
257.521	77.62
257.754	72.62
257.987	78.62
258.22	83.62
258.452	73.62
258.685	72.62
258.918	71.62
259.151	76.62
259.383	66.62
259.616	79.62
259.849	64.62
260.081	76.62
260.314	75.62
260.547	80.62
260.779	82.62
261.012	70.62
261.244	81.62
261.477	80.62
261.71	77.62
261.942	65.62
262.175	74.62
262.407	84.62
262.64	64.62
262.872	73.62
263.105	73.62
263.337	83.62
263.57	64.62
263.802	74.62
264.035	68.62
264.267	82.62
264.499	78.62
264.732	88.62
264.964	76.62
265.197	83.62
265.429	79.62
265.661	73.62
265.894	81.62
266.126	77.62
266.358	72.62
266.591	87.62
266.823	74.62
267.055	74.62
267.287	74.62
267.52	83.62
267.752	83.62
267.984	79.62
268.216	72.62
268.448	76.62
268.681	76.62
268.913	63.62
269.145	50.62
269.377	72.62
269.609	78.62
269.841	73.62
270.073	79.62
270.306	82.62
270.538	77.62
270.77	74.62
271.002	83.62
271.234	77.62
271.466	91.62
271.698	73.62
271.93	83.62
272.162	87.62
272.394	82.62
272.626	87.62
272.858	70.62
273.09	63.62
273.322	76.62
273.553	82.62
273.785	85.62
274.017	87.62
274.249	83.62
274.481	78.62
274.713	67.62
274.945	80.62
275.176	83.62
275.408	78.62
275.64	85.62
275.872	81.62
276.104	82.62
276.335	76.62
276.567	80.62
276.799	84.62
277.031	77.62
277.262	72.62
277.494	83.62
277.726	87.62
277.957	79.62
278.189	69.62
278.421	67.62
278.652	88.62
278.884	80.62
279.115	76.62
279.347	87.62
279.579	76.62
279.81	87.62
280.042	89.62
280.273	85.62
280.505	78.62
280.736	83.62
280.968	78.62
281.199	79.62
281.431	82.62
281.662	84.62
281.894	87.62
282.125	91.62
282.356	81.62
282.588	71.62
282.819	81.62
283.051	88.62
283.282	69.62
283.513	80.62
283.745	79.62
283.976	73.62
284.207	88.62
284.439	81.62
284.67	87.62
284.901	77.62
285.132	77.62
285.364	77.62
285.595	87.62
285.826	85.62
286.057	78.62
286.288	70.62
286.52	78.62
286.751	77.62
286.982	88.62
287.213	94.62
287.444	85.62
287.675	70.62
287.906	85.62
288.138	73.62
288.369	85.62
288.6	87.62
288.831	72.62
289.062	89.62
289.293	86.62
289.524	76.62
289.755	84.62
289.986	88.62
290.217	80.62
290.448	81.62
290.679	85.62
290.91	96.62
291.141	82.62
291.371	76.62
291.602	84.62
291.833	100.62
292.064	84.62
292.295	78.62
292.526	73.62
292.757	88.62
292.987	91.62
293.218	72.62
293.449	92.62
293.68	97.62
293.91	77.62
294.141	90.62
294.372	82.62
294.603	78.62
294.833	89.62
295.064	72.62
295.295	82.62
295.525	86.62
295.756	57.62
295.987	64.62
296.217	85.62
296.448	76.62
296.679	83.62
296.909	90.62
297.14	85.62
297.37	79.62
297.601	72.62
297.831	62.62
298.062	71.62
298.292	72.62
298.523	83.62
298.753	80.62
298.984	92.62
299.214	77.62
299.445	89.62
299.675	88.62
299.905	84.62
300.136	83.62
300.366	88.62
300.597	79.62
300.827	76.62
301.057	83.62
301.288	76.62
301.518	77.62
301.748	84.62
301.979	84.62
302.209	98.62
302.439	75.62
302.669	66.62
302.9	80.62
303.13	75.62
303.36	88.62
303.59	70.62
303.82	66.62
304.051	85.62
304.281	79.62
304.511	76.62
304.741	91.62
304.971	76.62
305.201	80.62
305.431	85.62
305.661	74.62
305.891	88.62
306.121	66.62
306.352	84.62
306.582	81.62
306.812	72.62
307.042	89.62
307.272	86.62
307.502	82.62
307.731	83.62
307.961	89.62
308.191	70.62
308.421	78.62
308.651	78.62
308.881	90.62
309.111	75.62
309.341	85.62
309.571	76.62
309.8	101.62
310.03	87.62
310.26	88.62
310.49	67.62
310.72	81.62
310.949	100.62
311.179	71.62
311.409	71.62
311.639	78.62
311.868	90.62
312.098	87.62
312.328	69.62
312.557	94.62
312.787	82.62
313.017	85.62
313.246	76.62
313.476	76.62
313.706	87.62
313.935	88.62
314.165	69.62
314.394	75.62
314.624	74.62
314.853	81.62
315.083	73.62
315.312	76.62
315.542	80.62
315.771	85.62
316.001	74.62
316.23	86.62
316.46	74.62
316.689	83.62
316.919	80.62
317.148	97.62
317.377	72.62
317.607	89.62
317.836	81.62
318.065	83.62
318.295	86.62
318.524	79.62
318.753	76.62
318.983	85.62
319.212	80.62
319.441	86.62
319.67	83.62
319.9	87.62
320.129	70.62
320.358	78.62
320.587	80.62
320.816	85.62
321.046	79.62
321.275	68.62
321.504	73.62
321.733	80.62
321.962	87.62
322.191	89.62
322.42	108.62
322.649	71.62
322.878	84.62
323.108	87.62
323.337	71.62
323.566	76.62
323.795	90.62
324.024	87.62
324.253	74.62
324.482	81.62
324.71	92.62
324.939	93.62
325.168	80.62
325.397	93.62
325.626	84.62
325.855	97.62
326.084	76.62
326.313	82.62
326.542	92.62
326.77	78.62
326.999	86.62
327.228	80.62
327.457	68.62
327.686	85.62
327.914	75.62
328.143	83.62
328.372	84.62
328.6	84.62
328.829	85.62
329.058	71.62
329.287	88.62
329.515	83.62
329.744	73.62
329.972	80.62
330.201	83.62
330.43	80.62
330.658	84.62
330.887	60.62
331.115	75.62
331.344	77.62
331.572	73.62
331.801	82.62
332.03	88.62
332.258	76.62
332.486	89.62
332.715	75.62
332.943	89.62
333.172	80.62
333.4	97.62
333.629	83.62
333.857	66.62
334.085	83.62
334.314	80.62
334.542	96.62
334.771	92.62
334.999	81.62
335.227	73.62
335.455	91.62
335.684	85.62
335.912	77.62
336.14	79.62
336.369	69.62
336.597	87.62
336.825	87.62
337.053	79.62
337.281	95.62
337.51	86.62
337.738	74.62
337.966	96.62
338.194	103.62
338.422	68.62
338.65	83.62
338.878	83.62
339.106	81.62
339.334	69.62
339.562	73.62
339.79	83.62
340.018	77.62
340.246	68.62
340.474	75.62
340.702	81.62
340.93	83.62
341.158	83.62
341.386	81.62
341.614	75.62
341.842	71.62
342.07	81.62
342.298	78.62
342.526	96.62
342.754	84.62
342.981	85.62
343.209	72.62
343.437	70.62
343.665	81.62
343.893	78.62
344.12	76.62
344.348	89.62
344.576	78.62
344.804	73.62
345.031	74.62
345.259	76.62
345.487	82.62
345.714	86.62
345.942	77.62
346.17	90.62
346.397	80.62
346.625	80.62
346.853	86.62
347.08	70.62
347.308	91.62
347.535	80.62
347.763	80.62
347.99	74.62
348.218	82.62
348.445	78.62
348.673	84.62
348.9	68.62
349.128	81.62
349.355	89.62
349.583	88.62
349.81	85.62
350.037	79.62
350.265	86.62
350.492	74.62
350.72	96.62
350.947	72.62
351.174	78.62
351.402	79.62
351.629	68.62
351.856	96.62
352.083	79.62
352.311	80.62
352.538	87.62
352.765	95.62
352.992	97.62
353.22	84.62
353.447	78.62
353.674	68.62
353.901	84.62
354.128	73.62
354.355	89.62
354.583	92.62
354.81	90.62
355.037	92.62
355.264	72.62
355.491	76.62
355.718	73.62
355.945	85.62
356.172	86.62
356.399	84.62
356.626	79.62
356.853	78.62
357.08	79.62
357.307	95.62
357.534	75.62
357.761	73.62
357.988	97.62
358.215	69.62
358.441	72.62
358.668	84.62
358.895	82.62
359.122	71.62
359.349	73.62
359.576	78.62
359.802	68.62
360.029	83.62
360.256	82.62
360.483	101.62
360.709	82.62
360.936	82.62
361.163	74.62
361.39	75.62
361.616	70.62
361.843	84.62
362.07	84.62
362.296	83.62
362.523	80.62
362.749	77.62
362.976	81.62
363.203	72.62
363.429	80.62
363.656	68.62
363.882	78.62
364.109	75.62
364.335	80.62
364.562	72.62
364.788	54.62
365.015	93.62
365.241	78.62
365.468	85.62
365.694	89.62
365.92	84.62
366.147	68.62
366.373	68.62
366.599	79.62
366.826	85.62
367.052	87.62
367.278	93.62
367.505	82.62
367.731	93.62
367.957	84.62
368.184	93.62
368.41	98.62
368.636	72.62
368.862	82.62
369.089	73.62
369.315	77.62
369.541	90.62
369.767	77.62
369.993	70.62
370.219	77.62
370.445	77.62
370.672	91.62
370.898	79.62
371.124	87.62
371.35	93.62
371.576	82.62
371.802	70.62
372.028	70.62
372.254	70.62
372.48	93.62
372.706	92.62
372.932	87.62
373.158	79.62
373.384	91.62
373.61	89.62
373.835	85.62
374.061	90.62
374.287	71.62
374.513	91.62
374.739	81.62
374.965	85.62
375.191	83.62
375.416	80.62
375.642	86.62
375.868	92.62
376.094	75.62
376.319	79.62
376.545	86.62
376.771	81.62
376.997	77.62
377.222	90.62
377.448	78.62
377.674	80.62
377.899	89.62
378.125	84.62
378.35	74.62
378.576	82.62
378.802	91.62
379.027	86.62
379.253	82.62
379.478	76.62
379.704	74.62
379.929	92.62
380.155	82.62
380.38	83.62
380.606	90.62
380.831	74.62
381.057	81.62
381.282	78.62
381.507	80.62
381.733	82.62
381.958	84.62
382.184	85.62
382.409	80.62
382.634	84.62
382.86	75.62
383.085	97.62
383.31	62.62
383.535	87.62
383.761	76.62
383.986	76.62
384.211	83.62
384.436	62.62
384.662	91.62
384.887	97.62
385.112	98.62
385.337	78.62
385.562	80.62
385.787	72.62
386.013	80.62
386.238	83.62
386.463	78.62
386.688	88.62
386.913	82.62
387.138	84.62
387.363	71.62
387.588	80.62
387.813	74.62
388.038	89.62
388.263	84.62
388.488	69.62
388.713	82.62
388.938	82.62
389.163	85.62
389.387	74.62
389.612	78.62
389.837	78.62
390.062	81.62
390.287	72.62
390.512	63.62
390.736	89.62
390.961	77.62
391.186	77.62
391.411	84.62
391.636	92.62
391.86	93.62
392.085	77.62
392.31	66.62
392.534	88.62
392.759	86.62
392.984	80.62
393.208	74.62
393.433	58.62
393.658	86.62
393.882	75.62
394.107	71.62
394.331	81.62
394.556	82.62
394.78	91.62
395.005	81.62
395.229	88.62
395.454	99.62
395.678	85.62
395.903	72.62
396.127	64.62
396.352	88.62
396.576	78.62
396.801	75.62
397.025	78.62
397.249	87.62
397.474	76.62
397.698	92.62
397.922	85.62
398.147	76.62
398.371	91.62
398.595	88.62
398.82	77.62
399.044	94.62
399.268	78.62
399.492	89.62
399.717	72.62
399.941	88.62
400.165	78.62
400.389	82.62
400.613	76.62
400.837	81.62
401.062	92.62
401.286	94.62
401.51	82.62
401.734	85.62
401.958	72.62
402.182	84.62
402.406	80.62
402.63	83.62
402.854	78.62
403.078	84.62
403.302	79.62
403.526	86.62
403.75	82.62
403.974	94.62
404.198	84.62
404.422	73.62
404.645	72.62
404.869	86.62
405.093	84.62
405.317	70.62
405.541	72.62
405.765	76.62
405.988	62.62
406.212	82.62
406.436	84.62
406.66	90.62
406.883	83.62
407.107	76.62
407.331	74.62
407.555	91.62
407.778	87.62
408.002	72.62
408.226	79.62
408.449	93.62
408.673	93.62
408.896	81.62
409.12	80.62
409.344	81.62
409.567	85.62
409.791	80.62
410.014	76.62
410.238	91.62
410.461	91.62
410.685	81.62
410.908	82.62
411.132	83.62
411.355	86.62
411.578	81.62
411.802	81.62
412.025	90.62
412.249	90.62
412.472	79.62
412.695	79.62
412.919	89.62
413.142	85.62
413.365	85.62
413.589	77.62
413.812	87.62
414.035	91.62
414.258	70.62
414.482	70.62
414.705	80.62
414.928	90.62
415.151	80.62
415.374	78.62
415.597	88.62
415.821	78.62
416.044	84.62
416.267	81.62
416.49	81.62
416.713	72.62
416.936	80.62
417.159	72.62
417.382	86.62
417.605	82.62
417.828	94.62
418.051	80.62
418.274	81.62
418.497	74.62
418.72	70.62
418.943	84.62
419.166	80.62
419.389	79.62
419.611	86.62
419.834	76.62
420.057	79.62
420.28	76.62
420.503	76.62
420.726	80.62
420.948	72.62
421.171	90.62
421.394	89.62
421.617	80.62
421.839	72.62
422.062	100.62
422.285	71.62
422.507	77.62
422.73	82.62
422.953	77.62
423.175	89.62
423.398	90.62
423.621	74.62
423.843	96.62
424.066	75.62
424.288	68.62
424.511	78.62
424.733	78.62
424.956	70.62
425.178	94.62
425.401	82.62
425.623	68.62
425.846	78.62
426.068	70.62
426.291	89.62
426.513	91.62
426.735	88.62
426.958	84.62
427.18	88.62
427.402	89.62
427.625	86.62
427.847	72.62
428.069	86.62
428.292	85.62
428.514	96.62
428.736	70.62
428.958	76.62
429.181	74.62
429.403	93.62
429.625	75.62
429.847	82.62
430.069	70.62
430.292	87.62
430.514	91.62
430.736	71.62
430.958	76.62
431.18	86.62
431.402	75.62
431.624	68.62
431.846	75.62
432.068	80.62
432.29	75.62
432.512	95.62
432.734	74.62
432.956	68.62
433.178	80.62
433.4	87.62
433.622	77.62
433.844	86.62
434.066	68.62
434.287	78.62
434.509	76.62
434.731	87.62
434.953	83.62
435.175	74.62
435.397	81.62
435.618	80.62
435.84	81.62
436.062	80.62
436.284	72.62
436.505	72.62
436.727	83.62
436.949	82.62
437.17	87.62
437.392	73.62
437.614	86.62
437.835	90.62
438.057	78.62
438.278	82.62
438.5	84.62
438.721	85.62
438.943	76.62
439.165	80.62
439.386	83.62
439.608	77.62
439.829	81.62
440.05	69.62
440.272	74.62
440.493	82.62
440.715	70.62
440.936	70.62
441.158	84.62
441.379	87.62
441.6	77.62
441.822	74.62
442.043	78.62
442.264	89.62
442.486	81.62
442.707	85.62
442.928	69.62
443.149	94.62
443.371	81.62
443.592	76.62
443.813	78.62
444.034	76.62
444.255	89.62
444.476	86.62
444.698	83.62
444.919	98.62
445.14	171.62
445.361	96.62
445.582	83.62
445.803	88.62
446.024	83.62
446.245	92.62
446.466	97.62
446.687	85.62
446.908	81.62
447.129	76.62
447.35	86.62
447.571	79.62
447.792	64.62
448.013	78.62
448.234	78.62
448.455	84.62
448.675	90.62
448.896	80.62
449.117	66.62
449.338	75.62
449.559	75.62
449.779	92.62
450	90.62
450.221	76.62
450.442	73.62
450.662	76.62
450.883	88.62
451.104	94.62
451.324	87.62
451.545	76.62
451.766	77.62
451.986	82.62
452.207	86.62
452.428	78.62
452.648	90.62
452.869	66.62
453.089	77.62
453.31	83.62
453.53	78.62
453.751	86.62
453.971	82.62
454.192	79.62
454.412	85.62
454.633	83.62
454.853	73.62
455.073	65.62
455.294	78.62
455.514	66.62
455.734	81.62
455.955	78.62
456.175	88.62
456.395	82.62
456.616	92.62
456.836	79.62
457.056	85.62
457.276	68.62
457.497	68.62
457.717	65.62
457.937	81.62
458.157	78.62
458.377	66.62
458.598	78.62
458.818	81.62
459.038	82.62
459.258	80.62
459.478	77.62
459.698	85.62
459.918	73.62
460.138	81.62
460.358	100.62
460.578	82.62
460.798	92.62
461.018	89.62
461.238	83.62
461.458	74.62
461.678	79.62
461.898	80.62
462.118	81.62
462.338	89.62
462.558	84.62
462.777	89.62
462.997	81.62
463.217	89.62
463.437	77.62
463.657	85.62
463.876	83.62
464.096	85.62
464.316	81.62
464.536	88.62
464.755	77.62
464.975	81.62
465.195	82.62
465.414	85.62
465.634	73.62
465.854	77.62
466.073	90.62
466.293	100.62
466.512	83.62
466.732	98.62
466.951	82.62
467.171	77.62
467.391	74.62
467.61	74.62
467.829	98.62
468.049	94.62
468.268	77.62
468.488	86.62
468.707	76.62
468.927	87.62
469.146	80.62
469.365	90.62
469.585	88.62
469.804	77.62
470.023	81.62
470.243	72.62
470.462	64.62
470.681	90.62
470.901	78.62
471.12	85.62
471.339	77.62
471.558	78.62
471.777	76.62
471.997	92.62
472.216	79.62
472.435	87.62
472.654	78.62
472.873	62.62
473.092	87.62
473.311	84.62
473.53	67.62
473.749	85.62
473.968	86.62
474.187	66.62
474.406	72.62
474.625	80.62
474.844	92.62
475.063	76.62
475.282	92.62
475.501	84.62
475.72	80.62
475.939	97.62
476.158	85.62
476.377	87.62
476.596	89.62
476.814	71.62
477.033	80.62
477.252	81.62
477.471	77.62
477.69	82.62
477.908	84.62
478.127	83.62
478.346	82.62
478.564	85.62
478.783	92.62
479.002	91.62
479.22	77.62
479.439	68.62
479.658	84.62
479.876	98.62
480.095	73.62
480.313	80.62
480.532	66.62
480.751	73.62
480.969	82.62
481.188	85.62
481.406	84.62
481.624	82.62
481.843	67.62
482.061	68.62
482.28	81.62
482.498	80.62
482.717	74.62
482.935	78.62
483.153	83.62
483.372	85.62
483.59	92.62
483.808	81.62
484.027	93.62
484.245	76.62
484.463	85.62
484.681	96.62
484.9	83.62
485.118	86.62
485.336	68.62
485.554	82.62
485.772	91.62
485.99	79.62
486.209	85.62
486.427	69.62
486.645	80.62
486.863	96.62
487.081	76.62
487.299	83.62
487.517	83.62
487.735	77.62
487.953	90.62
488.171	90.62
488.389	71.62
488.607	77.62
488.825	85.62
489.043	72.62
489.261	86.62
489.479	78.62
489.696	82.62
489.914	84.62
490.132	101.62
490.35	80.62
490.568	69.62
490.786	74.62
491.003	83.62
491.221	91.62
491.439	84.62
491.657	81.62
491.874	74.62
492.092	92.62
492.31	85.62
492.527	83.62
492.745	81.62
492.963	81.62
493.18	88.62
493.398	101.62
493.615	89.62
493.833	86.62
494.05	86.62
494.268	95.62
494.485	82.62
494.703	78.62
494.92	73.62
495.138	73.62
495.355	69.62
495.573	84.62
495.79	88.62
496.008	80.62
496.225	89.62
496.442	74.62
496.66	83.62
496.877	90.62
497.094	80.62
497.312	71.62
497.529	94.62
497.746	101.62
497.963	92.62
498.181	82.62
498.398	88.62
498.615	91.62
498.832	90.62
499.049	87.62
499.267	94.62
499.484	85.62
499.701	103.62
499.918	96.62
500.135	104.62
500.352	106.62
500.569	110.62
500.786	110.62
501.003	101.62
501.22	99.62
501.437	94.62
501.654	96.62
501.871	90.62
502.088	88.62
502.305	85.62
502.522	80.62
502.739	86.62
502.956	72.62
503.172	98.62
503.389	102.62
503.606	80.62
503.823	85.62
504.04	81.62
504.256	76.62
504.473	96.62
504.69	84.62
504.907	93.62
505.123	90.62
505.34	86.62
505.557	82.62
505.773	86.62
505.99	92.62
506.207	72.62
506.423	72.62
506.64	78.62
506.856	94.62
507.073	81.62
507.289	96.62
507.506	93.62
507.722	74.62
507.939	91.62
508.155	91.62
508.372	78.62
508.588	68.62
508.805	76.62
509.021	69.62
509.238	63.62
509.454	68.62
509.67	72.62
509.887	81.62
510.103	62.62
510.319	88.62
510.536	86.62
510.752	83.62
510.968	87.62
511.184	82.62
511.401	77.62
511.617	86.62
511.833	72.62
512.049	90.62
512.265	81.62
512.481	68.62
512.698	103.62
512.914	86.62
513.13	75.62
513.346	92.62
513.562	84.62
513.778	87.62
513.994	92.62
514.21	81.62
514.426	88.62
514.642	85.62
514.858	81.62
515.074	77.62
515.29	86.62
515.506	86.62
515.721	82.62
515.937	90.62
516.153	90.62
516.369	98.62
516.585	87.62
516.801	78.62
517.016	85.62
517.232	82.62
517.448	89.62
517.664	76.62
517.879	83.62
518.095	86.62
518.311	87.62
518.527	81.62
518.742	80.62
518.958	98.62
519.173	87.62
519.389	70.62
519.605	75.62
519.82	81.62
520.036	93.62
