Data from BG_HRD10591_056.txt Node
Date: Fri May 16 15:33:35 EDT 2025
User: Yrep
Spectrometer: HR+D1059
Trigger mode: 1
Integration Time (sec): 1.000000E-1
Scans to average: 1
Electric dark correction enabled: true
Nonlinearity correction enabled: false
Boxcar width: 0
XAxis mode: Wavelengths
Number of Pixels in Spectrum: 2048
>>>>>Begin Spectral Data<<<<<
223.165	0.75
223.4	0.75
223.635	0.75
223.869	-33.25
224.104	-33.25
224.338	-15.25
224.573	-11.25
224.808	-12.25
225.042	-13.25
225.277	-6.25
225.511	-9.25
225.746	9.75
225.98	12.75
226.215	3.75
226.449	21.75
226.683	17.75
226.918	37.75
227.152	29.75
227.387	24.75
227.621	43.75
227.856	45.75
228.09	51.75
228.324	37.75
228.559	60.75
228.793	57.75
229.027	53.75
229.262	70.75
229.496	54.75
229.73	68.75
229.964	56.75
230.199	72.75
230.433	72.75
230.667	85.75
230.901	63.75
231.136	71.75
231.37	78.75
231.604	74.75
231.838	78.75
232.072	70.75
232.306	69.75
232.541	90.75
232.775	86.75
233.009	78.75
233.243	76.75
233.477	62.75
233.711	71.75
233.945	84.75
234.179	77.75
234.413	85.75
234.647	77.75
234.881	77.75
235.115	82.75
235.349	86.75
235.583	83.75
235.817	84.75
236.051	84.75
236.285	76.75
236.519	77.75
236.753	82.75
236.987	79.75
237.221	77.75
237.455	79.75
237.689	87.75
237.922	56.75
238.156	68.75
238.39	83.75
238.624	71.75
238.858	62.75
239.091	70.75
239.325	71.75
239.559	71.75
239.793	76.75
240.027	68.75
240.26	80.75
240.494	68.75
240.728	63.75
240.961	60.75
241.195	87.75
241.429	70.75
241.662	68.75
241.896	66.75
242.13	70.75
242.363	67.75
242.597	65.75
242.83	83.75
243.064	94.75
243.298	69.75
243.531	77.75
243.765	93.75
243.998	77.75
244.232	66.75
244.465	75.75
244.699	84.75
244.932	80.75
245.166	73.75
245.399	69.75
245.633	84.75
245.866	88.75
246.099	70.75
246.333	64.75
246.566	78.75
246.8	68.75
247.033	83.75
247.266	78.75
247.5	80.75
247.733	71.75
247.966	73.75
248.2	80.75
248.433	65.75
248.666	74.75
248.899	73.75
249.133	76.75
249.366	78.75
249.599	82.75
249.832	77.75
250.066	68.75
250.299	68.75
250.532	100.75
250.765	83.75
250.998	75.75
251.231	77.75
251.465	61.75
251.698	80.75
251.931	74.75
252.164	71.75
252.397	80.75
252.63	90.75
252.863	79.75
253.096	82.75
253.329	82.75
253.562	78.75
253.795	79.75
254.028	85.75
254.261	67.75
254.494	70.75
254.727	77.75
254.96	75.75
255.193	81.75
255.426	75.75
255.659	77.75
255.892	75.75
256.124	65.75
256.357	70.75
256.59	82.75
256.823	72.75
257.056	67.75
257.289	80.75
257.521	76.75
257.754	71.75
257.987	60.75
258.22	69.75
258.452	78.75
258.685	78.75
258.918	82.75
259.151	71.75
259.383	95.75
259.616	84.75
259.849	69.75
260.081	84.75
260.314	87.75
260.547	71.75
260.779	64.75
261.012	76.75
261.244	95.75
261.477	81.75
261.71	69.75
261.942	78.75
262.175	95.75
262.407	86.75
262.64	72.75
262.872	76.75
263.105	84.75
263.337	77.75
263.57	84.75
263.802	71.75
264.035	82.75
264.267	77.75
264.499	70.75
264.732	86.75
264.964	87.75
265.197	70.75
265.429	81.75
265.661	72.75
265.894	75.75
266.126	65.75
266.358	76.75
266.591	87.75
266.823	91.75
267.055	75.75
267.287	71.75
267.52	78.75
267.752	81.75
267.984	86.75
268.216	87.75
268.448	92.75
268.681	90.75
268.913	94.75
269.145	75.75
269.377	77.75
269.609	66.75
269.841	84.75
270.073	68.75
270.306	68.75
270.538	80.75
270.77	90.75
271.002	76.75
271.234	87.75
271.466	86.75
271.698	91.75
271.93	89.75
272.162	78.75
272.394	87.75
272.626	95.75
272.858	87.75
273.09	59.75
273.322	84.75
273.553	85.75
273.785	71.75
274.017	63.75
274.249	76.75
274.481	73.75
274.713	80.75
274.945	84.75
275.176	84.75
275.408	92.75
275.64	78.75
275.872	70.75
276.104	84.75
276.335	86.75
276.567	91.75
276.799	85.75
277.031	76.75
277.262	79.75
277.494	84.75
277.726	83.75
277.957	76.75
278.189	67.75
278.421	74.75
278.652	87.75
278.884	78.75
279.115	89.75
279.347	80.75
279.579	92.75
279.81	75.75
280.042	73.75
280.273	77.75
280.505	86.75
280.736	87.75
280.968	81.75
281.199	84.75
281.431	72.75
281.662	83.75
281.894	80.75
282.125	63.75
282.356	87.75
282.588	81.75
282.819	76.75
283.051	73.75
283.282	62.75
283.513	82.75
283.745	89.75
283.976	80.75
284.207	71.75
284.439	96.75
284.67	78.75
284.901	89.75
285.132	69.75
285.364	89.75
285.595	87.75
285.826	84.75
286.057	78.75
286.288	73.75
286.52	85.75
286.751	75.75
286.982	92.75
287.213	88.75
287.444	74.75
287.675	82.75
287.906	64.75
288.138	89.75
288.369	76.75
288.6	72.75
288.831	85.75
289.062	89.75
289.293	77.75
289.524	83.75
289.755	83.75
289.986	79.75
290.217	80.75
290.448	77.75
290.679	89.75
290.91	96.75
291.141	85.75
291.371	88.75
291.602	90.75
291.833	83.75
292.064	95.75
292.295	82.75
292.526	80.75
292.757	87.75
292.987	94.75
293.218	90.75
293.449	78.75
293.68	91.75
293.91	91.75
294.141	80.75
294.372	79.75
294.603	80.75
294.833	91.75
295.064	76.75
295.295	73.75
295.525	86.75
295.756	84.75
295.987	80.75
296.217	73.75
296.448	84.75
296.679	94.75
296.909	78.75
297.14	88.75
297.37	90.75
297.601	88.75
297.831	93.75
298.062	81.75
298.292	63.75
298.523	79.75
298.753	101.75
298.984	81.75
299.214	87.75
299.445	73.75
299.675	77.75
299.905	95.75
300.136	78.75
300.366	83.75
300.597	83.75
300.827	97.75
301.057	74.75
301.288	76.75
301.518	93.75
301.748	79.75
301.979	86.75
302.209	95.75
302.439	79.75
302.669	84.75
302.9	100.75
303.13	81.75
303.36	83.75
303.59	75.75
303.82	89.75
304.051	99.75
304.281	76.75
304.511	91.75
304.741	91.75
304.971	111.75
305.201	79.75
305.431	84.75
305.661	80.75
305.891	79.75
306.121	82.75
306.352	77.75
306.582	71.75
306.812	81.75
307.042	71.75
307.272	80.75
307.502	81.75
307.731	76.75
307.961	89.75
308.191	88.75
308.421	84.75
308.651	88.75
308.881	85.75
309.111	81.75
309.341	79.75
309.571	74.75
309.8	88.75
310.03	83.75
310.26	93.75
310.49	93.75
310.72	86.75
310.949	76.75
311.179	78.75
311.409	96.75
311.639	91.75
311.868	87.75
312.098	93.75
312.328	90.75
312.557	79.75
312.787	78.75
313.017	74.75
313.246	85.75
313.476	73.75
313.706	78.75
313.935	82.75
314.165	89.75
314.394	92.75
314.624	88.75
314.853	84.75
315.083	79.75
315.312	88.75
315.542	71.75
315.771	90.75
316.001	88.75
316.23	94.75
316.46	76.75
316.689	80.75
316.919	88.75
317.148	81.75
317.377	90.75
317.607	83.75
317.836	92.75
318.065	74.75
318.295	80.75
318.524	93.75
318.753	86.75
318.983	71.75
319.212	90.75
319.441	86.75
319.67	94.75
319.9	81.75
320.129	78.75
320.358	78.75
320.587	99.75
320.816	85.75
321.046	78.75
321.275	85.75
321.504	88.75
321.733	83.75
321.962	89.75
322.191	75.75
322.42	96.75
322.649	81.75
322.878	78.75
323.108	88.75
323.337	95.75
323.566	83.75
323.795	82.75
324.024	71.75
324.253	74.75
324.482	81.75
324.71	72.75
324.939	90.75
325.168	83.75
325.397	87.75
325.626	86.75
325.855	80.75
326.084	70.75
326.313	85.75
326.542	98.75
326.77	71.75
326.999	77.75
327.228	91.75
327.457	83.75
327.686	60.75
327.914	97.75
328.143	80.75
328.372	85.75
328.6	65.75
328.829	89.75
329.058	92.75
329.287	88.75
329.515	92.75
329.744	86.75
329.972	79.75
330.201	90.75
330.43	90.75
330.658	74.75
330.887	79.75
331.115	70.75
331.344	79.75
331.572	83.75
331.801	89.75
332.03	81.75
332.258	88.75
332.486	85.75
332.715	65.75
332.943	93.75
333.172	80.75
333.4	95.75
333.629	83.75
333.857	87.75
334.085	84.75
334.314	88.75
334.542	89.75
334.771	80.75
334.999	91.75
335.227	76.75
335.455	92.75
335.684	100.75
335.912	88.75
336.14	86.75
336.369	108.75
336.597	89.75
336.825	80.75
337.053	76.75
337.281	69.75
337.51	79.75
337.738	88.75
337.966	75.75
338.194	92.75
338.422	86.75
338.65	99.75
338.878	80.75
339.106	75.75
339.334	92.75
339.562	95.75
339.79	88.75
340.018	74.75
340.246	94.75
340.474	90.75
340.702	91.75
340.93	87.75
341.158	92.75
341.386	83.75
341.614	85.75
341.842	86.75
342.07	91.75
342.298	82.75
342.526	91.75
342.754	78.75
342.981	92.75
343.209	84.75
343.437	89.75
343.665	87.75
343.893	93.75
344.12	104.75
344.348	80.75
344.576	90.75
344.804	86.75
345.031	63.75
345.259	91.75
345.487	79.75
345.714	74.75
345.942	79.75
346.17	83.75
346.397	81.75
346.625	77.75
346.853	83.75
347.08	76.75
347.308	74.75
347.535	76.75
347.763	73.75
347.99	83.75
348.218	78.75
348.445	78.75
348.673	85.75
348.9	71.75
349.128	71.75
349.355	78.75
349.583	77.75
349.81	89.75
350.037	97.75
350.265	80.75
350.492	89.75
350.72	92.75
350.947	96.75
351.174	87.75
351.402	69.75
351.629	79.75
351.856	89.75
352.083	90.75
352.311	88.75
352.538	81.75
352.765	71.75
352.992	84.75
353.22	66.75
353.447	84.75
353.674	90.75
353.901	96.75
354.128	95.75
354.355	90.75
354.583	77.75
354.81	91.75
355.037	86.75
355.264	65.75
355.491	88.75
355.718	83.75
355.945	80.75
356.172	79.75
356.399	88.75
356.626	80.75
356.853	81.75
357.08	93.75
357.307	73.75
357.534	72.75
357.761	95.75
357.988	87.75
358.215	78.75
358.441	76.75
358.668	88.75
358.895	86.75
359.122	93.75
359.349	91.75
359.576	95.75
359.802	88.75
360.029	89.75
360.256	79.75
360.483	85.75
360.709	88.75
360.936	94.75
361.163	79.75
361.39	70.75
361.616	74.75
361.843	91.75
362.07	100.75
362.296	93.75
362.523	87.75
362.749	78.75
362.976	69.75
363.203	76.75
363.429	79.75
363.656	79.75
363.882	79.75
364.109	75.75
364.335	86.75
364.562	80.75
364.788	90.75
365.015	83.75
365.241	77.75
365.468	92.75
365.694	71.75
365.92	82.75
366.147	91.75
366.373	80.75
366.599	79.75
366.826	104.75
367.052	101.75
367.278	83.75
367.505	83.75
367.731	68.75
367.957	77.75
368.184	92.75
368.41	86.75
368.636	101.75
368.862	79.75
369.089	75.75
369.315	87.75
369.541	76.75
369.767	71.75
369.993	76.75
370.219	86.75
370.445	87.75
370.672	90.75
370.898	79.75
371.124	69.75
371.35	82.75
371.576	77.75
371.802	85.75
372.028	91.75
372.254	79.75
372.48	82.75
372.706	87.75
372.932	100.75
373.158	66.75
373.384	91.75
373.61	93.75
373.835	84.75
374.061	89.75
374.287	96.75
374.513	73.75
374.739	85.75
374.965	87.75
375.191	92.75
375.416	83.75
375.642	78.75
375.868	83.75
376.094	88.75
376.319	97.75
376.545	78.75
376.771	83.75
376.997	84.75
377.222	90.75
377.448	95.75
377.674	82.75
377.899	73.75
378.125	81.75
378.35	86.75
378.576	89.75
378.802	79.75
379.027	88.75
379.253	86.75
379.478	87.75
379.704	71.75
379.929	68.75
380.155	72.75
380.38	103.75
380.606	63.75
380.831	79.75
381.057	88.75
381.282	85.75
381.507	86.75
381.733	72.75
381.958	83.75
382.184	84.75
382.409	83.75
382.634	83.75
382.86	92.75
383.085	83.75
383.31	78.75
383.535	88.75
383.761	92.75
383.986	95.75
384.211	79.75
384.436	88.75
384.662	83.75
384.887	84.75
385.112	74.75
385.337	78.75
385.562	79.75
385.787	78.75
386.013	84.75
386.238	73.75
386.463	89.75
386.688	88.75
386.913	79.75
387.138	76.75
387.363	65.75
387.588	87.75
387.813	81.75
388.038	86.75
388.263	91.75
388.488	80.75
388.713	78.75
388.938	80.75
389.163	77.75
389.387	75.75
389.612	77.75
389.837	77.75
390.062	86.75
390.287	96.75
390.512	74.75
390.736	79.75
390.961	111.75
391.186	85.75
391.411	73.75
391.636	91.75
391.86	83.75
392.085	91.75
392.31	74.75
392.534	88.75
392.759	79.75
392.984	92.75
393.208	86.75
393.433	75.75
393.658	82.75
393.882	87.75
394.107	91.75
394.331	91.75
394.556	84.75
394.78	83.75
395.005	90.75
395.229	80.75
395.454	80.75
395.678	77.75
395.903	81.75
396.127	92.75
396.352	73.75
396.576	92.75
396.801	87.75
397.025	86.75
397.249	101.75
397.474	79.75
397.698	68.75
397.922	87.75
398.147	88.75
398.371	94.75
398.595	71.75
398.82	76.75
399.044	76.75
399.268	89.75
399.492	81.75
399.717	93.75
399.941	85.75
400.165	84.75
400.389	83.75
400.613	73.75
400.837	89.75
401.062	82.75
401.286	83.75
401.51	84.75
401.734	93.75
401.958	85.75
402.182	80.75
402.406	90.75
402.63	85.75
402.854	87.75
403.078	91.75
403.302	84.75
403.526	82.75
403.75	79.75
403.974	88.75
404.198	89.75
404.422	81.75
404.645	85.75
404.869	86.75
405.093	96.75
405.317	73.75
405.541	88.75
405.765	85.75
405.988	93.75
406.212	90.75
406.436	92.75
406.66	89.75
406.883	82.75
407.107	92.75
407.331	87.75
407.555	67.75
407.778	85.75
408.002	88.75
408.226	83.75
408.449	80.75
408.673	87.75
408.896	91.75
409.12	81.75
409.344	76.75
409.567	80.75
409.791	89.75
410.014	73.75
410.238	87.75
410.461	80.75
410.685	85.75
410.908	79.75
411.132	86.75
411.355	90.75
411.578	72.75
411.802	100.75
412.025	81.75
412.249	87.75
412.472	90.75
412.695	79.75
412.919	87.75
413.142	97.75
413.365	78.75
413.589	96.75
413.812	96.75
414.035	75.75
414.258	76.75
414.482	70.75
414.705	75.75
414.928	102.75
415.151	96.75
415.374	75.75
415.597	75.75
415.821	79.75
416.044	71.75
416.267	72.75
416.49	76.75
416.713	94.75
416.936	90.75
417.159	92.75
417.382	100.75
417.605	79.75
417.828	74.75
418.051	82.75
418.274	91.75
418.497	78.75
418.72	88.75
418.943	86.75
419.166	81.75
419.389	80.75
419.611	88.75
419.834	80.75
420.057	93.75
420.28	86.75
420.503	75.75
420.726	94.75
420.948	81.75
421.171	78.75
421.394	89.75
421.617	77.75
421.839	85.75
422.062	72.75
422.285	87.75
422.507	86.75
422.73	90.75
422.953	93.75
423.175	87.75
423.398	85.75
423.621	94.75
423.843	90.75
424.066	92.75
424.288	93.75
424.511	97.75
424.733	84.75
424.956	78.75
425.178	87.75
425.401	94.75
425.623	80.75
425.846	88.75
426.068	85.75
426.291	91.75
426.513	90.75
426.735	80.75
426.958	89.75
427.18	94.75
427.402	86.75
427.625	101.75
427.847	79.75
428.069	87.75
428.292	76.75
428.514	78.75
428.736	82.75
428.958	85.75
429.181	86.75
429.403	78.75
429.625	92.75
429.847	90.75
430.069	63.75
430.292	90.75
430.514	72.75
430.736	87.75
430.958	83.75
431.18	78.75
431.402	72.75
431.624	90.75
431.846	89.75
432.068	80.75
432.29	83.75
432.512	93.75
432.734	84.75
432.956	101.75
433.178	95.75
433.4	87.75
433.622	95.75
433.844	90.75
434.066	87.75
434.287	92.75
434.509	86.75
434.731	93.75
434.953	100.75
435.175	76.75
435.397	67.75
435.618	77.75
435.84	96.75
436.062	70.75
436.284	85.75
436.505	85.75
436.727	87.75
436.949	84.75
437.17	72.75
437.392	85.75
437.614	79.75
437.835	82.75
438.057	83.75
438.278	84.75
438.5	71.75
438.721	76.75
438.943	82.75
439.165	78.75
439.386	98.75
439.608	96.75
439.829	70.75
440.05	99.75
440.272	72.75
440.493	71.75
440.715	84.75
440.936	88.75
441.158	79.75
441.379	84.75
441.6	79.75
441.822	76.75
442.043	84.75
442.264	84.75
442.486	72.75
442.707	86.75
442.928	81.75
443.149	66.75
443.371	97.75
443.592	96.75
443.813	95.75
444.034	83.75
444.255	93.75
444.476	84.75
444.698	70.75
444.919	81.75
445.14	156.75
445.361	119.75
445.582	77.75
445.803	77.75
446.024	87.75
446.245	81.75
446.466	85.75
446.687	80.75
446.908	86.75
447.129	78.75
447.35	97.75
447.571	86.75
447.792	89.75
448.013	75.75
448.234	90.75
448.455	64.75
448.675	86.75
448.896	92.75
449.117	85.75
449.338	92.75
449.559	83.75
449.779	83.75
450	77.75
450.221	86.75
450.442	78.75
450.662	88.75
450.883	72.75
451.104	71.75
451.324	74.75
451.545	96.75
451.766	85.75
451.986	97.75
452.207	80.75
452.428	68.75
452.648	100.75
452.869	94.75
453.089	81.75
453.31	84.75
453.53	83.75
453.751	95.75
453.971	90.75
454.192	87.75
454.412	78.75
454.633	90.75
454.853	91.75
455.073	76.75
455.294	78.75
455.514	74.75
455.734	77.75
455.955	89.75
456.175	76.75
456.395	69.75
456.616	88.75
456.836	79.75
457.056	75.75
457.276	87.75
457.497	93.75
457.717	88.75
457.937	75.75
458.157	85.75
458.377	79.75
458.598	82.75
458.818	76.75
459.038	88.75
459.258	91.75
459.478	92.75
459.698	75.75
459.918	72.75
460.138	75.75
460.358	78.75
460.578	94.75
460.798	87.75
461.018	71.75
461.238	102.75
461.458	77.75
461.678	80.75
461.898	87.75
462.118	68.75
462.338	103.75
462.558	84.75
462.777	91.75
462.997	87.75
463.217	81.75
463.437	99.75
463.657	84.75
463.876	101.75
464.096	87.75
464.316	81.75
464.536	79.75
464.755	83.75
464.975	72.75
465.195	81.75
465.414	75.75
465.634	89.75
465.854	87.75
466.073	81.75
466.293	80.75
466.512	85.75
466.732	92.75
466.951	76.75
467.171	85.75
467.391	67.75
467.61	85.75
467.829	74.75
468.049	95.75
468.268	85.75
468.488	78.75
468.707	90.75
468.927	85.75
469.146	81.75
469.365	75.75
469.585	79.75
469.804	67.75
470.023	80.75
470.243	81.75
470.462	75.75
470.681	80.75
470.901	86.75
471.12	104.75
471.339	88.75
471.558	84.75
471.777	89.75
471.997	92.75
472.216	86.75
472.435	76.75
472.654	73.75
472.873	68.75
473.092	81.75
473.311	81.75
473.53	70.75
473.749	94.75
473.968	79.75
474.187	71.75
474.406	77.75
474.625	95.75
474.844	79.75
475.063	94.75
475.282	90.75
475.501	86.75
475.72	77.75
475.939	76.75
476.158	74.75
476.377	68.75
476.596	81.75
476.814	82.75
477.033	75.75
477.252	103.75
477.471	90.75
477.69	71.75
477.908	94.75
478.127	80.75
478.346	83.75
478.564	85.75
478.783	84.75
479.002	71.75
479.22	88.75
479.439	89.75
479.658	84.75
479.876	75.75
480.095	87.75
480.313	78.75
480.532	89.75
480.751	79.75
480.969	88.75
481.188	79.75
481.406	89.75
481.624	85.75
481.843	84.75
482.061	87.75
482.28	89.75
482.498	79.75
482.717	71.75
482.935	81.75
483.153	73.75
483.372	88.75
483.59	71.75
483.808	83.75
484.027	91.75
484.245	76.75
484.463	89.75
484.681	87.75
484.9	81.75
485.118	89.75
485.336	100.75
485.554	88.75
485.772	83.75
485.99	79.75
486.209	88.75
486.427	94.75
486.645	95.75
486.863	77.75
487.081	74.75
487.299	88.75
487.517	85.75
487.735	79.75
487.953	83.75
488.171	80.75
488.389	81.75
488.607	89.75
488.825	92.75
489.043	75.75
489.261	82.75
489.479	76.75
489.696	72.75
489.914	83.75
490.132	82.75
490.35	88.75
490.568	82.75
490.786	93.75
491.003	84.75
491.221	91.75
491.439	91.75
491.657	89.75
491.874	96.75
492.092	70.75
492.31	97.75
492.527	77.75
492.745	98.75
492.963	85.75
493.18	92.75
493.398	74.75
493.615	90.75
493.833	95.75
494.05	81.75
494.268	84.75
494.485	93.75
494.703	93.75
494.92	74.75
495.138	100.75
495.355	84.75
495.573	73.75
495.79	84.75
496.008	80.75
496.225	85.75
496.442	83.75
496.66	92.75
496.877	99.75
497.094	76.75
497.312	83.75
497.529	99.75
497.746	92.75
497.963	80.75
498.181	86.75
498.398	89.75
498.615	97.75
498.832	88.75
499.049	79.75
499.267	104.75
499.484	96.75
499.701	86.75
499.918	88.75
500.135	105.75
500.352	118.75
500.569	101.75
500.786	131.75
501.003	107.75
501.22	105.75
501.437	95.75
501.654	102.75
501.871	90.75
502.088	99.75
502.305	94.75
502.522	88.75
502.739	83.75
502.956	85.75
503.172	87.75
503.389	104.75
503.606	83.75
503.823	90.75
504.04	86.75
504.256	93.75
504.473	100.75
504.69	102.75
504.907	86.75
505.123	97.75
505.34	96.75
505.557	74.75
505.773	99.75
505.99	91.75
506.207	79.75
506.423	99.75
506.64	86.75
506.856	80.75
507.073	87.75
507.289	75.75
507.506	89.75
507.722	79.75
507.939	77.75
508.155	86.75
508.372	92.75
508.588	84.75
508.805	73.75
509.021	92.75
509.238	83.75
509.454	71.75
509.67	64.75
509.887	95.75
510.103	86.75
510.319	82.75
510.536	81.75
510.752	74.75
510.968	86.75
511.184	88.75
511.401	91.75
511.617	74.75
511.833	83.75
512.049	95.75
512.265	94.75
512.481	86.75
512.698	91.75
512.914	94.75
513.13	96.75
513.346	75.75
513.562	80.75
513.778	76.75
513.994	93.75
514.21	77.75
514.426	83.75
514.642	80.75
514.858	83.75
515.074	82.75
515.29	74.75
515.506	86.75
515.721	88.75
515.937	86.75
516.153	92.75
516.369	96.75
516.585	82.75
516.801	99.75
517.016	96.75
517.232	88.75
517.448	85.75
517.664	85.75
517.879	85.75
518.095	75.75
518.311	93.75
518.527	96.75
518.742	83.75
518.958	80.75
519.173	82.75
519.389	71.75
519.605	94.75
519.82	93.75
