Data from BG_HRD10591_057.txt Node
Date: Fri May 16 15:33:35 EDT 2025
User: Yrep
Spectrometer: HR+D1059
Trigger mode: 1
Integration Time (sec): 1.000000E-1
Scans to average: 1
Electric dark correction enabled: true
Nonlinearity correction enabled: false
Boxcar width: 0
XAxis mode: Wavelengths
Number of Pixels in Spectrum: 2048
>>>>>Begin Spectral Data<<<<<
223.165	-24.25
223.4	-24.25
223.635	-24.25
223.869	-17.25
224.104	-30.25
224.338	-8.25
224.573	-8.25
224.808	-7.25
225.042	-7.25
225.277	-4.25
225.511	-4.25
225.746	-4.25
225.98	11.75
226.215	13.75
226.449	12.75
226.683	17.75
226.918	28.75
227.152	30.75
227.387	30.75
227.621	41.75
227.856	35.75
228.09	48.75
228.324	44.75
228.559	65.75
228.793	56.75
229.027	58.75
229.262	61.75
229.496	66.75
229.73	76.75
229.964	70.75
230.199	84.75
230.433	88.75
230.667	85.75
230.901	80.75
231.136	70.75
231.37	89.75
231.604	73.75
231.838	73.75
232.072	71.75
232.306	71.75
232.541	69.75
232.775	82.75
233.009	68.75
233.243	80.75
233.477	69.75
233.711	85.75
233.945	91.75
234.179	73.75
234.413	87.75
234.647	79.75
234.881	84.75
235.115	81.75
235.349	79.75
235.583	78.75
235.817	72.75
236.051	76.75
236.285	78.75
236.519	81.75
236.753	76.75
236.987	72.75
237.221	74.75
237.455	76.75
237.689	75.75
237.922	72.75
238.156	72.75
238.39	76.75
238.624	86.75
238.858	76.75
239.091	84.75
239.325	77.75
239.559	70.75
239.793	70.75
240.027	76.75
240.26	57.75
240.494	75.75
240.728	74.75
240.961	72.75
241.195	85.75
241.429	74.75
241.662	75.75
241.896	64.75
242.13	80.75
242.363	78.75
242.597	64.75
242.83	85.75
243.064	66.75
243.298	73.75
243.531	72.75
243.765	64.75
243.998	75.75
244.232	84.75
244.465	82.75
244.699	82.75
244.932	95.75
245.166	73.75
245.399	75.75
245.633	84.75
245.866	68.75
246.099	68.75
246.333	76.75
246.566	81.75
246.8	75.75
247.033	85.75
247.266	81.75
247.5	72.75
247.733	84.75
247.966	78.75
248.2	63.75
248.433	84.75
248.666	62.75
248.899	73.75
249.133	72.75
249.366	73.75
249.599	81.75
249.832	74.75
250.066	74.75
250.299	85.75
250.532	81.75
250.765	83.75
250.998	80.75
251.231	64.75
251.465	84.75
251.698	82.75
251.931	82.75
252.164	80.75
252.397	55.75
252.63	73.75
252.863	82.75
253.096	73.75
253.329	85.75
253.562	84.75
253.795	64.75
254.028	70.75
254.261	80.75
254.494	58.75
254.727	89.75
254.96	88.75
255.193	78.75
255.426	71.75
255.659	74.75
255.892	65.75
256.124	65.75
256.357	85.75
256.59	69.75
256.823	80.75
257.056	78.75
257.289	64.75
257.521	85.75
257.754	80.75
257.987	80.75
258.22	78.75
258.452	74.75
258.685	89.75
258.918	72.75
259.151	85.75
259.383	80.75
259.616	63.75
259.849	77.75
260.081	88.75
260.314	82.75
260.547	72.75
260.779	83.75
261.012	90.75
261.244	92.75
261.477	76.75
261.71	80.75
261.942	86.75
262.175	83.75
262.407	76.75
262.64	76.75
262.872	69.75
263.105	87.75
263.337	81.75
263.57	84.75
263.802	71.75
264.035	77.75
264.267	79.75
264.499	74.75
264.732	78.75
264.964	87.75
265.197	68.75
265.429	80.75
265.661	80.75
265.894	82.75
266.126	91.75
266.358	73.75
266.591	72.75
266.823	77.75
267.055	88.75
267.287	80.75
267.52	80.75
267.752	73.75
267.984	80.75
268.216	87.75
268.448	90.75
268.681	74.75
268.913	90.75
269.145	84.75
269.377	89.75
269.609	86.75
269.841	70.75
270.073	69.75
270.306	72.75
270.538	84.75
270.77	88.75
271.002	80.75
271.234	71.75
271.466	85.75
271.698	76.75
271.93	81.75
272.162	99.75
272.394	96.75
272.626	79.75
272.858	88.75
273.09	78.75
273.322	80.75
273.553	78.75
273.785	76.75
274.017	81.75
274.249	76.75
274.481	76.75
274.713	80.75
274.945	72.75
275.176	84.75
275.408	90.75
275.64	77.75
275.872	79.75
276.104	80.75
276.335	76.75
276.567	87.75
276.799	72.75
277.031	82.75
277.262	91.75
277.494	74.75
277.726	80.75
277.957	86.75
278.189	76.75
278.421	90.75
278.652	90.75
278.884	85.75
279.115	94.75
279.347	86.75
279.579	85.75
279.81	89.75
280.042	100.75
280.273	86.75
280.505	90.75
280.736	101.75
280.968	80.75
281.199	85.75
281.431	79.75
281.662	100.75
281.894	68.75
282.125	77.75
282.356	81.75
282.588	85.75
282.819	71.75
283.051	64.75
283.282	85.75
283.513	88.75
283.745	84.75
283.976	92.75
284.207	82.75
284.439	78.75
284.67	74.75
284.901	80.75
285.132	97.75
285.364	89.75
285.595	78.75
285.826	79.75
286.057	85.75
286.288	70.75
286.52	88.75
286.751	85.75
286.982	98.75
287.213	68.75
287.444	89.75
287.675	81.75
287.906	92.75
288.138	86.75
288.369	86.75
288.6	79.75
288.831	77.75
289.062	84.75
289.293	90.75
289.524	83.75
289.755	91.75
289.986	95.75
290.217	91.75
290.448	85.75
290.679	87.75
290.91	91.75
291.141	90.75
291.371	81.75
291.602	78.75
291.833	67.75
292.064	86.75
292.295	85.75
292.526	85.75
292.757	87.75
292.987	84.75
293.218	89.75
293.449	96.75
293.68	80.75
293.91	92.75
294.141	80.75
294.372	88.75
294.603	97.75
294.833	68.75
295.064	88.75
295.295	79.75
295.525	70.75
295.756	81.75
295.987	79.75
296.217	84.75
296.448	88.75
296.679	93.75
296.909	85.75
297.14	77.75
297.37	86.75
297.601	82.75
297.831	82.75
298.062	81.75
298.292	78.75
298.523	97.75
298.753	91.75
298.984	95.75
299.214	78.75
299.445	90.75
299.675	88.75
299.905	88.75
300.136	77.75
300.366	84.75
300.597	85.75
300.827	76.75
301.057	91.75
301.288	81.75
301.518	91.75
301.748	84.75
301.979	96.75
302.209	86.75
302.439	70.75
302.669	76.75
302.9	89.75
303.13	90.75
303.36	82.75
303.59	85.75
303.82	84.75
304.051	84.75
304.281	96.75
304.511	91.75
304.741	79.75
304.971	94.75
305.201	88.75
305.431	89.75
305.661	79.75
305.891	92.75
306.121	90.75
306.352	88.75
306.582	88.75
306.812	62.75
307.042	78.75
307.272	84.75
307.502	78.75
307.731	66.75
307.961	93.75
308.191	84.75
308.421	87.75
308.651	80.75
308.881	82.75
309.111	81.75
309.341	82.75
309.571	86.75
309.8	86.75
310.03	102.75
310.26	95.75
310.49	82.75
310.72	82.75
310.949	83.75
311.179	76.75
311.409	82.75
311.639	104.75
311.868	93.75
312.098	92.75
312.328	73.75
312.557	87.75
312.787	85.75
313.017	97.75
313.246	95.75
313.476	77.75
313.706	106.75
313.935	96.75
314.165	109.75
314.394	82.75
314.624	79.75
314.853	94.75
315.083	80.75
315.312	94.75
315.542	100.75
315.771	76.75
316.001	74.75
316.23	96.75
316.46	79.75
316.689	95.75
316.919	80.75
317.148	86.75
317.377	86.75
317.607	80.75
317.836	78.75
318.065	80.75
318.295	85.75
318.524	81.75
318.753	87.75
318.983	82.75
319.212	92.75
319.441	90.75
319.67	74.75
319.9	103.75
320.129	89.75
320.358	94.75
320.587	88.75
320.816	89.75
321.046	92.75
321.275	95.75
321.504	86.75
321.733	91.75
321.962	79.75
322.191	92.75
322.42	77.75
322.649	84.75
322.878	79.75
323.108	84.75
323.337	96.75
323.566	86.75
323.795	76.75
324.024	89.75
324.253	84.75
324.482	84.75
324.71	102.75
324.939	79.75
325.168	81.75
325.397	89.75
325.626	94.75
325.855	77.75
326.084	83.75
326.313	95.75
326.542	89.75
326.77	84.75
326.999	86.75
327.228	94.75
327.457	95.75
327.686	74.75
327.914	82.75
328.143	88.75
328.372	90.75
328.6	92.75
328.829	70.75
329.058	90.75
329.287	86.75
329.515	73.75
329.744	85.75
329.972	88.75
330.201	88.75
330.43	96.75
330.658	77.75
330.887	79.75
331.115	86.75
331.344	81.75
331.572	97.75
331.801	82.75
332.03	94.75
332.258	89.75
332.486	80.75
332.715	88.75
332.943	79.75
333.172	93.75
333.4	80.75
333.629	92.75
333.857	86.75
334.085	86.75
334.314	103.75
334.542	86.75
334.771	85.75
334.999	91.75
335.227	86.75
335.455	87.75
335.684	93.75
335.912	97.75
336.14	74.75
336.369	95.75
336.597	66.75
336.825	107.75
337.053	82.75
337.281	91.75
337.51	83.75
337.738	96.75
337.966	91.75
338.194	87.75
338.422	77.75
338.65	88.75
338.878	93.75
339.106	88.75
339.334	74.75
339.562	75.75
339.79	81.75
340.018	78.75
340.246	85.75
340.474	90.75
340.702	84.75
340.93	68.75
341.158	98.75
341.386	100.75
341.614	83.75
341.842	82.75
342.07	77.75
342.298	90.75
342.526	92.75
342.754	86.75
342.981	85.75
343.209	87.75
343.437	96.75
343.665	81.75
343.893	80.75
344.12	85.75
344.348	86.75
344.576	85.75
344.804	78.75
345.031	104.75
345.259	84.75
345.487	90.75
345.714	85.75
345.942	85.75
346.17	90.75
346.397	100.75
346.625	80.75
346.853	76.75
347.08	98.75
347.308	80.75
347.535	87.75
347.763	87.75
347.99	88.75
348.218	95.75
348.445	98.75
348.673	78.75
348.9	80.75
349.128	110.75
349.355	95.75
349.583	89.75
349.81	91.75
350.037	79.75
350.265	84.75
350.492	82.75
350.72	87.75
350.947	82.75
351.174	88.75
351.402	77.75
351.629	69.75
351.856	93.75
352.083	78.75
352.311	85.75
352.538	81.75
352.765	84.75
352.992	86.75
353.22	75.75
353.447	84.75
353.674	72.75
353.901	105.75
354.128	80.75
354.355	100.75
354.583	103.75
354.81	79.75
355.037	73.75
355.264	86.75
355.491	89.75
355.718	78.75
355.945	92.75
356.172	97.75
356.399	86.75
356.626	82.75
356.853	81.75
357.08	88.75
357.307	95.75
357.534	94.75
357.761	92.75
357.988	99.75
358.215	100.75
358.441	87.75
358.668	87.75
358.895	76.75
359.122	79.75
359.349	84.75
359.576	91.75
359.802	85.75
360.029	85.75
360.256	79.75
360.483	89.75
360.709	88.75
360.936	90.75
361.163	92.75
361.39	99.75
361.616	81.75
361.843	82.75
362.07	109.75
362.296	83.75
362.523	95.75
362.749	75.75
362.976	82.75
363.203	79.75
363.429	89.75
363.656	74.75
363.882	81.75
364.109	102.75
364.335	81.75
364.562	76.75
364.788	102.75
365.015	85.75
365.241	96.75
365.468	88.75
365.694	82.75
365.92	75.75
366.147	92.75
366.373	89.75
366.599	95.75
366.826	77.75
367.052	82.75
367.278	79.75
367.505	81.75
367.731	85.75
367.957	72.75
368.184	69.75
368.41	71.75
368.636	89.75
368.862	92.75
369.089	83.75
369.315	74.75
369.541	94.75
369.767	93.75
369.993	94.75
370.219	88.75
370.445	86.75
370.672	87.75
370.898	92.75
371.124	91.75
371.35	70.75
371.576	88.75
371.802	84.75
372.028	74.75
372.254	93.75
372.48	89.75
372.706	83.75
372.932	77.75
373.158	94.75
373.384	93.75
373.61	89.75
373.835	84.75
374.061	81.75
374.287	93.75
374.513	85.75
374.739	76.75
374.965	77.75
375.191	98.75
375.416	95.75
375.642	74.75
375.868	75.75
376.094	84.75
376.319	89.75
376.545	76.75
376.771	78.75
376.997	73.75
377.222	90.75
377.448	68.75
377.674	97.75
377.899	88.75
378.125	71.75
378.35	81.75
378.576	86.75
378.802	85.75
379.027	81.75
379.253	88.75
379.478	74.75
379.704	87.75
379.929	88.75
380.155	91.75
380.38	93.75
380.606	86.75
380.831	85.75
381.057	93.75
381.282	76.75
381.507	69.75
381.733	87.75
381.958	100.75
382.184	79.75
382.409	89.75
382.634	89.75
382.86	94.75
383.085	84.75
383.31	83.75
383.535	72.75
383.761	98.75
383.986	98.75
384.211	85.75
384.436	88.75
384.662	84.75
384.887	88.75
385.112	73.75
385.337	90.75
385.562	93.75
385.787	102.75
386.013	98.75
386.238	84.75
386.463	83.75
386.688	101.75
386.913	81.75
387.138	93.75
387.363	94.75
387.588	77.75
387.813	87.75
388.038	92.75
388.263	95.75
388.488	90.75
388.713	94.75
388.938	84.75
389.163	79.75
389.387	81.75
389.612	79.75
389.837	77.75
390.062	94.75
390.287	90.75
390.512	86.75
390.736	96.75
390.961	76.75
391.186	89.75
391.411	84.75
391.636	76.75
391.86	78.75
392.085	89.75
392.31	102.75
392.534	94.75
392.759	86.75
392.984	79.75
393.208	83.75
393.433	77.75
393.658	86.75
393.882	103.75
394.107	90.75
394.331	91.75
394.556	76.75
394.78	91.75
395.005	93.75
395.229	92.75
395.454	102.75
395.678	85.75
395.903	97.75
396.127	78.75
396.352	79.75
396.576	84.75
396.801	76.75
397.025	96.75
397.249	86.75
397.474	86.75
397.698	79.75
397.922	88.75
398.147	88.75
398.371	95.75
398.595	90.75
398.82	93.75
399.044	78.75
399.268	84.75
399.492	86.75
399.717	93.75
399.941	102.75
400.165	101.75
400.389	89.75
400.613	102.75
400.837	100.75
401.062	78.75
401.286	81.75
401.51	102.75
401.734	88.75
401.958	82.75
402.182	86.75
402.406	95.75
402.63	80.75
402.854	82.75
403.078	90.75
403.302	98.75
403.526	92.75
403.75	94.75
403.974	90.75
404.198	89.75
404.422	94.75
404.645	94.75
404.869	94.75
405.093	96.75
405.317	85.75
405.541	81.75
405.765	87.75
405.988	92.75
406.212	86.75
406.436	94.75
406.66	88.75
406.883	89.75
407.107	94.75
407.331	81.75
407.555	96.75
407.778	77.75
408.002	89.75
408.226	94.75
408.449	106.75
408.673	80.75
408.896	94.75
409.12	87.75
409.344	86.75
409.567	85.75
409.791	90.75
410.014	90.75
410.238	86.75
410.461	83.75
410.685	85.75
410.908	97.75
411.132	91.75
411.355	89.75
411.578	95.75
411.802	88.75
412.025	79.75
412.249	89.75
412.472	82.75
412.695	83.75
412.919	90.75
413.142	88.75
413.365	95.75
413.589	96.75
413.812	82.75
414.035	82.75
414.258	95.75
414.482	87.75
414.705	81.75
414.928	89.75
415.151	89.75
415.374	83.75
415.597	94.75
415.821	89.75
416.044	93.75
416.267	83.75
416.49	87.75
416.713	95.75
416.936	86.75
417.159	87.75
417.382	85.75
417.605	87.75
417.828	94.75
418.051	82.75
418.274	84.75
418.497	86.75
418.72	89.75
418.943	80.75
419.166	87.75
419.389	81.75
419.611	91.75
419.834	97.75
420.057	100.75
420.28	64.75
420.503	71.75
420.726	89.75
420.948	80.75
421.171	96.75
421.394	76.75
421.617	79.75
421.839	97.75
422.062	87.75
422.285	82.75
422.507	94.75
422.73	94.75
422.953	94.75
423.175	76.75
423.398	77.75
423.621	72.75
423.843	95.75
424.066	83.75
424.288	77.75
424.511	81.75
424.733	88.75
424.956	73.75
425.178	72.75
425.401	73.75
425.623	86.75
425.846	83.75
426.068	89.75
426.291	85.75
426.513	77.75
426.735	87.75
426.958	84.75
427.18	92.75
427.402	85.75
427.625	76.75
427.847	87.75
428.069	84.75
428.292	86.75
428.514	83.75
428.736	86.75
428.958	90.75
429.181	73.75
429.403	69.75
429.625	81.75
429.847	91.75
430.069	80.75
430.292	90.75
430.514	93.75
430.736	90.75
430.958	73.75
431.18	81.75
431.402	86.75
431.624	88.75
431.846	89.75
432.068	83.75
432.29	85.75
432.512	81.75
432.734	92.75
432.956	99.75
433.178	89.75
433.4	76.75
433.622	80.75
433.844	86.75
434.066	89.75
434.287	96.75
434.509	86.75
434.731	80.75
434.953	100.75
435.175	90.75
435.397	88.75
435.618	85.75
435.84	100.75
436.062	83.75
436.284	78.75
436.505	84.75
436.727	87.75
436.949	94.75
437.17	77.75
437.392	65.75
437.614	79.75
437.835	94.75
438.057	94.75
438.278	80.75
438.5	90.75
438.721	86.75
438.943	80.75
439.165	92.75
439.386	98.75
439.608	84.75
439.829	87.75
440.05	76.75
440.272	88.75
440.493	76.75
440.715	76.75
440.936	75.75
441.158	91.75
441.379	84.75
441.6	92.75
441.822	92.75
442.043	94.75
442.264	95.75
442.486	84.75
442.707	72.75
442.928	76.75
443.149	91.75
443.371	96.75
443.592	68.75
443.813	77.75
444.034	95.75
444.255	87.75
444.476	80.75
444.698	87.75
444.919	86.75
445.14	160.75
445.361	117.75
445.582	94.75
445.803	78.75
446.024	80.75
446.245	86.75
446.466	86.75
446.687	84.75
446.908	84.75
447.129	81.75
447.35	80.75
447.571	78.75
447.792	74.75
448.013	81.75
448.234	84.75
448.455	85.75
448.675	70.75
448.896	102.75
449.117	79.75
449.338	79.75
449.559	88.75
449.779	84.75
450	81.75
450.221	76.75
450.442	88.75
450.662	78.75
450.883	82.75
451.104	86.75
451.324	73.75
451.545	92.75
451.766	77.75
451.986	80.75
452.207	81.75
452.428	88.75
452.648	78.75
452.869	84.75
453.089	97.75
453.31	88.75
453.53	82.75
453.751	78.75
453.971	80.75
454.192	88.75
454.412	91.75
454.633	77.75
454.853	81.75
455.073	80.75
455.294	87.75
455.514	85.75
455.734	92.75
455.955	74.75
456.175	80.75
456.395	97.75
456.616	83.75
456.836	88.75
457.056	85.75
457.276	72.75
457.497	94.75
457.717	84.75
457.937	84.75
458.157	71.75
458.377	97.75
458.598	76.75
458.818	76.75
459.038	94.75
459.258	80.75
459.478	68.75
459.698	77.75
459.918	79.75
460.138	88.75
460.358	91.75
460.578	87.75
460.798	86.75
461.018	75.75
461.238	81.75
461.458	99.75
461.678	98.75
461.898	84.75
462.118	84.75
462.338	85.75
462.558	93.75
462.777	97.75
462.997	91.75
463.217	108.75
463.437	97.75
463.657	78.75
463.876	82.75
464.096	82.75
464.316	73.75
464.536	93.75
464.755	96.75
464.975	84.75
465.195	96.75
465.414	89.75
465.634	92.75
465.854	94.75
466.073	94.75
466.293	75.75
466.512	73.75
466.732	72.75
466.951	81.75
467.171	101.75
467.391	74.75
467.61	84.75
467.829	80.75
468.049	86.75
468.268	91.75
468.488	89.75
468.707	92.75
468.927	84.75
469.146	71.75
469.365	91.75
469.585	94.75
469.804	93.75
470.023	81.75
470.243	91.75
470.462	87.75
470.681	88.75
470.901	82.75
471.12	77.75
471.339	94.75
471.558	91.75
471.777	89.75
471.997	88.75
472.216	88.75
472.435	81.75
472.654	78.75
472.873	88.75
473.092	88.75
473.311	76.75
473.53	86.75
473.749	94.75
473.968	92.75
474.187	81.75
474.406	95.75
474.625	80.75
474.844	83.75
475.063	96.75
475.282	70.75
475.501	75.75
475.72	88.75
475.939	76.75
476.158	84.75
476.377	95.75
476.596	85.75
476.814	87.75
477.033	82.75
477.252	110.75
477.471	100.75
477.69	96.75
477.908	98.75
478.127	86.75
478.346	90.75
478.564	80.75
478.783	82.75
479.002	82.75
479.22	92.75
479.439	95.75
479.658	90.75
479.876	85.75
480.095	86.75
480.313	83.75
480.532	80.75
480.751	83.75
480.969	81.75
481.188	90.75
481.406	96.75
481.624	102.75
481.843	86.75
482.061	83.75
482.28	90.75
482.498	84.75
482.717	86.75
482.935	105.75
483.153	81.75
483.372	93.75
483.59	93.75
483.808	84.75
484.027	80.75
484.245	92.75
484.463	84.75
484.681	91.75
484.9	95.75
485.118	84.75
485.336	86.75
485.554	84.75
485.772	84.75
485.99	86.75
486.209	85.75
486.427	80.75
486.645	98.75
486.863	91.75
487.081	88.75
487.299	97.75
487.517	80.75
487.735	88.75
487.953	89.75
488.171	96.75
488.389	81.75
488.607	86.75
488.825	91.75
489.043	96.75
489.261	93.75
489.479	76.75
489.696	83.75
489.914	88.75
490.132	95.75
490.35	79.75
490.568	94.75
490.786	89.75
491.003	92.75
491.221	88.75
491.439	90.75
491.657	89.75
491.874	90.75
492.092	89.75
492.31	96.75
492.527	87.75
492.745	92.75
492.963	87.75
493.18	80.75
493.398	89.75
493.615	101.75
493.833	78.75
494.05	86.75
494.268	96.75
494.485	86.75
494.703	80.75
494.92	71.75
495.138	90.75
495.355	103.75
495.573	92.75
495.79	96.75
496.008	87.75
496.225	83.75
496.442	92.75
496.66	91.75
496.877	85.75
497.094	103.75
497.312	88.75
497.529	93.75
497.746	92.75
497.963	88.75
498.181	87.75
498.398	102.75
498.615	94.75
498.832	91.75
499.049	93.75
499.267	92.75
499.484	94.75
499.701	104.75
499.918	104.75
500.135	100.75
500.352	110.75
500.569	109.75
500.786	100.75
501.003	100.75
501.22	86.75
501.437	96.75
501.654	83.75
501.871	105.75
502.088	99.75
502.305	76.75
502.522	96.75
502.739	98.75
502.956	82.75
503.172	83.75
503.389	86.75
503.606	70.75
503.823	85.75
504.04	76.75
504.256	93.75
504.473	87.75
504.69	96.75
504.907	84.75
505.123	95.75
505.34	106.75
505.557	75.75
505.773	88.75
505.99	88.75
506.207	70.75
506.423	86.75
506.64	87.75
506.856	81.75
507.073	78.75
507.289	95.75
507.506	85.75
507.722	89.75
507.939	77.75
508.155	90.75
508.372	84.75
508.588	72.75
508.805	87.75
509.021	86.75
509.238	94.75
509.454	84.75
509.67	90.75
509.887	86.75
510.103	92.75
510.319	83.75
510.536	86.75
510.752	89.75
510.968	86.75
511.184	65.75
511.401	62.75
511.617	95.75
511.833	89.75
512.049	84.75
512.265	103.75
512.481	93.75
512.698	86.75
512.914	70.75
513.13	84.75
513.346	84.75
513.562	104.75
513.778	85.75
513.994	91.75
514.21	105.75
514.426	79.75
514.642	96.75
514.858	98.75
515.074	77.75
515.29	80.75
515.506	90.75
515.721	82.75
515.937	73.75
516.153	82.75
516.369	81.75
516.585	91.75
516.801	80.75
517.016	84.75
517.232	75.75
517.448	103.75
517.664	80.75
517.879	82.75
518.095	89.75
518.311	86.75
518.527	102.75
518.742	101.75
518.958	86.75
519.173	93.75
519.389	75.75
