Data from BG_HRD10591_087.txt Node
Date: Fri May 16 15:33:50 EDT 2025
User: Yrep
Spectrometer: HR+D1059
Trigger mode: 1
Integration Time (sec): 1.000000E-1
Scans to average: 1
Electric dark correction enabled: true
Nonlinearity correction enabled: false
Boxcar width: 0
XAxis mode: Wavelengths
Number of Pixels in Spectrum: 2048
>>>>>Begin Spectral Data<<<<<
223.165	-24.75
223.4	-24.75
223.635	-24.75
223.869	-27.75
224.104	-21.75
224.338	-14.75
224.573	-19.75
224.808	-5.75
225.042	-1.75
225.277	-2.75
225.511	-2.75
225.746	5.25
225.98	10.25
226.215	8.25
226.449	25.25
226.683	14.25
226.918	33.25
227.152	25.25
227.387	33.25
227.621	34.25
227.856	34.25
228.09	31.25
228.324	43.25
228.559	61.25
228.793	61.25
229.027	51.25
229.262	68.25
229.496	70.25
229.73	67.25
229.964	80.25
230.199	64.25
230.433	76.25
230.667	86.25
230.901	70.25
231.136	69.25
231.37	81.25
231.604	84.25
231.838	78.25
232.072	78.25
232.306	74.25
232.541	92.25
232.775	72.25
233.009	87.25
233.243	84.25
233.477	89.25
233.711	76.25
233.945	83.25
234.179	83.25
234.413	83.25
234.647	78.25
234.881	78.25
235.115	69.25
235.349	77.25
235.583	77.25
235.817	74.25
236.051	66.25
236.285	60.25
236.519	77.25
236.753	82.25
236.987	74.25
237.221	86.25
237.455	66.25
237.689	86.25
237.922	80.25
238.156	72.25
238.39	61.25
238.624	68.25
238.858	78.25
239.091	64.25
239.325	72.25
239.559	82.25
239.793	69.25
240.027	80.25
240.26	76.25
240.494	79.25
240.728	65.25
240.961	72.25
241.195	78.25
241.429	74.25
241.662	70.25
241.896	82.25
242.13	72.25
242.363	74.25
242.597	90.25
242.83	76.25
243.064	74.25
243.298	83.25
243.531	54.25
243.765	79.25
243.998	85.25
244.232	72.25
244.465	72.25
244.699	84.25
244.932	80.25
245.166	82.25
245.399	72.25
245.633	80.25
245.866	70.25
246.099	76.25
246.333	88.25
246.566	53.25
246.8	70.25
247.033	90.25
247.266	76.25
247.5	66.25
247.733	74.25
247.966	76.25
248.2	65.25
248.433	79.25
248.666	86.25
248.899	78.25
249.133	77.25
249.366	77.25
249.599	88.25
249.832	80.25
250.066	76.25
250.299	72.25
250.532	78.25
250.765	69.25
250.998	67.25
251.231	85.25
251.465	83.25
251.698	84.25
251.931	68.25
252.164	78.25
252.397	61.25
252.63	82.25
252.863	75.25
253.096	83.25
253.329	72.25
253.562	93.25
253.795	79.25
254.028	78.25
254.261	83.25
254.494	66.25
254.727	74.25
254.96	84.25
255.193	83.25
255.426	65.25
255.659	73.25
255.892	82.25
256.124	70.25
256.357	87.25
256.59	80.25
256.823	79.25
257.056	80.25
257.289	81.25
257.521	84.25
257.754	69.25
257.987	81.25
258.22	68.25
258.452	73.25
258.685	87.25
258.918	73.25
259.151	73.25
259.383	78.25
259.616	72.25
259.849	77.25
260.081	69.25
260.314	86.25
260.547	81.25
260.779	81.25
261.012	76.25
261.244	79.25
261.477	90.25
261.71	69.25
261.942	81.25
262.175	86.25
262.407	79.25
262.64	62.25
262.872	80.25
263.105	73.25
263.337	60.25
263.57	86.25
263.802	80.25
264.035	74.25
264.267	81.25
264.499	74.25
264.732	74.25
264.964	82.25
265.197	93.25
265.429	77.25
265.661	79.25
265.894	80.25
266.126	73.25
266.358	84.25
266.591	82.25
266.823	81.25
267.055	84.25
267.287	80.25
267.52	74.25
267.752	67.25
267.984	97.25
268.216	83.25
268.448	98.25
268.681	74.25
268.913	88.25
269.145	84.25
269.377	77.25
269.609	82.25
269.841	84.25
270.073	93.25
270.306	84.25
270.538	77.25
270.77	74.25
271.002	80.25
271.234	96.25
271.466	92.25
271.698	81.25
271.93	78.25
272.162	71.25
272.394	73.25
272.626	78.25
272.858	85.25
273.09	86.25
273.322	85.25
273.553	88.25
273.785	76.25
274.017	75.25
274.249	86.25
274.481	59.25
274.713	81.25
274.945	76.25
275.176	78.25
275.408	80.25
275.64	85.25
275.872	78.25
276.104	84.25
276.335	73.25
276.567	78.25
276.799	75.25
277.031	82.25
277.262	88.25
277.494	79.25
277.726	82.25
277.957	75.25
278.189	82.25
278.421	78.25
278.652	75.25
278.884	77.25
279.115	76.25
279.347	82.25
279.579	87.25
279.81	82.25
280.042	70.25
280.273	76.25
280.505	77.25
280.736	85.25
280.968	77.25
281.199	81.25
281.431	86.25
281.662	78.25
281.894	85.25
282.125	87.25
282.356	72.25
282.588	98.25
282.819	85.25
283.051	80.25
283.282	80.25
283.513	78.25
283.745	94.25
283.976	90.25
284.207	76.25
284.439	73.25
284.67	85.25
284.901	69.25
285.132	73.25
285.364	75.25
285.595	93.25
285.826	88.25
286.057	92.25
286.288	79.25
286.52	79.25
286.751	76.25
286.982	81.25
287.213	87.25
287.444	76.25
287.675	84.25
287.906	79.25
288.138	74.25
288.369	84.25
288.6	80.25
288.831	79.25
289.062	82.25
289.293	92.25
289.524	93.25
289.755	68.25
289.986	90.25
290.217	85.25
290.448	87.25
290.679	69.25
290.91	79.25
291.141	90.25
291.371	80.25
291.602	80.25
291.833	85.25
292.064	103.25
292.295	81.25
292.526	62.25
292.757	83.25
292.987	82.25
293.218	68.25
293.449	81.25
293.68	80.25
293.91	78.25
294.141	86.25
294.372	91.25
294.603	82.25
294.833	80.25
295.064	80.25
295.295	86.25
295.525	78.25
295.756	84.25
295.987	78.25
296.217	80.25
296.448	81.25
296.679	73.25
296.909	83.25
297.14	86.25
297.37	90.25
297.601	75.25
297.831	94.25
298.062	78.25
298.292	86.25
298.523	81.25
298.753	95.25
298.984	83.25
299.214	80.25
299.445	86.25
299.675	84.25
299.905	87.25
300.136	79.25
300.366	78.25
300.597	87.25
300.827	82.25
301.057	86.25
301.288	83.25
301.518	93.25
301.748	87.25
301.979	96.25
302.209	73.25
302.439	86.25
302.669	79.25
302.9	82.25
303.13	86.25
303.36	72.25
303.59	82.25
303.82	91.25
304.051	76.25
304.281	84.25
304.511	92.25
304.741	83.25
304.971	82.25
305.201	93.25
305.431	81.25
305.661	60.25
305.891	82.25
306.121	78.25
306.352	89.25
306.582	86.25
306.812	95.25
307.042	92.25
307.272	66.25
307.502	77.25
307.731	75.25
307.961	84.25
308.191	85.25
308.421	90.25
308.651	73.25
308.881	77.25
309.111	69.25
309.341	74.25
309.571	91.25
309.8	86.25
310.03	88.25
310.26	73.25
310.49	62.25
310.72	79.25
310.949	77.25
311.179	80.25
311.409	89.25
311.639	86.25
311.868	73.25
312.098	96.25
312.328	82.25
312.557	95.25
312.787	74.25
313.017	84.25
313.246	92.25
313.476	88.25
313.706	63.25
313.935	88.25
314.165	88.25
314.394	77.25
314.624	80.25
314.853	85.25
315.083	81.25
315.312	104.25
315.542	99.25
315.771	74.25
316.001	90.25
316.23	79.25
316.46	86.25
316.689	86.25
316.919	81.25
317.148	92.25
317.377	82.25
317.607	92.25
317.836	67.25
318.065	85.25
318.295	101.25
318.524	85.25
318.753	90.25
318.983	82.25
319.212	84.25
319.441	79.25
319.67	80.25
319.9	78.25
320.129	87.25
320.358	87.25
320.587	96.25
320.816	94.25
321.046	89.25
321.275	90.25
321.504	92.25
321.733	86.25
321.962	88.25
322.191	81.25
322.42	75.25
322.649	87.25
322.878	88.25
323.108	79.25
323.337	88.25
323.566	86.25
323.795	95.25
324.024	84.25
324.253	87.25
324.482	75.25
324.71	71.25
324.939	80.25
325.168	79.25
325.397	88.25
325.626	84.25
325.855	78.25
326.084	73.25
326.313	86.25
326.542	88.25
326.77	87.25
326.999	95.25
327.228	82.25
327.457	84.25
327.686	86.25
327.914	79.25
328.143	88.25
328.372	91.25
328.6	77.25
328.829	70.25
329.058	90.25
329.287	79.25
329.515	95.25
329.744	85.25
329.972	79.25
330.201	79.25
330.43	73.25
330.658	92.25
330.887	82.25
331.115	80.25
331.344	75.25
331.572	83.25
331.801	86.25
332.03	74.25
332.258	77.25
332.486	75.25
332.715	80.25
332.943	86.25
333.172	81.25
333.4	78.25
333.629	78.25
333.857	78.25
334.085	78.25
334.314	73.25
334.542	77.25
334.771	83.25
334.999	103.25
335.227	84.25
335.455	91.25
335.684	95.25
335.912	98.25
336.14	90.25
336.369	86.25
336.597	75.25
336.825	94.25
337.053	88.25
337.281	65.25
337.51	70.25
337.738	93.25
337.966	80.25
338.194	78.25
338.422	81.25
338.65	86.25
338.878	86.25
339.106	86.25
339.334	85.25
339.562	79.25
339.79	89.25
340.018	84.25
340.246	76.25
340.474	94.25
340.702	96.25
340.93	78.25
341.158	96.25
341.386	84.25
341.614	92.25
341.842	90.25
342.07	84.25
342.298	85.25
342.526	91.25
342.754	83.25
342.981	82.25
343.209	88.25
343.437	93.25
343.665	90.25
343.893	84.25
344.12	84.25
344.348	90.25
344.576	78.25
344.804	78.25
345.031	87.25
345.259	87.25
345.487	93.25
345.714	73.25
345.942	86.25
346.17	84.25
346.397	77.25
346.625	76.25
346.853	81.25
347.08	99.25
347.308	81.25
347.535	80.25
347.763	71.25
347.99	78.25
348.218	92.25
348.445	82.25
348.673	91.25
348.9	96.25
349.128	76.25
349.355	91.25
349.583	84.25
349.81	87.25
350.037	80.25
350.265	76.25
350.492	72.25
350.72	76.25
350.947	86.25
351.174	63.25
351.402	75.25
351.629	64.25
351.856	75.25
352.083	76.25
352.311	79.25
352.538	88.25
352.765	91.25
352.992	100.25
353.22	97.25
353.447	78.25
353.674	80.25
353.901	81.25
354.128	85.25
354.355	62.25
354.583	96.25
354.81	85.25
355.037	71.25
355.264	89.25
355.491	71.25
355.718	89.25
355.945	89.25
356.172	95.25
356.399	80.25
356.626	74.25
356.853	86.25
357.08	86.25
357.307	91.25
357.534	73.25
357.761	82.25
357.988	78.25
358.215	92.25
358.441	91.25
358.668	93.25
358.895	83.25
359.122	76.25
359.349	61.25
359.576	89.25
359.802	94.25
360.029	78.25
360.256	85.25
360.483	93.25
360.709	71.25
360.936	91.25
361.163	85.25
361.39	72.25
361.616	63.25
361.843	89.25
362.07	91.25
362.296	84.25
362.523	80.25
362.749	74.25
362.976	74.25
363.203	101.25
363.429	78.25
363.656	73.25
363.882	91.25
364.109	84.25
364.335	80.25
364.562	95.25
364.788	90.25
365.015	79.25
365.241	82.25
365.468	77.25
365.694	89.25
365.92	92.25
366.147	82.25
366.373	68.25
366.599	79.25
366.826	85.25
367.052	74.25
367.278	74.25
367.505	70.25
367.731	80.25
367.957	96.25
368.184	79.25
368.41	96.25
368.636	89.25
368.862	72.25
369.089	78.25
369.315	77.25
369.541	93.25
369.767	66.25
369.993	79.25
370.219	86.25
370.445	89.25
370.672	78.25
370.898	74.25
371.124	84.25
371.35	72.25
371.576	66.25
371.802	82.25
372.028	75.25
372.254	67.25
372.48	83.25
372.706	93.25
372.932	77.25
373.158	92.25
373.384	86.25
373.61	78.25
373.835	85.25
374.061	74.25
374.287	72.25
374.513	93.25
374.739	78.25
374.965	78.25
375.191	79.25
375.416	78.25
375.642	76.25
375.868	98.25
376.094	72.25
376.319	84.25
376.545	80.25
376.771	89.25
376.997	84.25
377.222	86.25
377.448	82.25
377.674	80.25
377.899	69.25
378.125	62.25
378.35	80.25
378.576	81.25
378.802	73.25
379.027	86.25
379.253	72.25
379.478	78.25
379.704	81.25
379.929	76.25
380.155	81.25
380.38	81.25
380.606	92.25
380.831	78.25
381.057	81.25
381.282	68.25
381.507	82.25
381.733	90.25
381.958	79.25
382.184	92.25
382.409	80.25
382.634	77.25
382.86	83.25
383.085	77.25
383.31	74.25
383.535	73.25
383.761	76.25
383.986	76.25
384.211	98.25
384.436	84.25
384.662	80.25
384.887	67.25
385.112	82.25
385.337	89.25
385.562	81.25
385.787	72.25
386.013	85.25
386.238	98.25
386.463	79.25
386.688	86.25
386.913	71.25
387.138	70.25
387.363	84.25
387.588	84.25
387.813	96.25
388.038	85.25
388.263	97.25
388.488	85.25
388.713	81.25
388.938	81.25
389.163	81.25
389.387	78.25
389.612	67.25
389.837	76.25
390.062	79.25
390.287	96.25
390.512	76.25
390.736	77.25
390.961	79.25
391.186	80.25
391.411	71.25
391.636	75.25
391.86	96.25
392.085	80.25
392.31	81.25
392.534	72.25
392.759	72.25
392.984	73.25
393.208	75.25
393.433	85.25
393.658	78.25
393.882	76.25
394.107	76.25
394.331	87.25
394.556	81.25
394.78	83.25
395.005	77.25
395.229	78.25
395.454	79.25
395.678	91.25
395.903	92.25
396.127	93.25
396.352	84.25
396.576	65.25
396.801	70.25
397.025	86.25
397.249	80.25
397.474	95.25
397.698	77.25
397.922	79.25
398.147	82.25
398.371	76.25
398.595	90.25
398.82	70.25
399.044	92.25
399.268	94.25
399.492	74.25
399.717	85.25
399.941	88.25
400.165	77.25
400.389	79.25
400.613	88.25
400.837	80.25
401.062	92.25
401.286	81.25
401.51	90.25
401.734	84.25
401.958	94.25
402.182	84.25
402.406	76.25
402.63	78.25
402.854	74.25
403.078	67.25
403.302	79.25
403.526	77.25
403.75	99.25
403.974	83.25
404.198	80.25
404.422	84.25
404.645	74.25
404.869	67.25
405.093	72.25
405.317	77.25
405.541	80.25
405.765	70.25
405.988	70.25
406.212	71.25
406.436	81.25
406.66	76.25
406.883	90.25
407.107	81.25
407.331	84.25
407.555	86.25
407.778	80.25
408.002	80.25
408.226	82.25
408.449	92.25
408.673	74.25
408.896	75.25
409.12	65.25
409.344	79.25
409.567	87.25
409.791	88.25
410.014	72.25
410.238	63.25
410.461	77.25
410.685	100.25
410.908	76.25
411.132	73.25
411.355	80.25
411.578	93.25
411.802	76.25
412.025	88.25
412.249	64.25
412.472	71.25
412.695	75.25
412.919	67.25
413.142	82.25
413.365	90.25
413.589	87.25
413.812	86.25
414.035	78.25
414.258	87.25
414.482	64.25
414.705	72.25
414.928	66.25
415.151	90.25
415.374	76.25
415.597	80.25
415.821	82.25
416.044	78.25
416.267	87.25
416.49	72.25
416.713	77.25
416.936	62.25
417.159	80.25
417.382	84.25
417.605	76.25
417.828	89.25
418.051	88.25
418.274	86.25
418.497	81.25
418.72	74.25
418.943	80.25
419.166	93.25
419.389	93.25
419.611	85.25
419.834	74.25
420.057	86.25
420.28	77.25
420.503	61.25
420.726	78.25
420.948	65.25
421.171	81.25
421.394	96.25
421.617	80.25
421.839	84.25
422.062	85.25
422.285	78.25
422.507	90.25
422.73	73.25
422.953	67.25
423.175	80.25
423.398	79.25
423.621	74.25
423.843	85.25
424.066	86.25
424.288	70.25
424.511	79.25
424.733	72.25
424.956	72.25
425.178	80.25
425.401	78.25
425.623	92.25
425.846	83.25
426.068	62.25
426.291	73.25
426.513	94.25
426.735	90.25
426.958	73.25
427.18	92.25
427.402	74.25
427.625	79.25
427.847	66.25
428.069	88.25
428.292	73.25
428.514	73.25
428.736	85.25
428.958	75.25
429.181	73.25
429.403	76.25
429.625	70.25
429.847	85.25
430.069	94.25
430.292	92.25
430.514	81.25
430.736	78.25
430.958	90.25
431.18	79.25
431.402	81.25
431.624	78.25
431.846	85.25
432.068	82.25
432.29	85.25
432.512	81.25
432.734	67.25
432.956	82.25
433.178	82.25
433.4	74.25
433.622	71.25
433.844	73.25
434.066	77.25
434.287	74.25
434.509	88.25
434.731	81.25
434.953	71.25
435.175	82.25
435.397	82.25
435.618	84.25
435.84	88.25
436.062	94.25
436.284	77.25
436.505	72.25
436.727	76.25
436.949	59.25
437.17	81.25
437.392	90.25
437.614	74.25
437.835	87.25
438.057	82.25
438.278	78.25
438.5	90.25
438.721	86.25
438.943	74.25
439.165	85.25
439.386	100.25
439.608	86.25
439.829	75.25
440.05	70.25
440.272	84.25
440.493	73.25
440.715	84.25
440.936	88.25
441.158	81.25
441.379	95.25
441.6	83.25
441.822	80.25
442.043	75.25
442.264	83.25
442.486	89.25
442.707	76.25
442.928	92.25
443.149	66.25
443.371	74.25
443.592	82.25
443.813	87.25
444.034	80.25
444.255	76.25
444.476	80.25
444.698	74.25
444.919	74.25
445.14	135.25
445.361	102.25
445.582	90.25
445.803	71.25
446.024	84.25
446.245	95.25
446.466	91.25
446.687	78.25
446.908	71.25
447.129	81.25
447.35	87.25
447.571	74.25
447.792	99.25
448.013	64.25
448.234	74.25
448.455	74.25
448.675	79.25
448.896	69.25
449.117	79.25
449.338	76.25
449.559	70.25
449.779	81.25
450	75.25
450.221	79.25
450.442	74.25
450.662	74.25
450.883	79.25
451.104	84.25
451.324	74.25
451.545	89.25
451.766	88.25
451.986	77.25
452.207	88.25
452.428	72.25
452.648	84.25
452.869	74.25
453.089	60.25
453.31	78.25
453.53	85.25
453.751	83.25
453.971	92.25
454.192	81.25
454.412	81.25
454.633	74.25
454.853	62.25
455.073	76.25
455.294	73.25
455.514	80.25
455.734	63.25
455.955	84.25
456.175	82.25
456.395	81.25
456.616	84.25
456.836	84.25
457.056	92.25
457.276	81.25
457.497	86.25
457.717	90.25
457.937	63.25
458.157	80.25
458.377	84.25
458.598	76.25
458.818	80.25
459.038	77.25
459.258	84.25
459.478	74.25
459.698	71.25
459.918	74.25
460.138	64.25
460.358	65.25
460.578	65.25
460.798	81.25
461.018	96.25
461.238	85.25
461.458	69.25
461.678	81.25
461.898	86.25
462.118	81.25
462.338	80.25
462.558	88.25
462.777	77.25
462.997	66.25
463.217	79.25
463.437	77.25
463.657	74.25
463.876	83.25
464.096	84.25
464.316	80.25
464.536	71.25
464.755	86.25
464.975	76.25
465.195	65.25
465.414	82.25
465.634	62.25
465.854	92.25
466.073	62.25
466.293	71.25
466.512	74.25
466.732	92.25
466.951	79.25
467.171	74.25
467.391	83.25
467.61	75.25
467.829	51.25
468.049	83.25
468.268	87.25
468.488	93.25
468.707	67.25
468.927	70.25
469.146	64.25
469.365	90.25
469.585	84.25
469.804	78.25
470.023	79.25
470.243	53.25
470.462	76.25
470.681	96.25
470.901	91.25
471.12	86.25
471.339	92.25
471.558	72.25
471.777	87.25
471.997	90.25
472.216	83.25
472.435	79.25
472.654	88.25
472.873	94.25
473.092	78.25
473.311	82.25
473.53	87.25
473.749	77.25
473.968	70.25
474.187	62.25
474.406	87.25
474.625	84.25
474.844	86.25
475.063	76.25
475.282	82.25
475.501	73.25
475.72	72.25
475.939	81.25
476.158	83.25
476.377	73.25
476.596	79.25
476.814	83.25
477.033	89.25
477.252	80.25
477.471	85.25
477.69	68.25
477.908	80.25
478.127	88.25
478.346	93.25
478.564	76.25
478.783	76.25
479.002	80.25
479.22	80.25
479.439	76.25
479.658	85.25
479.876	86.25
480.095	80.25
480.313	78.25
480.532	81.25
480.751	78.25
480.969	76.25
481.188	106.25
481.406	72.25
481.624	80.25
481.843	75.25
482.061	76.25
482.28	74.25
482.498	78.25
482.717	73.25
482.935	85.25
483.153	84.25
483.372	82.25
483.59	79.25
483.808	72.25
484.027	67.25
484.245	81.25
484.463	84.25
484.681	87.25
484.9	77.25
485.118	94.25
485.336	83.25
485.554	92.25
485.772	83.25
485.99	84.25
486.209	71.25
486.427	81.25
486.645	68.25
486.863	86.25
487.081	74.25
487.299	90.25
487.517	71.25
487.735	76.25
487.953	79.25
488.171	89.25
488.389	80.25
488.607	75.25
488.825	89.25
489.043	82.25
489.261	90.25
489.479	88.25
489.696	82.25
489.914	81.25
490.132	71.25
490.35	81.25
490.568	84.25
490.786	81.25
491.003	87.25
491.221	74.25
491.439	89.25
491.657	80.25
491.874	75.25
492.092	66.25
492.31	72.25
492.527	78.25
492.745	93.25
492.963	80.25
493.18	80.25
493.398	73.25
493.615	77.25
493.833	73.25
494.05	80.25
494.268	63.25
494.485	76.25
494.703	79.25
494.92	79.25
495.138	77.25
495.355	85.25
495.573	76.25
495.79	85.25
496.008	71.25
496.225	79.25
496.442	88.25
496.66	86.25
496.877	70.25
497.094	78.25
497.312	79.25
497.529	78.25
497.746	84.25
497.963	80.25
498.181	76.25
498.398	80.25
498.615	84.25
498.832	72.25
499.049	95.25
499.267	77.25
499.484	77.25
499.701	78.25
499.918	87.25
500.135	73.25
500.352	88.25
500.569	73.25
500.786	84.25
501.003	86.25
501.22	73.25
501.437	79.25
501.654	74.25
501.871	93.25
502.088	95.25
502.305	76.25
502.522	84.25
502.739	97.25
502.956	79.25
503.172	88.25
503.389	80.25
503.606	61.25
503.823	101.25
504.04	74.25
504.256	84.25
504.473	82.25
504.69	90.25
504.907	88.25
505.123	90.25
505.34	92.25
505.557	79.25
505.773	97.25
505.99	88.25
506.207	101.25
506.423	89.25
506.64	78.25
506.856	66.25
507.073	81.25
507.289	88.25
507.506	73.25
507.722	75.25
507.939	78.25
508.155	73.25
508.372	84.25
508.588	75.25
508.805	82.25
509.021	67.25
509.238	80.25
509.454	78.25
509.67	77.25
509.887	61.25
510.103	76.25
510.319	77.25
510.536	82.25
510.752	72.25
510.968	84.25
511.184	77.25
511.401	74.25
511.617	82.25
511.833	66.25
512.049	75.25
512.265	80.25
512.481	77.25
512.698	65.25
512.914	68.25
513.13	85.25
513.346	86.25
513.562	82.25
513.778	89.25
513.994	86.25
514.21	85.25
514.426	81.25
514.642	84.25
514.858	76.25
515.074	77.25
515.29	81.25
515.506	79.25
515.721	78.25
515.937	87.25
516.153	83.25
516.369	89.25
516.585	76.25
516.801	72.25
517.016	64.25
517.232	82.25
517.448	85.25
517.664	78.25
517.879	80.25
518.095	94.25
518.311	83.25
518.527	75.25
518.742	75.25
518.958	80.25
519.173	80.25
519.389	81.25
519.605	75.25
519.82	71.25
520.036	76.25
520.251	84.25
