Data from BG_HRD10591_074.txt Node
Date: Fri May 16 15:33:44 EDT 2025
User: Yrep
Spectrometer: HR+D1059
Trigger mode: 1
Integration Time (sec): 1.000000E-1
Scans to average: 1
Electric dark correction enabled: true
Nonlinearity correction enabled: false
Boxcar width: 0
XAxis mode: Wavelengths
Number of Pixels in Spectrum: 2048
>>>>>Begin Spectral Data<<<<<
223.165	-21.62
223.4	-21.62
223.635	-21.62
223.869	-23.62
224.104	-35.62
224.338	-6.62
224.573	-9.62
224.808	-7.62
225.042	-4.62
225.277	8.38
225.511	-3.62
225.746	-0.62
225.98	-0.62
226.215	14.38
226.449	22.38
226.683	20.38
226.918	21.38
227.152	27.38
227.387	26.38
227.621	35.38
227.856	48.38
228.09	46.38
228.324	37.38
228.559	58.38
228.793	64.38
229.027	57.38
229.262	63.38
229.496	53.38
229.73	65.38
229.964	85.38
230.199	77.38
230.433	85.38
230.667	65.38
230.901	66.38
231.136	86.38
231.37	78.38
231.604	77.38
231.838	70.38
232.072	79.38
232.306	77.38
232.541	90.38
232.775	86.38
233.009	68.38
233.243	72.38
233.477	81.38
233.711	77.38
233.945	76.38
234.179	79.38
234.413	72.38
234.647	84.38
234.881	78.38
235.115	81.38
235.349	78.38
235.583	81.38
235.817	62.38
236.051	64.38
236.285	85.38
236.519	73.38
236.753	84.38
236.987	94.38
237.221	90.38
237.455	80.38
237.689	61.38
237.922	74.38
238.156	78.38
238.39	72.38
238.624	74.38
238.858	76.38
239.091	85.38
239.325	90.38
239.559	73.38
239.793	66.38
240.027	75.38
240.26	62.38
240.494	77.38
240.728	84.38
240.961	85.38
241.195	77.38
241.429	76.38
241.662	65.38
241.896	70.38
242.13	82.38
242.363	74.38
242.597	76.38
242.83	84.38
243.064	72.38
243.298	81.38
243.531	73.38
243.765	77.38
243.998	86.38
244.232	75.38
244.465	76.38
244.699	78.38
244.932	69.38
245.166	73.38
245.399	86.38
245.633	75.38
245.866	74.38
246.099	81.38
246.333	83.38
246.566	85.38
246.8	77.38
247.033	73.38
247.266	70.38
247.5	74.38
247.733	72.38
247.966	84.38
248.2	81.38
248.433	73.38
248.666	76.38
248.899	76.38
249.133	74.38
249.366	80.38
249.599	85.38
249.832	80.38
250.066	71.38
250.299	73.38
250.532	64.38
250.765	70.38
250.998	72.38
251.231	81.38
251.465	98.38
251.698	74.38
251.931	69.38
252.164	87.38
252.397	70.38
252.63	86.38
252.863	72.38
253.096	65.38
253.329	90.38
253.562	84.38
253.795	77.38
254.028	71.38
254.261	76.38
254.494	84.38
254.727	75.38
254.96	66.38
255.193	76.38
255.426	82.38
255.659	81.38
255.892	73.38
256.124	92.38
256.357	94.38
256.59	77.38
256.823	67.38
257.056	100.38
257.289	77.38
257.521	81.38
257.754	77.38
257.987	81.38
258.22	74.38
258.452	84.38
258.685	90.38
258.918	72.38
259.151	80.38
259.383	64.38
259.616	73.38
259.849	92.38
260.081	67.38
260.314	84.38
260.547	80.38
260.779	95.38
261.012	86.38
261.244	78.38
261.477	84.38
261.71	81.38
261.942	78.38
262.175	67.38
262.407	80.38
262.64	81.38
262.872	72.38
263.105	75.38
263.337	80.38
263.57	87.38
263.802	100.38
264.035	79.38
264.267	97.38
264.499	76.38
264.732	81.38
264.964	81.38
265.197	78.38
265.429	73.38
265.661	77.38
265.894	66.38
266.126	80.38
266.358	83.38
266.591	66.38
266.823	79.38
267.055	65.38
267.287	78.38
267.52	82.38
267.752	80.38
267.984	88.38
268.216	87.38
268.448	80.38
268.681	97.38
268.913	73.38
269.145	75.38
269.377	91.38
269.609	86.38
269.841	72.38
270.073	88.38
270.306	90.38
270.538	74.38
270.77	76.38
271.002	77.38
271.234	82.38
271.466	90.38
271.698	79.38
271.93	89.38
272.162	79.38
272.394	78.38
272.626	79.38
272.858	80.38
273.09	81.38
273.322	87.38
273.553	97.38
273.785	88.38
274.017	101.38
274.249	68.38
274.481	80.38
274.713	77.38
274.945	78.38
275.176	86.38
275.408	64.38
275.64	79.38
275.872	87.38
276.104	82.38
276.335	78.38
276.567	90.38
276.799	75.38
277.031	66.38
277.262	72.38
277.494	80.38
277.726	71.38
277.957	87.38
278.189	83.38
278.421	91.38
278.652	79.38
278.884	88.38
279.115	71.38
279.347	84.38
279.579	86.38
279.81	86.38
280.042	75.38
280.273	84.38
280.505	81.38
280.736	74.38
280.968	86.38
281.199	78.38
281.431	81.38
281.662	97.38
281.894	86.38
282.125	70.38
282.356	88.38
282.588	71.38
282.819	76.38
283.051	74.38
283.282	90.38
283.513	96.38
283.745	77.38
283.976	90.38
284.207	91.38
284.439	91.38
284.67	76.38
284.901	84.38
285.132	80.38
285.364	80.38
285.595	98.38
285.826	75.38
286.057	89.38
286.288	75.38
286.52	84.38
286.751	87.38
286.982	80.38
287.213	82.38
287.444	78.38
287.675	80.38
287.906	76.38
288.138	88.38
288.369	81.38
288.6	86.38
288.831	80.38
289.062	89.38
289.293	88.38
289.524	66.38
289.755	69.38
289.986	82.38
290.217	92.38
290.448	103.38
290.679	71.38
290.91	93.38
291.141	86.38
291.371	82.38
291.602	78.38
291.833	93.38
292.064	64.38
292.295	82.38
292.526	77.38
292.757	93.38
292.987	93.38
293.218	70.38
293.449	82.38
293.68	88.38
293.91	64.38
294.141	82.38
294.372	91.38
294.603	93.38
294.833	87.38
295.064	87.38
295.295	80.38
295.525	85.38
295.756	86.38
295.987	84.38
296.217	83.38
296.448	78.38
296.679	76.38
296.909	92.38
297.14	86.38
297.37	80.38
297.601	95.38
297.831	98.38
298.062	93.38
298.292	84.38
298.523	76.38
298.753	100.38
298.984	87.38
299.214	86.38
299.445	77.38
299.675	82.38
299.905	93.38
300.136	90.38
300.366	90.38
300.597	95.38
300.827	79.38
301.057	78.38
301.288	85.38
301.518	83.38
301.748	75.38
301.979	88.38
302.209	79.38
302.439	96.38
302.669	86.38
302.9	91.38
303.13	95.38
303.36	84.38
303.59	80.38
303.82	61.38
304.051	77.38
304.281	85.38
304.511	88.38
304.741	88.38
304.971	88.38
305.201	88.38
305.431	82.38
305.661	98.38
305.891	92.38
306.121	75.38
306.352	71.38
306.582	76.38
306.812	86.38
307.042	81.38
307.272	80.38
307.502	91.38
307.731	90.38
307.961	90.38
308.191	94.38
308.421	81.38
308.651	88.38
308.881	84.38
309.111	95.38
309.341	103.38
309.571	77.38
309.8	93.38
310.03	92.38
310.26	96.38
310.49	77.38
310.72	87.38
310.949	100.38
311.179	90.38
311.409	79.38
311.639	87.38
311.868	90.38
312.098	81.38
312.328	68.38
312.557	94.38
312.787	90.38
313.017	91.38
313.246	81.38
313.476	77.38
313.706	80.38
313.935	84.38
314.165	98.38
314.394	92.38
314.624	73.38
314.853	76.38
315.083	88.38
315.312	89.38
315.542	96.38
315.771	86.38
316.001	90.38
316.23	92.38
316.46	100.38
316.689	86.38
316.919	68.38
317.148	80.38
317.377	90.38
317.607	88.38
317.836	77.38
318.065	102.38
318.295	88.38
318.524	86.38
318.753	83.38
318.983	84.38
319.212	87.38
319.441	90.38
319.67	93.38
319.9	80.38
320.129	80.38
320.358	94.38
320.587	82.38
320.816	83.38
321.046	83.38
321.275	89.38
321.504	84.38
321.733	82.38
321.962	76.38
322.191	81.38
322.42	84.38
322.649	96.38
322.878	70.38
323.108	70.38
323.337	88.38
323.566	83.38
323.795	98.38
324.024	89.38
324.253	90.38
324.482	82.38
324.71	83.38
324.939	80.38
325.168	87.38
325.397	92.38
325.626	88.38
325.855	86.38
326.084	81.38
326.313	72.38
326.542	87.38
326.77	84.38
326.999	78.38
327.228	88.38
327.457	75.38
327.686	77.38
327.914	77.38
328.143	88.38
328.372	87.38
328.6	93.38
328.829	91.38
329.058	79.38
329.287	88.38
329.515	82.38
329.744	100.38
329.972	86.38
330.201	86.38
330.43	90.38
330.658	74.38
330.887	84.38
331.115	89.38
331.344	80.38
331.572	80.38
331.801	93.38
332.03	87.38
332.258	84.38
332.486	88.38
332.715	84.38
332.943	81.38
333.172	89.38
333.4	90.38
333.629	93.38
333.857	88.38
334.085	83.38
334.314	107.38
334.542	88.38
334.771	95.38
334.999	88.38
335.227	85.38
335.455	89.38
335.684	66.38
335.912	82.38
336.14	85.38
336.369	78.38
336.597	84.38
336.825	91.38
337.053	85.38
337.281	74.38
337.51	95.38
337.738	90.38
337.966	90.38
338.194	80.38
338.422	87.38
338.65	74.38
338.878	81.38
339.106	93.38
339.334	94.38
339.562	80.38
339.79	85.38
340.018	91.38
340.246	84.38
340.474	76.38
340.702	80.38
340.93	89.38
341.158	82.38
341.386	89.38
341.614	86.38
341.842	77.38
342.07	63.38
342.298	84.38
342.526	89.38
342.754	80.38
342.981	86.38
343.209	86.38
343.437	88.38
343.665	98.38
343.893	84.38
344.12	82.38
344.348	93.38
344.576	85.38
344.804	76.38
345.031	78.38
345.259	90.38
345.487	76.38
345.714	86.38
345.942	86.38
346.17	74.38
346.397	91.38
346.625	88.38
346.853	84.38
347.08	83.38
347.308	100.38
347.535	85.38
347.763	96.38
347.99	78.38
348.218	64.38
348.445	93.38
348.673	84.38
348.9	82.38
349.128	76.38
349.355	84.38
349.583	88.38
349.81	80.38
350.037	82.38
350.265	87.38
350.492	77.38
350.72	89.38
350.947	87.38
351.174	91.38
351.402	78.38
351.629	80.38
351.856	78.38
352.083	102.38
352.311	103.38
352.538	85.38
352.765	94.38
352.992	77.38
353.22	89.38
353.447	72.38
353.674	100.38
353.901	92.38
354.128	79.38
354.355	91.38
354.583	86.38
354.81	77.38
355.037	79.38
355.264	90.38
355.491	97.38
355.718	80.38
355.945	81.38
356.172	94.38
356.399	78.38
356.626	87.38
356.853	90.38
357.08	87.38
357.307	96.38
357.534	91.38
357.761	59.38
357.988	77.38
358.215	92.38
358.441	83.38
358.668	76.38
358.895	86.38
359.122	85.38
359.349	79.38
359.576	76.38
359.802	88.38
360.029	80.38
360.256	98.38
360.483	77.38
360.709	90.38
360.936	88.38
361.163	90.38
361.39	88.38
361.616	93.38
361.843	82.38
362.07	98.38
362.296	75.38
362.523	87.38
362.749	87.38
362.976	76.38
363.203	98.38
363.429	98.38
363.656	97.38
363.882	88.38
364.109	80.38
364.335	79.38
364.562	73.38
364.788	100.38
365.015	91.38
365.241	72.38
365.468	66.38
365.694	77.38
365.92	82.38
366.147	79.38
366.373	94.38
366.599	86.38
366.826	72.38
367.052	77.38
367.278	86.38
367.505	76.38
367.731	85.38
367.957	73.38
368.184	75.38
368.41	92.38
368.636	80.38
368.862	90.38
369.089	84.38
369.315	76.38
369.541	81.38
369.767	71.38
369.993	82.38
370.219	77.38
370.445	87.38
370.672	80.38
370.898	81.38
371.124	76.38
371.35	84.38
371.576	66.38
371.802	85.38
372.028	80.38
372.254	84.38
372.48	75.38
372.706	95.38
372.932	88.38
373.158	95.38
373.384	102.38
373.61	72.38
373.835	87.38
374.061	88.38
374.287	88.38
374.513	94.38
374.739	87.38
374.965	85.38
375.191	70.38
375.416	95.38
375.642	83.38
375.868	93.38
376.094	96.38
376.319	89.38
376.545	76.38
376.771	80.38
376.997	78.38
377.222	82.38
377.448	73.38
377.674	86.38
377.899	84.38
378.125	94.38
378.35	89.38
378.576	90.38
378.802	88.38
379.027	82.38
379.253	79.38
379.478	84.38
379.704	69.38
379.929	88.38
380.155	87.38
380.38	88.38
380.606	79.38
380.831	88.38
381.057	98.38
381.282	79.38
381.507	77.38
381.733	78.38
381.958	88.38
382.184	66.38
382.409	82.38
382.634	92.38
382.86	89.38
383.085	93.38
383.31	99.38
383.535	88.38
383.761	85.38
383.986	84.38
384.211	87.38
384.436	76.38
384.662	74.38
384.887	96.38
385.112	90.38
385.337	96.38
385.562	80.38
385.787	85.38
386.013	87.38
386.238	80.38
386.463	82.38
386.688	73.38
386.913	93.38
387.138	89.38
387.363	89.38
387.588	81.38
387.813	74.38
388.038	104.38
388.263	98.38
388.488	63.38
388.713	90.38
388.938	91.38
389.163	87.38
389.387	84.38
389.612	74.38
389.837	77.38
390.062	82.38
390.287	73.38
390.512	78.38
390.736	86.38
390.961	75.38
391.186	71.38
391.411	88.38
391.636	90.38
391.86	88.38
392.085	95.38
392.31	80.38
392.534	77.38
392.759	81.38
392.984	87.38
393.208	88.38
393.433	82.38
393.658	73.38
393.882	71.38
394.107	72.38
394.331	80.38
394.556	97.38
394.78	91.38
395.005	80.38
395.229	88.38
395.454	70.38
395.678	101.38
395.903	83.38
396.127	94.38
396.352	75.38
396.576	82.38
396.801	81.38
397.025	91.38
397.249	86.38
397.474	77.38
397.698	95.38
397.922	90.38
398.147	82.38
398.371	72.38
398.595	85.38
398.82	67.38
399.044	89.38
399.268	77.38
399.492	85.38
399.717	80.38
399.941	90.38
400.165	74.38
400.389	90.38
400.613	84.38
400.837	87.38
401.062	81.38
401.286	83.38
401.51	82.38
401.734	84.38
401.958	87.38
402.182	95.38
402.406	95.38
402.63	80.38
402.854	98.38
403.078	88.38
403.302	79.38
403.526	73.38
403.75	90.38
403.974	91.38
404.198	91.38
404.422	89.38
404.645	92.38
404.869	91.38
405.093	100.38
405.317	76.38
405.541	79.38
405.765	86.38
405.988	78.38
406.212	85.38
406.436	90.38
406.66	89.38
406.883	86.38
407.107	91.38
407.331	70.38
407.555	81.38
407.778	84.38
408.002	95.38
408.226	97.38
408.449	82.38
408.673	83.38
408.896	96.38
409.12	93.38
409.344	93.38
409.567	90.38
409.791	72.38
410.014	91.38
410.238	93.38
410.461	92.38
410.685	105.38
410.908	95.38
411.132	98.38
411.355	76.38
411.578	82.38
411.802	77.38
412.025	72.38
412.249	72.38
412.472	69.38
412.695	86.38
412.919	70.38
413.142	84.38
413.365	88.38
413.589	88.38
413.812	84.38
414.035	84.38
414.258	92.38
414.482	78.38
414.705	72.38
414.928	92.38
415.151	80.38
415.374	84.38
415.597	79.38
415.821	87.38
416.044	85.38
416.267	90.38
416.49	74.38
416.713	77.38
416.936	81.38
417.159	95.38
417.382	78.38
417.605	89.38
417.828	79.38
418.051	88.38
418.274	79.38
418.497	94.38
418.72	92.38
418.943	94.38
419.166	96.38
419.389	94.38
419.611	87.38
419.834	76.38
420.057	86.38
420.28	91.38
420.503	85.38
420.726	83.38
420.948	96.38
421.171	77.38
421.394	82.38
421.617	92.38
421.839	83.38
422.062	95.38
422.285	71.38
422.507	85.38
422.73	78.38
422.953	81.38
423.175	81.38
423.398	90.38
423.621	84.38
423.843	86.38
424.066	81.38
424.288	87.38
424.511	77.38
424.733	96.38
424.956	80.38
425.178	75.38
425.401	89.38
425.623	78.38
425.846	92.38
426.068	92.38
426.291	76.38
426.513	82.38
426.735	98.38
426.958	84.38
427.18	90.38
427.402	83.38
427.625	81.38
427.847	90.38
428.069	77.38
428.292	72.38
428.514	96.38
428.736	87.38
428.958	80.38
429.181	84.38
429.403	65.38
429.625	84.38
429.847	71.38
430.069	70.38
430.292	103.38
430.514	80.38
430.736	80.38
430.958	87.38
431.18	81.38
431.402	80.38
431.624	86.38
431.846	91.38
432.068	83.38
432.29	74.38
432.512	79.38
432.734	100.38
432.956	97.38
433.178	91.38
433.4	79.38
433.622	84.38
433.844	85.38
434.066	76.38
434.287	94.38
434.509	90.38
434.731	88.38
434.953	92.38
435.175	88.38
435.397	72.38
435.618	74.38
435.84	75.38
436.062	77.38
436.284	92.38
436.505	85.38
436.727	82.38
436.949	80.38
437.17	89.38
437.392	83.38
437.614	86.38
437.835	86.38
438.057	84.38
438.278	98.38
438.5	89.38
438.721	93.38
438.943	107.38
439.165	92.38
439.386	77.38
439.608	90.38
439.829	84.38
440.05	72.38
440.272	85.38
440.493	82.38
440.715	101.38
440.936	81.38
441.158	88.38
441.379	86.38
441.6	89.38
441.822	85.38
442.043	69.38
442.264	92.38
442.486	81.38
442.707	105.38
442.928	92.38
443.149	102.38
443.371	72.38
443.592	78.38
443.813	66.38
444.034	82.38
444.255	85.38
444.476	74.38
444.698	81.38
444.919	88.38
445.14	160.38
445.361	124.38
445.582	89.38
445.803	74.38
446.024	88.38
446.245	80.38
446.466	74.38
446.687	86.38
446.908	80.38
447.129	78.38
447.35	86.38
447.571	87.38
447.792	78.38
448.013	76.38
448.234	80.38
448.455	82.38
448.675	97.38
448.896	90.38
449.117	76.38
449.338	90.38
449.559	81.38
449.779	83.38
450	80.38
450.221	81.38
450.442	75.38
450.662	93.38
450.883	105.38
451.104	95.38
451.324	97.38
451.545	91.38
451.766	71.38
451.986	96.38
452.207	88.38
452.428	81.38
452.648	87.38
452.869	81.38
453.089	100.38
453.31	86.38
453.53	89.38
453.751	87.38
453.971	85.38
454.192	80.38
454.412	81.38
454.633	88.38
454.853	94.38
455.073	95.38
455.294	89.38
455.514	87.38
455.734	87.38
455.955	98.38
456.175	98.38
456.395	102.38
456.616	84.38
456.836	74.38
457.056	81.38
457.276	102.38
457.497	86.38
457.717	82.38
457.937	93.38
458.157	86.38
458.377	82.38
458.598	78.38
458.818	77.38
459.038	86.38
459.258	83.38
459.478	80.38
459.698	77.38
459.918	77.38
460.138	92.38
460.358	82.38
460.578	98.38
460.798	80.38
461.018	85.38
461.238	80.38
461.458	102.38
461.678	106.38
461.898	96.38
462.118	94.38
462.338	94.38
462.558	98.38
462.777	94.38
462.997	69.38
463.217	88.38
463.437	83.38
463.657	82.38
463.876	96.38
464.096	73.38
464.316	93.38
464.536	89.38
464.755	83.38
464.975	81.38
465.195	85.38
465.414	82.38
465.634	86.38
465.854	105.38
466.073	89.38
466.293	82.38
466.512	80.38
466.732	92.38
466.951	85.38
467.171	74.38
467.391	98.38
467.61	87.38
467.829	84.38
468.049	79.38
468.268	74.38
468.488	91.38
468.707	70.38
468.927	73.38
469.146	70.38
469.365	88.38
469.585	82.38
469.804	90.38
470.023	80.38
470.243	94.38
470.462	90.38
470.681	100.38
470.901	84.38
471.12	83.38
471.339	92.38
471.558	85.38
471.777	85.38
471.997	83.38
472.216	95.38
472.435	96.38
472.654	89.38
472.873	75.38
473.092	79.38
473.311	84.38
473.53	75.38
473.749	89.38
473.968	84.38
474.187	83.38
474.406	83.38
474.625	86.38
474.844	83.38
475.063	84.38
475.282	98.38
475.501	105.38
475.72	72.38
475.939	77.38
476.158	83.38
476.377	102.38
476.596	86.38
476.814	87.38
477.033	89.38
477.252	84.38
477.471	81.38
477.69	83.38
477.908	92.38
478.127	89.38
478.346	88.38
478.564	81.38
478.783	103.38
479.002	89.38
479.22	95.38
479.439	73.38
479.658	94.38
479.876	83.38
480.095	96.38
480.313	95.38
480.532	89.38
480.751	83.38
480.969	89.38
481.188	89.38
481.406	83.38
481.624	96.38
481.843	87.38
482.061	89.38
482.28	98.38
482.498	96.38
482.717	85.38
482.935	86.38
483.153	105.38
483.372	96.38
483.59	91.38
483.808	76.38
484.027	97.38
484.245	104.38
484.463	67.38
484.681	83.38
484.9	90.38
485.118	84.38
485.336	87.38
485.554	94.38
485.772	80.38
485.99	74.38
486.209	90.38
486.427	90.38
486.645	86.38
486.863	77.38
487.081	93.38
487.299	88.38
487.517	94.38
487.735	98.38
487.953	92.38
488.171	94.38
488.389	85.38
488.607	77.38
488.825	84.38
489.043	92.38
489.261	95.38
489.479	89.38
489.696	84.38
489.914	89.38
490.132	77.38
490.35	91.38
490.568	79.38
490.786	92.38
491.003	96.38
491.221	80.38
491.439	88.38
491.657	86.38
491.874	85.38
492.092	90.38
492.31	86.38
492.527	86.38
492.745	75.38
492.963	80.38
493.18	78.38
493.398	90.38
493.615	100.38
493.833	86.38
494.05	80.38
494.268	69.38
494.485	90.38
494.703	82.38
494.92	74.38
495.138	84.38
495.355	70.38
495.573	84.38
495.79	77.38
496.008	81.38
496.225	81.38
496.442	93.38
496.66	88.38
496.877	84.38
497.094	81.38
497.312	98.38
497.529	90.38
497.746	105.38
497.963	85.38
498.181	81.38
498.398	84.38
498.615	82.38
498.832	89.38
499.049	107.38
499.267	107.38
499.484	103.38
499.701	104.38
499.918	100.38
500.135	118.38
500.352	107.38
500.569	114.38
500.786	98.38
501.003	104.38
501.22	90.38
501.437	88.38
501.654	98.38
501.871	94.38
502.088	104.38
502.305	104.38
502.522	102.38
502.739	72.38
502.956	85.38
503.172	70.38
503.389	97.38
503.606	104.38
503.823	92.38
504.04	94.38
504.256	96.38
504.473	89.38
504.69	92.38
504.907	108.38
505.123	97.38
505.34	89.38
505.557	95.38
505.773	87.38
505.99	85.38
506.207	75.38
506.423	83.38
506.64	82.38
506.856	94.38
507.073	95.38
507.289	88.38
507.506	90.38
507.722	84.38
507.939	80.38
508.155	96.38
508.372	82.38
508.588	89.38
508.805	88.38
509.021	87.38
509.238	86.38
509.454	87.38
509.67	95.38
509.887	78.38
510.103	73.38
510.319	83.38
510.536	98.38
510.752	78.38
510.968	93.38
511.184	87.38
511.401	86.38
511.617	87.38
511.833	91.38
512.049	73.38
512.265	84.38
512.481	90.38
512.698	86.38
512.914	92.38
513.13	84.38
513.346	77.38
513.562	92.38
513.778	77.38
513.994	88.38
514.21	82.38
514.426	91.38
514.642	92.38
514.858	84.38
515.074	98.38
515.29	99.38
515.506	89.38
515.721	77.38
515.937	86.38
516.153	82.38
516.369	100.38
516.585	94.38
516.801	97.38
517.016	94.38
517.232	94.38
517.448	81.38
517.664	85.38
517.879	90.38
518.095	96.38
518.311	96.38
518.527	89.38
518.742	82.38
518.958	77.38
519.173	98.38
519.389	87.38
519.605	93.38
