Data from BG_HRD10591_062.txt Node
Date: Fri May 16 15:33:38 EDT 2025
User: Yrep
Spectrometer: HR+D1059
Trigger mode: 1
Integration Time (sec): 1.000000E-1
Scans to average: 1
Electric dark correction enabled: true
Nonlinearity correction enabled: false
Boxcar width: 0
XAxis mode: Wavelengths
Number of Pixels in Spectrum: 2048
>>>>>Begin Spectral Data<<<<<
223.165	-28.56
223.4	-28.56
223.635	-28.56
223.869	-17.56
224.104	-30.56
224.338	-16.56
224.573	-16.56
224.808	-12.56
225.042	1.44
225.277	-6.56
225.511	-2.56
225.746	8.44
225.98	17.44
226.215	10.44
226.449	17.44
226.683	17.44
226.918	30.44
227.152	28.44
227.387	39.44
227.621	49.44
227.856	53.44
228.09	43.44
228.324	51.44
228.559	59.44
228.793	52.44
229.027	63.44
229.262	60.44
229.496	57.44
229.73	60.44
229.964	76.44
230.199	76.44
230.433	64.44
230.667	82.44
230.901	79.44
231.136	89.44
231.37	71.44
231.604	91.44
231.838	79.44
232.072	77.44
232.306	90.44
232.541	78.44
232.775	86.44
233.009	88.44
233.243	75.44
233.477	84.44
233.711	81.44
233.945	88.44
234.179	86.44
234.413	95.44
234.647	88.44
234.881	93.44
235.115	82.44
235.349	74.44
235.583	75.44
235.817	67.44
236.051	82.44
236.285	76.44
236.519	72.44
236.753	79.44
236.987	85.44
237.221	77.44
237.455	76.44
237.689	73.44
237.922	74.44
238.156	75.44
238.39	75.44
238.624	92.44
238.858	85.44
239.091	79.44
239.325	67.44
239.559	65.44
239.793	87.44
240.027	78.44
240.26	88.44
240.494	74.44
240.728	69.44
240.961	81.44
241.195	83.44
241.429	72.44
241.662	67.44
241.896	57.44
242.13	67.44
242.363	83.44
242.597	74.44
242.83	86.44
243.064	75.44
243.298	73.44
243.531	75.44
243.765	80.44
243.998	73.44
244.232	96.44
244.465	85.44
244.699	72.44
244.932	77.44
245.166	80.44
245.399	81.44
245.633	77.44
245.866	75.44
246.099	74.44
246.333	75.44
246.566	68.44
246.8	75.44
247.033	92.44
247.266	89.44
247.5	77.44
247.733	70.44
247.966	75.44
248.2	75.44
248.433	81.44
248.666	91.44
248.899	85.44
249.133	75.44
249.366	91.44
249.599	84.44
249.832	97.44
250.066	71.44
250.299	94.44
250.532	75.44
250.765	85.44
250.998	78.44
251.231	90.44
251.465	77.44
251.698	78.44
251.931	95.44
252.164	77.44
252.397	71.44
252.63	89.44
252.863	79.44
253.096	83.44
253.329	70.44
253.562	76.44
253.795	82.44
254.028	92.44
254.261	67.44
254.494	88.44
254.727	91.44
254.96	82.44
255.193	64.44
255.426	89.44
255.659	72.44
255.892	79.44
256.124	83.44
256.357	83.44
256.59	71.44
256.823	78.44
257.056	80.44
257.289	79.44
257.521	88.44
257.754	90.44
257.987	79.44
258.22	81.44
258.452	81.44
258.685	99.44
258.918	80.44
259.151	80.44
259.383	84.44
259.616	87.44
259.849	81.44
260.081	79.44
260.314	84.44
260.547	77.44
260.779	81.44
261.012	86.44
261.244	87.44
261.477	99.44
261.71	80.44
261.942	84.44
262.175	86.44
262.407	87.44
262.64	76.44
262.872	80.44
263.105	84.44
263.337	81.44
263.57	78.44
263.802	69.44
264.035	77.44
264.267	69.44
264.499	83.44
264.732	87.44
264.964	73.44
265.197	76.44
265.429	81.44
265.661	89.44
265.894	86.44
266.126	75.44
266.358	85.44
266.591	91.44
266.823	83.44
267.055	89.44
267.287	89.44
267.52	84.44
267.752	84.44
267.984	85.44
268.216	96.44
268.448	96.44
268.681	76.44
268.913	97.44
269.145	86.44
269.377	73.44
269.609	89.44
269.841	81.44
270.073	90.44
270.306	93.44
270.538	67.44
270.77	83.44
271.002	73.44
271.234	79.44
271.466	100.44
271.698	88.44
271.93	76.44
272.162	91.44
272.394	75.44
272.626	67.44
272.858	73.44
273.09	82.44
273.322	75.44
273.553	85.44
273.785	88.44
274.017	91.44
274.249	91.44
274.481	89.44
274.713	92.44
274.945	77.44
275.176	83.44
275.408	86.44
275.64	93.44
275.872	90.44
276.104	72.44
276.335	89.44
276.567	69.44
276.799	92.44
277.031	78.44
277.262	96.44
277.494	91.44
277.726	87.44
277.957	108.44
278.189	94.44
278.421	97.44
278.652	91.44
278.884	78.44
279.115	89.44
279.347	75.44
279.579	79.44
279.81	96.44
280.042	100.44
280.273	85.44
280.505	80.44
280.736	91.44
280.968	93.44
281.199	78.44
281.431	88.44
281.662	78.44
281.894	100.44
282.125	93.44
282.356	84.44
282.588	91.44
282.819	71.44
283.051	85.44
283.282	86.44
283.513	95.44
283.745	82.44
283.976	90.44
284.207	76.44
284.439	103.44
284.67	88.44
284.901	93.44
285.132	99.44
285.364	77.44
285.595	84.44
285.826	87.44
286.057	87.44
286.288	84.44
286.52	86.44
286.751	96.44
286.982	106.44
287.213	80.44
287.444	85.44
287.675	72.44
287.906	83.44
288.138	88.44
288.369	95.44
288.6	85.44
288.831	104.44
289.062	99.44
289.293	97.44
289.524	85.44
289.755	90.44
289.986	87.44
290.217	90.44
290.448	98.44
290.679	91.44
290.91	92.44
291.141	84.44
291.371	91.44
291.602	93.44
291.833	83.44
292.064	97.44
292.295	99.44
292.526	84.44
292.757	85.44
292.987	89.44
293.218	86.44
293.449	97.44
293.68	80.44
293.91	91.44
294.141	100.44
294.372	100.44
294.603	89.44
294.833	89.44
295.064	84.44
295.295	96.44
295.525	81.44
295.756	91.44
295.987	79.44
296.217	85.44
296.448	90.44
296.679	78.44
296.909	91.44
297.14	99.44
297.37	104.44
297.601	94.44
297.831	77.44
298.062	82.44
298.292	77.44
298.523	83.44
298.753	84.44
298.984	101.44
299.214	93.44
299.445	99.44
299.675	78.44
299.905	91.44
300.136	94.44
300.366	97.44
300.597	81.44
300.827	75.44
301.057	90.44
301.288	94.44
301.518	76.44
301.748	91.44
301.979	97.44
302.209	90.44
302.439	96.44
302.669	95.44
302.9	93.44
303.13	93.44
303.36	91.44
303.59	87.44
303.82	86.44
304.051	81.44
304.281	83.44
304.511	92.44
304.741	89.44
304.971	97.44
305.201	98.44
305.431	94.44
305.661	88.44
305.891	89.44
306.121	88.44
306.352	83.44
306.582	95.44
306.812	87.44
307.042	98.44
307.272	89.44
307.502	98.44
307.731	94.44
307.961	80.44
308.191	89.44
308.421	100.44
308.651	85.44
308.881	93.44
309.111	81.44
309.341	88.44
309.571	99.44
309.8	77.44
310.03	88.44
310.26	82.44
310.49	75.44
310.72	90.44
310.949	83.44
311.179	82.44
311.409	97.44
311.639	107.44
311.868	83.44
312.098	87.44
312.328	93.44
312.557	89.44
312.787	88.44
313.017	76.44
313.246	84.44
313.476	98.44
313.706	88.44
313.935	84.44
314.165	84.44
314.394	86.44
314.624	83.44
314.853	90.44
315.083	102.44
315.312	94.44
315.542	89.44
315.771	95.44
316.001	69.44
316.23	92.44
316.46	87.44
316.689	94.44
316.919	100.44
317.148	93.44
317.377	94.44
317.607	82.44
317.836	80.44
318.065	89.44
318.295	86.44
318.524	91.44
318.753	96.44
318.983	81.44
319.212	92.44
319.441	97.44
319.67	99.44
319.9	101.44
320.129	91.44
320.358	74.44
320.587	106.44
320.816	98.44
321.046	86.44
321.275	88.44
321.504	98.44
321.733	82.44
321.962	93.44
322.191	91.44
322.42	79.44
322.649	89.44
322.878	82.44
323.108	87.44
323.337	103.44
323.566	83.44
323.795	87.44
324.024	101.44
324.253	92.44
324.482	84.44
324.71	99.44
324.939	87.44
325.168	98.44
325.397	86.44
325.626	81.44
325.855	82.44
326.084	92.44
326.313	91.44
326.542	88.44
326.77	83.44
326.999	93.44
327.228	93.44
327.457	90.44
327.686	88.44
327.914	88.44
328.143	86.44
328.372	103.44
328.6	77.44
328.829	87.44
329.058	83.44
329.287	87.44
329.515	84.44
329.744	87.44
329.972	85.44
330.201	79.44
330.43	86.44
330.658	95.44
330.887	92.44
331.115	91.44
331.344	80.44
331.572	90.44
331.801	115.44
332.03	101.44
332.258	95.44
332.486	84.44
332.715	100.44
332.943	103.44
333.172	101.44
333.4	90.44
333.629	94.44
333.857	118.44
334.085	94.44
334.314	83.44
334.542	81.44
334.771	87.44
334.999	87.44
335.227	98.44
335.455	84.44
335.684	88.44
335.912	89.44
336.14	90.44
336.369	88.44
336.597	93.44
336.825	78.44
337.053	83.44
337.281	89.44
337.51	97.44
337.738	96.44
337.966	93.44
338.194	100.44
338.422	87.44
338.65	86.44
338.878	92.44
339.106	85.44
339.334	97.44
339.562	93.44
339.79	93.44
340.018	88.44
340.246	90.44
340.474	91.44
340.702	95.44
340.93	93.44
341.158	85.44
341.386	102.44
341.614	91.44
341.842	98.44
342.07	107.44
342.298	83.44
342.526	83.44
342.754	93.44
342.981	91.44
343.209	100.44
343.437	104.44
343.665	95.44
343.893	90.44
344.12	97.44
344.348	89.44
344.576	87.44
344.804	91.44
345.031	105.44
345.259	93.44
345.487	87.44
345.714	101.44
345.942	85.44
346.17	104.44
346.397	94.44
346.625	76.44
346.853	85.44
347.08	99.44
347.308	94.44
347.535	89.44
347.763	81.44
347.99	88.44
348.218	89.44
348.445	95.44
348.673	89.44
348.9	87.44
349.128	91.44
349.355	80.44
349.583	83.44
349.81	96.44
350.037	95.44
350.265	96.44
350.492	87.44
350.72	75.44
350.947	109.44
351.174	93.44
351.402	96.44
351.629	87.44
351.856	90.44
352.083	83.44
352.311	85.44
352.538	91.44
352.765	85.44
352.992	88.44
353.22	92.44
353.447	87.44
353.674	91.44
353.901	95.44
354.128	87.44
354.355	82.44
354.583	85.44
354.81	80.44
355.037	89.44
355.264	88.44
355.491	89.44
355.718	90.44
355.945	94.44
356.172	78.44
356.399	83.44
356.626	96.44
356.853	99.44
357.08	107.44
357.307	91.44
357.534	77.44
357.761	84.44
357.988	91.44
358.215	97.44
358.441	88.44
358.668	81.44
358.895	87.44
359.122	97.44
359.349	84.44
359.576	84.44
359.802	90.44
360.029	82.44
360.256	73.44
360.483	78.44
360.709	86.44
360.936	76.44
361.163	90.44
361.39	72.44
361.616	81.44
361.843	93.44
362.07	98.44
362.296	95.44
362.523	80.44
362.749	90.44
362.976	83.44
363.203	81.44
363.429	95.44
363.656	92.44
363.882	95.44
364.109	93.44
364.335	94.44
364.562	91.44
364.788	93.44
365.015	85.44
365.241	77.44
365.468	91.44
365.694	93.44
365.92	81.44
366.147	84.44
366.373	83.44
366.599	90.44
366.826	87.44
367.052	83.44
367.278	87.44
367.505	71.44
367.731	78.44
367.957	93.44
368.184	89.44
368.41	90.44
368.636	83.44
368.862	83.44
369.089	78.44
369.315	91.44
369.541	90.44
369.767	101.44
369.993	90.44
370.219	103.44
370.445	82.44
370.672	83.44
370.898	90.44
371.124	78.44
371.35	82.44
371.576	91.44
371.802	89.44
372.028	90.44
372.254	105.44
372.48	96.44
372.706	87.44
372.932	91.44
373.158	80.44
373.384	83.44
373.61	98.44
373.835	85.44
374.061	75.44
374.287	100.44
374.513	96.44
374.739	83.44
374.965	96.44
375.191	88.44
375.416	86.44
375.642	94.44
375.868	86.44
376.094	79.44
376.319	96.44
376.545	97.44
376.771	91.44
376.997	99.44
377.222	79.44
377.448	85.44
377.674	84.44
377.899	88.44
378.125	81.44
378.35	93.44
378.576	100.44
378.802	90.44
379.027	111.44
379.253	91.44
379.478	93.44
379.704	96.44
379.929	86.44
380.155	104.44
380.38	83.44
380.606	94.44
380.831	88.44
381.057	75.44
381.282	83.44
381.507	79.44
381.733	91.44
381.958	96.44
382.184	85.44
382.409	90.44
382.634	83.44
382.86	87.44
383.085	90.44
383.31	76.44
383.535	87.44
383.761	96.44
383.986	93.44
384.211	98.44
384.436	78.44
384.662	79.44
384.887	83.44
385.112	85.44
385.337	88.44
385.562	80.44
385.787	108.44
386.013	97.44
386.238	79.44
386.463	99.44
386.688	107.44
386.913	95.44
387.138	97.44
387.363	87.44
387.588	107.44
387.813	95.44
388.038	80.44
388.263	88.44
388.488	76.44
388.713	89.44
388.938	89.44
389.163	80.44
389.387	89.44
389.612	90.44
389.837	80.44
390.062	91.44
390.287	73.44
390.512	87.44
390.736	98.44
390.961	88.44
391.186	103.44
391.411	81.44
391.636	92.44
391.86	84.44
392.085	92.44
392.31	101.44
392.534	88.44
392.759	100.44
392.984	78.44
393.208	99.44
393.433	104.44
393.658	80.44
393.882	84.44
394.107	88.44
394.331	93.44
394.556	85.44
394.78	85.44
395.005	89.44
395.229	77.44
395.454	100.44
395.678	89.44
395.903	90.44
396.127	85.44
396.352	100.44
396.576	79.44
396.801	91.44
397.025	77.44
397.249	93.44
397.474	76.44
397.698	95.44
397.922	95.44
398.147	88.44
398.371	92.44
398.595	98.44
398.82	99.44
399.044	93.44
399.268	107.44
399.492	92.44
399.717	90.44
399.941	94.44
400.165	85.44
400.389	94.44
400.613	95.44
400.837	84.44
401.062	88.44
401.286	76.44
401.51	79.44
401.734	88.44
401.958	94.44
402.182	92.44
402.406	99.44
402.63	105.44
402.854	93.44
403.078	81.44
403.302	105.44
403.526	73.44
403.75	99.44
403.974	100.44
404.198	87.44
404.422	92.44
404.645	76.44
404.869	81.44
405.093	80.44
405.317	92.44
405.541	77.44
405.765	96.44
405.988	86.44
406.212	95.44
406.436	103.44
406.66	83.44
406.883	92.44
407.107	97.44
407.331	97.44
407.555	87.44
407.778	92.44
408.002	85.44
408.226	103.44
408.449	93.44
408.673	92.44
408.896	94.44
409.12	97.44
409.344	85.44
409.567	89.44
409.791	77.44
410.014	91.44
410.238	106.44
410.461	87.44
410.685	95.44
410.908	89.44
411.132	103.44
411.355	81.44
411.578	87.44
411.802	93.44
412.025	89.44
412.249	86.44
412.472	81.44
412.695	98.44
412.919	89.44
413.142	79.44
413.365	93.44
413.589	99.44
413.812	79.44
414.035	86.44
414.258	83.44
414.482	96.44
414.705	85.44
414.928	84.44
415.151	78.44
415.374	84.44
415.597	82.44
415.821	84.44
416.044	81.44
416.267	89.44
416.49	97.44
416.713	99.44
416.936	86.44
417.159	87.44
417.382	95.44
417.605	77.44
417.828	86.44
418.051	88.44
418.274	104.44
418.497	93.44
418.72	75.44
418.943	77.44
419.166	91.44
419.389	93.44
419.611	90.44
419.834	88.44
420.057	88.44
420.28	91.44
420.503	84.44
420.726	89.44
420.948	77.44
421.171	84.44
421.394	87.44
421.617	87.44
421.839	89.44
422.062	96.44
422.285	75.44
422.507	98.44
422.73	89.44
422.953	89.44
423.175	95.44
423.398	84.44
423.621	99.44
423.843	87.44
424.066	92.44
424.288	94.44
424.511	93.44
424.733	93.44
424.956	96.44
425.178	87.44
425.401	97.44
425.623	94.44
425.846	76.44
426.068	79.44
426.291	79.44
426.513	96.44
426.735	83.44
426.958	83.44
427.18	82.44
427.402	96.44
427.625	88.44
427.847	92.44
428.069	103.44
428.292	81.44
428.514	90.44
428.736	91.44
428.958	85.44
429.181	80.44
429.403	76.44
429.625	84.44
429.847	80.44
430.069	84.44
430.292	98.44
430.514	81.44
430.736	94.44
430.958	78.44
431.18	83.44
431.402	99.44
431.624	95.44
431.846	87.44
432.068	90.44
432.29	94.44
432.512	99.44
432.734	87.44
432.956	88.44
433.178	95.44
433.4	84.44
433.622	89.44
433.844	89.44
434.066	78.44
434.287	87.44
434.509	97.44
434.731	74.44
434.953	88.44
435.175	99.44
435.397	85.44
435.618	95.44
435.84	86.44
436.062	95.44
436.284	110.44
436.505	95.44
436.727	66.44
436.949	79.44
437.17	76.44
437.392	89.44
437.614	91.44
437.835	76.44
438.057	77.44
438.278	82.44
438.5	93.44
438.721	73.44
438.943	91.44
439.165	83.44
439.386	93.44
439.608	97.44
439.829	91.44
440.05	105.44
440.272	90.44
440.493	87.44
440.715	85.44
440.936	83.44
441.158	82.44
441.379	84.44
441.6	108.44
441.822	76.44
442.043	72.44
442.264	82.44
442.486	100.44
442.707	79.44
442.928	99.44
443.149	83.44
443.371	83.44
443.592	97.44
443.813	97.44
444.034	85.44
444.255	87.44
444.476	81.44
444.698	93.44
444.919	71.44
445.14	168.44
445.361	114.44
445.582	79.44
445.803	92.44
446.024	92.44
446.245	106.44
446.466	98.44
446.687	89.44
446.908	78.44
447.129	86.44
447.35	82.44
447.571	97.44
447.792	91.44
448.013	88.44
448.234	91.44
448.455	91.44
448.675	101.44
448.896	85.44
449.117	81.44
449.338	76.44
449.559	92.44
449.779	98.44
450	96.44
450.221	97.44
450.442	77.44
450.662	105.44
450.883	96.44
451.104	92.44
451.324	95.44
451.545	77.44
451.766	98.44
451.986	76.44
452.207	99.44
452.428	97.44
452.648	100.44
452.869	91.44
453.089	85.44
453.31	87.44
453.53	84.44
453.751	84.44
453.971	87.44
454.192	94.44
454.412	92.44
454.633	83.44
454.853	92.44
455.073	77.44
455.294	88.44
455.514	77.44
455.734	71.44
455.955	77.44
456.175	93.44
456.395	83.44
456.616	74.44
456.836	105.44
457.056	80.44
457.276	73.44
457.497	83.44
457.717	92.44
457.937	77.44
458.157	88.44
458.377	86.44
458.598	77.44
458.818	89.44
459.038	86.44
459.258	105.44
459.478	85.44
459.698	99.44
459.918	76.44
460.138	99.44
460.358	99.44
460.578	89.44
460.798	93.44
461.018	76.44
461.238	85.44
461.458	96.44
461.678	79.44
461.898	104.44
462.118	91.44
462.338	95.44
462.558	84.44
462.777	97.44
462.997	104.44
463.217	95.44
463.437	84.44
463.657	84.44
463.876	84.44
464.096	84.44
464.316	87.44
464.536	97.44
464.755	82.44
464.975	85.44
465.195	87.44
465.414	82.44
465.634	69.44
465.854	96.44
466.073	96.44
466.293	81.44
466.512	91.44
466.732	87.44
466.951	96.44
467.171	79.44
467.391	83.44
467.61	96.44
467.829	83.44
468.049	83.44
468.268	87.44
468.488	76.44
468.707	88.44
468.927	83.44
469.146	74.44
469.365	74.44
469.585	87.44
469.804	91.44
470.023	92.44
470.243	93.44
470.462	85.44
470.681	77.44
470.901	83.44
471.12	94.44
471.339	95.44
471.558	87.44
471.777	98.44
471.997	83.44
472.216	87.44
472.435	89.44
472.654	77.44
472.873	105.44
473.092	79.44
473.311	90.44
473.53	82.44
473.749	98.44
473.968	97.44
474.187	91.44
474.406	95.44
474.625	72.44
474.844	96.44
475.063	101.44
475.282	88.44
475.501	88.44
475.72	84.44
475.939	87.44
476.158	96.44
476.377	83.44
476.596	77.44
476.814	95.44
477.033	79.44
477.252	79.44
477.471	92.44
477.69	103.44
477.908	89.44
478.127	91.44
478.346	89.44
478.564	75.44
478.783	78.44
479.002	89.44
479.22	92.44
479.439	91.44
479.658	80.44
479.876	91.44
480.095	89.44
480.313	80.44
480.532	87.44
480.751	90.44
480.969	84.44
481.188	83.44
481.406	82.44
481.624	91.44
481.843	69.44
482.061	83.44
482.28	79.44
482.498	88.44
482.717	89.44
482.935	84.44
483.153	91.44
483.372	83.44
483.59	90.44
483.808	87.44
484.027	98.44
484.245	105.44
484.463	85.44
484.681	96.44
484.9	93.44
485.118	107.44
485.336	89.44
485.554	84.44
485.772	79.44
485.99	85.44
486.209	100.44
486.427	94.44
486.645	81.44
486.863	91.44
487.081	92.44
487.299	83.44
487.517	93.44
487.735	82.44
487.953	87.44
488.171	85.44
488.389	93.44
488.607	104.44
488.825	81.44
489.043	84.44
489.261	91.44
489.479	77.44
489.696	90.44
489.914	91.44
490.132	83.44
490.35	87.44
490.568	87.44
490.786	84.44
491.003	103.44
491.221	97.44
491.439	77.44
491.657	74.44
491.874	95.44
492.092	77.44
492.31	83.44
492.527	91.44
492.745	74.44
492.963	88.44
493.18	90.44
493.398	92.44
493.615	89.44
493.833	80.44
494.05	90.44
494.268	91.44
494.485	85.44
494.703	87.44
494.92	94.44
495.138	87.44
495.355	89.44
495.573	88.44
495.79	92.44
496.008	96.44
496.225	88.44
496.442	93.44
496.66	114.44
496.877	110.44
497.094	90.44
497.312	101.44
497.529	95.44
497.746	89.44
497.963	94.44
498.181	107.44
498.398	95.44
498.615	99.44
498.832	83.44
499.049	88.44
499.267	95.44
499.484	73.44
499.701	90.44
499.918	101.44
500.135	109.44
500.352	124.44
500.569	102.44
500.786	107.44
501.003	100.44
501.22	91.44
501.437	99.44
501.654	94.44
501.871	99.44
502.088	91.44
502.305	93.44
502.522	91.44
502.739	104.44
502.956	81.44
503.172	77.44
503.389	108.44
503.606	98.44
503.823	96.44
504.04	86.44
504.256	96.44
504.473	92.44
504.69	97.44
504.907	89.44
505.123	106.44
505.34	85.44
505.557	93.44
505.773	88.44
505.99	89.44
506.207	97.44
506.423	93.44
506.64	88.44
506.856	83.44
507.073	73.44
507.289	80.44
507.506	88.44
507.722	75.44
507.939	82.44
508.155	90.44
508.372	81.44
508.588	84.44
508.805	92.44
509.021	98.44
509.238	87.44
509.454	96.44
509.67	99.44
509.887	81.44
510.103	84.44
510.319	87.44
510.536	98.44
510.752	85.44
510.968	91.44
511.184	74.44
511.401	89.44
511.617	85.44
511.833	87.44
512.049	97.44
512.265	89.44
512.481	86.44
512.698	92.44
512.914	83.44
513.13	94.44
513.346	93.44
513.562	89.44
513.778	97.44
513.994	88.44
514.21	93.44
514.426	70.44
514.642	75.44
514.858	77.44
515.074	82.44
515.29	93.44
515.506	84.44
515.721	92.44
515.937	80.44
516.153	89.44
516.369	91.44
516.585	78.44
516.801	101.44
517.016	92.44
517.232	101.44
517.448	97.44
517.664	87.44
517.879	89.44
518.095	93.44
518.311	89.44
518.527	97.44
518.742	110.44
518.958	66.44
