Data from BG_HRD10591_001.txt Node
Date: Fri May 16 15:33:07 EDT 2025
User: Yrep
Spectrometer: HR+D1059
Trigger mode: 1
Integration Time (sec): 1.000000E-1
Scans to average: 1
Electric dark correction enabled: true
Nonlinearity correction enabled: false
Boxcar width: 0
XAxis mode: Wavelengths
Number of Pixels in Spectrum: 2048
>>>>>Begin Spectral Data<<<<<
223.165	-19.31
223.4	-19.31
223.635	-19.31
223.869	-16.31
224.104	-11.31
224.338	-9.31
224.573	-17.31
224.808	-14.31
225.042	-5.31
225.277	-22.31
225.511	15.69
225.746	-2.31
225.98	2.69
226.215	2.69
226.449	11.69
226.683	24.69
226.918	23.69
227.152	36.69
227.387	38.69
227.621	48.69
227.856	40.69
228.09	46.69
228.324	49.69
228.559	42.69
228.793	61.69
229.027	58.69
229.262	70.69
229.496	70.69
229.73	66.69
229.964	76.69
230.199	67.69
230.433	56.69
230.667	76.69
230.901	88.69
231.136	74.69
231.37	75.69
231.604	90.69
231.838	65.69
232.072	73.69
232.306	67.69
232.541	83.69
232.775	75.69
233.009	80.69
233.243	91.69
233.477	72.69
233.711	68.69
233.945	80.69
234.179	76.69
234.413	69.69
234.647	82.69
234.881	82.69
235.115	76.69
235.349	92.69
235.583	69.69
235.817	65.69
236.051	78.69
236.285	86.69
236.519	72.69
236.753	91.69
236.987	81.69
237.221	79.69
237.455	72.69
237.689	81.69
237.922	71.69
238.156	76.69
238.39	67.69
238.624	59.69
238.858	73.69
239.091	74.69
239.325	73.69
239.559	70.69
239.793	64.69
240.027	76.69
240.26	79.69
240.494	80.69
240.728	72.69
240.961	77.69
241.195	79.69
241.429	70.69
241.662	66.69
241.896	53.69
242.13	71.69
242.363	62.69
242.597	70.69
242.83	70.69
243.064	68.69
243.298	73.69
243.531	68.69
243.765	66.69
243.998	67.69
244.232	84.69
244.465	75.69
244.699	74.69
244.932	75.69
245.166	71.69
245.399	64.69
245.633	83.69
245.866	72.69
246.099	70.69
246.333	76.69
246.566	78.69
246.8	74.69
247.033	83.69
247.266	75.69
247.5	78.69
247.733	78.69
247.966	74.69
248.2	91.69
248.433	71.69
248.666	85.69
248.899	74.69
249.133	73.69
249.366	80.69
249.599	77.69
249.832	81.69
250.066	87.69
250.299	90.69
250.532	70.69
250.765	58.69
250.998	66.69
251.231	70.69
251.465	70.69
251.698	74.69
251.931	74.69
252.164	94.69
252.397	74.69
252.63	79.69
252.863	72.69
253.096	78.69
253.329	56.69
253.562	78.69
253.795	88.69
254.028	82.69
254.261	82.69
254.494	79.69
254.727	84.69
254.96	69.69
255.193	71.69
255.426	72.69
255.659	82.69
255.892	88.69
256.124	73.69
256.357	86.69
256.59	70.69
256.823	62.69
257.056	76.69
257.289	73.69
257.521	80.69
257.754	88.69
257.987	68.69
258.22	70.69
258.452	77.69
258.685	82.69
258.918	67.69
259.151	87.69
259.383	100.69
259.616	68.69
259.849	76.69
260.081	70.69
260.314	71.69
260.547	83.69
260.779	83.69
261.012	63.69
261.244	78.69
261.477	86.69
261.71	74.69
261.942	59.69
262.175	67.69
262.407	75.69
262.64	71.69
262.872	77.69
263.105	71.69
263.337	68.69
263.57	74.69
263.802	63.69
264.035	74.69
264.267	73.69
264.499	72.69
264.732	87.69
264.964	88.69
265.197	87.69
265.429	78.69
265.661	90.69
265.894	71.69
266.126	84.69
266.358	81.69
266.591	94.69
266.823	87.69
267.055	78.69
267.287	76.69
267.52	75.69
267.752	77.69
267.984	85.69
268.216	79.69
268.448	82.69
268.681	82.69
268.913	83.69
269.145	84.69
269.377	83.69
269.609	65.69
269.841	71.69
270.073	87.69
270.306	77.69
270.538	87.69
270.77	71.69
271.002	84.69
271.234	84.69
271.466	76.69
271.698	87.69
271.93	79.69
272.162	79.69
272.394	89.69
272.626	68.69
272.858	88.69
273.09	86.69
273.322	88.69
273.553	82.69
273.785	74.69
274.017	78.69
274.249	76.69
274.481	73.69
274.713	77.69
274.945	82.69
275.176	71.69
275.408	82.69
275.64	89.69
275.872	85.69
276.104	78.69
276.335	80.69
276.567	92.69
276.799	70.69
277.031	80.69
277.262	75.69
277.494	84.69
277.726	85.69
277.957	73.69
278.189	84.69
278.421	84.69
278.652	85.69
278.884	78.69
279.115	73.69
279.347	70.69
279.579	77.69
279.81	83.69
280.042	67.69
280.273	75.69
280.505	91.69
280.736	103.69
280.968	70.69
281.199	78.69
281.431	82.69
281.662	83.69
281.894	81.69
282.125	67.69
282.356	79.69
282.588	65.69
282.819	76.69
283.051	95.69
283.282	82.69
283.513	85.69
283.745	85.69
283.976	91.69
284.207	82.69
284.439	96.69
284.67	80.69
284.901	77.69
285.132	87.69
285.364	75.69
285.595	88.69
285.826	75.69
286.057	84.69
286.288	88.69
286.52	78.69
286.751	94.69
286.982	86.69
287.213	85.69
287.444	87.69
287.675	88.69
287.906	84.69
288.138	82.69
288.369	79.69
288.6	93.69
288.831	70.69
289.062	86.69
289.293	95.69
289.524	79.69
289.755	80.69
289.986	84.69
290.217	76.69
290.448	79.69
290.679	75.69
290.91	94.69
291.141	79.69
291.371	84.69
291.602	92.69
291.833	70.69
292.064	82.69
292.295	88.69
292.526	82.69
292.757	85.69
292.987	90.69
293.218	90.69
293.449	80.69
293.68	93.69
293.91	85.69
294.141	85.69
294.372	94.69
294.603	78.69
294.833	77.69
295.064	90.69
295.295	87.69
295.525	90.69
295.756	86.69
295.987	84.69
296.217	82.69
296.448	65.69
296.679	69.69
296.909	93.69
297.14	76.69
297.37	90.69
297.601	88.69
297.831	84.69
298.062	87.69
298.292	83.69
298.523	82.69
298.753	74.69
298.984	83.69
299.214	66.69
299.445	87.69
299.675	98.69
299.905	86.69
300.136	88.69
300.366	84.69
300.597	78.69
300.827	85.69
301.057	88.69
301.288	91.69
301.518	94.69
301.748	92.69
301.979	80.69
302.209	81.69
302.439	68.69
302.669	78.69
302.9	64.69
303.13	80.69
303.36	87.69
303.59	90.69
303.82	80.69
304.051	64.69
304.281	78.69
304.511	80.69
304.741	83.69
304.971	70.69
305.201	85.69
305.431	79.69
305.661	74.69
305.891	82.69
306.121	91.69
306.352	88.69
306.582	80.69
306.812	94.69
307.042	80.69
307.272	72.69
307.502	79.69
307.731	87.69
307.961	81.69
308.191	83.69
308.421	78.69
308.651	92.69
308.881	86.69
309.111	96.69
309.341	90.69
309.571	82.69
309.8	95.69
310.03	87.69
310.26	91.69
310.49	89.69
310.72	84.69
310.949	78.69
311.179	98.69
311.409	88.69
311.639	83.69
311.868	93.69
312.098	68.69
312.328	82.69
312.557	87.69
312.787	84.69
313.017	90.69
313.246	91.69
313.476	77.69
313.706	76.69
313.935	82.69
314.165	88.69
314.394	93.69
314.624	85.69
314.853	78.69
315.083	87.69
315.312	86.69
315.542	78.69
315.771	92.69
316.001	82.69
316.23	84.69
316.46	87.69
316.689	86.69
316.919	88.69
317.148	88.69
317.377	80.69
317.607	88.69
317.836	100.69
318.065	81.69
318.295	79.69
318.524	96.69
318.753	87.69
318.983	87.69
319.212	88.69
319.441	82.69
319.67	86.69
319.9	98.69
320.129	88.69
320.358	94.69
320.587	84.69
320.816	72.69
321.046	65.69
321.275	91.69
321.504	82.69
321.733	69.69
321.962	83.69
322.191	85.69
322.42	77.69
322.649	100.69
322.878	78.69
323.108	86.69
323.337	77.69
323.566	89.69
323.795	82.69
324.024	78.69
324.253	96.69
324.482	81.69
324.71	87.69
324.939	98.69
325.168	84.69
325.397	87.69
325.626	80.69
325.855	80.69
326.084	100.69
326.313	100.69
326.542	77.69
326.77	96.69
326.999	87.69
327.228	75.69
327.457	84.69
327.686	76.69
327.914	100.69
328.143	99.69
328.372	79.69
328.6	88.69
328.829	98.69
329.058	94.69
329.287	70.69
329.515	77.69
329.744	75.69
329.972	90.69
330.201	84.69
330.43	82.69
330.658	87.69
330.887	77.69
331.115	89.69
331.344	92.69
331.572	89.69
331.801	76.69
332.03	91.69
332.258	75.69
332.486	85.69
332.715	76.69
332.943	84.69
333.172	64.69
333.4	80.69
333.629	82.69
333.857	80.69
334.085	87.69
334.314	92.69
334.542	77.69
334.771	87.69
334.999	109.69
335.227	84.69
335.455	74.69
335.684	88.69
335.912	94.69
336.14	79.69
336.369	87.69
336.597	77.69
336.825	94.69
337.053	85.69
337.281	86.69
337.51	84.69
337.738	91.69
337.966	82.69
338.194	76.69
338.422	82.69
338.65	81.69
338.878	82.69
339.106	82.69
339.334	102.69
339.562	96.69
339.79	93.69
340.018	71.69
340.246	84.69
340.474	90.69
340.702	90.69
340.93	103.69
341.158	78.69
341.386	83.69
341.614	80.69
341.842	79.69
342.07	74.69
342.298	85.69
342.526	98.69
342.754	92.69
342.981	78.69
343.209	87.69
343.437	104.69
343.665	94.69
343.893	78.69
344.12	83.69
344.348	82.69
344.576	87.69
344.804	78.69
345.031	87.69
345.259	96.69
345.487	86.69
345.714	79.69
345.942	92.69
346.17	73.69
346.397	71.69
346.625	98.69
346.853	90.69
347.08	84.69
347.308	98.69
347.535	91.69
347.763	88.69
347.99	82.69
348.218	79.69
348.445	70.69
348.673	83.69
348.9	94.69
349.128	92.69
349.355	86.69
349.583	70.69
349.81	88.69
350.037	82.69
350.265	80.69
350.492	94.69
350.72	77.69
350.947	83.69
351.174	86.69
351.402	85.69
351.629	96.69
351.856	85.69
352.083	95.69
352.311	86.69
352.538	85.69
352.765	99.69
352.992	75.69
353.22	82.69
353.447	73.69
353.674	98.69
353.901	73.69
354.128	86.69
354.355	93.69
354.583	92.69
354.81	92.69
355.037	92.69
355.264	85.69
355.491	80.69
355.718	82.69
355.945	87.69
356.172	86.69
356.399	76.69
356.626	95.69
356.853	90.69
357.08	94.69
357.307	102.69
357.534	84.69
357.761	73.69
357.988	79.69
358.215	79.69
358.441	87.69
358.668	90.69
358.895	85.69
359.122	81.69
359.349	84.69
359.576	82.69
359.802	85.69
360.029	84.69
360.256	110.69
360.483	82.69
360.709	76.69
360.936	79.69
361.163	79.69
361.39	77.69
361.616	87.69
361.843	87.69
362.07	84.69
362.296	74.69
362.523	84.69
362.749	92.69
362.976	83.69
363.203	96.69
363.429	70.69
363.656	75.69
363.882	84.69
364.109	77.69
364.335	83.69
364.562	76.69
364.788	90.69
365.015	86.69
365.241	87.69
365.468	81.69
365.694	90.69
365.92	87.69
366.147	75.69
366.373	98.69
366.599	90.69
366.826	82.69
367.052	88.69
367.278	73.69
367.505	80.69
367.731	77.69
367.957	93.69
368.184	92.69
368.41	79.69
368.636	87.69
368.862	94.69
369.089	86.69
369.315	77.69
369.541	89.69
369.767	85.69
369.993	96.69
370.219	64.69
370.445	79.69
370.672	82.69
370.898	90.69
371.124	92.69
371.35	87.69
371.576	85.69
371.802	86.69
372.028	96.69
372.254	71.69
372.48	80.69
372.706	94.69
372.932	84.69
373.158	74.69
373.384	85.69
373.61	87.69
373.835	90.69
374.061	79.69
374.287	87.69
374.513	78.69
374.739	86.69
374.965	76.69
375.191	95.69
375.416	86.69
375.642	73.69
375.868	82.69
376.094	85.69
376.319	82.69
376.545	91.69
376.771	91.69
376.997	82.69
377.222	79.69
377.448	93.69
377.674	89.69
377.899	78.69
378.125	94.69
378.35	71.69
378.576	89.69
378.802	71.69
379.027	72.69
379.253	80.69
379.478	87.69
379.704	84.69
379.929	83.69
380.155	73.69
380.38	90.69
380.606	80.69
380.831	88.69
381.057	77.69
381.282	73.69
381.507	85.69
381.733	80.69
381.958	71.69
382.184	85.69
382.409	77.69
382.634	78.69
382.86	79.69
383.085	91.69
383.31	74.69
383.535	92.69
383.761	101.69
383.986	86.69
384.211	72.69
384.436	87.69
384.662	80.69
384.887	93.69
385.112	94.69
385.337	67.69
385.562	87.69
385.787	98.69
386.013	88.69
386.238	91.69
386.463	93.69
386.688	99.69
386.913	86.69
387.138	86.69
387.363	78.69
387.588	88.69
387.813	87.69
388.038	97.69
388.263	80.69
388.488	87.69
388.713	92.69
388.938	92.69
389.163	74.69
389.387	79.69
389.612	79.69
389.837	72.69
390.062	76.69
390.287	76.69
390.512	77.69
390.736	79.69
390.961	104.69
391.186	75.69
391.411	86.69
391.636	80.69
391.86	86.69
392.085	85.69
392.31	102.69
392.534	92.69
392.759	72.69
392.984	70.69
393.208	81.69
393.433	75.69
393.658	77.69
393.882	83.69
394.107	90.69
394.331	86.69
394.556	87.69
394.78	106.69
395.005	85.69
395.229	81.69
395.454	89.69
395.678	92.69
395.903	86.69
396.127	78.69
396.352	79.69
396.576	87.69
396.801	70.69
397.025	77.69
397.249	109.69
397.474	80.69
397.698	88.69
397.922	84.69
398.147	90.69
398.371	97.69
398.595	107.69
398.82	87.69
399.044	94.69
399.268	91.69
399.492	109.69
399.717	66.69
399.941	85.69
400.165	77.69
400.389	67.69
400.613	87.69
400.837	83.69
401.062	81.69
401.286	89.69
401.51	79.69
401.734	89.69
401.958	81.69
402.182	81.69
402.406	97.69
402.63	95.69
402.854	82.69
403.078	79.69
403.302	86.69
403.526	84.69
403.75	86.69
403.974	86.69
404.198	68.69
404.422	92.69
404.645	78.69
404.869	95.69
405.093	82.69
405.317	91.69
405.541	105.69
405.765	94.69
405.988	86.69
406.212	69.69
406.436	91.69
406.66	81.69
406.883	94.69
407.107	93.69
407.331	79.69
407.555	75.69
407.778	86.69
408.002	81.69
408.226	79.69
408.449	83.69
408.673	79.69
408.896	99.69
409.12	86.69
409.344	83.69
409.567	78.69
409.791	86.69
410.014	76.69
410.238	79.69
410.461	79.69
410.685	93.69
410.908	94.69
411.132	88.69
411.355	91.69
411.578	81.69
411.802	80.69
412.025	66.69
412.249	90.69
412.472	94.69
412.695	90.69
412.919	75.69
413.142	94.69
413.365	84.69
413.589	80.69
413.812	82.69
414.035	94.69
414.258	99.69
414.482	89.69
414.705	100.69
414.928	92.69
415.151	93.69
415.374	90.69
415.597	92.69
415.821	76.69
416.044	82.69
416.267	60.69
416.49	89.69
416.713	84.69
416.936	84.69
417.159	85.69
417.382	82.69
417.605	77.69
417.828	82.69
418.051	94.69
418.274	108.69
418.497	94.69
418.72	93.69
418.943	84.69
419.166	86.69
419.389	81.69
419.611	82.69
419.834	77.69
420.057	92.69
420.28	86.69
420.503	80.69
420.726	79.69
420.948	92.69
421.171	98.69
421.394	96.69
421.617	79.69
421.839	72.69
422.062	79.69
422.285	103.69
422.507	70.69
422.73	90.69
422.953	72.69
423.175	68.69
423.398	88.69
423.621	89.69
423.843	86.69
424.066	83.69
424.288	98.69
424.511	90.69
424.733	87.69
424.956	90.69
425.178	82.69
425.401	75.69
425.623	95.69
425.846	92.69
426.068	98.69
426.291	76.69
426.513	77.69
426.735	85.69
426.958	93.69
427.18	92.69
427.402	95.69
427.625	76.69
427.847	88.69
428.069	83.69
428.292	76.69
428.514	89.69
428.736	89.69
428.958	78.69
429.181	90.69
429.403	78.69
429.625	83.69
429.847	90.69
430.069	90.69
430.292	84.69
430.514	83.69
430.736	78.69
430.958	87.69
431.18	82.69
431.402	79.69
431.624	78.69
431.846	94.69
432.068	82.69
432.29	93.69
432.512	87.69
432.734	101.69
432.956	103.69
433.178	91.69
433.4	70.69
433.622	86.69
433.844	78.69
434.066	86.69
434.287	82.69
434.509	100.69
434.731	90.69
434.953	79.69
435.175	86.69
435.397	80.69
435.618	77.69
435.84	83.69
436.062	85.69
436.284	90.69
436.505	75.69
436.727	83.69
436.949	90.69
437.17	88.69
437.392	81.69
437.614	83.69
437.835	93.69
438.057	87.69
438.278	75.69
438.5	78.69
438.721	84.69
438.943	84.69
439.165	87.69
439.386	84.69
439.608	82.69
439.829	88.69
440.05	88.69
440.272	86.69
440.493	93.69
440.715	98.69
440.936	82.69
441.158	78.69
441.379	83.69
441.6	90.69
441.822	71.69
442.043	94.69
442.264	78.69
442.486	98.69
442.707	94.69
442.928	94.69
443.149	77.69
443.371	88.69
443.592	91.69
443.813	85.69
444.034	92.69
444.255	82.69
444.476	79.69
444.698	75.69
444.919	84.69
445.14	153.69
445.361	107.69
445.582	98.69
445.803	80.69
446.024	80.69
446.245	89.69
446.466	78.69
446.687	84.69
446.908	71.69
447.129	79.69
447.35	88.69
447.571	83.69
447.792	76.69
448.013	78.69
448.234	108.69
448.455	98.69
448.675	92.69
448.896	80.69
449.117	74.69
449.338	77.69
449.559	91.69
449.779	77.69
450	67.69
450.221	85.69
450.442	85.69
450.662	84.69
450.883	75.69
451.104	96.69
451.324	85.69
451.545	78.69
451.766	90.69
451.986	68.69
452.207	90.69
452.428	74.69
452.648	75.69
452.869	82.69
453.089	89.69
453.31	86.69
453.53	84.69
453.751	75.69
453.971	82.69
454.192	79.69
454.412	79.69
454.633	74.69
454.853	78.69
455.073	84.69
455.294	74.69
455.514	82.69
455.734	80.69
455.955	78.69
456.175	80.69
456.395	69.69
456.616	77.69
456.836	91.69
457.056	76.69
457.276	80.69
457.497	82.69
457.717	91.69
457.937	78.69
458.157	64.69
458.377	82.69
458.598	90.69
458.818	87.69
459.038	83.69
459.258	83.69
459.478	77.69
459.698	74.69
459.918	73.69
460.138	99.69
460.358	78.69
460.578	86.69
460.798	92.69
461.018	102.69
461.238	78.69
461.458	84.69
461.678	91.69
461.898	85.69
462.118	73.69
462.338	90.69
462.558	78.69
462.777	92.69
462.997	89.69
463.217	90.69
463.437	84.69
463.657	83.69
463.876	82.69
464.096	99.69
464.316	72.69
464.536	83.69
464.755	102.69
464.975	87.69
465.195	83.69
465.414	82.69
465.634	82.69
465.854	76.69
466.073	88.69
466.293	94.69
466.512	87.69
466.732	92.69
466.951	81.69
467.171	83.69
467.391	94.69
467.61	72.69
467.829	74.69
468.049	72.69
468.268	95.69
468.488	60.69
468.707	71.69
468.927	83.69
469.146	84.69
469.365	89.69
469.585	93.69
469.804	62.69
470.023	79.69
470.243	78.69
470.462	87.69
470.681	80.69
470.901	89.69
471.12	86.69
471.339	82.69
471.558	74.69
471.777	78.69
471.997	86.69
472.216	79.69
472.435	85.69
472.654	82.69
472.873	90.69
473.092	90.69
473.311	81.69
473.53	69.69
473.749	78.69
473.968	90.69
474.187	87.69
474.406	79.69
474.625	85.69
474.844	70.69
475.063	83.69
475.282	76.69
475.501	76.69
475.72	84.69
475.939	78.69
476.158	84.69
476.377	76.69
476.596	83.69
476.814	77.69
477.033	83.69
477.252	93.69
477.471	76.69
477.69	84.69
477.908	87.69
478.127	90.69
478.346	79.69
478.564	82.69
478.783	92.69
479.002	82.69
479.22	94.69
479.439	72.69
479.658	103.69
479.876	78.69
480.095	83.69
480.313	74.69
480.532	87.69
480.751	92.69
480.969	92.69
481.188	92.69
481.406	75.69
481.624	90.69
481.843	82.69
482.061	84.69
482.28	86.69
482.498	84.69
482.717	82.69
482.935	86.69
483.153	84.69
483.372	82.69
483.59	99.69
483.808	100.69
484.027	92.69
484.245	86.69
484.463	90.69
484.681	82.69
484.9	86.69
485.118	88.69
485.336	92.69
485.554	74.69
485.772	85.69
485.99	98.69
486.209	89.69
486.427	92.69
486.645	91.69
486.863	65.69
487.081	90.69
487.299	89.69
487.517	86.69
487.735	72.69
487.953	93.69
488.171	90.69
488.389	93.69
488.607	75.69
488.825	86.69
489.043	84.69
489.261	77.69
489.479	87.69
489.696	80.69
489.914	94.69
490.132	94.69
490.35	83.69
490.568	88.69
490.786	68.69
491.003	90.69
491.221	91.69
491.439	79.69
491.657	93.69
491.874	73.69
492.092	98.69
492.31	90.69
492.527	90.69
492.745	106.69
492.963	88.69
493.18	86.69
493.398	88.69
493.615	99.69
493.833	84.69
494.05	86.69
494.268	93.69
494.485	82.69
494.703	96.69
494.92	88.69
495.138	76.69
495.355	88.69
495.573	99.69
495.79	86.69
496.008	88.69
496.225	77.69
496.442	74.69
496.66	96.69
496.877	79.69
497.094	88.69
497.312	87.69
497.529	79.69
497.746	84.69
497.963	84.69
498.181	96.69
498.398	89.69
498.615	82.69
498.832	101.69
499.049	84.69
499.267	108.69
499.484	94.69
499.701	111.69
499.918	110.69
500.135	120.69
500.352	116.69
500.569	100.69
500.786	103.69
501.003	101.69
501.22	109.69
501.437	100.69
501.654	95.69
501.871	89.69
502.088	88.69
502.305	93.69
502.522	78.69
502.739	77.69
502.956	80.69
503.172	91.69
503.389	89.69
503.606	95.69
503.823	103.69
504.04	88.69
504.256	98.69
504.473	82.69
504.69	88.69
504.907	83.69
505.123	82.69
505.34	81.69
505.557	83.69
505.773	82.69
505.99	87.69
506.207	79.69
506.423	70.69
506.64	85.69
506.856	91.69
507.073	85.69
507.289	78.69
507.506	78.69
507.722	93.69
507.939	77.69
508.155	74.69
508.372	83.69
508.588	79.69
508.805	82.69
509.021	73.69
509.238	96.69
509.454	89.69
509.67	81.69
509.887	99.69
510.103	97.69
510.319	77.69
510.536	92.69
510.752	74.69
510.968	90.69
511.184	90.69
511.401	73.69
511.617	76.69
511.833	82.69
512.049	80.69
512.265	86.69
512.481	73.69
512.698	88.69
512.914	91.69
513.13	83.69
513.346	85.69
513.562	92.69
513.778	76.69
513.994	81.69
514.21	83.69
514.426	83.69
514.642	78.69
514.858	90.69
515.074	75.69
515.29	94.69
515.506	74.69
515.721	74.69
515.937	88.69
516.153	86.69
516.369	75.69
516.585	99.69
516.801	85.69
517.016	86.69
517.232	98.69
517.448	94.69
517.664	85.69
517.879	88.69
518.095	92.69
518.311	89.69
518.527	86.69
518.742	104.69
518.958	99.69
519.173	90.69
519.389	94.69
519.605	89.69
519.82	67.69
