Data from BG_HRD10591_084.txt Node
Date: Fri May 16 15:33:49 EDT 2025
User: Yrep
Spectrometer: HR+D1059
Trigger mode: 1
Integration Time (sec): 1.000000E-1
Scans to average: 1
Electric dark correction enabled: true
Nonlinearity correction enabled: false
Boxcar width: 0
XAxis mode: Wavelengths
Number of Pixels in Spectrum: 2048
>>>>>Begin Spectral Data<<<<<
223.165	1.69
223.4	1.69
223.635	1.69
223.869	-21.31
224.104	-29.31
224.338	-29.31
224.573	-12.31
224.808	-0.31
225.042	-15.31
225.277	-16.31
225.511	-0.31
225.746	-1.31
225.98	15.69
226.215	7.69
226.449	11.69
226.683	23.69
226.918	20.69
227.152	44.69
227.387	29.69
227.621	35.69
227.856	40.69
228.09	49.69
228.324	59.69
228.559	46.69
228.793	64.69
229.027	65.69
229.262	66.69
229.496	67.69
229.73	69.69
229.964	58.69
230.199	66.69
230.433	70.69
230.667	77.69
230.901	82.69
231.136	78.69
231.37	79.69
231.604	88.69
231.838	77.69
232.072	77.69
232.306	78.69
232.541	74.69
232.775	82.69
233.009	77.69
233.243	80.69
233.477	69.69
233.711	76.69
233.945	76.69
234.179	73.69
234.413	76.69
234.647	63.69
234.881	73.69
235.115	75.69
235.349	78.69
235.583	71.69
235.817	86.69
236.051	77.69
236.285	73.69
236.519	67.69
236.753	68.69
236.987	79.69
237.221	67.69
237.455	75.69
237.689	81.69
237.922	66.69
238.156	68.69
238.39	75.69
238.624	65.69
238.858	84.69
239.091	65.69
239.325	62.69
239.559	71.69
239.793	83.69
240.027	77.69
240.26	89.69
240.494	89.69
240.728	70.69
240.961	70.69
241.195	87.69
241.429	70.69
241.662	63.69
241.896	75.69
242.13	71.69
242.363	78.69
242.597	74.69
242.83	75.69
243.064	70.69
243.298	72.69
243.531	85.69
243.765	65.69
243.998	73.69
244.232	79.69
244.465	80.69
244.699	62.69
244.932	64.69
245.166	82.69
245.399	69.69
245.633	79.69
245.866	87.69
246.099	86.69
246.333	65.69
246.566	71.69
246.8	69.69
247.033	70.69
247.266	81.69
247.5	69.69
247.733	87.69
247.966	73.69
248.2	68.69
248.433	77.69
248.666	77.69
248.899	74.69
249.133	77.69
249.366	86.69
249.599	83.69
249.832	86.69
250.066	88.69
250.299	81.69
250.532	84.69
250.765	86.69
250.998	74.69
251.231	84.69
251.465	87.69
251.698	72.69
251.931	81.69
252.164	81.69
252.397	87.69
252.63	80.69
252.863	75.69
253.096	77.69
253.329	75.69
253.562	89.69
253.795	85.69
254.028	88.69
254.261	79.69
254.494	88.69
254.727	67.69
254.96	84.69
255.193	84.69
255.426	77.69
255.659	85.69
255.892	75.69
256.124	70.69
256.357	72.69
256.59	78.69
256.823	86.69
257.056	74.69
257.289	81.69
257.521	74.69
257.754	80.69
257.987	67.69
258.22	75.69
258.452	79.69
258.685	91.69
258.918	78.69
259.151	91.69
259.383	68.69
259.616	88.69
259.849	73.69
260.081	80.69
260.314	88.69
260.547	77.69
260.779	74.69
261.012	70.69
261.244	65.69
261.477	94.69
261.71	73.69
261.942	87.69
262.175	72.69
262.407	81.69
262.64	73.69
262.872	73.69
263.105	75.69
263.337	86.69
263.57	66.69
263.802	75.69
264.035	80.69
264.267	82.69
264.499	78.69
264.732	88.69
264.964	74.69
265.197	83.69
265.429	90.69
265.661	69.69
265.894	82.69
266.126	79.69
266.358	86.69
266.591	77.69
266.823	88.69
267.055	87.69
267.287	87.69
267.52	74.69
267.752	85.69
267.984	70.69
268.216	86.69
268.448	77.69
268.681	86.69
268.913	79.69
269.145	81.69
269.377	85.69
269.609	85.69
269.841	86.69
270.073	83.69
270.306	93.69
270.538	76.69
270.77	79.69
271.002	82.69
271.234	88.69
271.466	82.69
271.698	73.69
271.93	91.69
272.162	90.69
272.394	90.69
272.626	89.69
272.858	75.69
273.09	76.69
273.322	89.69
273.553	90.69
273.785	82.69
274.017	81.69
274.249	82.69
274.481	71.69
274.713	81.69
274.945	83.69
275.176	86.69
275.408	87.69
275.64	70.69
275.872	97.69
276.104	86.69
276.335	82.69
276.567	85.69
276.799	80.69
277.031	77.69
277.262	82.69
277.494	79.69
277.726	88.69
277.957	79.69
278.189	80.69
278.421	67.69
278.652	86.69
278.884	85.69
279.115	76.69
279.347	75.69
279.579	83.69
279.81	86.69
280.042	87.69
280.273	72.69
280.505	93.69
280.736	81.69
280.968	92.69
281.199	86.69
281.431	83.69
281.662	72.69
281.894	77.69
282.125	77.69
282.356	81.69
282.588	68.69
282.819	65.69
283.051	77.69
283.282	85.69
283.513	76.69
283.745	98.69
283.976	79.69
284.207	90.69
284.439	76.69
284.67	83.69
284.901	70.69
285.132	86.69
285.364	91.69
285.595	78.69
285.826	89.69
286.057	91.69
286.288	88.69
286.52	80.69
286.751	74.69
286.982	81.69
287.213	77.69
287.444	93.69
287.675	81.69
287.906	81.69
288.138	72.69
288.369	81.69
288.6	90.69
288.831	82.69
289.062	91.69
289.293	79.69
289.524	95.69
289.755	73.69
289.986	82.69
290.217	82.69
290.448	76.69
290.679	80.69
290.91	91.69
291.141	84.69
291.371	95.69
291.602	89.69
291.833	81.69
292.064	84.69
292.295	90.69
292.526	69.69
292.757	90.69
292.987	79.69
293.218	79.69
293.449	82.69
293.68	84.69
293.91	88.69
294.141	89.69
294.372	85.69
294.603	87.69
294.833	84.69
295.064	75.69
295.295	83.69
295.525	86.69
295.756	75.69
295.987	79.69
296.217	86.69
296.448	81.69
296.679	79.69
296.909	101.69
297.14	85.69
297.37	93.69
297.601	78.69
297.831	86.69
298.062	95.69
298.292	91.69
298.523	66.69
298.753	86.69
298.984	83.69
299.214	83.69
299.445	86.69
299.675	87.69
299.905	83.69
300.136	76.69
300.366	77.69
300.597	83.69
300.827	92.69
301.057	89.69
301.288	71.69
301.518	79.69
301.748	82.69
301.979	93.69
302.209	81.69
302.439	95.69
302.669	76.69
302.9	92.69
303.13	83.69
303.36	82.69
303.59	90.69
303.82	82.69
304.051	97.69
304.281	95.69
304.511	91.69
304.741	78.69
304.971	89.69
305.201	93.69
305.431	81.69
305.661	85.69
305.891	74.69
306.121	78.69
306.352	86.69
306.582	71.69
306.812	81.69
307.042	93.69
307.272	74.69
307.502	81.69
307.731	79.69
307.961	96.69
308.191	92.69
308.421	85.69
308.651	95.69
308.881	93.69
309.111	87.69
309.341	101.69
309.571	83.69
309.8	75.69
310.03	74.69
310.26	78.69
310.49	86.69
310.72	78.69
310.949	74.69
311.179	76.69
311.409	75.69
311.639	91.69
311.868	90.69
312.098	93.69
312.328	93.69
312.557	78.69
312.787	86.69
313.017	98.69
313.246	85.69
313.476	87.69
313.706	89.69
313.935	89.69
314.165	82.69
314.394	76.69
314.624	82.69
314.853	87.69
315.083	83.69
315.312	89.69
315.542	84.69
315.771	96.69
316.001	88.69
316.23	70.69
316.46	78.69
316.689	79.69
316.919	86.69
317.148	93.69
317.377	83.69
317.607	86.69
317.836	88.69
318.065	83.69
318.295	98.69
318.524	86.69
318.753	93.69
318.983	83.69
319.212	89.69
319.441	88.69
319.67	83.69
319.9	74.69
320.129	86.69
320.358	79.69
320.587	71.69
320.816	73.69
321.046	94.69
321.275	91.69
321.504	83.69
321.733	79.69
321.962	86.69
322.191	82.69
322.42	71.69
322.649	83.69
322.878	81.69
323.108	88.69
323.337	82.69
323.566	87.69
323.795	84.69
324.024	91.69
324.253	79.69
324.482	84.69
324.71	90.69
324.939	78.69
325.168	93.69
325.397	81.69
325.626	99.69
325.855	77.69
326.084	90.69
326.313	84.69
326.542	89.69
326.77	89.69
326.999	83.69
327.228	89.69
327.457	83.69
327.686	81.69
327.914	92.69
328.143	90.69
328.372	91.69
328.6	90.69
328.829	88.69
329.058	99.69
329.287	93.69
329.515	87.69
329.744	77.69
329.972	91.69
330.201	76.69
330.43	88.69
330.658	74.69
330.887	77.69
331.115	87.69
331.344	81.69
331.572	96.69
331.801	87.69
332.03	88.69
332.258	91.69
332.486	97.69
332.715	81.69
332.943	82.69
333.172	75.69
333.4	98.69
333.629	84.69
333.857	85.69
334.085	102.69
334.314	81.69
334.542	84.69
334.771	74.69
334.999	83.69
335.227	81.69
335.455	86.69
335.684	81.69
335.912	67.69
336.14	65.69
336.369	87.69
336.597	94.69
336.825	82.69
337.053	77.69
337.281	85.69
337.51	80.69
337.738	79.69
337.966	96.69
338.194	86.69
338.422	81.69
338.65	84.69
338.878	106.69
339.106	103.69
339.334	92.69
339.562	95.69
339.79	90.69
340.018	85.69
340.246	86.69
340.474	81.69
340.702	95.69
340.93	89.69
341.158	96.69
341.386	86.69
341.614	96.69
341.842	93.69
342.07	89.69
342.298	86.69
342.526	88.69
342.754	96.69
342.981	89.69
343.209	90.69
343.437	107.69
343.665	91.69
343.893	76.69
344.12	89.69
344.348	89.69
344.576	77.69
344.804	79.69
345.031	97.69
345.259	87.69
345.487	79.69
345.714	83.69
345.942	90.69
346.17	81.69
346.397	99.69
346.625	90.69
346.853	85.69
347.08	84.69
347.308	86.69
347.535	88.69
347.763	94.69
347.99	98.69
348.218	83.69
348.445	78.69
348.673	97.69
348.9	92.69
349.128	95.69
349.355	86.69
349.583	98.69
349.81	90.69
350.037	93.69
350.265	81.69
350.492	78.69
350.72	94.69
350.947	96.69
351.174	82.69
351.402	99.69
351.629	83.69
351.856	82.69
352.083	77.69
352.311	85.69
352.538	78.69
352.765	71.69
352.992	89.69
353.22	95.69
353.447	91.69
353.674	90.69
353.901	92.69
354.128	80.69
354.355	77.69
354.583	90.69
354.81	102.69
355.037	95.69
355.264	85.69
355.491	81.69
355.718	67.69
355.945	81.69
356.172	86.69
356.399	80.69
356.626	74.69
356.853	80.69
357.08	77.69
357.307	82.69
357.534	78.69
357.761	75.69
357.988	75.69
358.215	85.69
358.441	84.69
358.668	85.69
358.895	79.69
359.122	87.69
359.349	88.69
359.576	81.69
359.802	87.69
360.029	89.69
360.256	83.69
360.483	87.69
360.709	92.69
360.936	99.69
361.163	77.69
361.39	85.69
361.616	68.69
361.843	90.69
362.07	96.69
362.296	87.69
362.523	91.69
362.749	80.69
362.976	64.69
363.203	76.69
363.429	90.69
363.656	88.69
363.882	92.69
364.109	89.69
364.335	82.69
364.562	80.69
364.788	78.69
365.015	77.69
365.241	88.69
365.468	95.69
365.694	70.69
365.92	88.69
366.147	88.69
366.373	90.69
366.599	91.69
366.826	86.69
367.052	78.69
367.278	79.69
367.505	88.69
367.731	97.69
367.957	76.69
368.184	94.69
368.41	77.69
368.636	97.69
368.862	97.69
369.089	72.69
369.315	86.69
369.541	89.69
369.767	89.69
369.993	89.69
370.219	85.69
370.445	78.69
370.672	82.69
370.898	82.69
371.124	89.69
371.35	98.69
371.576	84.69
371.802	77.69
372.028	82.69
372.254	74.69
372.48	75.69
372.706	94.69
372.932	93.69
373.158	95.69
373.384	91.69
373.61	89.69
373.835	85.69
374.061	80.69
374.287	88.69
374.513	89.69
374.739	91.69
374.965	97.69
375.191	76.69
375.416	83.69
375.642	83.69
375.868	82.69
376.094	79.69
376.319	80.69
376.545	84.69
376.771	86.69
376.997	76.69
377.222	87.69
377.448	92.69
377.674	92.69
377.899	87.69
378.125	80.69
378.35	86.69
378.576	93.69
378.802	83.69
379.027	91.69
379.253	96.69
379.478	90.69
379.704	80.69
379.929	76.69
380.155	80.69
380.38	91.69
380.606	87.69
380.831	97.69
381.057	95.69
381.282	75.69
381.507	85.69
381.733	96.69
381.958	97.69
382.184	94.69
382.409	77.69
382.634	98.69
382.86	94.69
383.085	80.69
383.31	78.69
383.535	78.69
383.761	88.69
383.986	89.69
384.211	83.69
384.436	75.69
384.662	85.69
384.887	91.69
385.112	94.69
385.337	85.69
385.562	91.69
385.787	77.69
386.013	81.69
386.238	101.69
386.463	75.69
386.688	107.69
386.913	97.69
387.138	75.69
387.363	99.69
387.588	85.69
387.813	85.69
388.038	78.69
388.263	97.69
388.488	87.69
388.713	91.69
388.938	89.69
389.163	78.69
389.387	82.69
389.612	77.69
389.837	90.69
390.062	86.69
390.287	78.69
390.512	87.69
390.736	75.69
390.961	100.69
391.186	96.69
391.411	85.69
391.636	87.69
391.86	86.69
392.085	94.69
392.31	77.69
392.534	76.69
392.759	103.69
392.984	100.69
393.208	90.69
393.433	108.69
393.658	75.69
393.882	80.69
394.107	77.69
394.331	83.69
394.556	76.69
394.78	87.69
395.005	83.69
395.229	80.69
395.454	96.69
395.678	95.69
395.903	75.69
396.127	90.69
396.352	87.69
396.576	84.69
396.801	97.69
397.025	86.69
397.249	88.69
397.474	95.69
397.698	84.69
397.922	85.69
398.147	92.69
398.371	78.69
398.595	82.69
398.82	81.69
399.044	83.69
399.268	81.69
399.492	78.69
399.717	82.69
399.941	101.69
400.165	79.69
400.389	91.69
400.613	79.69
400.837	88.69
401.062	77.69
401.286	91.69
401.51	86.69
401.734	91.69
401.958	90.69
402.182	91.69
402.406	91.69
402.63	93.69
402.854	83.69
403.078	88.69
403.302	91.69
403.526	99.69
403.75	89.69
403.974	80.69
404.198	87.69
404.422	85.69
404.645	103.69
404.869	81.69
405.093	80.69
405.317	81.69
405.541	82.69
405.765	76.69
405.988	83.69
406.212	82.69
406.436	89.69
406.66	57.69
406.883	87.69
407.107	66.69
407.331	82.69
407.555	91.69
407.778	78.69
408.002	91.69
408.226	90.69
408.449	102.69
408.673	74.69
408.896	85.69
409.12	87.69
409.344	82.69
409.567	72.69
409.791	108.69
410.014	95.69
410.238	86.69
410.461	81.69
410.685	75.69
410.908	80.69
411.132	84.69
411.355	70.69
411.578	82.69
411.802	85.69
412.025	77.69
412.249	79.69
412.472	98.69
412.695	69.69
412.919	84.69
413.142	79.69
413.365	91.69
413.589	93.69
413.812	86.69
414.035	87.69
414.258	96.69
414.482	102.69
414.705	79.69
414.928	87.69
415.151	88.69
415.374	85.69
415.597	90.69
415.821	93.69
416.044	85.69
416.267	81.69
416.49	77.69
416.713	86.69
416.936	95.69
417.159	94.69
417.382	71.69
417.605	92.69
417.828	90.69
418.051	89.69
418.274	70.69
418.497	73.69
418.72	85.69
418.943	90.69
419.166	86.69
419.389	88.69
419.611	91.69
419.834	91.69
420.057	78.69
420.28	78.69
420.503	80.69
420.726	85.69
420.948	77.69
421.171	91.69
421.394	75.69
421.617	80.69
421.839	85.69
422.062	87.69
422.285	83.69
422.507	77.69
422.73	91.69
422.953	78.69
423.175	97.69
423.398	84.69
423.621	79.69
423.843	111.69
424.066	82.69
424.288	100.69
424.511	95.69
424.733	85.69
424.956	79.69
425.178	93.69
425.401	83.69
425.623	81.69
425.846	82.69
426.068	67.69
426.291	89.69
426.513	88.69
426.735	84.69
426.958	82.69
427.18	85.69
427.402	85.69
427.625	89.69
427.847	93.69
428.069	103.69
428.292	91.69
428.514	79.69
428.736	86.69
428.958	94.69
429.181	98.69
429.403	95.69
429.625	89.69
429.847	83.69
430.069	103.69
430.292	104.69
430.514	86.69
430.736	85.69
430.958	89.69
431.18	76.69
431.402	97.69
431.624	86.69
431.846	73.69
432.068	75.69
432.29	87.69
432.512	86.69
432.734	91.69
432.956	82.69
433.178	76.69
433.4	86.69
433.622	81.69
433.844	90.69
434.066	95.69
434.287	100.69
434.509	85.69
434.731	89.69
434.953	88.69
435.175	67.69
435.397	84.69
435.618	90.69
435.84	84.69
436.062	89.69
436.284	85.69
436.505	84.69
436.727	88.69
436.949	93.69
437.17	79.69
437.392	71.69
437.614	90.69
437.835	83.69
438.057	79.69
438.278	87.69
438.5	86.69
438.721	83.69
438.943	73.69
439.165	86.69
439.386	85.69
439.608	89.69
439.829	99.69
440.05	78.69
440.272	79.69
440.493	88.69
440.715	78.69
440.936	87.69
441.158	90.69
441.379	89.69
441.6	85.69
441.822	87.69
442.043	69.69
442.264	71.69
442.486	89.69
442.707	79.69
442.928	89.69
443.149	90.69
443.371	88.69
443.592	101.69
443.813	99.69
444.034	87.69
444.255	83.69
444.476	82.69
444.698	91.69
444.919	95.69
445.14	160.69
445.361	122.69
445.582	101.69
445.803	86.69
446.024	98.69
446.245	79.69
446.466	93.69
446.687	89.69
446.908	95.69
447.129	94.69
447.35	82.69
447.571	94.69
447.792	94.69
448.013	88.69
448.234	80.69
448.455	85.69
448.675	85.69
448.896	95.69
449.117	104.69
449.338	97.69
449.559	95.69
449.779	78.69
450	74.69
450.221	84.69
450.442	84.69
450.662	83.69
450.883	85.69
451.104	89.69
451.324	89.69
451.545	76.69
451.766	69.69
451.986	82.69
452.207	89.69
452.428	85.69
452.648	86.69
452.869	88.69
453.089	87.69
453.31	79.69
453.53	88.69
453.751	103.69
453.971	97.69
454.192	86.69
454.412	76.69
454.633	94.69
454.853	83.69
455.073	86.69
455.294	71.69
455.514	98.69
455.734	93.69
455.955	83.69
456.175	77.69
456.395	82.69
456.616	85.69
456.836	90.69
457.056	82.69
457.276	90.69
457.497	96.69
457.717	66.69
457.937	93.69
458.157	85.69
458.377	79.69
458.598	80.69
458.818	82.69
459.038	84.69
459.258	82.69
459.478	79.69
459.698	82.69
459.918	80.69
460.138	83.69
460.358	85.69
460.578	75.69
460.798	81.69
461.018	76.69
461.238	83.69
461.458	86.69
461.678	99.69
461.898	88.69
462.118	84.69
462.338	85.69
462.558	74.69
462.777	89.69
462.997	82.69
463.217	80.69
463.437	94.69
463.657	82.69
463.876	86.69
464.096	63.69
464.316	83.69
464.536	98.69
464.755	93.69
464.975	83.69
465.195	88.69
465.414	83.69
465.634	86.69
465.854	88.69
466.073	86.69
466.293	76.69
466.512	88.69
466.732	78.69
466.951	89.69
467.171	88.69
467.391	89.69
467.61	74.69
467.829	73.69
468.049	85.69
468.268	89.69
468.488	91.69
468.707	85.69
468.927	87.69
469.146	71.69
469.365	105.69
469.585	78.69
469.804	93.69
470.023	86.69
470.243	83.69
470.462	94.69
470.681	73.69
470.901	80.69
471.12	86.69
471.339	90.69
471.558	92.69
471.777	87.69
471.997	83.69
472.216	89.69
472.435	85.69
472.654	93.69
472.873	83.69
473.092	82.69
473.311	89.69
473.53	94.69
473.749	87.69
473.968	85.69
474.187	83.69
474.406	88.69
474.625	90.69
474.844	91.69
475.063	87.69
475.282	88.69
475.501	79.69
475.72	89.69
475.939	101.69
476.158	97.69
476.377	92.69
476.596	78.69
476.814	71.69
477.033	98.69
477.252	98.69
477.471	91.69
477.69	82.69
477.908	78.69
478.127	97.69
478.346	87.69
478.564	90.69
478.783	71.69
479.002	79.69
479.22	91.69
479.439	90.69
479.658	83.69
479.876	99.69
480.095	94.69
480.313	96.69
480.532	84.69
480.751	86.69
480.969	90.69
481.188	79.69
481.406	82.69
481.624	79.69
481.843	84.69
482.061	86.69
482.28	89.69
482.498	91.69
482.717	78.69
482.935	82.69
483.153	89.69
483.372	91.69
483.59	92.69
483.808	93.69
484.027	90.69
484.245	88.69
484.463	85.69
484.681	79.69
484.9	93.69
485.118	94.69
485.336	85.69
485.554	86.69
485.772	91.69
485.99	80.69
486.209	76.69
486.427	81.69
486.645	90.69
486.863	99.69
487.081	92.69
487.299	75.69
487.517	96.69
487.735	87.69
487.953	96.69
488.171	77.69
488.389	93.69
488.607	86.69
488.825	94.69
489.043	97.69
489.261	67.69
489.479	90.69
489.696	78.69
489.914	95.69
490.132	79.69
490.35	91.69
490.568	81.69
490.786	88.69
491.003	82.69
491.221	89.69
491.439	94.69
491.657	77.69
491.874	91.69
492.092	90.69
492.31	101.69
492.527	96.69
492.745	93.69
492.963	77.69
493.18	86.69
493.398	86.69
493.615	78.69
493.833	76.69
494.05	79.69
494.268	73.69
494.485	91.69
494.703	80.69
494.92	88.69
495.138	96.69
495.355	97.69
495.573	74.69
495.79	87.69
496.008	89.69
496.225	94.69
496.442	98.69
496.66	104.69
496.877	98.69
497.094	86.69
497.312	93.69
497.529	81.69
497.746	90.69
497.963	82.69
498.181	81.69
498.398	92.69
498.615	88.69
498.832	97.69
499.049	73.69
499.267	78.69
499.484	86.69
499.701	91.69
499.918	111.69
500.135	114.69
500.352	111.69
500.569	104.69
500.786	94.69
501.003	82.69
501.22	99.69
501.437	102.69
501.654	89.69
501.871	103.69
502.088	88.69
502.305	81.69
502.522	81.69
502.739	86.69
502.956	86.69
503.172	93.69
503.389	72.69
503.606	97.69
503.823	101.69
504.04	87.69
504.256	104.69
504.473	91.69
504.69	107.69
504.907	97.69
505.123	74.69
505.34	77.69
505.557	92.69
505.773	90.69
505.99	83.69
506.207	85.69
506.423	97.69
506.64	78.69
506.856	86.69
507.073	79.69
507.289	97.69
507.506	91.69
507.722	82.69
507.939	83.69
508.155	81.69
508.372	109.69
508.588	89.69
508.805	83.69
509.021	87.69
509.238	96.69
509.454	83.69
509.67	92.69
509.887	85.69
510.103	81.69
510.319	81.69
510.536	74.69
510.752	71.69
510.968	95.69
511.184	103.69
511.401	83.69
511.617	88.69
511.833	75.69
512.049	80.69
512.265	86.69
512.481	85.69
512.698	74.69
512.914	70.69
513.13	85.69
513.346	91.69
513.562	95.69
513.778	86.69
513.994	91.69
514.21	94.69
514.426	98.69
514.642	81.69
514.858	78.69
515.074	91.69
515.29	87.69
515.506	65.69
515.721	86.69
515.937	90.69
516.153	82.69
516.369	83.69
516.585	79.69
516.801	93.69
517.016	94.69
517.232	90.69
517.448	86.69
517.664	92.69
517.879	98.69
518.095	89.69
518.311	105.69
518.527	79.69
518.742	85.69
518.958	84.69
519.173	96.69
519.389	83.69
519.605	98.69
519.82	80.69
