Data from BG_HRD10591_007.txt Node
Date: Fri May 16 15:33:10 EDT 2025
User: Yrep
Spectrometer: HR+D1059
Trigger mode: 1
Integration Time (sec): 1.000000E-1
Scans to average: 1
Electric dark correction enabled: true
Nonlinearity correction enabled: false
Boxcar width: 0
XAxis mode: Wavelengths
Number of Pixels in Spectrum: 2048
>>>>>Begin Spectral Data<<<<<
223.165	-5
223.4	-5
223.635	-5
223.869	-29
224.104	-15
224.338	-13
224.573	-15
224.808	-16
225.042	2
225.277	-10
225.511	9
225.746	-1
225.98	6
226.215	5
226.449	10
226.683	24
226.918	13
227.152	35
227.387	57
227.621	46
227.856	42
228.09	44
228.324	58
228.559	63
228.793	57
229.027	59
229.262	68
229.496	73
229.73	70
229.964	80
230.199	56
230.433	72
230.667	83
230.901	80
231.136	80
231.37	73
231.604	82
231.838	89
232.072	81
232.306	86
232.541	88
232.775	87
233.009	78
233.243	78
233.477	75
233.711	88
233.945	91
234.179	87
234.413	78
234.647	82
234.881	88
235.115	83
235.349	69
235.583	90
235.817	82
236.051	80
236.285	78
236.519	76
236.753	70
236.987	68
237.221	83
237.455	64
237.689	79
237.922	77
238.156	90
238.39	90
238.624	74
238.858	68
239.091	74
239.325	82
239.559	71
239.793	96
240.027	63
240.26	86
240.494	71
240.728	69
240.961	81
241.195	67
241.429	79
241.662	58
241.896	74
242.13	75
242.363	68
242.597	91
242.83	78
243.064	62
243.298	86
243.531	80
243.765	70
243.998	90
244.232	71
244.465	73
244.699	69
244.932	73
245.166	70
245.399	71
245.633	77
245.866	70
246.099	81
246.333	75
246.566	71
246.8	75
247.033	87
247.266	87
247.5	68
247.733	74
247.966	86
248.2	69
248.433	89
248.666	73
248.899	63
249.133	88
249.366	74
249.599	72
249.832	74
250.066	75
250.299	80
250.532	71
250.765	82
250.998	76
251.231	90
251.465	78
251.698	82
251.931	72
252.164	71
252.397	73
252.63	90
252.863	76
253.096	76
253.329	73
253.562	84
253.795	88
254.028	67
254.261	76
254.494	82
254.727	72
254.96	73
255.193	74
255.426	80
255.659	81
255.892	83
256.124	95
256.357	88
256.59	91
256.823	93
257.056	88
257.289	71
257.521	90
257.754	74
257.987	77
258.22	79
258.452	72
258.685	75
258.918	73
259.151	84
259.383	79
259.616	82
259.849	69
260.081	90
260.314	84
260.547	75
260.779	84
261.012	89
261.244	82
261.477	78
261.71	73
261.942	80
262.175	86
262.407	71
262.64	69
262.872	100
263.105	78
263.337	73
263.57	78
263.802	81
264.035	68
264.267	77
264.499	72
264.732	84
264.964	78
265.197	86
265.429	86
265.661	91
265.894	93
266.126	82
266.358	76
266.591	82
266.823	72
267.055	79
267.287	81
267.52	86
267.752	72
267.984	79
268.216	79
268.448	76
268.681	89
268.913	82
269.145	87
269.377	82
269.609	71
269.841	90
270.073	80
270.306	72
270.538	71
270.77	74
271.002	82
271.234	108
271.466	78
271.698	82
271.93	77
272.162	89
272.394	85
272.626	82
272.858	72
273.09	74
273.322	83
273.553	71
273.785	88
274.017	76
274.249	92
274.481	91
274.713	69
274.945	78
275.176	82
275.408	82
275.64	78
275.872	99
276.104	88
276.335	69
276.567	74
276.799	87
277.031	82
277.262	102
277.494	100
277.726	83
277.957	88
278.189	83
278.421	81
278.652	79
278.884	84
279.115	96
279.347	83
279.579	81
279.81	94
280.042	80
280.273	95
280.505	91
280.736	84
280.968	82
281.199	84
281.431	78
281.662	80
281.894	97
282.125	79
282.356	80
282.588	87
282.819	79
283.051	87
283.282	88
283.513	96
283.745	87
283.976	87
284.207	92
284.439	95
284.67	83
284.901	68
285.132	77
285.364	82
285.595	84
285.826	71
286.057	88
286.288	82
286.52	81
286.751	96
286.982	80
287.213	85
287.444	93
287.675	79
287.906	77
288.138	84
288.369	88
288.6	86
288.831	84
289.062	89
289.293	81
289.524	78
289.755	82
289.986	74
290.217	92
290.448	88
290.679	85
290.91	90
291.141	82
291.371	87
291.602	83
291.833	89
292.064	82
292.295	73
292.526	76
292.757	89
292.987	98
293.218	86
293.449	76
293.68	86
293.91	80
294.141	93
294.372	80
294.603	95
294.833	79
295.064	75
295.295	88
295.525	80
295.756	98
295.987	86
296.217	82
296.448	97
296.679	88
296.909	95
297.14	91
297.37	84
297.601	75
297.831	81
298.062	74
298.292	76
298.523	91
298.753	75
298.984	89
299.214	88
299.445	81
299.675	88
299.905	82
300.136	98
300.366	86
300.597	78
300.827	79
301.057	89
301.288	92
301.518	73
301.748	76
301.979	105
302.209	92
302.439	91
302.669	95
302.9	98
303.13	82
303.36	69
303.59	83
303.82	70
304.051	81
304.281	92
304.511	83
304.741	94
304.971	83
305.201	89
305.431	76
305.661	103
305.891	82
306.121	86
306.352	104
306.582	89
306.812	78
307.042	80
307.272	81
307.502	80
307.731	75
307.961	92
308.191	88
308.421	98
308.651	96
308.881	73
309.111	86
309.341	84
309.571	106
309.8	80
310.03	71
310.26	86
310.49	102
310.72	91
310.949	90
311.179	86
311.409	79
311.639	83
311.868	89
312.098	86
312.328	87
312.557	82
312.787	81
313.017	78
313.246	86
313.476	91
313.706	77
313.935	84
314.165	104
314.394	91
314.624	75
314.853	88
315.083	96
315.312	73
315.542	71
315.771	85
316.001	87
316.23	92
316.46	82
316.689	85
316.919	87
317.148	104
317.377	86
317.607	86
317.836	80
318.065	87
318.295	98
318.524	99
318.753	92
318.983	96
319.212	92
319.441	87
319.67	88
319.9	73
320.129	84
320.358	86
320.587	88
320.816	90
321.046	85
321.275	82
321.504	94
321.733	87
321.962	99
322.191	83
322.42	67
322.649	82
322.878	89
323.108	99
323.337	84
323.566	75
323.795	94
324.024	82
324.253	88
324.482	76
324.71	98
324.939	97
325.168	92
325.397	88
325.626	87
325.855	77
326.084	76
326.313	94
326.542	98
326.77	86
326.999	79
327.228	76
327.457	85
327.686	90
327.914	100
328.143	95
328.372	80
328.6	79
328.829	88
329.058	83
329.287	91
329.515	98
329.744	91
329.972	89
330.201	87
330.43	99
330.658	81
330.887	87
331.115	94
331.344	94
331.572	79
331.801	71
332.03	79
332.258	82
332.486	93
332.715	97
332.943	103
333.172	78
333.4	84
333.629	80
333.857	95
334.085	79
334.314	82
334.542	99
334.771	83
334.999	95
335.227	95
335.455	86
335.684	82
335.912	91
336.14	68
336.369	85
336.597	90
336.825	99
337.053	77
337.281	96
337.51	94
337.738	99
337.966	94
338.194	86
338.422	89
338.65	86
338.878	77
339.106	76
339.334	92
339.562	81
339.79	86
340.018	97
340.246	83
340.474	69
340.702	78
340.93	73
341.158	81
341.386	84
341.614	78
341.842	90
342.07	89
342.298	97
342.526	81
342.754	79
342.981	92
343.209	91
343.437	97
343.665	95
343.893	87
344.12	93
344.348	87
344.576	88
344.804	85
345.031	82
345.259	82
345.487	89
345.714	89
345.942	96
346.17	80
346.397	87
346.625	91
346.853	94
347.08	87
347.308	87
347.535	103
347.763	80
347.99	80
348.218	90
348.445	75
348.673	77
348.9	79
349.128	78
349.355	89
349.583	84
349.81	85
350.037	84
350.265	90
350.492	83
350.72	91
350.947	103
351.174	98
351.402	73
351.629	81
351.856	99
352.083	87
352.311	86
352.538	98
352.765	83
352.992	83
353.22	76
353.447	79
353.674	92
353.901	89
354.128	97
354.355	102
354.583	80
354.81	81
355.037	85
355.264	95
355.491	78
355.718	89
355.945	94
356.172	103
356.399	88
356.626	69
356.853	59
357.08	89
357.307	83
357.534	95
357.761	90
357.988	85
358.215	94
358.441	88
358.668	89
358.895	87
359.122	79
359.349	86
359.576	98
359.802	75
360.029	105
360.256	100
360.483	82
360.709	99
360.936	89
361.163	88
361.39	94
361.616	81
361.843	96
362.07	90
362.296	85
362.523	87
362.749	91
362.976	90
363.203	82
363.429	84
363.656	88
363.882	79
364.109	87
364.335	82
364.562	80
364.788	74
365.015	87
365.241	79
365.468	78
365.694	88
365.92	88
366.147	82
366.373	85
366.599	79
366.826	96
367.052	90
367.278	96
367.505	84
367.731	88
367.957	95
368.184	97
368.41	87
368.636	88
368.862	94
369.089	89
369.315	92
369.541	93
369.767	91
369.993	86
370.219	64
370.445	93
370.672	83
370.898	79
371.124	95
371.35	87
371.576	87
371.802	89
372.028	82
372.254	95
372.48	100
372.706	83
372.932	106
373.158	78
373.384	80
373.61	85
373.835	74
374.061	83
374.287	87
374.513	79
374.739	79
374.965	91
375.191	77
375.416	74
375.642	87
375.868	94
376.094	86
376.319	71
376.545	87
376.771	83
376.997	94
377.222	80
377.448	97
377.674	74
377.899	77
378.125	95
378.35	105
378.576	86
378.802	70
379.027	77
379.253	84
379.478	81
379.704	93
379.929	88
380.155	83
380.38	96
380.606	80
380.831	86
381.057	78
381.282	86
381.507	86
381.733	86
381.958	67
382.184	95
382.409	93
382.634	91
382.86	89
383.085	77
383.31	73
383.535	84
383.761	99
383.986	73
384.211	90
384.436	74
384.662	84
384.887	71
385.112	99
385.337	74
385.562	91
385.787	88
386.013	86
386.238	88
386.463	86
386.688	95
386.913	74
387.138	90
387.363	99
387.588	98
387.813	89
388.038	86
388.263	100
388.488	89
388.713	81
388.938	93
389.163	96
389.387	72
389.612	83
389.837	87
390.062	80
390.287	91
390.512	86
390.736	85
390.961	75
391.186	74
391.411	78
391.636	71
391.86	94
392.085	87
392.31	77
392.534	98
392.759	90
392.984	81
393.208	83
393.433	92
393.658	81
393.882	97
394.107	89
394.331	88
394.556	90
394.78	93
395.005	96
395.229	92
395.454	91
395.678	86
395.903	99
396.127	92
396.352	81
396.576	77
396.801	90
397.025	77
397.249	82
397.474	74
397.698	92
397.922	89
398.147	96
398.371	88
398.595	82
398.82	80
399.044	81
399.268	77
399.492	88
399.717	91
399.941	80
400.165	97
400.389	74
400.613	90
400.837	81
401.062	84
401.286	76
401.51	95
401.734	88
401.958	83
402.182	89
402.406	99
402.63	84
402.854	72
403.078	72
403.302	88
403.526	81
403.75	89
403.974	92
404.198	86
404.422	91
404.645	98
404.869	91
405.093	79
405.317	80
405.541	91
405.765	87
405.988	95
406.212	103
406.436	89
406.66	82
406.883	88
407.107	69
407.331	87
407.555	98
407.778	95
408.002	91
408.226	72
408.449	95
408.673	88
408.896	102
409.12	102
409.344	88
409.567	86
409.791	84
410.014	80
410.238	91
410.461	90
410.685	61
410.908	80
411.132	73
411.355	94
411.578	87
411.802	105
412.025	90
412.249	87
412.472	93
412.695	83
412.919	81
413.142	86
413.365	80
413.589	82
413.812	84
414.035	94
414.258	76
414.482	80
414.705	86
414.928	86
415.151	91
415.374	83
415.597	98
415.821	89
416.044	84
416.267	92
416.49	98
416.713	89
416.936	93
417.159	95
417.382	89
417.605	87
417.828	88
418.051	90
418.274	88
418.497	94
418.72	89
418.943	72
419.166	90
419.389	76
419.611	67
419.834	89
420.057	97
420.28	91
420.503	84
420.726	97
420.948	92
421.171	86
421.394	89
421.617	72
421.839	79
422.062	90
422.285	91
422.507	85
422.73	80
422.953	67
423.175	89
423.398	78
423.621	87
423.843	83
424.066	90
424.288	88
424.511	85
424.733	82
424.956	67
425.178	98
425.401	86
425.623	84
425.846	77
426.068	80
426.291	75
426.513	95
426.735	68
426.958	94
427.18	81
427.402	91
427.625	96
427.847	87
428.069	78
428.292	74
428.514	95
428.736	88
428.958	94
429.181	89
429.403	89
429.625	90
429.847	103
430.069	82
430.292	98
430.514	92
430.736	82
430.958	89
431.18	81
431.402	81
431.624	90
431.846	86
432.068	90
432.29	86
432.512	94
432.734	70
432.956	89
433.178	82
433.4	91
433.622	103
433.844	92
434.066	88
434.287	82
434.509	82
434.731	79
434.953	88
435.175	93
435.397	92
435.618	102
435.84	86
436.062	94
436.284	81
436.505	88
436.727	89
436.949	85
437.17	80
437.392	80
437.614	105
437.835	86
438.057	65
438.278	101
438.5	97
438.721	93
438.943	90
439.165	80
439.386	85
439.608	96
439.829	83
440.05	88
440.272	89
440.493	94
440.715	74
440.936	76
441.158	86
441.379	84
441.6	96
441.822	87
442.043	86
442.264	91
442.486	91
442.707	95
442.928	97
443.149	78
443.371	75
443.592	76
443.813	87
444.034	82
444.255	92
444.476	84
444.698	79
444.919	82
445.14	161
445.361	130
445.582	98
445.803	86
446.024	81
446.245	89
446.466	107
446.687	66
446.908	70
447.129	83
447.35	86
447.571	104
447.792	90
448.013	81
448.234	89
448.455	79
448.675	77
448.896	72
449.117	91
449.338	76
449.559	72
449.779	72
450	90
450.221	87
450.442	66
450.662	92
450.883	91
451.104	78
451.324	77
451.545	83
451.766	99
451.986	92
452.207	77
452.428	59
452.648	82
452.869	78
453.089	89
453.31	87
453.53	96
453.751	95
453.971	91
454.192	79
454.412	77
454.633	62
454.853	83
455.073	84
455.294	76
455.514	87
455.734	79
455.955	88
456.175	81
456.395	89
456.616	86
456.836	85
457.056	86
457.276	98
457.497	85
457.717	80
457.937	64
458.157	94
458.377	81
458.598	88
458.818	79
459.038	80
459.258	87
459.478	94
459.698	94
459.918	79
460.138	60
460.358	84
460.578	78
460.798	86
461.018	91
461.238	95
461.458	87
461.678	97
461.898	95
462.118	87
462.338	94
462.558	96
462.777	77
462.997	90
463.217	95
463.437	98
463.657	100
463.876	96
464.096	91
464.316	88
464.536	78
464.755	76
464.975	94
465.195	89
465.414	84
465.634	89
465.854	91
466.073	88
466.293	94
466.512	78
466.732	69
466.951	91
467.171	83
467.391	86
467.61	91
467.829	87
468.049	87
468.268	77
468.488	75
468.707	77
468.927	80
469.146	83
469.365	92
469.585	104
469.804	82
470.023	86
470.243	90
470.462	91
470.681	80
470.901	83
471.12	79
471.339	93
471.558	91
471.777	98
471.997	80
472.216	88
472.435	74
472.654	98
472.873	93
473.092	88
473.311	94
473.53	87
473.749	76
473.968	85
474.187	72
474.406	82
474.625	78
474.844	91
475.063	81
475.282	77
475.501	86
475.72	95
475.939	78
476.158	83
476.377	68
476.596	87
476.814	90
477.033	86
477.252	100
477.471	85
477.69	85
477.908	73
478.127	94
478.346	82
478.564	97
478.783	88
479.002	93
479.22	90
479.439	92
479.658	86
479.876	87
480.095	94
480.313	97
480.532	97
480.751	77
480.969	79
481.188	81
481.406	92
481.624	79
481.843	83
482.061	108
482.28	83
482.498	95
482.717	97
482.935	95
483.153	87
483.372	92
483.59	91
483.808	92
484.027	86
484.245	94
484.463	74
484.681	107
484.9	99
485.118	77
485.336	84
485.554	86
485.772	102
485.99	80
486.209	91
486.427	85
486.645	109
486.863	94
487.081	91
487.299	82
487.517	102
487.735	89
487.953	98
488.171	84
488.389	102
488.607	95
488.825	98
489.043	82
489.261	94
489.479	99
489.696	93
489.914	95
490.132	79
490.35	90
490.568	95
490.786	105
491.003	101
491.221	96
491.439	88
491.657	86
491.874	91
492.092	98
492.31	87
492.527	86
492.745	97
492.963	96
493.18	103
493.398	86
493.615	87
493.833	88
494.05	106
494.268	102
494.485	81
494.703	104
494.92	90
495.138	97
495.355	90
495.573	86
495.79	88
496.008	94
496.225	80
496.442	93
496.66	99
496.877	79
497.094	86
497.312	87
497.529	98
497.746	103
497.963	80
498.181	84
498.398	83
498.615	95
498.832	95
499.049	109
499.267	82
499.484	96
499.701	109
499.918	102
500.135	115
500.352	121
500.569	96
500.786	108
501.003	104
501.22	87
501.437	103
501.654	83
501.871	90
502.088	96
502.305	90
502.522	91
502.739	85
502.956	106
503.172	80
503.389	100
503.606	91
503.823	96
504.04	81
504.256	82
504.473	90
504.69	97
504.907	93
505.123	98
505.34	85
505.557	92
505.773	89
505.99	80
506.207	90
506.423	92
506.64	79
506.856	92
507.073	87
507.289	84
507.506	115
507.722	89
507.939	86
508.155	95
508.372	89
508.588	99
508.805	81
509.021	74
509.238	73
509.454	78
509.67	86
509.887	82
510.103	75
510.319	86
510.536	95
510.752	80
510.968	88
511.184	88
511.401	91
511.617	78
511.833	81
512.049	91
512.265	95
512.481	78
512.698	93
512.914	96
513.13	90
513.346	92
513.562	82
513.778	90
513.994	84
514.21	102
514.426	95
514.642	83
514.858	92
515.074	94
515.29	81
515.506	101
515.721	94
515.937	87
516.153	97
516.369	86
516.585	82
516.801	91
517.016	83
517.232	104
517.448	97
517.664	106
517.879	80
518.095	95
518.311	88
518.527	96
518.742	91
518.958	88
519.173	107
519.389	94
519.605	96
519.82	87
520.036	87
520.251	73
520.467	85
520.682	88
520.898	82
521.113	92
521.329	91
521.544	87
521.76	88
521.975	99
522.19	96
522.406	82
522.621	81
522.836	93
523.052	91
523.267	93
523.482	80
523.698	90
523.913	80
524.128	80
524.343	86
524.559	96
524.774	99
524.989	97
525.204	79
525.419	85
525.634	88
525.849	87
526.064	89
526.28	84
526.495	82
526.71	80
526.925	86
527.14	84
527.355	82
527.57	98
527.785	102
527.999	88
528.214	84
528.429	95
528.644	91
528.859	85
529.074	88
529.289	97
529.503	82
529.718	95
529.933	74
530.148	78
530.363	84
530.577	94
530.792	79
531.007	78
531.221	88
531.436	88
531.651	90
531.865	84
532.08	96
532.295	87
532.509	90
532.724	82
532.938	85
533.153	76
533.367	98
533.582	85
533.796	103
534.011	92
534.225	102
534.44	87
534.654	90
534.868	84
535.083	97
535.297	90
535.511	105
535.726	93
535.94	94
536.154	77
536.369	82
536.583	85
536.797	92
537.011	86
537.225	92
537.44	83
537.654	93
537.868	79
538.082	80
538.296	91
538.51	93
538.724	98
538.938	92
539.153	84
539.367	87
539.581	78
539.795	88
540.009	90
540.222	90
540.436	88
540.65	82
540.864	84
541.078	81
541.292	87
541.506	99
541.72	80
541.934	88
542.147	83
542.361	93
542.575	76
542.789	103
543.002	87
543.216	88
543.43	99
543.644	86
543.857	88
544.071	87
544.285	89
544.498	83
544.712	84
544.925	89
545.139	92
545.352	90
545.566	78
545.779	82
545.993	93
546.206	88
546.42	83
546.633	79
546.847	92
547.06	106
547.274	90
547.487	84
547.7	88
547.914	86
548.127	92
548.34	79
548.554	81
548.767	86
548.98	76
549.193	90
549.407	78
549.62	85
549.833	96
550.046	92
550.259	92
550.473	93
550.686	82
550.899	76
551.112	83
551.325	83
551.538	94
551.751	105
551.964	83
552.177	97
552.39	95
552.603	89
552.816	85
553.029	88
553.242	82
553.455	75
553.667	90
553.88	92
554.093	90
554.306	81
554.519	94
554.732	79
554.944	91
555.157	104
555.37	104
555.583	91
555.795	91
556.008	73
556.221	106
556.433	79
556.646	98
556.859	73
557.071	81
557.284	81
557.496	81
557.709	88
557.921	78
558.134	91
558.346	90
558.559	88
558.771	95
558.984	84
559.196	84
559.409	98
559.621	90
559.833	74
560.046	87
560.258	94
560.47	74
560.683	95
560.895	78
561.107	96
561.32	84
561.532	98
561.744	103
561.956	88
562.168	88
562.381	84
562.593	95
562.805	80
563.017	97
563.229	84
563.441	69
563.653	88
563.865	96
564.077	87
564.289	85
564.501	93
564.713	76
564.925	94
565.137	82
565.349	102
565.561	84
565.773	81
565.985	85
566.197	88
566.408	89
566.62	80
566.832	90
567.044	78
567.255	95
567.467	86
567.679	91
567.891	76
568.102	79
568.314	96
568.526	81
568.737	95
568.949	88
569.161	94
569.372	78
569.584	85
569.795	84
570.007	84
570.218	87
570.43	82
570.641	95
570.853	86
571.064	96
571.276	89
571.487	82
571.698	90
571.91	87
572.121	85
572.333	88
572.544	81
572.755	90
572.966	87
573.178	86
573.389	92
573.6	96
573.811	89
574.023	78
574.234	89
574.445	87
574.656	84
574.867	82
575.078	91
575.289	85
575.501	88
575.712	91
575.923	86
576.134	80
576.345	82
576.556	94
576.767	89
576.978	91
577.188	92
577.399	90
577.61	88
577.821	100
578.032	81
578.243	97
578.454	89
578.665	91
578.875	85
579.086	95
579.297	84
579.508	84
579.718	86
579.929	84
580.14	80
580.35	87
580.561	73
580.772	99
580.982	81
581.193	79
581.403	88
581.614	91
581.825	82
582.035	88
582.246	104
582.456	88
582.667	96
582.877	95
583.087	91
583.298	88
583.508	74
583.719	68
583.929	78
584.139	77
584.35	81
584.56	94
584.77	91
584.981	83
585.191	96
585.401	72
585.611	78
585.821	99
586.032	87
586.242	77
586.452	87
586.662	80
586.872	97
587.082	87
587.292	94
587.502	86
587.713	83
587.923	86
588.133	83
588.343	75
588.553	86
588.762	87
588.972	77
589.182	103
589.392	78
589.602	85
589.812	83
