Data from BG_HRD10591_081.txt Node
Date: Fri May 16 15:33:47 EDT 2025
User: Yrep
Spectrometer: HR+D1059
Trigger mode: 1
Integration Time (sec): 1.000000E-1
Scans to average: 1
Electric dark correction enabled: true
Nonlinearity correction enabled: false
Boxcar width: 0
XAxis mode: Wavelengths
Number of Pixels in Spectrum: 2048
>>>>>Begin Spectral Data<<<<<
223.165	-15.12
223.4	-15.12
223.635	-15.12
223.869	-29.12
224.104	-9.12
224.338	-16.12
224.573	-15.12
224.808	-23.12
225.042	-7.12
225.277	-9.12
225.511	-3.12
225.746	-11.12
225.98	13.88
226.215	20.88
226.449	18.88
226.683	19.88
226.918	26.88
227.152	37.88
227.387	37.88
227.621	39.88
227.856	55.88
228.09	32.88
228.324	46.88
228.559	46.88
228.793	58.88
229.027	57.88
229.262	76.88
229.496	70.88
229.73	64.88
229.964	69.88
230.199	76.88
230.433	74.88
230.667	71.88
230.901	81.88
231.136	77.88
231.37	77.88
231.604	76.88
231.838	86.88
232.072	81.88
232.306	70.88
232.541	69.88
232.775	69.88
233.009	74.88
233.243	73.88
233.477	76.88
233.711	72.88
233.945	71.88
234.179	60.88
234.413	72.88
234.647	72.88
234.881	82.88
235.115	77.88
235.349	76.88
235.583	75.88
235.817	99.88
236.051	76.88
236.285	68.88
236.519	74.88
236.753	64.88
236.987	70.88
237.221	69.88
237.455	56.88
237.689	63.88
237.922	74.88
238.156	80.88
238.39	58.88
238.624	78.88
238.858	92.88
239.091	74.88
239.325	84.88
239.559	75.88
239.793	74.88
240.027	65.88
240.26	68.88
240.494	72.88
240.728	62.88
240.961	84.88
241.195	64.88
241.429	62.88
241.662	73.88
241.896	65.88
242.13	70.88
242.363	68.88
242.597	66.88
242.83	73.88
243.064	59.88
243.298	76.88
243.531	78.88
243.765	67.88
243.998	68.88
244.232	80.88
244.465	88.88
244.699	67.88
244.932	73.88
245.166	78.88
245.399	64.88
245.633	82.88
245.866	75.88
246.099	66.88
246.333	76.88
246.566	73.88
246.8	73.88
247.033	70.88
247.266	91.88
247.5	76.88
247.733	74.88
247.966	62.88
248.2	70.88
248.433	65.88
248.666	97.88
248.899	71.88
249.133	70.88
249.366	79.88
249.599	69.88
249.832	80.88
250.066	87.88
250.299	81.88
250.532	84.88
250.765	81.88
250.998	74.88
251.231	76.88
251.465	65.88
251.698	76.88
251.931	82.88
252.164	63.88
252.397	69.88
252.63	83.88
252.863	71.88
253.096	78.88
253.329	74.88
253.562	68.88
253.795	78.88
254.028	66.88
254.261	78.88
254.494	84.88
254.727	69.88
254.96	74.88
255.193	71.88
255.426	58.88
255.659	74.88
255.892	76.88
256.124	68.88
256.357	87.88
256.59	74.88
256.823	79.88
257.056	76.88
257.289	77.88
257.521	76.88
257.754	73.88
257.987	77.88
258.22	61.88
258.452	70.88
258.685	78.88
258.918	61.88
259.151	73.88
259.383	79.88
259.616	62.88
259.849	85.88
260.081	81.88
260.314	83.88
260.547	69.88
260.779	75.88
261.012	77.88
261.244	72.88
261.477	84.88
261.71	68.88
261.942	72.88
262.175	77.88
262.407	84.88
262.64	78.88
262.872	73.88
263.105	76.88
263.337	87.88
263.57	77.88
263.802	70.88
264.035	86.88
264.267	71.88
264.499	76.88
264.732	81.88
264.964	72.88
265.197	84.88
265.429	80.88
265.661	85.88
265.894	71.88
266.126	80.88
266.358	80.88
266.591	74.88
266.823	59.88
267.055	69.88
267.287	72.88
267.52	85.88
267.752	71.88
267.984	74.88
268.216	68.88
268.448	69.88
268.681	78.88
268.913	88.88
269.145	58.88
269.377	72.88
269.609	70.88
269.841	77.88
270.073	82.88
270.306	82.88
270.538	79.88
270.77	85.88
271.002	91.88
271.234	80.88
271.466	93.88
271.698	94.88
271.93	78.88
272.162	59.88
272.394	67.88
272.626	82.88
272.858	73.88
273.09	71.88
273.322	81.88
273.553	89.88
273.785	69.88
274.017	83.88
274.249	85.88
274.481	65.88
274.713	78.88
274.945	69.88
275.176	86.88
275.408	83.88
275.64	70.88
275.872	73.88
276.104	81.88
276.335	76.88
276.567	70.88
276.799	86.88
277.031	80.88
277.262	78.88
277.494	82.88
277.726	81.88
277.957	70.88
278.189	69.88
278.421	82.88
278.652	63.88
278.884	77.88
279.115	58.88
279.347	77.88
279.579	77.88
279.81	77.88
280.042	77.88
280.273	78.88
280.505	85.88
280.736	72.88
280.968	86.88
281.199	77.88
281.431	81.88
281.662	82.88
281.894	81.88
282.125	88.88
282.356	73.88
282.588	81.88
282.819	87.88
283.051	85.88
283.282	72.88
283.513	84.88
283.745	70.88
283.976	78.88
284.207	70.88
284.439	75.88
284.67	74.88
284.901	77.88
285.132	80.88
285.364	80.88
285.595	77.88
285.826	82.88
286.057	80.88
286.288	86.88
286.52	87.88
286.751	78.88
286.982	87.88
287.213	80.88
287.444	77.88
287.675	73.88
287.906	71.88
288.138	76.88
288.369	78.88
288.6	68.88
288.831	80.88
289.062	95.88
289.293	78.88
289.524	75.88
289.755	75.88
289.986	93.88
290.217	78.88
290.448	72.88
290.679	73.88
290.91	82.88
291.141	69.88
291.371	80.88
291.602	57.88
291.833	76.88
292.064	63.88
292.295	73.88
292.526	77.88
292.757	82.88
292.987	71.88
293.218	66.88
293.449	82.88
293.68	92.88
293.91	87.88
294.141	71.88
294.372	84.88
294.603	76.88
294.833	88.88
295.064	62.88
295.295	87.88
295.525	83.88
295.756	82.88
295.987	62.88
296.217	64.88
296.448	80.88
296.679	71.88
296.909	86.88
297.14	83.88
297.37	73.88
297.601	72.88
297.831	85.88
298.062	88.88
298.292	82.88
298.523	77.88
298.753	84.88
298.984	78.88
299.214	92.88
299.445	80.88
299.675	78.88
299.905	72.88
300.136	70.88
300.366	76.88
300.597	91.88
300.827	78.88
301.057	77.88
301.288	74.88
301.518	73.88
301.748	67.88
301.979	98.88
302.209	81.88
302.439	87.88
302.669	90.88
302.9	61.88
303.13	76.88
303.36	72.88
303.59	86.88
303.82	74.88
304.051	84.88
304.281	80.88
304.511	80.88
304.741	63.88
304.971	80.88
305.201	73.88
305.431	68.88
305.661	61.88
305.891	83.88
306.121	78.88
306.352	88.88
306.582	77.88
306.812	79.88
307.042	89.88
307.272	69.88
307.502	82.88
307.731	79.88
307.961	85.88
308.191	83.88
308.421	68.88
308.651	73.88
308.881	67.88
309.111	73.88
309.341	81.88
309.571	76.88
309.8	66.88
310.03	91.88
310.26	76.88
310.49	81.88
310.72	66.88
310.949	74.88
311.179	82.88
311.409	82.88
311.639	72.88
311.868	83.88
312.098	67.88
312.328	74.88
312.557	62.88
312.787	70.88
313.017	82.88
313.246	79.88
313.476	73.88
313.706	75.88
313.935	72.88
314.165	66.88
314.394	82.88
314.624	76.88
314.853	69.88
315.083	72.88
315.312	81.88
315.542	90.88
315.771	68.88
316.001	80.88
316.23	89.88
316.46	82.88
316.689	96.88
316.919	90.88
317.148	73.88
317.377	92.88
317.607	88.88
317.836	83.88
318.065	67.88
318.295	82.88
318.524	80.88
318.753	86.88
318.983	90.88
319.212	77.88
319.441	77.88
319.67	88.88
319.9	80.88
320.129	72.88
320.358	79.88
320.587	69.88
320.816	70.88
321.046	62.88
321.275	82.88
321.504	82.88
321.733	90.88
321.962	82.88
322.191	69.88
322.42	84.88
322.649	85.88
322.878	72.88
323.108	92.88
323.337	91.88
323.566	94.88
323.795	78.88
324.024	76.88
324.253	59.88
324.482	81.88
324.71	85.88
324.939	75.88
325.168	88.88
325.397	80.88
325.626	86.88
325.855	59.88
326.084	83.88
326.313	74.88
326.542	78.88
326.77	81.88
326.999	66.88
327.228	77.88
327.457	82.88
327.686	85.88
327.914	69.88
328.143	78.88
328.372	77.88
328.6	83.88
328.829	72.88
329.058	76.88
329.287	82.88
329.515	88.88
329.744	83.88
329.972	77.88
330.201	79.88
330.43	92.88
330.658	86.88
330.887	88.88
331.115	68.88
331.344	75.88
331.572	84.88
331.801	76.88
332.03	80.88
332.258	75.88
332.486	77.88
332.715	67.88
332.943	75.88
333.172	77.88
333.4	65.88
333.629	74.88
333.857	82.88
334.085	81.88
334.314	81.88
334.542	70.88
334.771	84.88
334.999	71.88
335.227	84.88
335.455	79.88
335.684	80.88
335.912	70.88
336.14	70.88
336.369	80.88
336.597	70.88
336.825	71.88
337.053	78.88
337.281	78.88
337.51	77.88
337.738	68.88
337.966	77.88
338.194	82.88
338.422	70.88
338.65	64.88
338.878	72.88
339.106	75.88
339.334	76.88
339.562	96.88
339.79	66.88
340.018	68.88
340.246	82.88
340.474	69.88
340.702	81.88
340.93	71.88
341.158	85.88
341.386	73.88
341.614	69.88
341.842	85.88
342.07	81.88
342.298	77.88
342.526	96.88
342.754	83.88
342.981	78.88
343.209	73.88
343.437	94.88
343.665	86.88
343.893	80.88
344.12	67.88
344.348	76.88
344.576	73.88
344.804	79.88
345.031	67.88
345.259	78.88
345.487	82.88
345.714	70.88
345.942	76.88
346.17	72.88
346.397	74.88
346.625	80.88
346.853	84.88
347.08	77.88
347.308	78.88
347.535	79.88
347.763	77.88
347.99	69.88
348.218	69.88
348.445	69.88
348.673	77.88
348.9	84.88
349.128	104.88
349.355	75.88
349.583	82.88
349.81	74.88
350.037	83.88
350.265	93.88
350.492	76.88
350.72	82.88
350.947	84.88
351.174	81.88
351.402	72.88
351.629	73.88
351.856	65.88
352.083	77.88
352.311	72.88
352.538	74.88
352.765	93.88
352.992	86.88
353.22	85.88
353.447	81.88
353.674	83.88
353.901	82.88
354.128	68.88
354.355	80.88
354.583	84.88
354.81	77.88
355.037	86.88
355.264	73.88
355.491	74.88
355.718	71.88
355.945	75.88
356.172	83.88
356.399	81.88
356.626	75.88
356.853	68.88
357.08	77.88
357.307	69.88
357.534	76.88
357.761	73.88
357.988	94.88
358.215	88.88
358.441	71.88
358.668	84.88
358.895	92.88
359.122	69.88
359.349	78.88
359.576	69.88
359.802	66.88
360.029	85.88
360.256	94.88
360.483	60.88
360.709	70.88
360.936	80.88
361.163	89.88
361.39	74.88
361.616	92.88
361.843	75.88
362.07	70.88
362.296	71.88
362.523	80.88
362.749	78.88
362.976	73.88
363.203	76.88
363.429	75.88
363.656	97.88
363.882	79.88
364.109	81.88
364.335	87.88
364.562	68.88
364.788	66.88
365.015	75.88
365.241	71.88
365.468	80.88
365.694	72.88
365.92	68.88
366.147	78.88
366.373	86.88
366.599	80.88
366.826	84.88
367.052	69.88
367.278	90.88
367.505	73.88
367.731	93.88
367.957	62.88
368.184	87.88
368.41	68.88
368.636	77.88
368.862	77.88
369.089	68.88
369.315	71.88
369.541	73.88
369.767	84.88
369.993	73.88
370.219	70.88
370.445	77.88
370.672	84.88
370.898	80.88
371.124	70.88
371.35	73.88
371.576	81.88
371.802	74.88
372.028	82.88
372.254	81.88
372.48	88.88
372.706	75.88
372.932	74.88
373.158	81.88
373.384	88.88
373.61	86.88
373.835	81.88
374.061	77.88
374.287	67.88
374.513	80.88
374.739	60.88
374.965	68.88
375.191	74.88
375.416	82.88
375.642	78.88
375.868	76.88
376.094	70.88
376.319	86.88
376.545	70.88
376.771	68.88
376.997	72.88
377.222	86.88
377.448	60.88
377.674	74.88
377.899	86.88
378.125	77.88
378.35	75.88
378.576	68.88
378.802	80.88
379.027	72.88
379.253	76.88
379.478	79.88
379.704	72.88
379.929	86.88
380.155	80.88
380.38	81.88
380.606	83.88
380.831	76.88
381.057	75.88
381.282	80.88
381.507	80.88
381.733	74.88
381.958	84.88
382.184	62.88
382.409	72.88
382.634	70.88
382.86	85.88
383.085	73.88
383.31	76.88
383.535	78.88
383.761	68.88
383.986	85.88
384.211	68.88
384.436	67.88
384.662	85.88
384.887	81.88
385.112	88.88
385.337	71.88
385.562	81.88
385.787	92.88
386.013	74.88
386.238	68.88
386.463	76.88
386.688	94.88
386.913	74.88
387.138	80.88
387.363	69.88
387.588	80.88
387.813	76.88
388.038	76.88
388.263	75.88
388.488	66.88
388.713	61.88
388.938	85.88
389.163	80.88
389.387	77.88
389.612	80.88
389.837	69.88
390.062	81.88
390.287	67.88
390.512	62.88
390.736	69.88
390.961	72.88
391.186	73.88
391.411	68.88
391.636	78.88
391.86	71.88
392.085	78.88
392.31	69.88
392.534	81.88
392.759	75.88
392.984	80.88
393.208	74.88
393.433	87.88
393.658	82.88
393.882	85.88
394.107	75.88
394.331	82.88
394.556	75.88
394.78	67.88
395.005	66.88
395.229	76.88
395.454	90.88
395.678	84.88
395.903	91.88
396.127	75.88
396.352	84.88
396.576	53.88
396.801	75.88
397.025	82.88
397.249	77.88
397.474	86.88
397.698	73.88
397.922	85.88
398.147	66.88
398.371	86.88
398.595	66.88
398.82	61.88
399.044	83.88
399.268	82.88
399.492	77.88
399.717	68.88
399.941	83.88
400.165	78.88
400.389	75.88
400.613	65.88
400.837	65.88
401.062	74.88
401.286	75.88
401.51	69.88
401.734	84.88
401.958	72.88
402.182	71.88
402.406	69.88
402.63	83.88
402.854	76.88
403.078	85.88
403.302	66.88
403.526	59.88
403.75	78.88
403.974	82.88
404.198	70.88
404.422	67.88
404.645	86.88
404.869	75.88
405.093	77.88
405.317	96.88
405.541	74.88
405.765	77.88
405.988	79.88
406.212	77.88
406.436	90.88
406.66	78.88
406.883	81.88
407.107	74.88
407.331	61.88
407.555	74.88
407.778	81.88
408.002	73.88
408.226	83.88
408.449	72.88
408.673	81.88
408.896	80.88
409.12	82.88
409.344	78.88
409.567	79.88
409.791	72.88
410.014	84.88
410.238	84.88
410.461	76.88
410.685	80.88
410.908	77.88
411.132	66.88
411.355	78.88
411.578	82.88
411.802	92.88
412.025	78.88
412.249	80.88
412.472	66.88
412.695	69.88
412.919	81.88
413.142	78.88
413.365	85.88
413.589	78.88
413.812	77.88
414.035	67.88
414.258	64.88
414.482	59.88
414.705	69.88
414.928	87.88
415.151	91.88
415.374	76.88
415.597	76.88
415.821	71.88
416.044	72.88
416.267	81.88
416.49	82.88
416.713	89.88
416.936	73.88
417.159	90.88
417.382	90.88
417.605	88.88
417.828	83.88
418.051	85.88
418.274	84.88
418.497	74.88
418.72	68.88
418.943	71.88
419.166	88.88
419.389	74.88
419.611	68.88
419.834	82.88
420.057	68.88
420.28	78.88
420.503	87.88
420.726	76.88
420.948	77.88
421.171	85.88
421.394	72.88
421.617	67.88
421.839	72.88
422.062	72.88
422.285	74.88
422.507	81.88
422.73	82.88
422.953	75.88
423.175	81.88
423.398	80.88
423.621	69.88
423.843	71.88
424.066	78.88
424.288	66.88
424.511	79.88
424.733	75.88
424.956	68.88
425.178	76.88
425.401	64.88
425.623	78.88
425.846	74.88
426.068	70.88
426.291	61.88
426.513	77.88
426.735	69.88
426.958	71.88
427.18	78.88
427.402	76.88
427.625	73.88
427.847	74.88
428.069	75.88
428.292	71.88
428.514	77.88
428.736	72.88
428.958	79.88
429.181	71.88
429.403	77.88
429.625	64.88
429.847	81.88
430.069	76.88
430.292	91.88
430.514	74.88
430.736	73.88
430.958	75.88
431.18	70.88
431.402	73.88
431.624	86.88
431.846	72.88
432.068	68.88
432.29	72.88
432.512	66.88
432.734	54.88
432.956	88.88
433.178	80.88
433.4	84.88
433.622	74.88
433.844	79.88
434.066	91.88
434.287	85.88
434.509	77.88
434.731	93.88
434.953	89.88
435.175	68.88
435.397	70.88
435.618	70.88
435.84	69.88
436.062	76.88
436.284	68.88
436.505	69.88
436.727	70.88
436.949	71.88
437.17	88.88
437.392	80.88
437.614	70.88
437.835	85.88
438.057	70.88
438.278	68.88
438.5	75.88
438.721	65.88
438.943	61.88
439.165	72.88
439.386	66.88
439.608	62.88
439.829	82.88
440.05	80.88
440.272	63.88
440.493	60.88
440.715	80.88
440.936	84.88
441.158	103.88
441.379	81.88
441.6	78.88
441.822	84.88
442.043	76.88
442.264	67.88
442.486	76.88
442.707	80.88
442.928	82.88
443.149	62.88
443.371	75.88
443.592	92.88
443.813	74.88
444.034	78.88
444.255	88.88
444.476	72.88
444.698	81.88
444.919	70.88
445.14	141.88
445.361	102.88
445.582	85.88
445.803	84.88
446.024	69.88
446.245	69.88
446.466	73.88
446.687	86.88
446.908	64.88
447.129	64.88
447.35	72.88
447.571	73.88
447.792	80.88
448.013	81.88
448.234	72.88
448.455	89.88
448.675	78.88
448.896	66.88
449.117	76.88
449.338	70.88
449.559	72.88
449.779	61.88
450	59.88
450.221	68.88
450.442	70.88
450.662	76.88
450.883	70.88
451.104	74.88
451.324	79.88
451.545	65.88
451.766	58.88
451.986	75.88
452.207	70.88
452.428	87.88
452.648	83.88
452.869	69.88
453.089	90.88
453.31	78.88
453.53	60.88
453.751	64.88
453.971	85.88
454.192	71.88
454.412	82.88
454.633	69.88
454.853	84.88
455.073	70.88
455.294	78.88
455.514	79.88
455.734	76.88
455.955	85.88
456.175	79.88
456.395	74.88
456.616	81.88
456.836	82.88
457.056	83.88
457.276	75.88
457.497	75.88
457.717	75.88
457.937	93.88
458.157	82.88
458.377	76.88
458.598	73.88
458.818	81.88
459.038	88.88
459.258	86.88
459.478	70.88
459.698	77.88
459.918	68.88
460.138	65.88
460.358	75.88
460.578	85.88
460.798	79.88
461.018	91.88
461.238	81.88
461.458	77.88
461.678	81.88
461.898	87.88
462.118	76.88
462.338	75.88
462.558	76.88
462.777	80.88
462.997	77.88
463.217	71.88
463.437	78.88
463.657	68.88
463.876	68.88
464.096	79.88
464.316	84.88
464.536	81.88
464.755	76.88
464.975	81.88
465.195	84.88
465.414	88.88
465.634	68.88
465.854	63.88
466.073	65.88
466.293	81.88
466.512	77.88
466.732	84.88
466.951	78.88
467.171	74.88
467.391	71.88
467.61	86.88
467.829	63.88
468.049	73.88
468.268	72.88
468.488	69.88
468.707	68.88
468.927	76.88
469.146	60.88
469.365	71.88
469.585	79.88
469.804	68.88
470.023	77.88
470.243	71.88
470.462	76.88
470.681	66.88
470.901	76.88
471.12	68.88
471.339	89.88
471.558	72.88
471.777	63.88
471.997	69.88
472.216	77.88
472.435	75.88
472.654	67.88
472.873	70.88
473.092	76.88
473.311	66.88
473.53	76.88
473.749	63.88
473.968	80.88
474.187	77.88
474.406	74.88
474.625	73.88
474.844	60.88
475.063	80.88
475.282	80.88
475.501	71.88
475.72	83.88
475.939	70.88
476.158	69.88
476.377	68.88
476.596	69.88
476.814	76.88
477.033	82.88
477.252	84.88
477.471	76.88
477.69	75.88
477.908	62.88
478.127	74.88
478.346	76.88
478.564	80.88
478.783	69.88
479.002	88.88
479.22	66.88
479.439	77.88
479.658	75.88
479.876	77.88
480.095	76.88
480.313	78.88
480.532	87.88
480.751	61.88
480.969	71.88
481.188	69.88
481.406	69.88
481.624	70.88
481.843	56.88
482.061	75.88
482.28	71.88
482.498	78.88
482.717	85.88
482.935	78.88
483.153	67.88
483.372	87.88
483.59	74.88
483.808	69.88
484.027	78.88
484.245	87.88
484.463	89.88
484.681	84.88
484.9	68.88
485.118	70.88
485.336	61.88
485.554	80.88
485.772	75.88
485.99	84.88
486.209	60.88
486.427	87.88
486.645	77.88
486.863	85.88
487.081	76.88
487.299	71.88
487.517	80.88
487.735	82.88
487.953	78.88
488.171	68.88
488.389	78.88
488.607	80.88
488.825	74.88
489.043	80.88
489.261	75.88
489.479	73.88
489.696	67.88
489.914	81.88
490.132	70.88
490.35	73.88
490.568	77.88
490.786	81.88
491.003	68.88
491.221	89.88
491.439	84.88
491.657	80.88
491.874	78.88
492.092	77.88
492.31	71.88
492.527	74.88
492.745	77.88
492.963	61.88
493.18	68.88
493.398	88.88
493.615	62.88
493.833	76.88
494.05	80.88
494.268	61.88
494.485	63.88
494.703	77.88
494.92	82.88
495.138	70.88
495.355	61.88
495.573	80.88
495.79	72.88
496.008	65.88
496.225	83.88
496.442	68.88
496.66	96.88
496.877	86.88
497.094	67.88
497.312	89.88
497.529	88.88
497.746	75.88
497.963	59.88
498.181	76.88
498.398	84.88
498.615	85.88
498.832	72.88
499.049	76.88
499.267	74.88
499.484	82.88
499.701	74.88
499.918	80.88
500.135	84.88
500.352	68.88
500.569	63.88
500.786	78.88
501.003	95.88
501.22	62.88
501.437	74.88
501.654	77.88
501.871	86.88
502.088	77.88
502.305	82.88
502.522	69.88
502.739	64.88
502.956	74.88
503.172	65.88
503.389	61.88
503.606	71.88
503.823	70.88
504.04	79.88
504.256	84.88
504.473	75.88
504.69	95.88
504.907	77.88
505.123	82.88
505.34	78.88
505.557	86.88
505.773	89.88
505.99	88.88
506.207	71.88
506.423	58.88
506.64	68.88
506.856	64.88
507.073	76.88
507.289	65.88
507.506	70.88
507.722	77.88
507.939	82.88
508.155	78.88
508.372	78.88
508.588	78.88
508.805	77.88
509.021	62.88
509.238	80.88
509.454	66.88
509.67	76.88
509.887	88.88
510.103	78.88
510.319	84.88
510.536	90.88
510.752	70.88
510.968	68.88
511.184	80.88
511.401	73.88
511.617	87.88
511.833	86.88
512.049	82.88
512.265	87.88
512.481	82.88
512.698	81.88
512.914	68.88
513.13	55.88
513.346	80.88
513.562	78.88
513.778	77.88
513.994	69.88
514.21	92.88
514.426	82.88
514.642	66.88
514.858	75.88
515.074	78.88
515.29	85.88
515.506	73.88
515.721	71.88
515.937	77.88
516.153	76.88
516.369	84.88
516.585	68.88
516.801	75.88
517.016	71.88
517.232	83.88
517.448	66.88
517.664	76.88
517.879	68.88
518.095	76.88
518.311	69.88
518.527	78.88
518.742	84.88
518.958	68.88
519.173	74.88
519.389	98.88
519.605	83.88
519.82	77.88
520.036	80.88
520.251	68.88
