Data from BG_HRD10591_024.txt Node
Date: Fri May 16 15:33:19 EDT 2025
User: Yrep
Spectrometer: HR+D1059
Trigger mode: 1
Integration Time (sec): 1.000000E-1
Scans to average: 1
Electric dark correction enabled: true
Nonlinearity correction enabled: false
Boxcar width: 0
XAxis mode: Wavelengths
Number of Pixels in Spectrum: 2048
>>>>>Begin Spectral Data<<<<<
223.165	-25.19
223.4	-25.19
223.635	-25.19
223.869	-13.19
224.104	-19.19
224.338	-16.19
224.573	-9.19
224.808	-16.19
225.042	-17.19
225.277	0.81
225.511	-9.19
225.746	-6.19
225.98	4.81
226.215	10.81
226.449	26.81
226.683	23.81
226.918	32.81
227.152	31.81
227.387	49.81
227.621	53.81
227.856	43.81
228.09	54.81
228.324	48.81
228.559	56.81
228.793	48.81
229.027	54.81
229.262	76.81
229.496	76.81
229.73	69.81
229.964	54.81
230.199	74.81
230.433	68.81
230.667	88.81
230.901	82.81
231.136	86.81
231.37	70.81
231.604	67.81
231.838	74.81
232.072	78.81
232.306	83.81
232.541	77.81
232.775	80.81
233.009	78.81
233.243	94.81
233.477	90.81
233.711	79.81
233.945	76.81
234.179	76.81
234.413	78.81
234.647	82.81
234.881	95.81
235.115	78.81
235.349	80.81
235.583	69.81
235.817	63.81
236.051	73.81
236.285	70.81
236.519	80.81
236.753	70.81
236.987	84.81
237.221	85.81
237.455	86.81
237.689	78.81
237.922	89.81
238.156	82.81
238.39	77.81
238.624	67.81
238.858	82.81
239.091	77.81
239.325	88.81
239.559	74.81
239.793	80.81
240.027	81.81
240.26	77.81
240.494	86.81
240.728	77.81
240.961	85.81
241.195	73.81
241.429	84.81
241.662	91.81
241.896	78.81
242.13	68.81
242.363	79.81
242.597	74.81
242.83	72.81
243.064	68.81
243.298	70.81
243.531	83.81
243.765	74.81
243.998	80.81
244.232	82.81
244.465	83.81
244.699	81.81
244.932	74.81
245.166	69.81
245.399	75.81
245.633	78.81
245.866	66.81
246.099	82.81
246.333	88.81
246.566	84.81
246.8	80.81
247.033	83.81
247.266	78.81
247.5	78.81
247.733	69.81
247.966	86.81
248.2	76.81
248.433	73.81
248.666	74.81
248.899	84.81
249.133	88.81
249.366	90.81
249.599	77.81
249.832	73.81
250.066	84.81
250.299	81.81
250.532	82.81
250.765	97.81
250.998	79.81
251.231	82.81
251.465	57.81
251.698	90.81
251.931	86.81
252.164	88.81
252.397	89.81
252.63	92.81
252.863	81.81
253.096	68.81
253.329	83.81
253.562	77.81
253.795	83.81
254.028	74.81
254.261	84.81
254.494	84.81
254.727	74.81
254.96	76.81
255.193	68.81
255.426	82.81
255.659	80.81
255.892	82.81
256.124	75.81
256.357	76.81
256.59	96.81
256.823	66.81
257.056	77.81
257.289	74.81
257.521	85.81
257.754	85.81
257.987	83.81
258.22	76.81
258.452	83.81
258.685	84.81
258.918	69.81
259.151	86.81
259.383	84.81
259.616	79.81
259.849	85.81
260.081	74.81
260.314	92.81
260.547	81.81
260.779	72.81
261.012	68.81
261.244	76.81
261.477	70.81
261.71	72.81
261.942	81.81
262.175	67.81
262.407	80.81
262.64	89.81
262.872	84.81
263.105	87.81
263.337	82.81
263.57	78.81
263.802	100.81
264.035	92.81
264.267	82.81
264.499	82.81
264.732	81.81
264.964	80.81
265.197	69.81
265.429	69.81
265.661	96.81
265.894	96.81
266.126	88.81
266.358	94.81
266.591	88.81
266.823	85.81
267.055	85.81
267.287	73.81
267.52	89.81
267.752	88.81
267.984	90.81
268.216	94.81
268.448	87.81
268.681	81.81
268.913	81.81
269.145	73.81
269.377	86.81
269.609	74.81
269.841	91.81
270.073	83.81
270.306	92.81
270.538	81.81
270.77	83.81
271.002	81.81
271.234	83.81
271.466	87.81
271.698	78.81
271.93	81.81
272.162	84.81
272.394	101.81
272.626	95.81
272.858	91.81
273.09	86.81
273.322	90.81
273.553	84.81
273.785	96.81
274.017	85.81
274.249	87.81
274.481	84.81
274.713	92.81
274.945	85.81
275.176	93.81
275.408	86.81
275.64	80.81
275.872	94.81
276.104	94.81
276.335	78.81
276.567	89.81
276.799	82.81
277.031	76.81
277.262	85.81
277.494	85.81
277.726	81.81
277.957	76.81
278.189	76.81
278.421	104.81
278.652	87.81
278.884	86.81
279.115	87.81
279.347	88.81
279.579	87.81
279.81	85.81
280.042	86.81
280.273	84.81
280.505	72.81
280.736	77.81
280.968	89.81
281.199	88.81
281.431	106.81
281.662	88.81
281.894	89.81
282.125	79.81
282.356	81.81
282.588	88.81
282.819	98.81
283.051	99.81
283.282	84.81
283.513	88.81
283.745	99.81
283.976	90.81
284.207	78.81
284.439	80.81
284.67	87.81
284.901	90.81
285.132	100.81
285.364	90.81
285.595	86.81
285.826	94.81
286.057	104.81
286.288	80.81
286.52	79.81
286.751	90.81
286.982	91.81
287.213	91.81
287.444	85.81
287.675	83.81
287.906	92.81
288.138	75.81
288.369	93.81
288.6	90.81
288.831	80.81
289.062	95.81
289.293	92.81
289.524	96.81
289.755	84.81
289.986	82.81
290.217	86.81
290.448	74.81
290.679	95.81
290.91	85.81
291.141	82.81
291.371	93.81
291.602	101.81
291.833	96.81
292.064	83.81
292.295	82.81
292.526	83.81
292.757	85.81
292.987	81.81
293.218	90.81
293.449	84.81
293.68	87.81
293.91	89.81
294.141	92.81
294.372	71.81
294.603	92.81
294.833	66.81
295.064	94.81
295.295	81.81
295.525	98.81
295.756	73.81
295.987	96.81
296.217	93.81
296.448	83.81
296.679	88.81
296.909	89.81
297.14	86.81
297.37	96.81
297.601	96.81
297.831	93.81
298.062	95.81
298.292	110.81
298.523	88.81
298.753	96.81
298.984	97.81
299.214	86.81
299.445	94.81
299.675	87.81
299.905	74.81
300.136	76.81
300.366	97.81
300.597	78.81
300.827	92.81
301.057	93.81
301.288	95.81
301.518	85.81
301.748	92.81
301.979	108.81
302.209	85.81
302.439	100.81
302.669	94.81
302.9	96.81
303.13	85.81
303.36	107.81
303.59	85.81
303.82	89.81
304.051	90.81
304.281	92.81
304.511	85.81
304.741	84.81
304.971	89.81
305.201	96.81
305.431	90.81
305.661	70.81
305.891	86.81
306.121	97.81
306.352	96.81
306.582	92.81
306.812	92.81
307.042	77.81
307.272	100.81
307.502	88.81
307.731	91.81
307.961	102.81
308.191	92.81
308.421	88.81
308.651	82.81
308.881	77.81
309.111	68.81
309.341	81.81
309.571	87.81
309.8	80.81
310.03	95.81
310.26	91.81
310.49	85.81
310.72	77.81
310.949	94.81
311.179	94.81
311.409	94.81
311.639	81.81
311.868	89.81
312.098	85.81
312.328	89.81
312.557	96.81
312.787	105.81
313.017	104.81
313.246	92.81
313.476	86.81
313.706	90.81
313.935	84.81
314.165	95.81
314.394	102.81
314.624	81.81
314.853	79.81
315.083	91.81
315.312	99.81
315.542	108.81
315.771	89.81
316.001	105.81
316.23	84.81
316.46	92.81
316.689	68.81
316.919	98.81
317.148	84.81
317.377	97.81
317.607	89.81
317.836	90.81
318.065	81.81
318.295	100.81
318.524	85.81
318.753	104.81
318.983	87.81
319.212	93.81
319.441	70.81
319.67	93.81
319.9	81.81
320.129	89.81
320.358	78.81
320.587	78.81
320.816	75.81
321.046	104.81
321.275	89.81
321.504	93.81
321.733	96.81
321.962	89.81
322.191	70.81
322.42	74.81
322.649	91.81
322.878	98.81
323.108	99.81
323.337	92.81
323.566	93.81
323.795	96.81
324.024	94.81
324.253	93.81
324.482	83.81
324.71	88.81
324.939	65.81
325.168	85.81
325.397	76.81
325.626	97.81
325.855	93.81
326.084	84.81
326.313	95.81
326.542	88.81
326.77	88.81
326.999	80.81
327.228	91.81
327.457	100.81
327.686	87.81
327.914	92.81
328.143	93.81
328.372	94.81
328.6	95.81
328.829	93.81
329.058	96.81
329.287	92.81
329.515	100.81
329.744	88.81
329.972	97.81
330.201	87.81
330.43	91.81
330.658	92.81
330.887	84.81
331.115	81.81
331.344	86.81
331.572	84.81
331.801	88.81
332.03	86.81
332.258	100.81
332.486	86.81
332.715	88.81
332.943	92.81
333.172	85.81
333.4	100.81
333.629	94.81
333.857	92.81
334.085	77.81
334.314	101.81
334.542	88.81
334.771	101.81
334.999	97.81
335.227	83.81
335.455	91.81
335.684	80.81
335.912	92.81
336.14	86.81
336.369	93.81
336.597	100.81
336.825	82.81
337.053	95.81
337.281	81.81
337.51	88.81
337.738	91.81
337.966	89.81
338.194	91.81
338.422	92.81
338.65	99.81
338.878	97.81
339.106	96.81
339.334	91.81
339.562	88.81
339.79	85.81
340.018	83.81
340.246	95.81
340.474	96.81
340.702	106.81
340.93	94.81
341.158	90.81
341.386	95.81
341.614	81.81
341.842	102.81
342.07	80.81
342.298	77.81
342.526	92.81
342.754	96.81
342.981	94.81
343.209	90.81
343.437	89.81
343.665	90.81
343.893	82.81
344.12	83.81
344.348	97.81
344.576	95.81
344.804	92.81
345.031	92.81
345.259	80.81
345.487	103.81
345.714	80.81
345.942	88.81
346.17	90.81
346.397	92.81
346.625	88.81
346.853	95.81
347.08	83.81
347.308	88.81
347.535	93.81
347.763	87.81
347.99	81.81
348.218	88.81
348.445	96.81
348.673	92.81
348.9	83.81
349.128	99.81
349.355	93.81
349.583	84.81
349.81	91.81
350.037	92.81
350.265	94.81
350.492	99.81
350.72	90.81
350.947	88.81
351.174	73.81
351.402	95.81
351.629	80.81
351.856	79.81
352.083	106.81
352.311	96.81
352.538	100.81
352.765	101.81
352.992	94.81
353.22	87.81
353.447	97.81
353.674	86.81
353.901	92.81
354.128	93.81
354.355	89.81
354.583	78.81
354.81	97.81
355.037	94.81
355.264	85.81
355.491	86.81
355.718	79.81
355.945	77.81
356.172	81.81
356.399	92.81
356.626	90.81
356.853	96.81
357.08	90.81
357.307	101.81
357.534	107.81
357.761	84.81
357.988	97.81
358.215	85.81
358.441	83.81
358.668	93.81
358.895	89.81
359.122	85.81
359.349	94.81
359.576	88.81
359.802	82.81
360.029	90.81
360.256	93.81
360.483	95.81
360.709	92.81
360.936	100.81
361.163	86.81
361.39	86.81
361.616	93.81
361.843	89.81
362.07	86.81
362.296	98.81
362.523	95.81
362.749	92.81
362.976	91.81
363.203	89.81
363.429	91.81
363.656	98.81
363.882	81.81
364.109	91.81
364.335	89.81
364.562	88.81
364.788	82.81
365.015	84.81
365.241	104.81
365.468	89.81
365.694	82.81
365.92	97.81
366.147	82.81
366.373	82.81
366.599	93.81
366.826	102.81
367.052	85.81
367.278	98.81
367.505	73.81
367.731	88.81
367.957	93.81
368.184	82.81
368.41	81.81
368.636	104.81
368.862	106.81
369.089	73.81
369.315	90.81
369.541	106.81
369.767	95.81
369.993	92.81
370.219	82.81
370.445	96.81
370.672	93.81
370.898	81.81
371.124	96.81
371.35	92.81
371.576	96.81
371.802	96.81
372.028	83.81
372.254	85.81
372.48	86.81
372.706	73.81
372.932	80.81
373.158	101.81
373.384	98.81
373.61	80.81
373.835	96.81
374.061	82.81
374.287	97.81
374.513	94.81
374.739	95.81
374.965	97.81
375.191	85.81
375.416	86.81
375.642	96.81
375.868	87.81
376.094	94.81
376.319	97.81
376.545	91.81
376.771	90.81
376.997	86.81
377.222	92.81
377.448	81.81
377.674	86.81
377.899	84.81
378.125	78.81
378.35	95.81
378.576	93.81
378.802	75.81
379.027	81.81
379.253	96.81
379.478	91.81
379.704	80.81
379.929	99.81
380.155	76.81
380.38	86.81
380.606	83.81
380.831	106.81
381.057	95.81
381.282	115.81
381.507	90.81
381.733	89.81
381.958	86.81
382.184	94.81
382.409	94.81
382.634	88.81
382.86	99.81
383.085	94.81
383.31	92.81
383.535	78.81
383.761	80.81
383.986	101.81
384.211	86.81
384.436	86.81
384.662	85.81
384.887	100.81
385.112	76.81
385.337	93.81
385.562	80.81
385.787	79.81
386.013	77.81
386.238	90.81
386.463	93.81
386.688	98.81
386.913	80.81
387.138	78.81
387.363	96.81
387.588	95.81
387.813	93.81
388.038	93.81
388.263	87.81
388.488	78.81
388.713	107.81
388.938	101.81
389.163	91.81
389.387	84.81
389.612	70.81
389.837	78.81
390.062	100.81
390.287	80.81
390.512	100.81
390.736	88.81
390.961	99.81
391.186	90.81
391.411	76.81
391.636	90.81
391.86	96.81
392.085	99.81
392.31	90.81
392.534	90.81
392.759	94.81
392.984	96.81
393.208	75.81
393.433	82.81
393.658	86.81
393.882	82.81
394.107	92.81
394.331	98.81
394.556	101.81
394.78	86.81
395.005	85.81
395.229	86.81
395.454	77.81
395.678	92.81
395.903	93.81
396.127	100.81
396.352	92.81
396.576	90.81
396.801	89.81
397.025	92.81
397.249	84.81
397.474	102.81
397.698	79.81
397.922	90.81
398.147	74.81
398.371	91.81
398.595	92.81
398.82	90.81
399.044	85.81
399.268	86.81
399.492	76.81
399.717	95.81
399.941	99.81
400.165	79.81
400.389	74.81
400.613	92.81
400.837	104.81
401.062	92.81
401.286	96.81
401.51	97.81
401.734	103.81
401.958	90.81
402.182	98.81
402.406	97.81
402.63	84.81
402.854	106.81
403.078	99.81
403.302	68.81
403.526	81.81
403.75	97.81
403.974	87.81
404.198	93.81
404.422	88.81
404.645	88.81
404.869	102.81
405.093	105.81
405.317	90.81
405.541	85.81
405.765	91.81
405.988	92.81
406.212	98.81
406.436	81.81
406.66	97.81
406.883	92.81
407.107	87.81
407.331	90.81
407.555	107.81
407.778	93.81
408.002	92.81
408.226	86.81
408.449	82.81
408.673	91.81
408.896	109.81
409.12	99.81
409.344	104.81
409.567	86.81
409.791	96.81
410.014	87.81
410.238	82.81
410.461	110.81
410.685	77.81
410.908	99.81
411.132	98.81
411.355	90.81
411.578	102.81
411.802	88.81
412.025	89.81
412.249	91.81
412.472	85.81
412.695	100.81
412.919	99.81
413.142	100.81
413.365	95.81
413.589	92.81
413.812	83.81
414.035	84.81
414.258	99.81
414.482	100.81
414.705	73.81
414.928	87.81
415.151	92.81
415.374	89.81
415.597	92.81
415.821	100.81
416.044	90.81
416.267	87.81
416.49	79.81
416.713	78.81
416.936	96.81
417.159	99.81
417.382	89.81
417.605	67.81
417.828	100.81
418.051	100.81
418.274	88.81
418.497	76.81
418.72	88.81
418.943	105.81
419.166	91.81
419.389	93.81
419.611	96.81
419.834	83.81
420.057	104.81
420.28	91.81
420.503	98.81
420.726	88.81
420.948	110.81
421.171	84.81
421.394	86.81
421.617	94.81
421.839	82.81
422.062	85.81
422.285	81.81
422.507	81.81
422.73	91.81
422.953	94.81
423.175	92.81
423.398	86.81
423.621	72.81
423.843	92.81
424.066	86.81
424.288	100.81
424.511	103.81
424.733	94.81
424.956	101.81
425.178	89.81
425.401	83.81
425.623	84.81
425.846	73.81
426.068	81.81
426.291	96.81
426.513	97.81
426.735	93.81
426.958	88.81
427.18	84.81
427.402	89.81
427.625	90.81
427.847	85.81
428.069	98.81
428.292	88.81
428.514	91.81
428.736	95.81
428.958	87.81
429.181	72.81
429.403	86.81
429.625	77.81
429.847	93.81
430.069	88.81
430.292	93.81
430.514	88.81
430.736	97.81
430.958	72.81
431.18	111.81
431.402	78.81
431.624	86.81
431.846	90.81
432.068	90.81
432.29	95.81
432.512	95.81
432.734	92.81
432.956	88.81
433.178	92.81
433.4	105.81
433.622	65.81
433.844	89.81
434.066	91.81
434.287	96.81
434.509	87.81
434.731	92.81
434.953	88.81
435.175	86.81
435.397	78.81
435.618	92.81
435.84	102.81
436.062	76.81
436.284	95.81
436.505	95.81
436.727	77.81
436.949	94.81
437.17	85.81
437.392	86.81
437.614	99.81
437.835	93.81
438.057	85.81
438.278	93.81
438.5	76.81
438.721	84.81
438.943	92.81
439.165	93.81
439.386	85.81
439.608	89.81
439.829	93.81
440.05	96.81
440.272	98.81
440.493	84.81
440.715	94.81
440.936	98.81
441.158	85.81
441.379	82.81
441.6	85.81
441.822	96.81
442.043	98.81
442.264	97.81
442.486	96.81
442.707	104.81
442.928	86.81
443.149	78.81
443.371	97.81
443.592	84.81
443.813	74.81
444.034	85.81
444.255	91.81
444.476	95.81
444.698	101.81
444.919	85.81
445.14	159.81
445.361	116.81
445.582	83.81
445.803	92.81
446.024	100.81
446.245	97.81
446.466	86.81
446.687	88.81
446.908	82.81
447.129	96.81
447.35	85.81
447.571	84.81
447.792	90.81
448.013	91.81
448.234	76.81
448.455	92.81
448.675	96.81
448.896	111.81
449.117	91.81
449.338	96.81
449.559	72.81
449.779	81.81
450	83.81
450.221	93.81
450.442	96.81
450.662	82.81
450.883	85.81
451.104	97.81
451.324	93.81
451.545	88.81
451.766	89.81
451.986	76.81
452.207	94.81
452.428	89.81
452.648	99.81
452.869	94.81
453.089	96.81
453.31	74.81
453.53	99.81
453.751	93.81
453.971	82.81
454.192	86.81
454.412	93.81
454.633	109.81
454.853	89.81
455.073	100.81
455.294	90.81
455.514	93.81
455.734	96.81
455.955	95.81
456.175	96.81
456.395	82.81
456.616	97.81
456.836	91.81
457.056	87.81
457.276	89.81
457.497	80.81
457.717	96.81
457.937	83.81
458.157	86.81
458.377	114.81
458.598	84.81
458.818	80.81
459.038	100.81
459.258	83.81
459.478	87.81
459.698	87.81
459.918	80.81
460.138	99.81
460.358	88.81
460.578	111.81
460.798	93.81
461.018	88.81
461.238	94.81
461.458	90.81
461.678	80.81
461.898	81.81
462.118	85.81
462.338	99.81
462.558	97.81
462.777	100.81
462.997	86.81
463.217	97.81
463.437	89.81
463.657	91.81
463.876	89.81
464.096	94.81
464.316	92.81
464.536	101.81
464.755	92.81
464.975	87.81
465.195	104.81
465.414	95.81
465.634	67.81
465.854	93.81
466.073	91.81
466.293	97.81
466.512	86.81
466.732	94.81
466.951	86.81
467.171	92.81
467.391	90.81
467.61	107.81
467.829	81.81
468.049	94.81
468.268	84.81
468.488	81.81
468.707	96.81
468.927	87.81
469.146	93.81
469.365	84.81
469.585	83.81
469.804	98.81
470.023	91.81
470.243	92.81
470.462	102.81
470.681	92.81
470.901	88.81
471.12	99.81
471.339	78.81
471.558	69.81
471.777	92.81
471.997	78.81
472.216	80.81
472.435	86.81
472.654	82.81
472.873	94.81
473.092	88.81
473.311	96.81
473.53	80.81
473.749	94.81
473.968	96.81
474.187	88.81
474.406	85.81
474.625	112.81
474.844	89.81
475.063	89.81
475.282	86.81
475.501	86.81
475.72	90.81
475.939	98.81
476.158	84.81
476.377	96.81
476.596	84.81
476.814	95.81
477.033	104.81
477.252	97.81
477.471	84.81
477.69	104.81
477.908	96.81
478.127	108.81
478.346	85.81
478.564	82.81
478.783	87.81
479.002	92.81
479.22	90.81
479.439	95.81
479.658	90.81
479.876	80.81
480.095	84.81
480.313	101.81
480.532	93.81
480.751	101.81
480.969	101.81
481.188	89.81
481.406	100.81
481.624	92.81
481.843	80.81
482.061	108.81
482.28	95.81
482.498	87.81
482.717	76.81
482.935	83.81
483.153	96.81
483.372	94.81
483.59	82.81
483.808	99.81
484.027	93.81
484.245	96.81
484.463	88.81
484.681	99.81
484.9	92.81
485.118	101.81
485.336	99.81
485.554	96.81
485.772	100.81
485.99	88.81
486.209	84.81
486.427	108.81
486.645	78.81
486.863	93.81
487.081	92.81
487.299	100.81
487.517	102.81
487.735	85.81
487.953	100.81
488.171	82.81
488.389	93.81
488.607	83.81
488.825	91.81
489.043	92.81
489.261	84.81
489.479	78.81
489.696	102.81
489.914	81.81
490.132	87.81
490.35	95.81
490.568	98.81
490.786	92.81
491.003	77.81
491.221	82.81
491.439	98.81
491.657	107.81
491.874	78.81
492.092	94.81
492.31	74.81
492.527	89.81
492.745	82.81
492.963	104.81
493.18	94.81
493.398	93.81
493.615	94.81
493.833	90.81
494.05	80.81
494.268	92.81
494.485	98.81
494.703	94.81
494.92	97.81
495.138	91.81
495.355	88.81
495.573	97.81
495.79	94.81
496.008	89.81
496.225	92.81
496.442	86.81
496.66	105.81
496.877	96.81
497.094	92.81
497.312	87.81
497.529	82.81
497.746	96.81
497.963	88.81
498.181	96.81
498.398	89.81
498.615	94.81
498.832	91.81
499.049	101.81
499.267	94.81
499.484	110.81
499.701	118.81
499.918	98.81
500.135	115.81
500.352	118.81
500.569	113.81
500.786	113.81
501.003	115.81
501.22	113.81
501.437	86.81
501.654	109.81
501.871	94.81
502.088	111.81
502.305	97.81
502.522	86.81
502.739	94.81
502.956	98.81
503.172	85.81
503.389	87.81
503.606	81.81
503.823	71.81
504.04	106.81
504.256	104.81
504.473	94.81
504.69	104.81
504.907	92.81
505.123	86.81
505.34	97.81
505.557	77.81
505.773	84.81
505.99	94.81
506.207	92.81
506.423	87.81
506.64	97.81
506.856	100.81
507.073	91.81
507.289	95.81
507.506	98.81
507.722	93.81
507.939	86.81
508.155	88.81
508.372	89.81
508.588	88.81
508.805	93.81
509.021	90.81
509.238	96.81
509.454	90.81
509.67	92.81
509.887	89.81
510.103	93.81
510.319	88.81
510.536	92.81
510.752	83.81
510.968	91.81
511.184	86.81
511.401	102.81
511.617	96.81
511.833	89.81
512.049	100.81
512.265	88.81
512.481	85.81
512.698	86.81
512.914	86.81
513.13	91.81
513.346	100.81
513.562	88.81
513.778	101.81
513.994	90.81
514.21	88.81
514.426	90.81
514.642	94.81
514.858	93.81
515.074	104.81
515.29	86.81
515.506	100.81
515.721	88.81
515.937	99.81
516.153	100.81
516.369	86.81
516.585	89.81
516.801	88.81
517.016	84.81
517.232	101.81
517.448	95.81
517.664	89.81
517.879	94.81
518.095	93.81
518.311	100.81
