Data from BG_HRD10591_072.txt Node
Date: Fri May 16 15:33:43 EDT 2025
User: Yrep
Spectrometer: HR+D1059
Trigger mode: 1
Integration Time (sec): 1.000000E-1
Scans to average: 1
Electric dark correction enabled: true
Nonlinearity correction enabled: false
Boxcar width: 0
XAxis mode: Wavelengths
Number of Pixels in Spectrum: 2048
>>>>>Begin Spectral Data<<<<<
223.165	-21.69
223.4	-21.69
223.635	-21.69
223.869	-18.69
224.104	-16.69
224.338	-13.69
224.573	-24.69
224.808	-14.69
225.042	-6.69
225.277	-2.69
225.511	0.31
225.746	15.31
225.98	0.31
226.215	-1.69
226.449	18.31
226.683	23.31
226.918	19.31
227.152	44.31
227.387	31.31
227.621	38.31
227.856	50.31
228.09	57.31
228.324	47.31
228.559	48.31
228.793	53.31
229.027	63.31
229.262	52.31
229.496	66.31
229.73	69.31
229.964	77.31
230.199	65.31
230.433	78.31
230.667	73.31
230.901	77.31
231.136	77.31
231.37	85.31
231.604	82.31
231.838	74.31
232.072	84.31
232.306	87.31
232.541	78.31
232.775	67.31
233.009	60.31
233.243	87.31
233.477	104.31
233.711	90.31
233.945	84.31
234.179	82.31
234.413	72.31
234.647	75.31
234.881	72.31
235.115	73.31
235.349	85.31
235.583	88.31
235.817	79.31
236.051	77.31
236.285	67.31
236.519	81.31
236.753	86.31
236.987	70.31
237.221	64.31
237.455	78.31
237.689	69.31
237.922	88.31
238.156	75.31
238.39	82.31
238.624	86.31
238.858	64.31
239.091	67.31
239.325	68.31
239.559	71.31
239.793	68.31
240.027	74.31
240.26	73.31
240.494	68.31
240.728	67.31
240.961	68.31
241.195	83.31
241.429	91.31
241.662	78.31
241.896	84.31
242.13	78.31
242.363	86.31
242.597	81.31
242.83	73.31
243.064	74.31
243.298	66.31
243.531	87.31
243.765	72.31
243.998	72.31
244.232	79.31
244.465	77.31
244.699	77.31
244.932	64.31
245.166	67.31
245.399	77.31
245.633	65.31
245.866	73.31
246.099	73.31
246.333	80.31
246.566	84.31
246.8	79.31
247.033	79.31
247.266	88.31
247.5	78.31
247.733	70.31
247.966	85.31
248.2	86.31
248.433	68.31
248.666	88.31
248.899	70.31
249.133	72.31
249.366	93.31
249.599	95.31
249.832	73.31
250.066	76.31
250.299	83.31
250.532	90.31
250.765	82.31
250.998	80.31
251.231	63.31
251.465	83.31
251.698	92.31
251.931	79.31
252.164	74.31
252.397	84.31
252.63	81.31
252.863	80.31
253.096	84.31
253.329	82.31
253.562	90.31
253.795	73.31
254.028	76.31
254.261	75.31
254.494	91.31
254.727	84.31
254.96	76.31
255.193	64.31
255.426	90.31
255.659	74.31
255.892	86.31
256.124	79.31
256.357	71.31
256.59	79.31
256.823	85.31
257.056	92.31
257.289	80.31
257.521	94.31
257.754	90.31
257.987	91.31
258.22	69.31
258.452	66.31
258.685	81.31
258.918	86.31
259.151	87.31
259.383	92.31
259.616	93.31
259.849	71.31
260.081	74.31
260.314	85.31
260.547	88.31
260.779	73.31
261.012	60.31
261.244	77.31
261.477	93.31
261.71	80.31
261.942	82.31
262.175	83.31
262.407	86.31
262.64	90.31
262.872	87.31
263.105	83.31
263.337	83.31
263.57	79.31
263.802	90.31
264.035	70.31
264.267	78.31
264.499	80.31
264.732	76.31
264.964	90.31
265.197	84.31
265.429	74.31
265.661	92.31
265.894	79.31
266.126	69.31
266.358	92.31
266.591	86.31
266.823	78.31
267.055	90.31
267.287	96.31
267.52	74.31
267.752	83.31
267.984	85.31
268.216	83.31
268.448	99.31
268.681	80.31
268.913	88.31
269.145	63.31
269.377	95.31
269.609	71.31
269.841	76.31
270.073	86.31
270.306	89.31
270.538	86.31
270.77	86.31
271.002	81.31
271.234	90.31
271.466	95.31
271.698	82.31
271.93	85.31
272.162	90.31
272.394	74.31
272.626	77.31
272.858	83.31
273.09	86.31
273.322	86.31
273.553	86.31
273.785	75.31
274.017	64.31
274.249	84.31
274.481	84.31
274.713	91.31
274.945	94.31
275.176	81.31
275.408	86.31
275.64	97.31
275.872	79.31
276.104	96.31
276.335	88.31
276.567	85.31
276.799	83.31
277.031	75.31
277.262	81.31
277.494	79.31
277.726	81.31
277.957	92.31
278.189	84.31
278.421	99.31
278.652	91.31
278.884	88.31
279.115	90.31
279.347	90.31
279.579	96.31
279.81	85.31
280.042	75.31
280.273	81.31
280.505	87.31
280.736	86.31
280.968	74.31
281.199	79.31
281.431	82.31
281.662	88.31
281.894	91.31
282.125	85.31
282.356	82.31
282.588	74.31
282.819	72.31
283.051	79.31
283.282	77.31
283.513	94.31
283.745	83.31
283.976	87.31
284.207	94.31
284.439	88.31
284.67	88.31
284.901	67.31
285.132	67.31
285.364	83.31
285.595	96.31
285.826	97.31
286.057	78.31
286.288	95.31
286.52	92.31
286.751	91.31
286.982	84.31
287.213	86.31
287.444	82.31
287.675	84.31
287.906	82.31
288.138	97.31
288.369	94.31
288.6	78.31
288.831	91.31
289.062	94.31
289.293	76.31
289.524	83.31
289.755	74.31
289.986	98.31
290.217	88.31
290.448	82.31
290.679	89.31
290.91	89.31
291.141	85.31
291.371	87.31
291.602	87.31
291.833	93.31
292.064	80.31
292.295	95.31
292.526	83.31
292.757	84.31
292.987	94.31
293.218	91.31
293.449	75.31
293.68	75.31
293.91	87.31
294.141	91.31
294.372	88.31
294.603	83.31
294.833	77.31
295.064	78.31
295.295	77.31
295.525	78.31
295.756	94.31
295.987	90.31
296.217	75.31
296.448	93.31
296.679	86.31
296.909	90.31
297.14	97.31
297.37	82.31
297.601	88.31
297.831	84.31
298.062	94.31
298.292	96.31
298.523	97.31
298.753	88.31
298.984	81.31
299.214	87.31
299.445	89.31
299.675	89.31
299.905	89.31
300.136	90.31
300.366	82.31
300.597	92.31
300.827	87.31
301.057	71.31
301.288	88.31
301.518	89.31
301.748	83.31
301.979	110.31
302.209	90.31
302.439	80.31
302.669	82.31
302.9	73.31
303.13	84.31
303.36	75.31
303.59	80.31
303.82	105.31
304.051	90.31
304.281	100.31
304.511	102.31
304.741	82.31
304.971	74.31
305.201	77.31
305.431	97.31
305.661	89.31
305.891	97.31
306.121	94.31
306.352	77.31
306.582	94.31
306.812	91.31
307.042	84.31
307.272	88.31
307.502	80.31
307.731	94.31
307.961	94.31
308.191	90.31
308.421	81.31
308.651	80.31
308.881	75.31
309.111	82.31
309.341	86.31
309.571	84.31
309.8	80.31
310.03	75.31
310.26	97.31
310.49	96.31
310.72	90.31
310.949	88.31
311.179	87.31
311.409	86.31
311.639	76.31
311.868	87.31
312.098	96.31
312.328	80.31
312.557	78.31
312.787	88.31
313.017	84.31
313.246	83.31
313.476	77.31
313.706	98.31
313.935	89.31
314.165	90.31
314.394	83.31
314.624	104.31
314.853	97.31
315.083	89.31
315.312	99.31
315.542	82.31
315.771	88.31
316.001	83.31
316.23	82.31
316.46	80.31
316.689	91.31
316.919	90.31
317.148	91.31
317.377	95.31
317.607	94.31
317.836	79.31
318.065	86.31
318.295	84.31
318.524	83.31
318.753	91.31
318.983	90.31
319.212	87.31
319.441	87.31
319.67	77.31
319.9	88.31
320.129	86.31
320.358	84.31
320.587	83.31
320.816	79.31
321.046	90.31
321.275	77.31
321.504	86.31
321.733	90.31
321.962	88.31
322.191	94.31
322.42	92.31
322.649	80.31
322.878	87.31
323.108	91.31
323.337	68.31
323.566	78.31
323.795	69.31
324.024	97.31
324.253	81.31
324.482	88.31
324.71	94.31
324.939	94.31
325.168	73.31
325.397	79.31
325.626	90.31
325.855	86.31
326.084	92.31
326.313	82.31
326.542	94.31
326.77	79.31
326.999	74.31
327.228	87.31
327.457	87.31
327.686	96.31
327.914	88.31
328.143	97.31
328.372	90.31
328.6	94.31
328.829	97.31
329.058	98.31
329.287	77.31
329.515	68.31
329.744	88.31
329.972	83.31
330.201	84.31
330.43	87.31
330.658	86.31
330.887	83.31
331.115	86.31
331.344	87.31
331.572	86.31
331.801	93.31
332.03	75.31
332.258	75.31
332.486	110.31
332.715	88.31
332.943	92.31
333.172	94.31
333.4	93.31
333.629	91.31
333.857	87.31
334.085	81.31
334.314	87.31
334.542	84.31
334.771	89.31
334.999	75.31
335.227	92.31
335.455	86.31
335.684	83.31
335.912	81.31
336.14	71.31
336.369	88.31
336.597	83.31
336.825	89.31
337.053	84.31
337.281	87.31
337.51	86.31
337.738	87.31
337.966	90.31
338.194	68.31
338.422	86.31
338.65	92.31
338.878	89.31
339.106	86.31
339.334	97.31
339.562	91.31
339.79	106.31
340.018	98.31
340.246	90.31
340.474	88.31
340.702	81.31
340.93	78.31
341.158	94.31
341.386	94.31
341.614	82.31
341.842	83.31
342.07	94.31
342.298	77.31
342.526	79.31
342.754	108.31
342.981	82.31
343.209	91.31
343.437	107.31
343.665	86.31
343.893	82.31
344.12	86.31
344.348	96.31
344.576	86.31
344.804	102.31
345.031	90.31
345.259	97.31
345.487	76.31
345.714	84.31
345.942	85.31
346.17	87.31
346.397	95.31
346.625	88.31
346.853	79.31
347.08	82.31
347.308	82.31
347.535	82.31
347.763	84.31
347.99	88.31
348.218	94.31
348.445	84.31
348.673	91.31
348.9	88.31
349.128	93.31
349.355	75.31
349.583	88.31
349.81	76.31
350.037	77.31
350.265	90.31
350.492	88.31
350.72	88.31
350.947	81.31
351.174	74.31
351.402	85.31
351.629	95.31
351.856	90.31
352.083	84.31
352.311	100.31
352.538	91.31
352.765	89.31
352.992	93.31
353.22	93.31
353.447	85.31
353.674	92.31
353.901	92.31
354.128	72.31
354.355	103.31
354.583	86.31
354.81	99.31
355.037	91.31
355.264	84.31
355.491	94.31
355.718	91.31
355.945	89.31
356.172	82.31
356.399	96.31
356.626	85.31
356.853	78.31
357.08	103.31
357.307	84.31
357.534	87.31
357.761	99.31
357.988	100.31
358.215	102.31
358.441	93.31
358.668	84.31
358.895	95.31
359.122	76.31
359.349	88.31
359.576	87.31
359.802	96.31
360.029	88.31
360.256	90.31
360.483	97.31
360.709	94.31
360.936	100.31
361.163	88.31
361.39	85.31
361.616	82.31
361.843	91.31
362.07	88.31
362.296	89.31
362.523	89.31
362.749	88.31
362.976	84.31
363.203	96.31
363.429	86.31
363.656	94.31
363.882	76.31
364.109	76.31
364.335	85.31
364.562	82.31
364.788	74.31
365.015	80.31
365.241	80.31
365.468	87.31
365.694	92.31
365.92	87.31
366.147	86.31
366.373	81.31
366.599	82.31
366.826	82.31
367.052	99.31
367.278	102.31
367.505	90.31
367.731	68.31
367.957	79.31
368.184	86.31
368.41	85.31
368.636	84.31
368.862	82.31
369.089	88.31
369.315	88.31
369.541	102.31
369.767	96.31
369.993	82.31
370.219	92.31
370.445	56.31
370.672	77.31
370.898	79.31
371.124	88.31
371.35	82.31
371.576	73.31
371.802	82.31
372.028	83.31
372.254	87.31
372.48	78.31
372.706	98.31
372.932	86.31
373.158	88.31
373.384	98.31
373.61	102.31
373.835	88.31
374.061	94.31
374.287	91.31
374.513	82.31
374.739	94.31
374.965	88.31
375.191	86.31
375.416	98.31
375.642	81.31
375.868	79.31
376.094	74.31
376.319	94.31
376.545	73.31
376.771	96.31
376.997	86.31
377.222	104.31
377.448	85.31
377.674	84.31
377.899	90.31
378.125	88.31
378.35	79.31
378.576	68.31
378.802	89.31
379.027	86.31
379.253	89.31
379.478	91.31
379.704	79.31
379.929	91.31
380.155	69.31
380.38	90.31
380.606	83.31
380.831	97.31
381.057	96.31
381.282	90.31
381.507	78.31
381.733	96.31
381.958	83.31
382.184	71.31
382.409	77.31
382.634	76.31
382.86	95.31
383.085	91.31
383.31	92.31
383.535	82.31
383.761	85.31
383.986	94.31
384.211	81.31
384.436	90.31
384.662	72.31
384.887	96.31
385.112	91.31
385.337	96.31
385.562	80.31
385.787	88.31
386.013	87.31
386.238	110.31
386.463	90.31
386.688	88.31
386.913	78.31
387.138	86.31
387.363	82.31
387.588	79.31
387.813	91.31
388.038	79.31
388.263	87.31
388.488	84.31
388.713	90.31
388.938	95.31
389.163	87.31
389.387	84.31
389.612	88.31
389.837	75.31
390.062	89.31
390.287	89.31
390.512	77.31
390.736	89.31
390.961	105.31
391.186	88.31
391.411	90.31
391.636	81.31
391.86	97.31
392.085	95.31
392.31	75.31
392.534	68.31
392.759	75.31
392.984	88.31
393.208	99.31
393.433	94.31
393.658	92.31
393.882	81.31
394.107	86.31
394.331	80.31
394.556	90.31
394.78	73.31
395.005	95.31
395.229	84.31
395.454	90.31
395.678	87.31
395.903	91.31
396.127	95.31
396.352	87.31
396.576	87.31
396.801	71.31
397.025	81.31
397.249	95.31
397.474	85.31
397.698	87.31
397.922	103.31
398.147	84.31
398.371	82.31
398.595	90.31
398.82	84.31
399.044	89.31
399.268	82.31
399.492	98.31
399.717	89.31
399.941	102.31
400.165	90.31
400.389	85.31
400.613	99.31
400.837	84.31
401.062	78.31
401.286	93.31
401.51	98.31
401.734	87.31
401.958	86.31
402.182	95.31
402.406	76.31
402.63	77.31
402.854	90.31
403.078	87.31
403.302	95.31
403.526	107.31
403.75	77.31
403.974	93.31
404.198	85.31
404.422	98.31
404.645	89.31
404.869	81.31
405.093	71.31
405.317	108.31
405.541	90.31
405.765	80.31
405.988	83.31
406.212	81.31
406.436	76.31
406.66	89.31
406.883	84.31
407.107	94.31
407.331	86.31
407.555	88.31
407.778	79.31
408.002	92.31
408.226	91.31
408.449	95.31
408.673	76.31
408.896	79.31
409.12	105.31
409.344	90.31
409.567	85.31
409.791	94.31
410.014	91.31
410.238	81.31
410.461	95.31
410.685	88.31
410.908	103.31
411.132	80.31
411.355	106.31
411.578	98.31
411.802	93.31
412.025	88.31
412.249	86.31
412.472	69.31
412.695	83.31
412.919	89.31
413.142	88.31
413.365	89.31
413.589	88.31
413.812	83.31
414.035	99.31
414.258	89.31
414.482	78.31
414.705	86.31
414.928	83.31
415.151	93.31
415.374	100.31
415.597	89.31
415.821	83.31
416.044	87.31
416.267	74.31
416.49	87.31
416.713	88.31
416.936	93.31
417.159	82.31
417.382	89.31
417.605	89.31
417.828	98.31
418.051	87.31
418.274	77.31
418.497	82.31
418.72	88.31
418.943	96.31
419.166	111.31
419.389	87.31
419.611	95.31
419.834	88.31
420.057	90.31
420.28	83.31
420.503	82.31
420.726	73.31
420.948	91.31
421.171	91.31
421.394	85.31
421.617	97.31
421.839	87.31
422.062	87.31
422.285	89.31
422.507	80.31
422.73	72.31
422.953	90.31
423.175	86.31
423.398	87.31
423.621	90.31
423.843	92.31
424.066	91.31
424.288	84.31
424.511	81.31
424.733	88.31
424.956	99.31
425.178	75.31
425.401	87.31
425.623	86.31
425.846	76.31
426.068	76.31
426.291	80.31
426.513	78.31
426.735	78.31
426.958	97.31
427.18	85.31
427.402	89.31
427.625	81.31
427.847	83.31
428.069	74.31
428.292	88.31
428.514	55.31
428.736	83.31
428.958	74.31
429.181	76.31
429.403	83.31
429.625	75.31
429.847	92.31
430.069	78.31
430.292	81.31
430.514	78.31
430.736	96.31
430.958	95.31
431.18	82.31
431.402	76.31
431.624	74.31
431.846	93.31
432.068	78.31
432.29	71.31
432.512	71.31
432.734	83.31
432.956	75.31
433.178	90.31
433.4	88.31
433.622	83.31
433.844	76.31
434.066	90.31
434.287	96.31
434.509	78.31
434.731	95.31
434.953	98.31
435.175	90.31
435.397	92.31
435.618	91.31
435.84	86.31
436.062	92.31
436.284	77.31
436.505	82.31
436.727	97.31
436.949	85.31
437.17	87.31
437.392	75.31
437.614	86.31
437.835	64.31
438.057	81.31
438.278	72.31
438.5	84.31
438.721	82.31
438.943	90.31
439.165	86.31
439.386	87.31
439.608	93.31
439.829	79.31
440.05	84.31
440.272	87.31
440.493	76.31
440.715	90.31
440.936	81.31
441.158	83.31
441.379	80.31
441.6	96.31
441.822	76.31
442.043	78.31
442.264	88.31
442.486	95.31
442.707	78.31
442.928	98.31
443.149	69.31
443.371	79.31
443.592	94.31
443.813	77.31
444.034	87.31
444.255	90.31
444.476	90.31
444.698	86.31
444.919	86.31
445.14	171.31
445.361	118.31
445.582	89.31
445.803	86.31
446.024	87.31
446.245	72.31
446.466	90.31
446.687	71.31
446.908	90.31
447.129	74.31
447.35	93.31
447.571	102.31
447.792	83.31
448.013	86.31
448.234	80.31
448.455	82.31
448.675	67.31
448.896	84.31
449.117	91.31
449.338	82.31
449.559	88.31
449.779	86.31
450	75.31
450.221	95.31
450.442	106.31
450.662	88.31
450.883	92.31
451.104	76.31
451.324	92.31
451.545	87.31
451.766	84.31
451.986	84.31
452.207	97.31
452.428	82.31
452.648	76.31
452.869	89.31
453.089	84.31
453.31	90.31
453.53	91.31
453.751	82.31
453.971	78.31
454.192	86.31
454.412	77.31
454.633	86.31
454.853	98.31
455.073	87.31
455.294	94.31
455.514	89.31
455.734	86.31
455.955	86.31
456.175	90.31
456.395	73.31
456.616	79.31
456.836	79.31
457.056	76.31
457.276	75.31
457.497	89.31
457.717	82.31
457.937	74.31
458.157	77.31
458.377	72.31
458.598	102.31
458.818	82.31
459.038	84.31
459.258	78.31
459.478	87.31
459.698	91.31
459.918	83.31
460.138	95.31
460.358	86.31
460.578	102.31
460.798	90.31
461.018	78.31
461.238	94.31
461.458	98.31
461.678	108.31
461.898	76.31
462.118	84.31
462.338	82.31
462.558	90.31
462.777	93.31
462.997	80.31
463.217	83.31
463.437	103.31
463.657	99.31
463.876	87.31
464.096	72.31
464.316	94.31
464.536	90.31
464.755	86.31
464.975	80.31
465.195	84.31
465.414	91.31
465.634	89.31
465.854	87.31
466.073	87.31
466.293	87.31
466.512	86.31
466.732	82.31
466.951	87.31
467.171	89.31
467.391	85.31
467.61	83.31
467.829	79.31
468.049	66.31
468.268	86.31
468.488	79.31
468.707	98.31
468.927	92.31
469.146	87.31
469.365	75.31
469.585	99.31
469.804	72.31
470.023	76.31
470.243	75.31
470.462	83.31
470.681	95.31
470.901	87.31
471.12	83.31
471.339	78.31
471.558	73.31
471.777	88.31
471.997	83.31
472.216	78.31
472.435	86.31
472.654	100.31
472.873	98.31
473.092	93.31
473.311	100.31
473.53	88.31
473.749	78.31
473.968	93.31
474.187	67.31
474.406	76.31
474.625	75.31
474.844	88.31
475.063	79.31
475.282	90.31
475.501	79.31
475.72	84.31
475.939	83.31
476.158	94.31
476.377	91.31
476.596	78.31
476.814	80.31
477.033	82.31
477.252	84.31
477.471	87.31
477.69	82.31
477.908	86.31
478.127	99.31
478.346	98.31
478.564	86.31
478.783	83.31
479.002	73.31
479.22	87.31
479.439	100.31
479.658	88.31
479.876	83.31
480.095	93.31
480.313	86.31
480.532	87.31
480.751	85.31
480.969	83.31
481.188	100.31
481.406	89.31
481.624	91.31
481.843	69.31
482.061	95.31
482.28	80.31
482.498	93.31
482.717	84.31
482.935	87.31
483.153	71.31
483.372	93.31
483.59	80.31
483.808	98.31
484.027	106.31
484.245	86.31
484.463	85.31
484.681	104.31
484.9	82.31
485.118	103.31
485.336	87.31
485.554	85.31
485.772	87.31
485.99	95.31
486.209	92.31
486.427	104.31
486.645	89.31
486.863	82.31
487.081	96.31
487.299	87.31
487.517	80.31
487.735	82.31
487.953	93.31
488.171	96.31
488.389	75.31
488.607	84.31
488.825	80.31
489.043	90.31
489.261	68.31
489.479	68.31
489.696	98.31
489.914	86.31
490.132	76.31
490.35	86.31
490.568	96.31
490.786	70.31
491.003	82.31
491.221	85.31
491.439	85.31
491.657	80.31
491.874	87.31
492.092	80.31
492.31	89.31
492.527	90.31
492.745	85.31
492.963	87.31
493.18	91.31
493.398	97.31
493.615	87.31
493.833	93.31
494.05	95.31
494.268	93.31
494.485	100.31
494.703	87.31
494.92	90.31
495.138	91.31
495.355	87.31
495.573	78.31
495.79	92.31
496.008	79.31
496.225	87.31
496.442	89.31
496.66	104.31
496.877	80.31
497.094	90.31
497.312	92.31
497.529	95.31
497.746	76.31
497.963	82.31
498.181	98.31
498.398	109.31
498.615	89.31
498.832	87.31
499.049	88.31
499.267	89.31
499.484	100.31
499.701	102.31
499.918	83.31
500.135	102.31
500.352	102.31
500.569	117.31
500.786	112.31
501.003	107.31
501.22	97.31
501.437	98.31
501.654	92.31
501.871	92.31
502.088	94.31
502.305	104.31
502.522	91.31
502.739	94.31
502.956	85.31
503.172	97.31
503.389	90.31
503.606	90.31
503.823	93.31
504.04	90.31
504.256	101.31
504.473	95.31
504.69	96.31
504.907	97.31
505.123	91.31
505.34	103.31
505.557	95.31
505.773	87.31
505.99	86.31
506.207	91.31
506.423	90.31
506.64	76.31
506.856	80.31
507.073	98.31
507.289	77.31
507.506	93.31
507.722	89.31
507.939	81.31
508.155	86.31
508.372	84.31
508.588	78.31
508.805	90.31
509.021	77.31
509.238	91.31
509.454	81.31
509.67	78.31
509.887	88.31
510.103	83.31
510.319	76.31
510.536	84.31
510.752	90.31
510.968	77.31
511.184	88.31
511.401	79.31
511.617	77.31
511.833	77.31
512.049	87.31
512.265	95.31
512.481	93.31
512.698	90.31
512.914	78.31
513.13	93.31
513.346	95.31
513.562	91.31
513.778	80.31
513.994	81.31
514.21	98.31
514.426	96.31
514.642	79.31
514.858	87.31
515.074	86.31
515.29	95.31
515.506	90.31
515.721	80.31
515.937	100.31
516.153	94.31
516.369	81.31
516.585	81.31
516.801	90.31
517.016	94.31
517.232	93.31
517.448	90.31
517.664	94.31
517.879	98.31
518.095	87.31
518.311	84.31
518.527	94.31
518.742	96.31
518.958	99.31
519.173	96.31
519.389	94.31
519.605	75.31
