Data from BG_HRD10591_014.txt Node
Date: Fri May 16 15:33:14 EDT 2025
User: Yrep
Spectrometer: HR+D1059
Trigger mode: 1
Integration Time (sec): 1.000000E-1
Scans to average: 1
Electric dark correction enabled: true
Nonlinearity correction enabled: false
Boxcar width: 0
XAxis mode: Wavelengths
Number of Pixels in Spectrum: 2048
>>>>>Begin Spectral Data<<<<<
223.165	-24.12
223.4	-24.12
223.635	-24.12
223.869	-21.12
224.104	-26.12
224.338	-26.12
224.573	-31.12
224.808	-2.12
225.042	-5.12
225.277	-15.12
225.511	4.88
225.746	10.88
225.98	9.88
226.215	10.88
226.449	24.88
226.683	22.88
226.918	28.88
227.152	37.88
227.387	36.88
227.621	31.88
227.856	46.88
228.09	55.88
228.324	49.88
228.559	46.88
228.793	59.88
229.027	59.88
229.262	71.88
229.496	54.88
229.73	60.88
229.964	74.88
230.199	85.88
230.433	78.88
230.667	70.88
230.901	73.88
231.136	80.88
231.37	77.88
231.604	96.88
231.838	87.88
232.072	83.88
232.306	76.88
232.541	64.88
232.775	73.88
233.009	70.88
233.243	76.88
233.477	72.88
233.711	76.88
233.945	72.88
234.179	76.88
234.413	71.88
234.647	76.88
234.881	90.88
235.115	77.88
235.349	70.88
235.583	69.88
235.817	78.88
236.051	75.88
236.285	75.88
236.519	76.88
236.753	84.88
236.987	82.88
237.221	74.88
237.455	81.88
237.689	72.88
237.922	81.88
238.156	61.88
238.39	77.88
238.624	77.88
238.858	84.88
239.091	70.88
239.325	63.88
239.559	87.88
239.793	69.88
240.027	69.88
240.26	73.88
240.494	74.88
240.728	64.88
240.961	82.88
241.195	70.88
241.429	63.88
241.662	82.88
241.896	81.88
242.13	87.88
242.363	76.88
242.597	80.88
242.83	69.88
243.064	85.88
243.298	68.88
243.531	85.88
243.765	76.88
243.998	80.88
244.232	83.88
244.465	68.88
244.699	77.88
244.932	79.88
245.166	93.88
245.399	78.88
245.633	58.88
245.866	70.88
246.099	68.88
246.333	64.88
246.566	71.88
246.8	81.88
247.033	78.88
247.266	67.88
247.5	83.88
247.733	69.88
247.966	75.88
248.2	72.88
248.433	86.88
248.666	74.88
248.899	65.88
249.133	72.88
249.366	76.88
249.599	62.88
249.832	80.88
250.066	76.88
250.299	93.88
250.532	76.88
250.765	77.88
250.998	86.88
251.231	76.88
251.465	84.88
251.698	75.88
251.931	81.88
252.164	74.88
252.397	76.88
252.63	83.88
252.863	69.88
253.096	85.88
253.329	81.88
253.562	64.88
253.795	85.88
254.028	74.88
254.261	84.88
254.494	88.88
254.727	79.88
254.96	81.88
255.193	63.88
255.426	74.88
255.659	78.88
255.892	78.88
256.124	84.88
256.357	78.88
256.59	74.88
256.823	85.88
257.056	79.88
257.289	62.88
257.521	88.88
257.754	84.88
257.987	80.88
258.22	78.88
258.452	73.88
258.685	68.88
258.918	74.88
259.151	74.88
259.383	86.88
259.616	71.88
259.849	84.88
260.081	79.88
260.314	74.88
260.547	77.88
260.779	83.88
261.012	71.88
261.244	79.88
261.477	76.88
261.71	84.88
261.942	76.88
262.175	74.88
262.407	86.88
262.64	90.88
262.872	86.88
263.105	80.88
263.337	76.88
263.57	84.88
263.802	88.88
264.035	77.88
264.267	82.88
264.499	87.88
264.732	94.88
264.964	85.88
265.197	80.88
265.429	70.88
265.661	80.88
265.894	78.88
266.126	93.88
266.358	76.88
266.591	84.88
266.823	90.88
267.055	86.88
267.287	81.88
267.52	78.88
267.752	78.88
267.984	82.88
268.216	92.88
268.448	84.88
268.681	76.88
268.913	83.88
269.145	78.88
269.377	82.88
269.609	72.88
269.841	72.88
270.073	69.88
270.306	86.88
270.538	105.88
270.77	96.88
271.002	87.88
271.234	78.88
271.466	73.88
271.698	87.88
271.93	84.88
272.162	89.88
272.394	89.88
272.626	74.88
272.858	87.88
273.09	98.88
273.322	83.88
273.553	84.88
273.785	81.88
274.017	83.88
274.249	78.88
274.481	74.88
274.713	78.88
274.945	84.88
275.176	87.88
275.408	81.88
275.64	92.88
275.872	83.88
276.104	80.88
276.335	63.88
276.567	78.88
276.799	78.88
277.031	74.88
277.262	78.88
277.494	88.88
277.726	81.88
277.957	64.88
278.189	79.88
278.421	77.88
278.652	88.88
278.884	76.88
279.115	89.88
279.347	80.88
279.579	68.88
279.81	97.88
280.042	100.88
280.273	70.88
280.505	77.88
280.736	65.88
280.968	89.88
281.199	80.88
281.431	76.88
281.662	88.88
281.894	89.88
282.125	89.88
282.356	94.88
282.588	68.88
282.819	83.88
283.051	90.88
283.282	88.88
283.513	96.88
283.745	82.88
283.976	66.88
284.207	89.88
284.439	81.88
284.67	75.88
284.901	66.88
285.132	91.88
285.364	74.88
285.595	92.88
285.826	86.88
286.057	82.88
286.288	100.88
286.52	71.88
286.751	81.88
286.982	80.88
287.213	88.88
287.444	84.88
287.675	83.88
287.906	83.88
288.138	87.88
288.369	89.88
288.6	74.88
288.831	83.88
289.062	84.88
289.293	79.88
289.524	83.88
289.755	94.88
289.986	85.88
290.217	73.88
290.448	81.88
290.679	72.88
290.91	88.88
291.141	77.88
291.371	78.88
291.602	90.88
291.833	91.88
292.064	76.88
292.295	88.88
292.526	66.88
292.757	67.88
292.987	80.88
293.218	89.88
293.449	70.88
293.68	96.88
293.91	83.88
294.141	88.88
294.372	80.88
294.603	97.88
294.833	77.88
295.064	90.88
295.295	73.88
295.525	74.88
295.756	82.88
295.987	79.88
296.217	91.88
296.448	74.88
296.679	79.88
296.909	76.88
297.14	80.88
297.37	97.88
297.601	79.88
297.831	89.88
298.062	90.88
298.292	74.88
298.523	78.88
298.753	81.88
298.984	79.88
299.214	84.88
299.445	76.88
299.675	76.88
299.905	86.88
300.136	88.88
300.366	86.88
300.597	84.88
300.827	100.88
301.057	80.88
301.288	76.88
301.518	89.88
301.748	87.88
301.979	97.88
302.209	90.88
302.439	84.88
302.669	83.88
302.9	97.88
303.13	86.88
303.36	92.88
303.59	66.88
303.82	92.88
304.051	70.88
304.281	88.88
304.511	100.88
304.741	79.88
304.971	81.88
305.201	81.88
305.431	91.88
305.661	91.88
305.891	88.88
306.121	88.88
306.352	93.88
306.582	95.88
306.812	71.88
307.042	80.88
307.272	73.88
307.502	97.88
307.731	95.88
307.961	84.88
308.191	80.88
308.421	82.88
308.651	80.88
308.881	85.88
309.111	87.88
309.341	80.88
309.571	72.88
309.8	80.88
310.03	91.88
310.26	96.88
310.49	96.88
310.72	69.88
310.949	72.88
311.179	94.88
311.409	74.88
311.639	88.88
311.868	81.88
312.098	87.88
312.328	74.88
312.557	78.88
312.787	75.88
313.017	78.88
313.246	96.88
313.476	76.88
313.706	77.88
313.935	77.88
314.165	78.88
314.394	73.88
314.624	87.88
314.853	88.88
315.083	82.88
315.312	83.88
315.542	86.88
315.771	98.88
316.001	81.88
316.23	102.88
316.46	89.88
316.689	89.88
316.919	80.88
317.148	94.88
317.377	94.88
317.607	85.88
317.836	81.88
318.065	77.88
318.295	95.88
318.524	82.88
318.753	97.88
318.983	78.88
319.212	82.88
319.441	89.88
319.67	87.88
319.9	71.88
320.129	90.88
320.358	89.88
320.587	86.88
320.816	89.88
321.046	85.88
321.275	77.88
321.504	93.88
321.733	91.88
321.962	78.88
322.191	78.88
322.42	91.88
322.649	88.88
322.878	79.88
323.108	95.88
323.337	84.88
323.566	75.88
323.795	82.88
324.024	86.88
324.253	79.88
324.482	100.88
324.71	88.88
324.939	81.88
325.168	102.88
325.397	81.88
325.626	75.88
325.855	86.88
326.084	68.88
326.313	97.88
326.542	80.88
326.77	93.88
326.999	90.88
327.228	76.88
327.457	58.88
327.686	82.88
327.914	96.88
328.143	86.88
328.372	73.88
328.6	84.88
328.829	87.88
329.058	97.88
329.287	87.88
329.515	79.88
329.744	73.88
329.972	88.88
330.201	88.88
330.43	91.88
330.658	73.88
330.887	84.88
331.115	80.88
331.344	86.88
331.572	82.88
331.801	79.88
332.03	77.88
332.258	80.88
332.486	92.88
332.715	72.88
332.943	76.88
333.172	80.88
333.4	82.88
333.629	79.88
333.857	91.88
334.085	80.88
334.314	75.88
334.542	90.88
334.771	87.88
334.999	93.88
335.227	66.88
335.455	85.88
335.684	90.88
335.912	87.88
336.14	88.88
336.369	97.88
336.597	84.88
336.825	89.88
337.053	65.88
337.281	95.88
337.51	92.88
337.738	85.88
337.966	72.88
338.194	82.88
338.422	77.88
338.65	85.88
338.878	78.88
339.106	84.88
339.334	88.88
339.562	66.88
339.79	78.88
340.018	84.88
340.246	92.88
340.474	92.88
340.702	82.88
340.93	86.88
341.158	84.88
341.386	83.88
341.614	72.88
341.842	77.88
342.07	82.88
342.298	84.88
342.526	68.88
342.754	96.88
342.981	92.88
343.209	81.88
343.437	81.88
343.665	75.88
343.893	76.88
344.12	85.88
344.348	89.88
344.576	92.88
344.804	75.88
345.031	86.88
345.259	73.88
345.487	89.88
345.714	75.88
345.942	76.88
346.17	76.88
346.397	84.88
346.625	79.88
346.853	75.88
347.08	74.88
347.308	77.88
347.535	80.88
347.763	80.88
347.99	86.88
348.218	81.88
348.445	78.88
348.673	94.88
348.9	75.88
349.128	91.88
349.355	92.88
349.583	98.88
349.81	106.88
350.037	88.88
350.265	80.88
350.492	80.88
350.72	73.88
350.947	84.88
351.174	82.88
351.402	88.88
351.629	80.88
351.856	72.88
352.083	79.88
352.311	77.88
352.538	78.88
352.765	99.88
352.992	87.88
353.22	89.88
353.447	76.88
353.674	88.88
353.901	89.88
354.128	81.88
354.355	80.88
354.583	93.88
354.81	75.88
355.037	86.88
355.264	81.88
355.491	86.88
355.718	100.88
355.945	93.88
356.172	85.88
356.399	88.88
356.626	73.88
356.853	76.88
357.08	84.88
357.307	84.88
357.534	91.88
357.761	84.88
357.988	87.88
358.215	78.88
358.441	79.88
358.668	91.88
358.895	89.88
359.122	82.88
359.349	89.88
359.576	85.88
359.802	88.88
360.029	95.88
360.256	93.88
360.483	88.88
360.709	92.88
360.936	78.88
361.163	80.88
361.39	90.88
361.616	85.88
361.843	89.88
362.07	83.88
362.296	78.88
362.523	91.88
362.749	81.88
362.976	78.88
363.203	89.88
363.429	74.88
363.656	72.88
363.882	87.88
364.109	86.88
364.335	87.88
364.562	97.88
364.788	80.88
365.015	69.88
365.241	81.88
365.468	90.88
365.694	95.88
365.92	83.88
366.147	78.88
366.373	90.88
366.599	84.88
366.826	78.88
367.052	79.88
367.278	85.88
367.505	82.88
367.731	87.88
367.957	88.88
368.184	93.88
368.41	82.88
368.636	89.88
368.862	93.88
369.089	76.88
369.315	78.88
369.541	93.88
369.767	73.88
369.993	66.88
370.219	88.88
370.445	76.88
370.672	72.88
370.898	103.88
371.124	101.88
371.35	93.88
371.576	96.88
371.802	69.88
372.028	81.88
372.254	78.88
372.48	85.88
372.706	80.88
372.932	101.88
373.158	86.88
373.384	84.88
373.61	95.88
373.835	90.88
374.061	81.88
374.287	93.88
374.513	82.88
374.739	80.88
374.965	79.88
375.191	89.88
375.416	80.88
375.642	110.88
375.868	89.88
376.094	87.88
376.319	86.88
376.545	89.88
376.771	93.88
376.997	85.88
377.222	84.88
377.448	85.88
377.674	79.88
377.899	93.88
378.125	75.88
378.35	111.88
378.576	87.88
378.802	86.88
379.027	84.88
379.253	84.88
379.478	76.88
379.704	84.88
379.929	87.88
380.155	78.88
380.38	93.88
380.606	73.88
380.831	85.88
381.057	97.88
381.282	84.88
381.507	79.88
381.733	70.88
381.958	79.88
382.184	80.88
382.409	82.88
382.634	79.88
382.86	84.88
383.085	82.88
383.31	77.88
383.535	82.88
383.761	80.88
383.986	77.88
384.211	96.88
384.436	86.88
384.662	96.88
384.887	87.88
385.112	75.88
385.337	90.88
385.562	88.88
385.787	75.88
386.013	102.88
386.238	71.88
386.463	85.88
386.688	98.88
386.913	92.88
387.138	73.88
387.363	79.88
387.588	86.88
387.813	75.88
388.038	82.88
388.263	83.88
388.488	80.88
388.713	81.88
388.938	78.88
389.163	85.88
389.387	84.88
389.612	79.88
389.837	84.88
390.062	90.88
390.287	71.88
390.512	72.88
390.736	84.88
390.961	80.88
391.186	88.88
391.411	89.88
391.636	78.88
391.86	86.88
392.085	94.88
392.31	74.88
392.534	89.88
392.759	82.88
392.984	85.88
393.208	80.88
393.433	75.88
393.658	84.88
393.882	76.88
394.107	81.88
394.331	86.88
394.556	73.88
394.78	81.88
395.005	110.88
395.229	69.88
395.454	88.88
395.678	78.88
395.903	75.88
396.127	87.88
396.352	79.88
396.576	82.88
396.801	89.88
397.025	84.88
397.249	78.88
397.474	80.88
397.698	90.88
397.922	82.88
398.147	89.88
398.371	94.88
398.595	100.88
398.82	94.88
399.044	90.88
399.268	79.88
399.492	93.88
399.717	92.88
399.941	85.88
400.165	85.88
400.389	84.88
400.613	84.88
400.837	95.88
401.062	82.88
401.286	85.88
401.51	78.88
401.734	90.88
401.958	89.88
402.182	76.88
402.406	102.88
402.63	86.88
402.854	74.88
403.078	85.88
403.302	91.88
403.526	95.88
403.75	92.88
403.974	96.88
404.198	87.88
404.422	70.88
404.645	84.88
404.869	72.88
405.093	78.88
405.317	73.88
405.541	87.88
405.765	94.88
405.988	84.88
406.212	93.88
406.436	90.88
406.66	86.88
406.883	76.88
407.107	86.88
407.331	82.88
407.555	92.88
407.778	86.88
408.002	97.88
408.226	81.88
408.449	87.88
408.673	90.88
408.896	81.88
409.12	80.88
409.344	91.88
409.567	112.88
409.791	86.88
410.014	93.88
410.238	86.88
410.461	75.88
410.685	93.88
410.908	81.88
411.132	87.88
411.355	84.88
411.578	92.88
411.802	77.88
412.025	89.88
412.249	86.88
412.472	72.88
412.695	92.88
412.919	96.88
413.142	87.88
413.365	84.88
413.589	92.88
413.812	92.88
414.035	86.88
414.258	85.88
414.482	102.88
414.705	83.88
414.928	74.88
415.151	91.88
415.374	90.88
415.597	86.88
415.821	84.88
416.044	85.88
416.267	95.88
416.49	88.88
416.713	89.88
416.936	80.88
417.159	81.88
417.382	72.88
417.605	86.88
417.828	99.88
418.051	78.88
418.274	95.88
418.497	82.88
418.72	82.88
418.943	96.88
419.166	86.88
419.389	79.88
419.611	84.88
419.834	80.88
420.057	97.88
420.28	62.88
420.503	97.88
420.726	81.88
420.948	64.88
421.171	103.88
421.394	82.88
421.617	92.88
421.839	79.88
422.062	72.88
422.285	88.88
422.507	84.88
422.73	81.88
422.953	86.88
423.175	69.88
423.398	84.88
423.621	90.88
423.843	80.88
424.066	81.88
424.288	85.88
424.511	98.88
424.733	84.88
424.956	85.88
425.178	85.88
425.401	89.88
425.623	86.88
425.846	86.88
426.068	95.88
426.291	86.88
426.513	73.88
426.735	73.88
426.958	84.88
427.18	83.88
427.402	92.88
427.625	90.88
427.847	74.88
428.069	78.88
428.292	89.88
428.514	84.88
428.736	79.88
428.958	87.88
429.181	75.88
429.403	79.88
429.625	103.88
429.847	92.88
430.069	93.88
430.292	88.88
430.514	78.88
430.736	76.88
430.958	68.88
431.18	79.88
431.402	98.88
431.624	89.88
431.846	72.88
432.068	74.88
432.29	79.88
432.512	84.88
432.734	91.88
432.956	79.88
433.178	91.88
433.4	80.88
433.622	78.88
433.844	75.88
434.066	78.88
434.287	88.88
434.509	84.88
434.731	84.88
434.953	82.88
435.175	76.88
435.397	79.88
435.618	92.88
435.84	75.88
436.062	70.88
436.284	74.88
436.505	86.88
436.727	97.88
436.949	89.88
437.17	84.88
437.392	96.88
437.614	83.88
437.835	81.88
438.057	87.88
438.278	67.88
438.5	95.88
438.721	79.88
438.943	65.88
439.165	80.88
439.386	85.88
439.608	92.88
439.829	90.88
440.05	76.88
440.272	80.88
440.493	80.88
440.715	81.88
440.936	93.88
441.158	78.88
441.379	78.88
441.6	80.88
441.822	86.88
442.043	74.88
442.264	72.88
442.486	82.88
442.707	78.88
442.928	87.88
443.149	88.88
443.371	100.88
443.592	85.88
443.813	70.88
444.034	78.88
444.255	91.88
444.476	76.88
444.698	73.88
444.919	94.88
445.14	157.88
445.361	115.88
445.582	87.88
445.803	71.88
446.024	78.88
446.245	74.88
446.466	92.88
446.687	76.88
446.908	87.88
447.129	108.88
447.35	79.88
447.571	95.88
447.792	78.88
448.013	86.88
448.234	73.88
448.455	81.88
448.675	71.88
448.896	72.88
449.117	96.88
449.338	88.88
449.559	85.88
449.779	80.88
450	87.88
450.221	80.88
450.442	94.88
450.662	86.88
450.883	94.88
451.104	96.88
451.324	71.88
451.545	89.88
451.766	92.88
451.986	72.88
452.207	90.88
452.428	93.88
452.648	86.88
452.869	74.88
453.089	81.88
453.31	74.88
453.53	85.88
453.751	73.88
453.971	78.88
454.192	91.88
454.412	81.88
454.633	86.88
454.853	84.88
455.073	96.88
455.294	85.88
455.514	74.88
455.734	75.88
455.955	66.88
456.175	84.88
456.395	86.88
456.616	107.88
456.836	80.88
457.056	74.88
457.276	87.88
457.497	79.88
457.717	77.88
457.937	86.88
458.157	83.88
458.377	91.88
458.598	78.88
458.818	86.88
459.038	88.88
459.258	85.88
459.478	94.88
459.698	88.88
459.918	80.88
460.138	85.88
460.358	89.88
460.578	89.88
460.798	87.88
461.018	86.88
461.238	79.88
461.458	76.88
461.678	76.88
461.898	84.88
462.118	82.88
462.338	95.88
462.558	80.88
462.777	77.88
462.997	70.88
463.217	78.88
463.437	80.88
463.657	85.88
463.876	89.88
464.096	82.88
464.316	86.88
464.536	77.88
464.755	81.88
464.975	84.88
465.195	80.88
465.414	70.88
465.634	73.88
465.854	89.88
466.073	80.88
466.293	83.88
466.512	80.88
466.732	82.88
466.951	71.88
467.171	83.88
467.391	89.88
467.61	85.88
467.829	84.88
468.049	78.88
468.268	86.88
468.488	78.88
468.707	80.88
468.927	80.88
469.146	94.88
469.365	77.88
469.585	90.88
469.804	74.88
470.023	79.88
470.243	86.88
470.462	88.88
470.681	92.88
470.901	90.88
471.12	77.88
471.339	76.88
471.558	86.88
471.777	94.88
471.997	78.88
472.216	76.88
472.435	81.88
472.654	90.88
472.873	90.88
473.092	84.88
473.311	77.88
473.53	85.88
473.749	80.88
473.968	97.88
474.187	91.88
474.406	94.88
474.625	92.88
474.844	75.88
475.063	68.88
475.282	79.88
475.501	80.88
475.72	89.88
475.939	84.88
476.158	79.88
476.377	80.88
476.596	84.88
476.814	83.88
477.033	102.88
477.252	78.88
477.471	87.88
477.69	81.88
477.908	80.88
478.127	80.88
478.346	96.88
478.564	79.88
478.783	82.88
479.002	97.88
479.22	75.88
479.439	84.88
479.658	79.88
479.876	81.88
480.095	84.88
480.313	87.88
480.532	90.88
480.751	89.88
480.969	86.88
481.188	82.88
481.406	79.88
481.624	88.88
481.843	93.88
482.061	76.88
482.28	74.88
482.498	78.88
482.717	81.88
482.935	69.88
483.153	90.88
483.372	89.88
483.59	77.88
483.808	80.88
484.027	97.88
484.245	102.88
484.463	76.88
484.681	80.88
484.9	89.88
485.118	77.88
485.336	88.88
485.554	79.88
485.772	80.88
485.99	84.88
486.209	81.88
486.427	81.88
486.645	94.88
486.863	89.88
487.081	77.88
487.299	74.88
487.517	87.88
487.735	92.88
487.953	98.88
488.171	95.88
488.389	74.88
488.607	94.88
488.825	85.88
489.043	62.88
489.261	78.88
489.479	81.88
489.696	78.88
489.914	89.88
490.132	79.88
490.35	106.88
490.568	94.88
490.786	96.88
491.003	92.88
491.221	101.88
491.439	77.88
491.657	76.88
491.874	85.88
492.092	89.88
492.31	94.88
492.527	101.88
492.745	98.88
492.963	81.88
493.18	78.88
493.398	77.88
493.615	70.88
493.833	92.88
494.05	84.88
494.268	95.88
494.485	95.88
494.703	72.88
494.92	87.88
495.138	77.88
495.355	102.88
495.573	90.88
495.79	81.88
496.008	90.88
496.225	92.88
496.442	82.88
496.66	81.88
496.877	86.88
497.094	92.88
497.312	89.88
497.529	89.88
497.746	105.88
497.963	88.88
498.181	89.88
498.398	85.88
498.615	87.88
498.832	96.88
499.049	96.88
499.267	96.88
499.484	92.88
499.701	104.88
499.918	106.88
500.135	118.88
500.352	98.88
500.569	107.88
500.786	110.88
501.003	102.88
501.22	101.88
501.437	94.88
501.654	96.88
501.871	94.88
502.088	86.88
502.305	92.88
502.522	85.88
502.739	88.88
502.956	73.88
503.172	80.88
503.389	85.88
503.606	87.88
503.823	97.88
504.04	70.88
504.256	92.88
504.473	100.88
504.69	86.88
504.907	82.88
505.123	70.88
505.34	74.88
505.557	80.88
505.773	96.88
505.99	73.88
506.207	86.88
506.423	90.88
506.64	72.88
506.856	88.88
507.073	74.88
507.289	77.88
507.506	87.88
507.722	89.88
507.939	86.88
508.155	81.88
508.372	73.88
508.588	81.88
508.805	93.88
509.021	89.88
509.238	78.88
509.454	71.88
509.67	84.88
509.887	76.88
510.103	89.88
510.319	78.88
510.536	86.88
510.752	96.88
510.968	88.88
511.184	97.88
511.401	64.88
511.617	96.88
511.833	91.88
512.049	85.88
512.265	85.88
512.481	77.88
512.698	80.88
512.914	92.88
513.13	90.88
513.346	96.88
513.562	87.88
513.778	95.88
513.994	96.88
514.21	89.88
514.426	70.88
514.642	96.88
514.858	83.88
515.074	79.88
515.29	85.88
515.506	66.88
515.721	72.88
515.937	62.88
516.153	74.88
516.369	83.88
516.585	92.88
516.801	81.88
517.016	90.88
517.232	95.88
517.448	106.88
517.664	93.88
517.879	73.88
518.095	85.88
518.311	86.88
518.527	97.88
518.742	100.88
518.958	85.88
519.173	89.88
519.389	89.88
519.605	87.88
519.82	80.88
