Data from BG_HRD10591_038.txt Node
Date: Fri May 16 15:33:26 EDT 2025
User: Yrep
Spectrometer: HR+D1059
Trigger mode: 1
Integration Time (sec): 1.000000E-1
Scans to average: 1
Electric dark correction enabled: true
Nonlinearity correction enabled: false
Boxcar width: 0
XAxis mode: Wavelengths
Number of Pixels in Spectrum: 2048
>>>>>Begin Spectral Data<<<<<
223.165	-32.31
223.4	-32.31
223.635	-32.31
223.869	-23.31
224.104	-15.31
224.338	-11.31
224.573	-18.31
224.808	-18.31
225.042	-9.31
225.277	-9.31
225.511	-2.31
225.746	0.69
225.98	14.69
226.215	29.69
226.449	9.69
226.683	39.69
226.918	23.69
227.152	21.69
227.387	40.69
227.621	33.69
227.856	45.69
228.09	55.69
228.324	45.69
228.559	60.69
228.793	54.69
229.027	66.69
229.262	57.69
229.496	76.69
229.73	63.69
229.964	65.69
230.199	73.69
230.433	62.69
230.667	81.69
230.901	85.69
231.136	68.69
231.37	91.69
231.604	78.69
231.838	79.69
232.072	81.69
232.306	94.69
232.541	80.69
232.775	80.69
233.009	80.69
233.243	84.69
233.477	70.69
233.711	87.69
233.945	78.69
234.179	78.69
234.413	89.69
234.647	73.69
234.881	79.69
235.115	75.69
235.349	71.69
235.583	68.69
235.817	80.69
236.051	82.69
236.285	73.69
236.519	77.69
236.753	89.69
236.987	73.69
237.221	85.69
237.455	81.69
237.689	60.69
237.922	79.69
238.156	72.69
238.39	77.69
238.624	85.69
238.858	87.69
239.091	83.69
239.325	78.69
239.559	89.69
239.793	67.69
240.027	76.69
240.26	77.69
240.494	67.69
240.728	83.69
240.961	85.69
241.195	69.69
241.429	75.69
241.662	70.69
241.896	57.69
242.13	75.69
242.363	85.69
242.597	93.69
242.83	70.69
243.064	73.69
243.298	79.69
243.531	78.69
243.765	80.69
243.998	78.69
244.232	65.69
244.465	77.69
244.699	77.69
244.932	82.69
245.166	68.69
245.399	77.69
245.633	68.69
245.866	79.69
246.099	73.69
246.333	73.69
246.566	79.69
246.8	81.69
247.033	87.69
247.266	79.69
247.5	87.69
247.733	74.69
247.966	81.69
248.2	67.69
248.433	78.69
248.666	65.69
248.899	78.69
249.133	79.69
249.366	76.69
249.599	89.69
249.832	73.69
250.066	81.69
250.299	61.69
250.532	75.69
250.765	93.69
250.998	82.69
251.231	92.69
251.465	78.69
251.698	79.69
251.931	66.69
252.164	92.69
252.397	71.69
252.63	82.69
252.863	79.69
253.096	81.69
253.329	77.69
253.562	82.69
253.795	80.69
254.028	84.69
254.261	89.69
254.494	78.69
254.727	75.69
254.96	82.69
255.193	80.69
255.426	68.69
255.659	75.69
255.892	89.69
256.124	73.69
256.357	71.69
256.59	67.69
256.823	74.69
257.056	79.69
257.289	79.69
257.521	85.69
257.754	71.69
257.987	82.69
258.22	79.69
258.452	89.69
258.685	73.69
258.918	67.69
259.151	79.69
259.383	80.69
259.616	85.69
259.849	85.69
260.081	77.69
260.314	89.69
260.547	67.69
260.779	89.69
261.012	67.69
261.244	63.69
261.477	86.69
261.71	78.69
261.942	73.69
262.175	83.69
262.407	87.69
262.64	75.69
262.872	70.69
263.105	86.69
263.337	78.69
263.57	79.69
263.802	88.69
264.035	87.69
264.267	81.69
264.499	82.69
264.732	81.69
264.964	96.69
265.197	79.69
265.429	94.69
265.661	66.69
265.894	77.69
266.126	85.69
266.358	81.69
266.591	83.69
266.823	75.69
267.055	84.69
267.287	72.69
267.52	76.69
267.752	88.69
267.984	85.69
268.216	87.69
268.448	71.69
268.681	79.69
268.913	87.69
269.145	82.69
269.377	74.69
269.609	81.69
269.841	87.69
270.073	85.69
270.306	79.69
270.538	76.69
270.77	89.69
271.002	67.69
271.234	83.69
271.466	72.69
271.698	71.69
271.93	78.69
272.162	84.69
272.394	96.69
272.626	98.69
272.858	94.69
273.09	90.69
273.322	78.69
273.553	79.69
273.785	79.69
274.017	83.69
274.249	80.69
274.481	87.69
274.713	90.69
274.945	83.69
275.176	80.69
275.408	83.69
275.64	75.69
275.872	77.69
276.104	89.69
276.335	87.69
276.567	75.69
276.799	77.69
277.031	65.69
277.262	90.69
277.494	93.69
277.726	97.69
277.957	100.69
278.189	85.69
278.421	90.69
278.652	81.69
278.884	88.69
279.115	81.69
279.347	81.69
279.579	77.69
279.81	74.69
280.042	99.69
280.273	85.69
280.505	83.69
280.736	78.69
280.968	71.69
281.199	90.69
281.431	92.69
281.662	81.69
281.894	87.69
282.125	76.69
282.356	82.69
282.588	81.69
282.819	90.69
283.051	81.69
283.282	88.69
283.513	90.69
283.745	88.69
283.976	86.69
284.207	99.69
284.439	78.69
284.67	86.69
284.901	91.69
285.132	85.69
285.364	96.69
285.595	74.69
285.826	77.69
286.057	96.69
286.288	88.69
286.52	96.69
286.751	83.69
286.982	84.69
287.213	81.69
287.444	78.69
287.675	94.69
287.906	81.69
288.138	89.69
288.369	89.69
288.6	79.69
288.831	90.69
289.062	88.69
289.293	81.69
289.524	83.69
289.755	80.69
289.986	80.69
290.217	83.69
290.448	87.69
290.679	93.69
290.91	82.69
291.141	88.69
291.371	82.69
291.602	90.69
291.833	79.69
292.064	82.69
292.295	81.69
292.526	71.69
292.757	79.69
292.987	95.69
293.218	81.69
293.449	86.69
293.68	53.69
293.91	72.69
294.141	88.69
294.372	80.69
294.603	83.69
294.833	90.69
295.064	76.69
295.295	76.69
295.525	82.69
295.756	82.69
295.987	103.69
296.217	83.69
296.448	73.69
296.679	92.69
296.909	96.69
297.14	95.69
297.37	90.69
297.601	78.69
297.831	64.69
298.062	77.69
298.292	67.69
298.523	87.69
298.753	85.69
298.984	79.69
299.214	92.69
299.445	80.69
299.675	72.69
299.905	83.69
300.136	85.69
300.366	77.69
300.597	81.69
300.827	91.69
301.057	73.69
301.288	88.69
301.518	86.69
301.748	82.69
301.979	93.69
302.209	72.69
302.439	80.69
302.669	95.69
302.9	87.69
303.13	91.69
303.36	79.69
303.59	98.69
303.82	85.69
304.051	93.69
304.281	81.69
304.511	80.69
304.741	93.69
304.971	101.69
305.201	93.69
305.431	98.69
305.661	94.69
305.891	88.69
306.121	81.69
306.352	88.69
306.582	69.69
306.812	94.69
307.042	87.69
307.272	91.69
307.502	78.69
307.731	85.69
307.961	85.69
308.191	75.69
308.421	90.69
308.651	87.69
308.881	88.69
309.111	79.69
309.341	78.69
309.571	87.69
309.8	75.69
310.03	90.69
310.26	75.69
310.49	81.69
310.72	95.69
310.949	85.69
311.179	85.69
311.409	79.69
311.639	75.69
311.868	96.69
312.098	93.69
312.328	90.69
312.557	88.69
312.787	85.69
313.017	102.69
313.246	90.69
313.476	99.69
313.706	89.69
313.935	85.69
314.165	90.69
314.394	92.69
314.624	75.69
314.853	76.69
315.083	91.69
315.312	89.69
315.542	85.69
315.771	91.69
316.001	79.69
316.23	85.69
316.46	85.69
316.689	94.69
316.919	94.69
317.148	99.69
317.377	81.69
317.607	91.69
317.836	92.69
318.065	93.69
318.295	87.69
318.524	91.69
318.753	92.69
318.983	86.69
319.212	88.69
319.441	82.69
319.67	81.69
319.9	95.69
320.129	91.69
320.358	90.69
320.587	81.69
320.816	85.69
321.046	89.69
321.275	95.69
321.504	83.69
321.733	90.69
321.962	86.69
322.191	85.69
322.42	94.69
322.649	77.69
322.878	93.69
323.108	85.69
323.337	90.69
323.566	76.69
323.795	92.69
324.024	92.69
324.253	91.69
324.482	92.69
324.71	62.69
324.939	95.69
325.168	98.69
325.397	87.69
325.626	88.69
325.855	83.69
326.084	90.69
326.313	80.69
326.542	89.69
326.77	85.69
326.999	70.69
327.228	92.69
327.457	95.69
327.686	86.69
327.914	87.69
328.143	89.69
328.372	74.69
328.6	96.69
328.829	91.69
329.058	83.69
329.287	95.69
329.515	98.69
329.744	91.69
329.972	84.69
330.201	86.69
330.43	76.69
330.658	89.69
330.887	86.69
331.115	80.69
331.344	86.69
331.572	97.69
331.801	83.69
332.03	99.69
332.258	91.69
332.486	82.69
332.715	86.69
332.943	95.69
333.172	91.69
333.4	76.69
333.629	90.69
333.857	81.69
334.085	90.69
334.314	101.69
334.542	98.69
334.771	86.69
334.999	88.69
335.227	90.69
335.455	102.69
335.684	79.69
335.912	79.69
336.14	81.69
336.369	99.69
336.597	81.69
336.825	88.69
337.053	81.69
337.281	93.69
337.51	84.69
337.738	110.69
337.966	92.69
338.194	103.69
338.422	103.69
338.65	78.69
338.878	71.69
339.106	98.69
339.334	94.69
339.562	92.69
339.79	82.69
340.018	94.69
340.246	83.69
340.474	75.69
340.702	54.69
340.93	85.69
341.158	74.69
341.386	89.69
341.614	92.69
341.842	82.69
342.07	89.69
342.298	85.69
342.526	98.69
342.754	82.69
342.981	93.69
343.209	87.69
343.437	92.69
343.665	107.69
343.893	89.69
344.12	84.69
344.348	85.69
344.576	81.69
344.804	79.69
345.031	83.69
345.259	92.69
345.487	108.69
345.714	86.69
345.942	79.69
346.17	85.69
346.397	94.69
346.625	72.69
346.853	63.69
347.08	81.69
347.308	102.69
347.535	85.69
347.763	79.69
347.99	94.69
348.218	93.69
348.445	85.69
348.673	77.69
348.9	83.69
349.128	79.69
349.355	94.69
349.583	80.69
349.81	87.69
350.037	102.69
350.265	106.69
350.492	90.69
350.72	88.69
350.947	87.69
351.174	88.69
351.402	83.69
351.629	104.69
351.856	87.69
352.083	88.69
352.311	97.69
352.538	74.69
352.765	85.69
352.992	87.69
353.22	68.69
353.447	103.69
353.674	64.69
353.901	86.69
354.128	93.69
354.355	93.69
354.583	79.69
354.81	78.69
355.037	97.69
355.264	87.69
355.491	99.69
355.718	91.69
355.945	81.69
356.172	94.69
356.399	92.69
356.626	81.69
356.853	88.69
357.08	88.69
357.307	79.69
357.534	86.69
357.761	86.69
357.988	83.69
358.215	83.69
358.441	75.69
358.668	91.69
358.895	90.69
359.122	102.69
359.349	83.69
359.576	86.69
359.802	77.69
360.029	75.69
360.256	91.69
360.483	80.69
360.709	90.69
360.936	96.69
361.163	85.69
361.39	91.69
361.616	79.69
361.843	83.69
362.07	88.69
362.296	106.69
362.523	87.69
362.749	77.69
362.976	93.69
363.203	75.69
363.429	85.69
363.656	86.69
363.882	93.69
364.109	80.69
364.335	77.69
364.562	87.69
364.788	85.69
365.015	89.69
365.241	89.69
365.468	98.69
365.694	87.69
365.92	91.69
366.147	93.69
366.373	75.69
366.599	86.69
366.826	77.69
367.052	79.69
367.278	76.69
367.505	81.69
367.731	99.69
367.957	84.69
368.184	96.69
368.41	83.69
368.636	82.69
368.862	73.69
369.089	83.69
369.315	86.69
369.541	90.69
369.767	93.69
369.993	91.69
370.219	87.69
370.445	88.69
370.672	91.69
370.898	86.69
371.124	78.69
371.35	96.69
371.576	90.69
371.802	93.69
372.028	95.69
372.254	82.69
372.48	89.69
372.706	78.69
372.932	84.69
373.158	88.69
373.384	92.69
373.61	79.69
373.835	103.69
374.061	74.69
374.287	86.69
374.513	81.69
374.739	87.69
374.965	87.69
375.191	74.69
375.416	81.69
375.642	78.69
375.868	76.69
376.094	74.69
376.319	78.69
376.545	91.69
376.771	87.69
376.997	76.69
377.222	87.69
377.448	80.69
377.674	89.69
377.899	95.69
378.125	85.69
378.35	83.69
378.576	93.69
378.802	76.69
379.027	97.69
379.253	90.69
379.478	74.69
379.704	87.69
379.929	89.69
380.155	84.69
380.38	78.69
380.606	85.69
380.831	87.69
381.057	85.69
381.282	83.69
381.507	91.69
381.733	83.69
381.958	81.69
382.184	87.69
382.409	95.69
382.634	92.69
382.86	88.69
383.085	95.69
383.31	87.69
383.535	69.69
383.761	76.69
383.986	90.69
384.211	76.69
384.436	81.69
384.662	88.69
384.887	81.69
385.112	81.69
385.337	80.69
385.562	79.69
385.787	95.69
386.013	78.69
386.238	85.69
386.463	74.69
386.688	105.69
386.913	80.69
387.138	78.69
387.363	86.69
387.588	78.69
387.813	87.69
388.038	95.69
388.263	84.69
388.488	87.69
388.713	86.69
388.938	97.69
389.163	91.69
389.387	89.69
389.612	82.69
389.837	102.69
390.062	86.69
390.287	74.69
390.512	82.69
390.736	87.69
390.961	87.69
391.186	82.69
391.411	78.69
391.636	93.69
391.86	96.69
392.085	94.69
392.31	96.69
392.534	79.69
392.759	93.69
392.984	87.69
393.208	95.69
393.433	86.69
393.658	86.69
393.882	87.69
394.107	101.69
394.331	90.69
394.556	91.69
394.78	90.69
395.005	82.69
395.229	77.69
395.454	104.69
395.678	87.69
395.903	81.69
396.127	79.69
396.352	87.69
396.576	89.69
396.801	86.69
397.025	72.69
397.249	83.69
397.474	96.69
397.698	88.69
397.922	94.69
398.147	80.69
398.371	76.69
398.595	89.69
398.82	107.69
399.044	99.69
399.268	78.69
399.492	99.69
399.717	86.69
399.941	106.69
400.165	85.69
400.389	82.69
400.613	77.69
400.837	87.69
401.062	99.69
401.286	90.69
401.51	93.69
401.734	83.69
401.958	93.69
402.182	81.69
402.406	95.69
402.63	86.69
402.854	86.69
403.078	86.69
403.302	99.69
403.526	86.69
403.75	85.69
403.974	87.69
404.198	88.69
404.422	94.69
404.645	86.69
404.869	101.69
405.093	89.69
405.317	95.69
405.541	93.69
405.765	89.69
405.988	89.69
406.212	78.69
406.436	91.69
406.66	102.69
406.883	93.69
407.107	76.69
407.331	91.69
407.555	98.69
407.778	93.69
408.002	77.69
408.226	88.69
408.449	89.69
408.673	89.69
408.896	84.69
409.12	75.69
409.344	96.69
409.567	81.69
409.791	92.69
410.014	73.69
410.238	98.69
410.461	88.69
410.685	89.69
410.908	73.69
411.132	80.69
411.355	69.69
411.578	87.69
411.802	85.69
412.025	84.69
412.249	85.69
412.472	90.69
412.695	94.69
412.919	88.69
413.142	83.69
413.365	87.69
413.589	89.69
413.812	92.69
414.035	105.69
414.258	74.69
414.482	93.69
414.705	83.69
414.928	102.69
415.151	88.69
415.374	94.69
415.597	93.69
415.821	85.69
416.044	92.69
416.267	87.69
416.49	84.69
416.713	90.69
416.936	94.69
417.159	90.69
417.382	90.69
417.605	87.69
417.828	89.69
418.051	77.69
418.274	87.69
418.497	80.69
418.72	86.69
418.943	96.69
419.166	87.69
419.389	85.69
419.611	87.69
419.834	85.69
420.057	79.69
420.28	90.69
420.503	104.69
420.726	95.69
420.948	85.69
421.171	70.69
421.394	90.69
421.617	78.69
421.839	86.69
422.062	96.69
422.285	76.69
422.507	77.69
422.73	82.69
422.953	72.69
423.175	76.69
423.398	80.69
423.621	88.69
423.843	94.69
424.066	96.69
424.288	96.69
424.511	90.69
424.733	83.69
424.956	82.69
425.178	89.69
425.401	87.69
425.623	94.69
425.846	84.69
426.068	87.69
426.291	73.69
426.513	73.69
426.735	89.69
426.958	87.69
427.18	94.69
427.402	88.69
427.625	77.69
427.847	80.69
428.069	102.69
428.292	75.69
428.514	95.69
428.736	76.69
428.958	85.69
429.181	100.69
429.403	82.69
429.625	99.69
429.847	93.69
430.069	90.69
430.292	81.69
430.514	85.69
430.736	90.69
430.958	89.69
431.18	90.69
431.402	93.69
431.624	80.69
431.846	74.69
432.068	109.69
432.29	85.69
432.512	94.69
432.734	81.69
432.956	88.69
433.178	95.69
433.4	83.69
433.622	73.69
433.844	86.69
434.066	91.69
434.287	77.69
434.509	89.69
434.731	77.69
434.953	92.69
435.175	89.69
435.397	72.69
435.618	73.69
435.84	95.69
436.062	91.69
436.284	69.69
436.505	89.69
436.727	71.69
436.949	81.69
437.17	65.69
437.392	93.69
437.614	76.69
437.835	75.69
438.057	87.69
438.278	75.69
438.5	77.69
438.721	94.69
438.943	84.69
439.165	80.69
439.386	80.69
439.608	80.69
439.829	92.69
440.05	76.69
440.272	86.69
440.493	73.69
440.715	89.69
440.936	95.69
441.158	85.69
441.379	75.69
441.6	73.69
441.822	76.69
442.043	81.69
442.264	65.69
442.486	83.69
442.707	92.69
442.928	79.69
443.149	88.69
443.371	92.69
443.592	78.69
443.813	77.69
444.034	100.69
444.255	84.69
444.476	91.69
444.698	92.69
444.919	77.69
445.14	142.69
445.361	114.69
445.582	74.69
445.803	85.69
446.024	91.69
446.245	85.69
446.466	78.69
446.687	73.69
446.908	90.69
447.129	91.69
447.35	81.69
447.571	80.69
447.792	95.69
448.013	89.69
448.234	96.69
448.455	64.69
448.675	82.69
448.896	79.69
449.117	95.69
449.338	85.69
449.559	88.69
449.779	94.69
450	85.69
450.221	76.69
450.442	78.69
450.662	93.69
450.883	90.69
451.104	99.69
451.324	88.69
451.545	81.69
451.766	82.69
451.986	79.69
452.207	89.69
452.428	89.69
452.648	89.69
452.869	85.69
453.089	86.69
453.31	91.69
453.53	95.69
453.751	93.69
453.971	92.69
454.192	97.69
454.412	79.69
454.633	85.69
454.853	88.69
455.073	106.69
455.294	73.69
455.514	85.69
455.734	78.69
455.955	87.69
456.175	66.69
456.395	94.69
456.616	98.69
456.836	83.69
457.056	82.69
457.276	83.69
457.497	84.69
457.717	85.69
457.937	83.69
458.157	82.69
458.377	82.69
458.598	80.69
458.818	88.69
459.038	93.69
459.258	84.69
459.478	91.69
459.698	72.69
459.918	93.69
460.138	84.69
460.358	89.69
460.578	97.69
460.798	86.69
461.018	89.69
461.238	91.69
461.458	94.69
461.678	74.69
461.898	88.69
462.118	91.69
462.338	91.69
462.558	96.69
462.777	74.69
462.997	82.69
463.217	86.69
463.437	82.69
463.657	77.69
463.876	85.69
464.096	78.69
464.316	77.69
464.536	79.69
464.755	81.69
464.975	73.69
465.195	99.69
465.414	94.69
465.634	98.69
465.854	101.69
466.073	101.69
466.293	79.69
466.512	82.69
466.732	76.69
466.951	81.69
467.171	75.69
467.391	78.69
467.61	92.69
467.829	93.69
468.049	93.69
468.268	90.69
468.488	77.69
468.707	81.69
468.927	79.69
469.146	104.69
469.365	85.69
469.585	88.69
469.804	83.69
470.023	89.69
470.243	95.69
470.462	96.69
470.681	79.69
470.901	77.69
471.12	77.69
471.339	81.69
471.558	98.69
471.777	76.69
471.997	87.69
472.216	80.69
472.435	91.69
472.654	88.69
472.873	86.69
473.092	76.69
473.311	82.69
473.53	87.69
473.749	88.69
473.968	95.69
474.187	82.69
474.406	92.69
474.625	92.69
474.844	90.69
475.063	70.69
475.282	99.69
475.501	86.69
475.72	82.69
475.939	81.69
476.158	70.69
476.377	82.69
476.596	73.69
476.814	91.69
477.033	79.69
477.252	86.69
477.471	94.69
477.69	90.69
477.908	73.69
478.127	93.69
478.346	90.69
478.564	87.69
478.783	84.69
479.002	89.69
479.22	96.69
479.439	82.69
479.658	96.69
479.876	95.69
480.095	93.69
480.313	88.69
480.532	102.69
480.751	82.69
480.969	77.69
481.188	83.69
481.406	96.69
481.624	102.69
481.843	95.69
482.061	85.69
482.28	83.69
482.498	86.69
482.717	77.69
482.935	93.69
483.153	90.69
483.372	97.69
483.59	94.69
483.808	87.69
484.027	90.69
484.245	89.69
484.463	80.69
484.681	90.69
484.9	107.69
485.118	87.69
485.336	95.69
485.554	85.69
485.772	76.69
485.99	82.69
486.209	92.69
486.427	77.69
486.645	77.69
486.863	89.69
487.081	82.69
487.299	88.69
487.517	92.69
487.735	96.69
487.953	105.69
488.171	89.69
488.389	89.69
488.607	81.69
488.825	80.69
489.043	84.69
489.261	91.69
489.479	81.69
489.696	89.69
489.914	73.69
490.132	92.69
490.35	94.69
490.568	89.69
490.786	94.69
491.003	88.69
491.221	91.69
491.439	79.69
491.657	107.69
491.874	91.69
492.092	102.69
492.31	85.69
492.527	78.69
492.745	88.69
492.963	89.69
493.18	76.69
493.398	97.69
493.615	87.69
493.833	79.69
494.05	89.69
494.268	88.69
494.485	84.69
494.703	78.69
494.92	83.69
495.138	81.69
495.355	74.69
495.573	83.69
495.79	91.69
496.008	91.69
496.225	84.69
496.442	74.69
496.66	77.69
496.877	92.69
497.094	89.69
497.312	80.69
497.529	91.69
497.746	71.69
497.963	77.69
498.181	88.69
498.398	75.69
498.615	80.69
498.832	91.69
499.049	95.69
499.267	85.69
499.484	101.69
499.701	112.69
499.918	109.69
500.135	102.69
500.352	109.69
500.569	109.69
500.786	109.69
501.003	109.69
501.22	114.69
501.437	86.69
501.654	98.69
501.871	101.69
502.088	86.69
502.305	101.69
502.522	96.69
502.739	96.69
502.956	83.69
503.172	91.69
503.389	89.69
503.606	90.69
503.823	103.69
504.04	104.69
504.256	105.69
504.473	90.69
504.69	78.69
504.907	94.69
505.123	102.69
505.34	84.69
505.557	72.69
505.773	89.69
505.99	90.69
506.207	81.69
506.423	75.69
506.64	79.69
506.856	89.69
507.073	87.69
507.289	87.69
507.506	92.69
507.722	66.69
507.939	94.69
508.155	72.69
508.372	94.69
508.588	92.69
508.805	82.69
509.021	105.69
509.238	105.69
509.454	97.69
509.67	77.69
509.887	82.69
510.103	93.69
510.319	85.69
510.536	101.69
510.752	83.69
510.968	93.69
511.184	83.69
511.401	83.69
511.617	86.69
511.833	91.69
512.049	95.69
512.265	89.69
512.481	85.69
512.698	88.69
512.914	78.69
513.13	88.69
513.346	85.69
513.562	83.69
513.778	89.69
513.994	88.69
514.21	93.69
514.426	97.69
514.642	89.69
514.858	82.69
515.074	78.69
515.29	91.69
515.506	69.69
515.721	90.69
515.937	92.69
516.153	79.69
516.369	80.69
516.585	93.69
516.801	101.69
517.016	105.69
517.232	87.69
517.448	93.69
517.664	93.69
517.879	88.69
518.095	77.69
518.311	77.69
518.527	105.69
518.742	100.69
518.958	96.69
519.173	85.69
519.389	76.69
