Data from BG_HRD10591_082.txt Node
Date: Fri May 16 15:33:48 EDT 2025
User: Yrep
Spectrometer: HR+D1059
Trigger mode: 1
Integration Time (sec): 1.000000E-1
Scans to average: 1
Electric dark correction enabled: true
Nonlinearity correction enabled: false
Boxcar width: 0
XAxis mode: Wavelengths
Number of Pixels in Spectrum: 2048
>>>>>Begin Spectral Data<<<<<
223.165	-19.19
223.4	-19.19
223.635	-19.19
223.869	-23.19
224.104	-28.19
224.338	-8.19
224.573	-13.19
224.808	-13.19
225.042	-13.19
225.277	-13.19
225.511	-5.19
225.746	4.81
225.98	11.81
226.215	19.81
226.449	14.81
226.683	25.81
226.918	23.81
227.152	35.81
227.387	33.81
227.621	49.81
227.856	40.81
228.09	50.81
228.324	50.81
228.559	66.81
228.793	64.81
229.027	76.81
229.262	82.81
229.496	65.81
229.73	62.81
229.964	73.81
230.199	87.81
230.433	81.81
230.667	87.81
230.901	74.81
231.136	78.81
231.37	80.81
231.604	87.81
231.838	74.81
232.072	72.81
232.306	80.81
232.541	87.81
232.775	72.81
233.009	63.81
233.243	78.81
233.477	67.81
233.711	78.81
233.945	68.81
234.179	64.81
234.413	82.81
234.647	77.81
234.881	71.81
235.115	72.81
235.349	85.81
235.583	68.81
235.817	69.81
236.051	80.81
236.285	87.81
236.519	76.81
236.753	89.81
236.987	83.81
237.221	70.81
237.455	78.81
237.689	69.81
237.922	73.81
238.156	76.81
238.39	80.81
238.624	69.81
238.858	80.81
239.091	67.81
239.325	75.81
239.559	86.81
239.793	66.81
240.027	77.81
240.26	83.81
240.494	81.81
240.728	85.81
240.961	78.81
241.195	82.81
241.429	80.81
241.662	75.81
241.896	71.81
242.13	72.81
242.363	71.81
242.597	85.81
242.83	74.81
243.064	72.81
243.298	76.81
243.531	77.81
243.765	86.81
243.998	79.81
244.232	85.81
244.465	83.81
244.699	84.81
244.932	84.81
245.166	90.81
245.399	88.81
245.633	69.81
245.866	76.81
246.099	74.81
246.333	83.81
246.566	74.81
246.8	75.81
247.033	69.81
247.266	85.81
247.5	86.81
247.733	76.81
247.966	83.81
248.2	78.81
248.433	76.81
248.666	73.81
248.899	75.81
249.133	82.81
249.366	90.81
249.599	80.81
249.832	86.81
250.066	90.81
250.299	79.81
250.532	74.81
250.765	67.81
250.998	91.81
251.231	89.81
251.465	66.81
251.698	71.81
251.931	92.81
252.164	82.81
252.397	81.81
252.63	87.81
252.863	84.81
253.096	87.81
253.329	71.81
253.562	67.81
253.795	66.81
254.028	84.81
254.261	78.81
254.494	89.81
254.727	91.81
254.96	83.81
255.193	90.81
255.426	84.81
255.659	86.81
255.892	93.81
256.124	89.81
256.357	72.81
256.59	79.81
256.823	77.81
257.056	86.81
257.289	91.81
257.521	92.81
257.754	74.81
257.987	88.81
258.22	54.81
258.452	91.81
258.685	86.81
258.918	78.81
259.151	80.81
259.383	99.81
259.616	69.81
259.849	80.81
260.081	78.81
260.314	91.81
260.547	86.81
260.779	85.81
261.012	68.81
261.244	86.81
261.477	82.81
261.71	78.81
261.942	88.81
262.175	84.81
262.407	79.81
262.64	79.81
262.872	75.81
263.105	84.81
263.337	79.81
263.57	91.81
263.802	83.81
264.035	79.81
264.267	66.81
264.499	76.81
264.732	87.81
264.964	82.81
265.197	85.81
265.429	80.81
265.661	80.81
265.894	94.81
266.126	84.81
266.358	81.81
266.591	78.81
266.823	72.81
267.055	80.81
267.287	83.81
267.52	76.81
267.752	92.81
267.984	92.81
268.216	88.81
268.448	76.81
268.681	69.81
268.913	88.81
269.145	95.81
269.377	96.81
269.609	67.81
269.841	87.81
270.073	84.81
270.306	77.81
270.538	97.81
270.77	88.81
271.002	90.81
271.234	95.81
271.466	90.81
271.698	91.81
271.93	73.81
272.162	75.81
272.394	81.81
272.626	73.81
272.858	90.81
273.09	83.81
273.322	91.81
273.553	74.81
273.785	76.81
274.017	79.81
274.249	72.81
274.481	72.81
274.713	87.81
274.945	84.81
275.176	87.81
275.408	85.81
275.64	82.81
275.872	93.81
276.104	91.81
276.335	98.81
276.567	86.81
276.799	90.81
277.031	87.81
277.262	76.81
277.494	74.81
277.726	82.81
277.957	73.81
278.189	89.81
278.421	100.81
278.652	102.81
278.884	93.81
279.115	75.81
279.347	86.81
279.579	88.81
279.81	80.81
280.042	95.81
280.273	92.81
280.505	84.81
280.736	90.81
280.968	91.81
281.199	67.81
281.431	84.81
281.662	81.81
281.894	94.81
282.125	94.81
282.356	79.81
282.588	82.81
282.819	87.81
283.051	88.81
283.282	89.81
283.513	82.81
283.745	85.81
283.976	70.81
284.207	91.81
284.439	102.81
284.67	75.81
284.901	76.81
285.132	92.81
285.364	79.81
285.595	77.81
285.826	81.81
286.057	83.81
286.288	71.81
286.52	92.81
286.751	84.81
286.982	81.81
287.213	67.81
287.444	94.81
287.675	90.81
287.906	80.81
288.138	69.81
288.369	82.81
288.6	74.81
288.831	86.81
289.062	86.81
289.293	88.81
289.524	71.81
289.755	97.81
289.986	76.81
290.217	87.81
290.448	56.81
290.679	87.81
290.91	90.81
291.141	74.81
291.371	90.81
291.602	99.81
291.833	86.81
292.064	80.81
292.295	88.81
292.526	82.81
292.757	90.81
292.987	68.81
293.218	81.81
293.449	79.81
293.68	90.81
293.91	76.81
294.141	86.81
294.372	90.81
294.603	75.81
294.833	82.81
295.064	82.81
295.295	83.81
295.525	84.81
295.756	91.81
295.987	70.81
296.217	86.81
296.448	83.81
296.679	88.81
296.909	89.81
297.14	80.81
297.37	75.81
297.601	95.81
297.831	80.81
298.062	79.81
298.292	84.81
298.523	88.81
298.753	77.81
298.984	79.81
299.214	82.81
299.445	79.81
299.675	84.81
299.905	87.81
300.136	87.81
300.366	91.81
300.597	85.81
300.827	68.81
301.057	84.81
301.288	97.81
301.518	69.81
301.748	89.81
301.979	97.81
302.209	87.81
302.439	76.81
302.669	84.81
302.9	82.81
303.13	100.81
303.36	93.81
303.59	94.81
303.82	87.81
304.051	82.81
304.281	89.81
304.511	83.81
304.741	90.81
304.971	93.81
305.201	87.81
305.431	74.81
305.661	76.81
305.891	82.81
306.121	91.81
306.352	90.81
306.582	86.81
306.812	84.81
307.042	82.81
307.272	83.81
307.502	88.81
307.731	88.81
307.961	84.81
308.191	81.81
308.421	77.81
308.651	74.81
308.881	82.81
309.111	93.81
309.341	80.81
309.571	66.81
309.8	62.81
310.03	81.81
310.26	76.81
310.49	85.81
310.72	89.81
310.949	85.81
311.179	85.81
311.409	65.81
311.639	94.81
311.868	81.81
312.098	87.81
312.328	94.81
312.557	98.81
312.787	78.81
313.017	70.81
313.246	98.81
313.476	94.81
313.706	92.81
313.935	83.81
314.165	96.81
314.394	77.81
314.624	75.81
314.853	97.81
315.083	92.81
315.312	90.81
315.542	67.81
315.771	86.81
316.001	81.81
316.23	80.81
316.46	88.81
316.689	90.81
316.919	90.81
317.148	81.81
317.377	85.81
317.607	82.81
317.836	88.81
318.065	90.81
318.295	87.81
318.524	80.81
318.753	76.81
318.983	82.81
319.212	89.81
319.441	87.81
319.67	80.81
319.9	77.81
320.129	88.81
320.358	82.81
320.587	84.81
320.816	79.81
321.046	76.81
321.275	86.81
321.504	94.81
321.733	79.81
321.962	79.81
322.191	71.81
322.42	86.81
322.649	96.81
322.878	89.81
323.108	92.81
323.337	70.81
323.566	91.81
323.795	91.81
324.024	82.81
324.253	70.81
324.482	81.81
324.71	89.81
324.939	80.81
325.168	83.81
325.397	78.81
325.626	67.81
325.855	66.81
326.084	96.81
326.313	96.81
326.542	88.81
326.77	89.81
326.999	70.81
327.228	93.81
327.457	87.81
327.686	93.81
327.914	88.81
328.143	85.81
328.372	82.81
328.6	90.81
328.829	68.81
329.058	94.81
329.287	90.81
329.515	75.81
329.744	88.81
329.972	80.81
330.201	87.81
330.43	76.81
330.658	72.81
330.887	89.81
331.115	88.81
331.344	86.81
331.572	81.81
331.801	81.81
332.03	81.81
332.258	87.81
332.486	70.81
332.715	77.81
332.943	88.81
333.172	72.81
333.4	86.81
333.629	90.81
333.857	81.81
334.085	90.81
334.314	67.81
334.542	86.81
334.771	92.81
334.999	89.81
335.227	71.81
335.455	86.81
335.684	96.81
335.912	77.81
336.14	82.81
336.369	81.81
336.597	87.81
336.825	76.81
337.053	90.81
337.281	80.81
337.51	77.81
337.738	87.81
337.966	94.81
338.194	81.81
338.422	79.81
338.65	80.81
338.878	87.81
339.106	80.81
339.334	81.81
339.562	90.81
339.79	72.81
340.018	90.81
340.246	90.81
340.474	83.81
340.702	80.81
340.93	72.81
341.158	76.81
341.386	95.81
341.614	92.81
341.842	86.81
342.07	83.81
342.298	96.81
342.526	86.81
342.754	87.81
342.981	64.81
343.209	84.81
343.437	104.81
343.665	76.81
343.893	86.81
344.12	87.81
344.348	72.81
344.576	69.81
344.804	91.81
345.031	72.81
345.259	82.81
345.487	85.81
345.714	80.81
345.942	97.81
346.17	85.81
346.397	79.81
346.625	77.81
346.853	99.81
347.08	88.81
347.308	83.81
347.535	83.81
347.763	90.81
347.99	84.81
348.218	88.81
348.445	68.81
348.673	81.81
348.9	81.81
349.128	90.81
349.355	83.81
349.583	98.81
349.81	72.81
350.037	87.81
350.265	87.81
350.492	87.81
350.72	78.81
350.947	85.81
351.174	85.81
351.402	90.81
351.629	84.81
351.856	99.81
352.083	83.81
352.311	84.81
352.538	81.81
352.765	88.81
352.992	82.81
353.22	80.81
353.447	90.81
353.674	77.81
353.901	92.81
354.128	90.81
354.355	87.81
354.583	69.81
354.81	70.81
355.037	86.81
355.264	82.81
355.491	71.81
355.718	70.81
355.945	86.81
356.172	76.81
356.399	83.81
356.626	77.81
356.853	84.81
357.08	98.81
357.307	81.81
357.534	81.81
357.761	87.81
357.988	89.81
358.215	83.81
358.441	93.81
358.668	92.81
358.895	83.81
359.122	77.81
359.349	81.81
359.576	81.81
359.802	80.81
360.029	92.81
360.256	73.81
360.483	78.81
360.709	90.81
360.936	89.81
361.163	98.81
361.39	83.81
361.616	81.81
361.843	88.81
362.07	81.81
362.296	86.81
362.523	94.81
362.749	78.81
362.976	96.81
363.203	79.81
363.429	79.81
363.656	77.81
363.882	94.81
364.109	67.81
364.335	78.81
364.562	80.81
364.788	82.81
365.015	77.81
365.241	81.81
365.468	80.81
365.694	89.81
365.92	68.81
366.147	75.81
366.373	94.81
366.599	80.81
366.826	86.81
367.052	84.81
367.278	87.81
367.505	79.81
367.731	105.81
367.957	76.81
368.184	81.81
368.41	79.81
368.636	95.81
368.862	82.81
369.089	80.81
369.315	84.81
369.541	91.81
369.767	87.81
369.993	83.81
370.219	75.81
370.445	81.81
370.672	80.81
370.898	80.81
371.124	87.81
371.35	83.81
371.576	95.81
371.802	74.81
372.028	86.81
372.254	74.81
372.48	68.81
372.706	84.81
372.932	94.81
373.158	86.81
373.384	87.81
373.61	79.81
373.835	94.81
374.061	94.81
374.287	76.81
374.513	72.81
374.739	69.81
374.965	76.81
375.191	79.81
375.416	88.81
375.642	67.81
375.868	87.81
376.094	91.81
376.319	74.81
376.545	77.81
376.771	84.81
376.997	79.81
377.222	78.81
377.448	76.81
377.674	93.81
377.899	79.81
378.125	90.81
378.35	95.81
378.576	72.81
378.802	90.81
379.027	78.81
379.253	74.81
379.478	78.81
379.704	91.81
379.929	75.81
380.155	84.81
380.38	74.81
380.606	83.81
380.831	86.81
381.057	82.81
381.282	83.81
381.507	86.81
381.733	70.81
381.958	82.81
382.184	81.81
382.409	76.81
382.634	74.81
382.86	91.81
383.085	76.81
383.31	74.81
383.535	89.81
383.761	92.81
383.986	82.81
384.211	88.81
384.436	82.81
384.662	81.81
384.887	64.81
385.112	85.81
385.337	82.81
385.562	82.81
385.787	76.81
386.013	76.81
386.238	88.81
386.463	91.81
386.688	74.81
386.913	83.81
387.138	84.81
387.363	81.81
387.588	93.81
387.813	73.81
388.038	68.81
388.263	76.81
388.488	82.81
388.713	81.81
388.938	77.81
389.163	88.81
389.387	91.81
389.612	75.81
389.837	86.81
390.062	83.81
390.287	72.81
390.512	90.81
390.736	71.81
390.961	81.81
391.186	95.81
391.411	84.81
391.636	82.81
391.86	84.81
392.085	67.81
392.31	68.81
392.534	70.81
392.759	88.81
392.984	82.81
393.208	85.81
393.433	83.81
393.658	77.81
393.882	91.81
394.107	86.81
394.331	92.81
394.556	73.81
394.78	70.81
395.005	80.81
395.229	77.81
395.454	85.81
395.678	88.81
395.903	88.81
396.127	91.81
396.352	79.81
396.576	74.81
396.801	68.81
397.025	86.81
397.249	84.81
397.474	74.81
397.698	75.81
397.922	95.81
398.147	74.81
398.371	76.81
398.595	91.81
398.82	77.81
399.044	80.81
399.268	80.81
399.492	83.81
399.717	87.81
399.941	82.81
400.165	70.81
400.389	80.81
400.613	91.81
400.837	76.81
401.062	74.81
401.286	88.81
401.51	77.81
401.734	59.81
401.958	89.81
402.182	82.81
402.406	85.81
402.63	81.81
402.854	68.81
403.078	80.81
403.302	91.81
403.526	90.81
403.75	84.81
403.974	83.81
404.198	79.81
404.422	74.81
404.645	80.81
404.869	87.81
405.093	78.81
405.317	76.81
405.541	88.81
405.765	79.81
405.988	83.81
406.212	87.81
406.436	81.81
406.66	75.81
406.883	68.81
407.107	75.81
407.331	87.81
407.555	91.81
407.778	88.81
408.002	89.81
408.226	69.81
408.449	72.81
408.673	77.81
408.896	76.81
409.12	75.81
409.344	79.81
409.567	69.81
409.791	84.81
410.014	81.81
410.238	82.81
410.461	88.81
410.685	94.81
410.908	96.81
411.132	82.81
411.355	78.81
411.578	94.81
411.802	87.81
412.025	99.81
412.249	82.81
412.472	68.81
412.695	63.81
412.919	68.81
413.142	69.81
413.365	82.81
413.589	78.81
413.812	88.81
414.035	81.81
414.258	69.81
414.482	74.81
414.705	74.81
414.928	87.81
415.151	102.81
415.374	83.81
415.597	74.81
415.821	81.81
416.044	83.81
416.267	84.81
416.49	79.81
416.713	93.81
416.936	80.81
417.159	77.81
417.382	75.81
417.605	76.81
417.828	68.81
418.051	79.81
418.274	83.81
418.497	83.81
418.72	80.81
418.943	84.81
419.166	66.81
419.389	86.81
419.611	84.81
419.834	88.81
420.057	83.81
420.28	84.81
420.503	76.81
420.726	87.81
420.948	65.81
421.171	84.81
421.394	75.81
421.617	80.81
421.839	76.81
422.062	78.81
422.285	84.81
422.507	81.81
422.73	80.81
422.953	74.81
423.175	74.81
423.398	79.81
423.621	80.81
423.843	82.81
424.066	91.81
424.288	89.81
424.511	85.81
424.733	74.81
424.956	69.81
425.178	96.81
425.401	86.81
425.623	90.81
425.846	80.81
426.068	82.81
426.291	86.81
426.513	74.81
426.735	79.81
426.958	86.81
427.18	82.81
427.402	78.81
427.625	83.81
427.847	90.81
428.069	78.81
428.292	79.81
428.514	84.81
428.736	77.81
428.958	84.81
429.181	60.81
429.403	82.81
429.625	70.81
429.847	90.81
430.069	91.81
430.292	90.81
430.514	73.81
430.736	72.81
430.958	85.81
431.18	80.81
431.402	82.81
431.624	93.81
431.846	72.81
432.068	79.81
432.29	87.81
432.512	90.81
432.734	83.81
432.956	79.81
433.178	81.81
433.4	78.81
433.622	87.81
433.844	78.81
434.066	99.81
434.287	87.81
434.509	79.81
434.731	92.81
434.953	88.81
435.175	80.81
435.397	93.81
435.618	77.81
435.84	64.81
436.062	81.81
436.284	80.81
436.505	87.81
436.727	84.81
436.949	82.81
437.17	77.81
437.392	71.81
437.614	84.81
437.835	78.81
438.057	68.81
438.278	86.81
438.5	78.81
438.721	77.81
438.943	86.81
439.165	83.81
439.386	80.81
439.608	75.81
439.829	98.81
440.05	84.81
440.272	82.81
440.493	72.81
440.715	89.81
440.936	83.81
441.158	80.81
441.379	86.81
441.6	90.81
441.822	96.81
442.043	84.81
442.264	74.81
442.486	76.81
442.707	89.81
442.928	88.81
443.149	78.81
443.371	87.81
443.592	99.81
443.813	80.81
444.034	68.81
444.255	75.81
444.476	71.81
444.698	83.81
444.919	59.81
445.14	147.81
445.361	124.81
445.582	97.81
445.803	84.81
446.024	93.81
446.245	98.81
446.466	83.81
446.687	75.81
446.908	93.81
447.129	80.81
447.35	75.81
447.571	90.81
447.792	71.81
448.013	84.81
448.234	71.81
448.455	81.81
448.675	83.81
448.896	80.81
449.117	85.81
449.338	81.81
449.559	80.81
449.779	80.81
450	76.81
450.221	88.81
450.442	78.81
450.662	86.81
450.883	92.81
451.104	74.81
451.324	86.81
451.545	79.81
451.766	83.81
451.986	88.81
452.207	80.81
452.428	82.81
452.648	91.81
452.869	83.81
453.089	79.81
453.31	83.81
453.53	90.81
453.751	88.81
453.971	85.81
454.192	75.81
454.412	90.81
454.633	92.81
454.853	81.81
455.073	82.81
455.294	96.81
455.514	89.81
455.734	90.81
455.955	81.81
456.175	86.81
456.395	82.81
456.616	74.81
456.836	76.81
457.056	87.81
457.276	99.81
457.497	85.81
457.717	83.81
457.937	85.81
458.157	84.81
458.377	89.81
458.598	79.81
458.818	78.81
459.038	74.81
459.258	75.81
459.478	87.81
459.698	91.81
459.918	83.81
460.138	96.81
460.358	80.81
460.578	87.81
460.798	93.81
461.018	92.81
461.238	90.81
461.458	84.81
461.678	87.81
461.898	85.81
462.118	79.81
462.338	86.81
462.558	75.81
462.777	70.81
462.997	74.81
463.217	67.81
463.437	75.81
463.657	76.81
463.876	99.81
464.096	84.81
464.316	74.81
464.536	91.81
464.755	84.81
464.975	89.81
465.195	90.81
465.414	84.81
465.634	89.81
465.854	62.81
466.073	91.81
466.293	78.81
466.512	74.81
466.732	87.81
466.951	67.81
467.171	88.81
467.391	86.81
467.61	82.81
467.829	83.81
468.049	87.81
468.268	80.81
468.488	74.81
468.707	86.81
468.927	87.81
469.146	82.81
469.365	84.81
469.585	61.81
469.804	92.81
470.023	78.81
470.243	81.81
470.462	79.81
470.681	80.81
470.901	80.81
471.12	90.81
471.339	84.81
471.558	92.81
471.777	89.81
471.997	93.81
472.216	85.81
472.435	82.81
472.654	77.81
472.873	93.81
473.092	82.81
473.311	82.81
473.53	72.81
473.749	82.81
473.968	76.81
474.187	92.81
474.406	90.81
474.625	84.81
474.844	78.81
475.063	80.81
475.282	74.81
475.501	86.81
475.72	84.81
475.939	66.81
476.158	76.81
476.377	80.81
476.596	80.81
476.814	77.81
477.033	79.81
477.252	91.81
477.471	76.81
477.69	81.81
477.908	82.81
478.127	97.81
478.346	95.81
478.564	96.81
478.783	91.81
479.002	79.81
479.22	81.81
479.439	80.81
479.658	63.81
479.876	88.81
480.095	86.81
480.313	80.81
480.532	89.81
480.751	86.81
480.969	76.81
481.188	90.81
481.406	75.81
481.624	69.81
481.843	79.81
482.061	86.81
482.28	83.81
482.498	80.81
482.717	86.81
482.935	74.81
483.153	91.81
483.372	90.81
483.59	74.81
483.808	77.81
484.027	85.81
484.245	79.81
484.463	87.81
484.681	105.81
484.9	74.81
485.118	87.81
485.336	88.81
485.554	84.81
485.772	64.81
485.99	73.81
486.209	87.81
486.427	82.81
486.645	85.81
486.863	86.81
487.081	88.81
487.299	74.81
487.517	103.81
487.735	83.81
487.953	93.81
488.171	83.81
488.389	81.81
488.607	84.81
488.825	83.81
489.043	80.81
489.261	86.81
489.479	104.81
489.696	84.81
489.914	88.81
490.132	82.81
490.35	83.81
490.568	75.81
490.786	84.81
491.003	80.81
491.221	84.81
491.439	79.81
491.657	79.81
491.874	81.81
492.092	84.81
492.31	86.81
492.527	92.81
492.745	71.81
492.963	89.81
493.18	84.81
493.398	81.81
493.615	74.81
493.833	81.81
494.05	85.81
494.268	88.81
494.485	73.81
494.703	83.81
494.92	77.81
495.138	74.81
495.355	92.81
495.573	80.81
495.79	81.81
496.008	84.81
496.225	89.81
496.442	86.81
496.66	97.81
496.877	92.81
497.094	86.81
497.312	79.81
497.529	81.81
497.746	84.81
497.963	92.81
498.181	76.81
498.398	88.81
498.615	87.81
498.832	84.81
499.049	102.81
499.267	80.81
499.484	60.81
499.701	74.81
499.918	83.81
500.135	78.81
500.352	78.81
500.569	83.81
500.786	78.81
501.003	78.81
501.22	80.81
501.437	88.81
501.654	77.81
501.871	77.81
502.088	78.81
502.305	82.81
502.522	94.81
502.739	78.81
502.956	82.81
503.172	81.81
503.389	92.81
503.606	100.81
503.823	83.81
504.04	82.81
504.256	82.81
504.473	85.81
504.69	84.81
504.907	87.81
505.123	70.81
505.34	97.81
505.557	96.81
505.773	78.81
505.99	77.81
506.207	93.81
506.423	88.81
506.64	79.81
506.856	73.81
507.073	89.81
507.289	89.81
507.506	73.81
507.722	81.81
507.939	78.81
508.155	79.81
508.372	92.81
508.588	74.81
508.805	80.81
509.021	86.81
509.238	89.81
509.454	82.81
509.67	79.81
509.887	70.81
510.103	81.81
510.319	88.81
510.536	80.81
510.752	84.81
510.968	82.81
511.184	93.81
511.401	79.81
511.617	87.81
511.833	83.81
512.049	80.81
512.265	74.81
512.481	75.81
512.698	93.81
512.914	94.81
513.13	81.81
513.346	86.81
513.562	84.81
513.778	84.81
513.994	90.81
514.21	77.81
514.426	89.81
514.642	78.81
514.858	92.81
515.074	88.81
515.29	79.81
515.506	80.81
515.721	88.81
515.937	90.81
516.153	84.81
516.369	95.81
516.585	87.81
516.801	83.81
517.016	95.81
517.232	83.81
517.448	90.81
517.664	77.81
517.879	80.81
518.095	85.81
518.311	88.81
518.527	84.81
518.742	88.81
518.958	75.81
519.173	84.81
519.389	87.81
519.605	88.81
519.82	92.81
520.036	81.81
520.251	100.81
