Data from BG_HRD10591_006.txt Node
Date: Fri May 16 15:33:10 EDT 2025
User: Yrep
Spectrometer: HR+D1059
Trigger mode: 1
Integration Time (sec): 1.000000E-1
Scans to average: 1
Electric dark correction enabled: true
Nonlinearity correction enabled: false
Boxcar width: 0
XAxis mode: Wavelengths
Number of Pixels in Spectrum: 2048
>>>>>Begin Spectral Data<<<<<
223.165	-11.19
223.4	-11.19
223.635	-11.19
223.869	0.81
224.104	-23.19
224.338	-18.19
224.573	-19.19
224.808	-22.19
225.042	-14.19
225.277	-17.19
225.511	0.81
225.746	7.81
225.98	-5.19
226.215	18.81
226.449	17.81
226.683	14.81
226.918	29.81
227.152	39.81
227.387	37.81
227.621	37.81
227.856	42.81
228.09	46.81
228.324	46.81
228.559	56.81
228.793	51.81
229.027	54.81
229.262	53.81
229.496	58.81
229.73	61.81
229.964	69.81
230.199	63.81
230.433	93.81
230.667	72.81
230.901	73.81
231.136	70.81
231.37	71.81
231.604	84.81
231.838	84.81
232.072	77.81
232.306	65.81
232.541	92.81
232.775	81.81
233.009	70.81
233.243	83.81
233.477	71.81
233.711	64.81
233.945	68.81
234.179	66.81
234.413	66.81
234.647	87.81
234.881	64.81
235.115	62.81
235.349	68.81
235.583	65.81
235.817	73.81
236.051	76.81
236.285	67.81
236.519	76.81
236.753	74.81
236.987	78.81
237.221	73.81
237.455	78.81
237.689	59.81
237.922	56.81
238.156	61.81
238.39	87.81
238.624	61.81
238.858	81.81
239.091	88.81
239.325	84.81
239.559	77.81
239.793	60.81
240.027	68.81
240.26	72.81
240.494	69.81
240.728	70.81
240.961	76.81
241.195	83.81
241.429	87.81
241.662	86.81
241.896	84.81
242.13	71.81
242.363	82.81
242.597	76.81
242.83	65.81
243.064	81.81
243.298	71.81
243.531	60.81
243.765	79.81
243.998	82.81
244.232	91.81
244.465	71.81
244.699	60.81
244.932	73.81
245.166	85.81
245.399	84.81
245.633	68.81
245.866	63.81
246.099	69.81
246.333	75.81
246.566	85.81
246.8	59.81
247.033	57.81
247.266	73.81
247.5	64.81
247.733	76.81
247.966	73.81
248.2	77.81
248.433	75.81
248.666	71.81
248.899	61.81
249.133	73.81
249.366	94.81
249.599	86.81
249.832	69.81
250.066	68.81
250.299	81.81
250.532	77.81
250.765	74.81
250.998	79.81
251.231	77.81
251.465	78.81
251.698	86.81
251.931	71.81
252.164	75.81
252.397	63.81
252.63	76.81
252.863	75.81
253.096	71.81
253.329	76.81
253.562	81.81
253.795	76.81
254.028	77.81
254.261	68.81
254.494	76.81
254.727	78.81
254.96	76.81
255.193	93.81
255.426	75.81
255.659	76.81
255.892	73.81
256.124	75.81
256.357	79.81
256.59	73.81
256.823	79.81
257.056	71.81
257.289	71.81
257.521	75.81
257.754	78.81
257.987	77.81
258.22	82.81
258.452	85.81
258.685	69.81
258.918	91.81
259.151	78.81
259.383	76.81
259.616	78.81
259.849	86.81
260.081	83.81
260.314	70.81
260.547	77.81
260.779	78.81
261.012	72.81
261.244	80.81
261.477	102.81
261.71	67.81
261.942	80.81
262.175	82.81
262.407	78.81
262.64	76.81
262.872	70.81
263.105	67.81
263.337	75.81
263.57	79.81
263.802	77.81
264.035	77.81
264.267	73.81
264.499	101.81
264.732	95.81
264.964	86.81
265.197	77.81
265.429	79.81
265.661	79.81
265.894	75.81
266.126	78.81
266.358	81.81
266.591	84.81
266.823	92.81
267.055	77.81
267.287	94.81
267.52	76.81
267.752	77.81
267.984	92.81
268.216	71.81
268.448	80.81
268.681	88.81
268.913	69.81
269.145	83.81
269.377	86.81
269.609	73.81
269.841	76.81
270.073	89.81
270.306	77.81
270.538	67.81
270.77	78.81
271.002	84.81
271.234	86.81
271.466	89.81
271.698	79.81
271.93	69.81
272.162	81.81
272.394	91.81
272.626	76.81
272.858	84.81
273.09	77.81
273.322	82.81
273.553	81.81
273.785	78.81
274.017	77.81
274.249	85.81
274.481	79.81
274.713	95.81
274.945	91.81
275.176	83.81
275.408	82.81
275.64	70.81
275.872	85.81
276.104	88.81
276.335	89.81
276.567	87.81
276.799	84.81
277.031	75.81
277.262	92.81
277.494	85.81
277.726	87.81
277.957	79.81
278.189	75.81
278.421	87.81
278.652	86.81
278.884	93.81
279.115	69.81
279.347	75.81
279.579	88.81
279.81	86.81
280.042	70.81
280.273	88.81
280.505	81.81
280.736	80.81
280.968	89.81
281.199	94.81
281.431	82.81
281.662	74.81
281.894	84.81
282.125	92.81
282.356	95.81
282.588	77.81
282.819	84.81
283.051	68.81
283.282	75.81
283.513	78.81
283.745	61.81
283.976	77.81
284.207	91.81
284.439	88.81
284.67	84.81
284.901	82.81
285.132	84.81
285.364	88.81
285.595	88.81
285.826	81.81
286.057	94.81
286.288	81.81
286.52	72.81
286.751	88.81
286.982	94.81
287.213	80.81
287.444	91.81
287.675	79.81
287.906	79.81
288.138	75.81
288.369	81.81
288.6	99.81
288.831	84.81
289.062	81.81
289.293	69.81
289.524	72.81
289.755	77.81
289.986	87.81
290.217	89.81
290.448	85.81
290.679	82.81
290.91	93.81
291.141	82.81
291.371	79.81
291.602	79.81
291.833	92.81
292.064	88.81
292.295	73.81
292.526	73.81
292.757	93.81
292.987	80.81
293.218	83.81
293.449	91.81
293.68	88.81
293.91	86.81
294.141	77.81
294.372	94.81
294.603	75.81
294.833	84.81
295.064	77.81
295.295	91.81
295.525	83.81
295.756	87.81
295.987	90.81
296.217	80.81
296.448	83.81
296.679	84.81
296.909	84.81
297.14	106.81
297.37	85.81
297.601	91.81
297.831	78.81
298.062	78.81
298.292	74.81
298.523	70.81
298.753	93.81
298.984	83.81
299.214	75.81
299.445	88.81
299.675	80.81
299.905	87.81
300.136	75.81
300.366	87.81
300.597	91.81
300.827	85.81
301.057	81.81
301.288	84.81
301.518	83.81
301.748	87.81
301.979	104.81
302.209	80.81
302.439	76.81
302.669	87.81
302.9	77.81
303.13	80.81
303.36	76.81
303.59	96.81
303.82	85.81
304.051	73.81
304.281	90.81
304.511	77.81
304.741	84.81
304.971	74.81
305.201	76.81
305.431	89.81
305.661	81.81
305.891	76.81
306.121	78.81
306.352	103.81
306.582	84.81
306.812	73.81
307.042	84.81
307.272	90.81
307.502	81.81
307.731	80.81
307.961	89.81
308.191	79.81
308.421	88.81
308.651	87.81
308.881	77.81
309.111	84.81
309.341	94.81
309.571	89.81
309.8	81.81
310.03	84.81
310.26	79.81
310.49	95.81
310.72	76.81
310.949	86.81
311.179	85.81
311.409	84.81
311.639	79.81
311.868	89.81
312.098	75.81
312.328	71.81
312.557	97.81
312.787	80.81
313.017	86.81
313.246	84.81
313.476	86.81
313.706	75.81
313.935	73.81
314.165	82.81
314.394	88.81
314.624	98.81
314.853	89.81
315.083	86.81
315.312	78.81
315.542	88.81
315.771	83.81
316.001	84.81
316.23	87.81
316.46	83.81
316.689	77.81
316.919	99.81
317.148	100.81
317.377	91.81
317.607	86.81
317.836	80.81
318.065	87.81
318.295	98.81
318.524	88.81
318.753	93.81
318.983	76.81
319.212	80.81
319.441	75.81
319.67	91.81
319.9	84.81
320.129	66.81
320.358	77.81
320.587	87.81
320.816	69.81
321.046	89.81
321.275	93.81
321.504	82.81
321.733	91.81
321.962	101.81
322.191	100.81
322.42	70.81
322.649	88.81
322.878	79.81
323.108	89.81
323.337	90.81
323.566	79.81
323.795	71.81
324.024	100.81
324.253	88.81
324.482	80.81
324.71	72.81
324.939	80.81
325.168	84.81
325.397	93.81
325.626	94.81
325.855	89.81
326.084	83.81
326.313	80.81
326.542	95.81
326.77	84.81
326.999	91.81
327.228	75.81
327.457	83.81
327.686	81.81
327.914	84.81
328.143	91.81
328.372	85.81
328.6	92.81
328.829	82.81
329.058	81.81
329.287	81.81
329.515	93.81
329.744	88.81
329.972	90.81
330.201	87.81
330.43	91.81
330.658	90.81
330.887	88.81
331.115	78.81
331.344	90.81
331.572	83.81
331.801	76.81
332.03	76.81
332.258	87.81
332.486	76.81
332.715	86.81
332.943	75.81
333.172	88.81
333.4	89.81
333.629	93.81
333.857	75.81
334.085	89.81
334.314	92.81
334.542	82.81
334.771	91.81
334.999	90.81
335.227	93.81
335.455	88.81
335.684	97.81
335.912	91.81
336.14	93.81
336.369	91.81
336.597	80.81
336.825	88.81
337.053	94.81
337.281	90.81
337.51	68.81
337.738	74.81
337.966	87.81
338.194	84.81
338.422	85.81
338.65	83.81
338.878	89.81
339.106	83.81
339.334	79.81
339.562	90.81
339.79	90.81
340.018	77.81
340.246	103.81
340.474	87.81
340.702	80.81
340.93	90.81
341.158	72.81
341.386	78.81
341.614	92.81
341.842	91.81
342.07	79.81
342.298	94.81
342.526	98.81
342.754	93.81
342.981	91.81
343.209	81.81
343.437	97.81
343.665	78.81
343.893	82.81
344.12	87.81
344.348	90.81
344.576	91.81
344.804	92.81
345.031	92.81
345.259	84.81
345.487	66.81
345.714	80.81
345.942	88.81
346.17	77.81
346.397	77.81
346.625	86.81
346.853	71.81
347.08	79.81
347.308	94.81
347.535	90.81
347.763	78.81
347.99	92.81
348.218	90.81
348.445	70.81
348.673	83.81
348.9	89.81
349.128	95.81
349.355	88.81
349.583	82.81
349.81	102.81
350.037	84.81
350.265	83.81
350.492	83.81
350.72	90.81
350.947	95.81
351.174	75.81
351.402	85.81
351.629	80.81
351.856	88.81
352.083	77.81
352.311	78.81
352.538	77.81
352.765	83.81
352.992	91.81
353.22	86.81
353.447	79.81
353.674	84.81
353.901	87.81
354.128	85.81
354.355	87.81
354.583	102.81
354.81	78.81
355.037	75.81
355.264	85.81
355.491	90.81
355.718	97.81
355.945	76.81
356.172	93.81
356.399	75.81
356.626	89.81
356.853	77.81
357.08	87.81
357.307	91.81
357.534	80.81
357.761	75.81
357.988	93.81
358.215	85.81
358.441	84.81
358.668	82.81
358.895	76.81
359.122	90.81
359.349	76.81
359.576	77.81
359.802	86.81
360.029	91.81
360.256	95.81
360.483	84.81
360.709	89.81
360.936	78.81
361.163	68.81
361.39	83.81
361.616	102.81
361.843	84.81
362.07	79.81
362.296	81.81
362.523	77.81
362.749	92.81
362.976	77.81
363.203	82.81
363.429	73.81
363.656	91.81
363.882	85.81
364.109	77.81
364.335	83.81
364.562	83.81
364.788	81.81
365.015	81.81
365.241	92.81
365.468	84.81
365.694	80.81
365.92	87.81
366.147	93.81
366.373	87.81
366.599	86.81
366.826	69.81
367.052	83.81
367.278	76.81
367.505	87.81
367.731	83.81
367.957	93.81
368.184	90.81
368.41	90.81
368.636	84.81
368.862	80.81
369.089	81.81
369.315	93.81
369.541	89.81
369.767	71.81
369.993	74.81
370.219	89.81
370.445	85.81
370.672	81.81
370.898	88.81
371.124	77.81
371.35	86.81
371.576	81.81
371.802	82.81
372.028	90.81
372.254	89.81
372.48	74.81
372.706	88.81
372.932	88.81
373.158	89.81
373.384	97.81
373.61	82.81
373.835	88.81
374.061	75.81
374.287	83.81
374.513	89.81
374.739	71.81
374.965	83.81
375.191	84.81
375.416	86.81
375.642	84.81
375.868	92.81
376.094	81.81
376.319	94.81
376.545	84.81
376.771	96.81
376.997	84.81
377.222	71.81
377.448	80.81
377.674	103.81
377.899	88.81
378.125	65.81
378.35	87.81
378.576	93.81
378.802	81.81
379.027	85.81
379.253	95.81
379.478	99.81
379.704	88.81
379.929	86.81
380.155	86.81
380.38	75.81
380.606	76.81
380.831	84.81
381.057	102.81
381.282	86.81
381.507	83.81
381.733	77.81
381.958	67.81
382.184	74.81
382.409	92.81
382.634	95.81
382.86	93.81
383.085	77.81
383.31	81.81
383.535	67.81
383.761	84.81
383.986	93.81
384.211	86.81
384.436	86.81
384.662	87.81
384.887	89.81
385.112	92.81
385.337	90.81
385.562	90.81
385.787	79.81
386.013	92.81
386.238	85.81
386.463	79.81
386.688	105.81
386.913	85.81
387.138	71.81
387.363	86.81
387.588	93.81
387.813	89.81
388.038	84.81
388.263	77.81
388.488	99.81
388.713	80.81
388.938	80.81
389.163	87.81
389.387	82.81
389.612	81.81
389.837	86.81
390.062	86.81
390.287	76.81
390.512	88.81
390.736	76.81
390.961	89.81
391.186	63.81
391.411	102.81
391.636	105.81
391.86	67.81
392.085	96.81
392.31	103.81
392.534	89.81
392.759	77.81
392.984	83.81
393.208	77.81
393.433	87.81
393.658	77.81
393.882	91.81
394.107	91.81
394.331	100.81
394.556	77.81
394.78	91.81
395.005	71.81
395.229	71.81
395.454	90.81
395.678	92.81
395.903	92.81
396.127	94.81
396.352	79.81
396.576	73.81
396.801	87.81
397.025	87.81
397.249	87.81
397.474	88.81
397.698	78.81
397.922	80.81
398.147	91.81
398.371	96.81
398.595	84.81
398.82	101.81
399.044	88.81
399.268	91.81
399.492	92.81
399.717	83.81
399.941	88.81
400.165	87.81
400.389	73.81
400.613	85.81
400.837	85.81
401.062	81.81
401.286	83.81
401.51	105.81
401.734	76.81
401.958	85.81
402.182	85.81
402.406	69.81
402.63	83.81
402.854	76.81
403.078	91.81
403.302	65.81
403.526	86.81
403.75	87.81
403.974	94.81
404.198	90.81
404.422	100.81
404.645	103.81
404.869	81.81
405.093	79.81
405.317	93.81
405.541	99.81
405.765	88.81
405.988	83.81
406.212	99.81
406.436	87.81
406.66	75.81
406.883	85.81
407.107	72.81
407.331	73.81
407.555	84.81
407.778	85.81
408.002	93.81
408.226	89.81
408.449	79.81
408.673	83.81
408.896	79.81
409.12	79.81
409.344	77.81
409.567	81.81
409.791	85.81
410.014	78.81
410.238	85.81
410.461	90.81
410.685	97.81
410.908	94.81
411.132	88.81
411.355	76.81
411.578	78.81
411.802	102.81
412.025	75.81
412.249	95.81
412.472	92.81
412.695	91.81
412.919	81.81
413.142	81.81
413.365	90.81
413.589	93.81
413.812	89.81
414.035	102.81
414.258	95.81
414.482	77.81
414.705	95.81
414.928	93.81
415.151	74.81
415.374	79.81
415.597	89.81
415.821	81.81
416.044	78.81
416.267	90.81
416.49	84.81
416.713	81.81
416.936	84.81
417.159	86.81
417.382	91.81
417.605	93.81
417.828	86.81
418.051	89.81
418.274	83.81
418.497	79.81
418.72	87.81
418.943	93.81
419.166	73.81
419.389	80.81
419.611	94.81
419.834	88.81
420.057	94.81
420.28	80.81
420.503	89.81
420.726	93.81
420.948	88.81
421.171	95.81
421.394	81.81
421.617	78.81
421.839	77.81
422.062	81.81
422.285	106.81
422.507	78.81
422.73	84.81
422.953	87.81
423.175	101.81
423.398	87.81
423.621	90.81
423.843	78.81
424.066	90.81
424.288	78.81
424.511	92.81
424.733	94.81
424.956	88.81
425.178	89.81
425.401	89.81
425.623	72.81
425.846	87.81
426.068	80.81
426.291	85.81
426.513	89.81
426.735	86.81
426.958	86.81
427.18	96.81
427.402	83.81
427.625	86.81
427.847	78.81
428.069	76.81
428.292	65.81
428.514	77.81
428.736	86.81
428.958	89.81
429.181	94.81
429.403	68.81
429.625	73.81
429.847	79.81
430.069	88.81
430.292	81.81
430.514	90.81
430.736	99.81
430.958	75.81
431.18	87.81
431.402	94.81
431.624	89.81
431.846	94.81
432.068	94.81
432.29	80.81
432.512	75.81
432.734	83.81
432.956	82.81
433.178	87.81
433.4	75.81
433.622	80.81
433.844	91.81
434.066	89.81
434.287	82.81
434.509	82.81
434.731	81.81
434.953	83.81
435.175	91.81
435.397	75.81
435.618	93.81
435.84	85.81
436.062	75.81
436.284	87.81
436.505	80.81
436.727	83.81
436.949	66.81
437.17	83.81
437.392	64.81
437.614	74.81
437.835	93.81
438.057	77.81
438.278	89.81
438.5	88.81
438.721	92.81
438.943	91.81
439.165	82.81
439.386	81.81
439.608	75.81
439.829	86.81
440.05	87.81
440.272	90.81
440.493	79.81
440.715	83.81
440.936	75.81
441.158	78.81
441.379	79.81
441.6	88.81
441.822	72.81
442.043	74.81
442.264	71.81
442.486	92.81
442.707	101.81
442.928	94.81
443.149	95.81
443.371	93.81
443.592	91.81
443.813	96.81
444.034	93.81
444.255	94.81
444.476	77.81
444.698	90.81
444.919	79.81
445.14	157.81
445.361	125.81
445.582	91.81
445.803	85.81
446.024	81.81
446.245	86.81
446.466	76.81
446.687	79.81
446.908	75.81
447.129	88.81
447.35	74.81
447.571	85.81
447.792	80.81
448.013	83.81
448.234	96.81
448.455	83.81
448.675	84.81
448.896	83.81
449.117	78.81
449.338	84.81
449.559	71.81
449.779	89.81
450	94.81
450.221	80.81
450.442	77.81
450.662	89.81
450.883	87.81
451.104	87.81
451.324	87.81
451.545	84.81
451.766	76.81
451.986	84.81
452.207	79.81
452.428	83.81
452.648	79.81
452.869	88.81
453.089	79.81
453.31	73.81
453.53	89.81
453.751	101.81
453.971	93.81
454.192	79.81
454.412	76.81
454.633	81.81
454.853	71.81
455.073	80.81
455.294	83.81
455.514	81.81
455.734	74.81
455.955	89.81
456.175	88.81
456.395	79.81
456.616	89.81
456.836	75.81
457.056	75.81
457.276	86.81
457.497	105.81
457.717	87.81
457.937	85.81
458.157	86.81
458.377	76.81
458.598	75.81
458.818	80.81
459.038	97.81
459.258	95.81
459.478	88.81
459.698	85.81
459.918	93.81
460.138	78.81
460.358	78.81
460.578	94.81
460.798	94.81
461.018	79.81
461.238	73.81
461.458	91.81
461.678	88.81
461.898	88.81
462.118	90.81
462.338	92.81
462.558	85.81
462.777	89.81
462.997	84.81
463.217	84.81
463.437	81.81
463.657	94.81
463.876	99.81
464.096	83.81
464.316	81.81
464.536	90.81
464.755	80.81
464.975	86.81
465.195	91.81
465.414	92.81
465.634	87.81
465.854	78.81
466.073	74.81
466.293	86.81
466.512	86.81
466.732	92.81
466.951	88.81
467.171	91.81
467.391	91.81
467.61	77.81
467.829	79.81
468.049	95.81
468.268	72.81
468.488	101.81
468.707	89.81
468.927	88.81
469.146	79.81
469.365	91.81
469.585	80.81
469.804	83.81
470.023	90.81
470.243	92.81
470.462	105.81
470.681	91.81
470.901	92.81
471.12	76.81
471.339	90.81
471.558	87.81
471.777	85.81
471.997	82.81
472.216	93.81
472.435	76.81
472.654	87.81
472.873	77.81
473.092	77.81
473.311	78.81
473.53	76.81
473.749	83.81
473.968	83.81
474.187	79.81
474.406	85.81
474.625	95.81
474.844	85.81
475.063	75.81
475.282	86.81
475.501	85.81
475.72	83.81
475.939	79.81
476.158	99.81
476.377	99.81
476.596	76.81
476.814	65.81
477.033	83.81
477.252	79.81
477.471	75.81
477.69	86.81
477.908	92.81
478.127	85.81
478.346	84.81
478.564	85.81
478.783	81.81
479.002	76.81
479.22	88.81
479.439	83.81
479.658	91.81
479.876	91.81
480.095	90.81
480.313	84.81
480.532	106.81
480.751	73.81
480.969	90.81
481.188	94.81
481.406	100.81
481.624	89.81
481.843	77.81
482.061	91.81
482.28	81.81
482.498	80.81
482.717	90.81
482.935	86.81
483.153	86.81
483.372	84.81
483.59	89.81
483.808	95.81
484.027	92.81
484.245	95.81
484.463	86.81
484.681	89.81
484.9	88.81
485.118	92.81
485.336	81.81
485.554	80.81
485.772	92.81
485.99	69.81
486.209	91.81
486.427	85.81
486.645	92.81
486.863	83.81
487.081	73.81
487.299	95.81
487.517	91.81
487.735	85.81
487.953	70.81
488.171	93.81
488.389	89.81
488.607	80.81
488.825	80.81
489.043	81.81
489.261	92.81
489.479	84.81
489.696	74.81
489.914	85.81
490.132	87.81
490.35	81.81
490.568	92.81
490.786	80.81
491.003	85.81
491.221	83.81
491.439	95.81
491.657	78.81
491.874	83.81
492.092	73.81
492.31	99.81
492.527	75.81
492.745	92.81
492.963	91.81
493.18	93.81
493.398	87.81
493.615	84.81
493.833	73.81
494.05	85.81
494.268	83.81
494.485	89.81
494.703	83.81
494.92	83.81
495.138	95.81
495.355	101.81
495.573	84.81
495.79	85.81
496.008	85.81
496.225	92.81
496.442	89.81
496.66	104.81
496.877	87.81
497.094	91.81
497.312	96.81
497.529	74.81
497.746	99.81
497.963	77.81
498.181	69.81
498.398	86.81
498.615	84.81
498.832	95.81
499.049	95.81
499.267	97.81
499.484	103.81
499.701	79.81
499.918	101.81
500.135	106.81
500.352	112.81
500.569	111.81
500.786	110.81
501.003	106.81
501.22	109.81
501.437	92.81
501.654	92.81
501.871	88.81
502.088	90.81
502.305	85.81
502.522	96.81
502.739	78.81
502.956	83.81
503.172	87.81
503.389	107.81
503.606	95.81
503.823	91.81
504.04	88.81
504.256	82.81
504.473	92.81
504.69	98.81
504.907	89.81
505.123	75.81
505.34	85.81
505.557	75.81
505.773	94.81
505.99	85.81
506.207	93.81
506.423	77.81
506.64	79.81
506.856	97.81
507.073	89.81
507.289	80.81
507.506	93.81
507.722	74.81
507.939	72.81
508.155	91.81
508.372	80.81
508.588	83.81
508.805	83.81
509.021	87.81
509.238	88.81
509.454	85.81
509.67	94.81
509.887	87.81
510.103	83.81
510.319	87.81
510.536	88.81
510.752	86.81
510.968	72.81
511.184	83.81
511.401	75.81
511.617	99.81
511.833	101.81
512.049	88.81
512.265	85.81
512.481	96.81
512.698	81.81
512.914	92.81
513.13	95.81
513.346	79.81
513.562	97.81
513.778	92.81
513.994	79.81
514.21	91.81
514.426	87.81
514.642	95.81
514.858	80.81
515.074	85.81
515.29	67.81
515.506	91.81
515.721	78.81
515.937	89.81
516.153	91.81
516.369	92.81
516.585	88.81
516.801	95.81
517.016	94.81
517.232	86.81
517.448	91.81
517.664	87.81
517.879	99.81
518.095	96.81
518.311	79.81
518.527	95.81
518.742	75.81
518.958	89.81
519.173	85.81
519.389	87.81
519.605	91.81
