Data from BG_HRD10591_002.txt Node
Date: Fri May 16 15:33:08 EDT 2025
User: Yrep
Spectrometer: HR+D1059
Trigger mode: 1
Integration Time (sec): 1.000000E-1
Scans to average: 1
Electric dark correction enabled: true
Nonlinearity correction enabled: false
Boxcar width: 0
XAxis mode: Wavelengths
Number of Pixels in Spectrum: 2048
>>>>>Begin Spectral Data<<<<<
223.165	-31.5
223.4	-31.5
223.635	-31.5
223.869	-20.5
224.104	-16.5
224.338	-10.5
224.573	-23.5
224.808	-3.5
225.042	-5.5
225.277	-2.5
225.511	-0.5
225.746	-5.5
225.98	8.5
226.215	9.5
226.449	21.5
226.683	18.5
226.918	21.5
227.152	40.5
227.387	46.5
227.621	45.5
227.856	34.5
228.09	36.5
228.324	57.5
228.559	56.5
228.793	49.5
229.027	57.5
229.262	63.5
229.496	56.5
229.73	73.5
229.964	56.5
230.199	77.5
230.433	66.5
230.667	72.5
230.901	72.5
231.136	79.5
231.37	74.5
231.604	72.5
231.838	82.5
232.072	76.5
232.306	84.5
232.541	82.5
232.775	84.5
233.009	90.5
233.243	86.5
233.477	78.5
233.711	70.5
233.945	65.5
234.179	86.5
234.413	82.5
234.647	88.5
234.881	86.5
235.115	70.5
235.349	77.5
235.583	74.5
235.817	85.5
236.051	73.5
236.285	75.5
236.519	74.5
236.753	62.5
236.987	74.5
237.221	71.5
237.455	74.5
237.689	66.5
237.922	73.5
238.156	78.5
238.39	76.5
238.624	72.5
238.858	73.5
239.091	86.5
239.325	74.5
239.559	66.5
239.793	70.5
240.027	71.5
240.26	83.5
240.494	84.5
240.728	77.5
240.961	76.5
241.195	81.5
241.429	70.5
241.662	67.5
241.896	70.5
242.13	80.5
242.363	93.5
242.597	74.5
242.83	95.5
243.064	71.5
243.298	88.5
243.531	77.5
243.765	72.5
243.998	76.5
244.232	92.5
244.465	72.5
244.699	71.5
244.932	80.5
245.166	62.5
245.399	84.5
245.633	78.5
245.866	72.5
246.099	69.5
246.333	93.5
246.566	87.5
246.8	70.5
247.033	70.5
247.266	75.5
247.5	67.5
247.733	76.5
247.966	70.5
248.2	86.5
248.433	78.5
248.666	73.5
248.899	81.5
249.133	73.5
249.366	76.5
249.599	88.5
249.832	69.5
250.066	75.5
250.299	86.5
250.532	68.5
250.765	80.5
250.998	81.5
251.231	86.5
251.465	72.5
251.698	77.5
251.931	70.5
252.164	78.5
252.397	74.5
252.63	80.5
252.863	73.5
253.096	75.5
253.329	75.5
253.562	77.5
253.795	92.5
254.028	92.5
254.261	78.5
254.494	80.5
254.727	93.5
254.96	79.5
255.193	77.5
255.426	79.5
255.659	62.5
255.892	84.5
256.124	69.5
256.357	74.5
256.59	83.5
256.823	71.5
257.056	82.5
257.289	74.5
257.521	88.5
257.754	89.5
257.987	79.5
258.22	77.5
258.452	80.5
258.685	77.5
258.918	86.5
259.151	73.5
259.383	86.5
259.616	74.5
259.849	87.5
260.081	76.5
260.314	69.5
260.547	76.5
260.779	77.5
261.012	82.5
261.244	65.5
261.477	84.5
261.71	78.5
261.942	81.5
262.175	87.5
262.407	75.5
262.64	80.5
262.872	73.5
263.105	74.5
263.337	82.5
263.57	88.5
263.802	74.5
264.035	81.5
264.267	90.5
264.499	81.5
264.732	63.5
264.964	93.5
265.197	83.5
265.429	77.5
265.661	82.5
265.894	76.5
266.126	87.5
266.358	75.5
266.591	75.5
266.823	67.5
267.055	78.5
267.287	69.5
267.52	84.5
267.752	83.5
267.984	84.5
268.216	79.5
268.448	82.5
268.681	84.5
268.913	88.5
269.145	73.5
269.377	86.5
269.609	76.5
269.841	89.5
270.073	86.5
270.306	101.5
270.538	77.5
270.77	82.5
271.002	76.5
271.234	82.5
271.466	82.5
271.698	82.5
271.93	80.5
272.162	85.5
272.394	80.5
272.626	85.5
272.858	79.5
273.09	79.5
273.322	89.5
273.553	72.5
273.785	67.5
274.017	82.5
274.249	84.5
274.481	81.5
274.713	69.5
274.945	91.5
275.176	65.5
275.408	81.5
275.64	71.5
275.872	60.5
276.104	78.5
276.335	86.5
276.567	72.5
276.799	86.5
277.031	83.5
277.262	84.5
277.494	69.5
277.726	77.5
277.957	76.5
278.189	79.5
278.421	76.5
278.652	93.5
278.884	78.5
279.115	78.5
279.347	76.5
279.579	80.5
279.81	75.5
280.042	81.5
280.273	77.5
280.505	82.5
280.736	92.5
280.968	69.5
281.199	72.5
281.431	85.5
281.662	73.5
281.894	68.5
282.125	85.5
282.356	92.5
282.588	79.5
282.819	74.5
283.051	74.5
283.282	84.5
283.513	81.5
283.745	84.5
283.976	76.5
284.207	92.5
284.439	85.5
284.67	82.5
284.901	75.5
285.132	87.5
285.364	90.5
285.595	95.5
285.826	82.5
286.057	65.5
286.288	85.5
286.52	93.5
286.751	80.5
286.982	85.5
287.213	70.5
287.444	76.5
287.675	75.5
287.906	91.5
288.138	92.5
288.369	69.5
288.6	81.5
288.831	75.5
289.062	85.5
289.293	91.5
289.524	89.5
289.755	81.5
289.986	100.5
290.217	89.5
290.448	67.5
290.679	83.5
290.91	86.5
291.141	87.5
291.371	89.5
291.602	78.5
291.833	72.5
292.064	78.5
292.295	100.5
292.526	76.5
292.757	96.5
292.987	90.5
293.218	71.5
293.449	89.5
293.68	82.5
293.91	84.5
294.141	81.5
294.372	93.5
294.603	88.5
294.833	73.5
295.064	74.5
295.295	77.5
295.525	75.5
295.756	88.5
295.987	80.5
296.217	87.5
296.448	74.5
296.679	90.5
296.909	79.5
297.14	80.5
297.37	71.5
297.601	81.5
297.831	82.5
298.062	91.5
298.292	76.5
298.523	88.5
298.753	100.5
298.984	86.5
299.214	92.5
299.445	100.5
299.675	72.5
299.905	90.5
300.136	89.5
300.366	87.5
300.597	80.5
300.827	94.5
301.057	102.5
301.288	102.5
301.518	77.5
301.748	89.5
301.979	91.5
302.209	87.5
302.439	92.5
302.669	88.5
302.9	79.5
303.13	90.5
303.36	93.5
303.59	85.5
303.82	81.5
304.051	93.5
304.281	80.5
304.511	97.5
304.741	94.5
304.971	85.5
305.201	78.5
305.431	76.5
305.661	84.5
305.891	84.5
306.121	84.5
306.352	68.5
306.582	85.5
306.812	76.5
307.042	88.5
307.272	89.5
307.502	84.5
307.731	84.5
307.961	97.5
308.191	76.5
308.421	100.5
308.651	98.5
308.881	71.5
309.111	88.5
309.341	76.5
309.571	89.5
309.8	67.5
310.03	80.5
310.26	83.5
310.49	84.5
310.72	80.5
310.949	79.5
311.179	93.5
311.409	66.5
311.639	74.5
311.868	83.5
312.098	90.5
312.328	80.5
312.557	93.5
312.787	84.5
313.017	72.5
313.246	72.5
313.476	89.5
313.706	84.5
313.935	75.5
314.165	83.5
314.394	90.5
314.624	84.5
314.853	90.5
315.083	94.5
315.312	87.5
315.542	72.5
315.771	79.5
316.001	85.5
316.23	85.5
316.46	105.5
316.689	89.5
316.919	91.5
317.148	78.5
317.377	77.5
317.607	79.5
317.836	91.5
318.065	93.5
318.295	96.5
318.524	76.5
318.753	78.5
318.983	92.5
319.212	72.5
319.441	80.5
319.67	84.5
319.9	96.5
320.129	98.5
320.358	85.5
320.587	78.5
320.816	68.5
321.046	87.5
321.275	91.5
321.504	94.5
321.733	82.5
321.962	89.5
322.191	87.5
322.42	81.5
322.649	104.5
322.878	89.5
323.108	79.5
323.337	88.5
323.566	80.5
323.795	87.5
324.024	70.5
324.253	71.5
324.482	83.5
324.71	80.5
324.939	93.5
325.168	83.5
325.397	98.5
325.626	78.5
325.855	80.5
326.084	89.5
326.313	92.5
326.542	84.5
326.77	88.5
326.999	76.5
327.228	72.5
327.457	90.5
327.686	80.5
327.914	98.5
328.143	91.5
328.372	76.5
328.6	71.5
328.829	90.5
329.058	81.5
329.287	81.5
329.515	78.5
329.744	88.5
329.972	82.5
330.201	96.5
330.43	91.5
330.658	84.5
330.887	72.5
331.115	86.5
331.344	86.5
331.572	94.5
331.801	84.5
332.03	69.5
332.258	84.5
332.486	85.5
332.715	93.5
332.943	73.5
333.172	88.5
333.4	100.5
333.629	88.5
333.857	95.5
334.085	82.5
334.314	97.5
334.542	97.5
334.771	82.5
334.999	89.5
335.227	80.5
335.455	90.5
335.684	82.5
335.912	80.5
336.14	86.5
336.369	77.5
336.597	88.5
336.825	86.5
337.053	91.5
337.281	93.5
337.51	87.5
337.738	77.5
337.966	89.5
338.194	85.5
338.422	76.5
338.65	100.5
338.878	87.5
339.106	94.5
339.334	102.5
339.562	87.5
339.79	82.5
340.018	96.5
340.246	93.5
340.474	92.5
340.702	88.5
340.93	77.5
341.158	84.5
341.386	78.5
341.614	81.5
341.842	80.5
342.07	89.5
342.298	98.5
342.526	79.5
342.754	87.5
342.981	66.5
343.209	84.5
343.437	86.5
343.665	82.5
343.893	88.5
344.12	93.5
344.348	90.5
344.576	100.5
344.804	78.5
345.031	81.5
345.259	86.5
345.487	87.5
345.714	93.5
345.942	83.5
346.17	88.5
346.397	82.5
346.625	76.5
346.853	94.5
347.08	83.5
347.308	96.5
347.535	94.5
347.763	85.5
347.99	91.5
348.218	92.5
348.445	90.5
348.673	89.5
348.9	90.5
349.128	87.5
349.355	95.5
349.583	85.5
349.81	80.5
350.037	93.5
350.265	82.5
350.492	91.5
350.72	88.5
350.947	84.5
351.174	82.5
351.402	85.5
351.629	78.5
351.856	85.5
352.083	83.5
352.311	77.5
352.538	81.5
352.765	89.5
352.992	84.5
353.22	81.5
353.447	88.5
353.674	90.5
353.901	80.5
354.128	75.5
354.355	76.5
354.583	81.5
354.81	87.5
355.037	90.5
355.264	79.5
355.491	85.5
355.718	85.5
355.945	84.5
356.172	91.5
356.399	76.5
356.626	67.5
356.853	85.5
357.08	92.5
357.307	79.5
357.534	93.5
357.761	80.5
357.988	80.5
358.215	93.5
358.441	82.5
358.668	86.5
358.895	88.5
359.122	92.5
359.349	63.5
359.576	74.5
359.802	88.5
360.029	88.5
360.256	86.5
360.483	85.5
360.709	89.5
360.936	85.5
361.163	86.5
361.39	77.5
361.616	89.5
361.843	84.5
362.07	75.5
362.296	93.5
362.523	81.5
362.749	85.5
362.976	80.5
363.203	94.5
363.429	90.5
363.656	77.5
363.882	82.5
364.109	81.5
364.335	95.5
364.562	91.5
364.788	77.5
365.015	88.5
365.241	93.5
365.468	83.5
365.694	74.5
365.92	96.5
366.147	89.5
366.373	92.5
366.599	77.5
366.826	73.5
367.052	78.5
367.278	64.5
367.505	86.5
367.731	100.5
367.957	80.5
368.184	78.5
368.41	82.5
368.636	91.5
368.862	85.5
369.089	60.5
369.315	78.5
369.541	81.5
369.767	84.5
369.993	88.5
370.219	73.5
370.445	75.5
370.672	81.5
370.898	76.5
371.124	68.5
371.35	94.5
371.576	90.5
371.802	81.5
372.028	82.5
372.254	86.5
372.48	97.5
372.706	93.5
372.932	94.5
373.158	86.5
373.384	92.5
373.61	81.5
373.835	91.5
374.061	82.5
374.287	77.5
374.513	85.5
374.739	80.5
374.965	78.5
375.191	88.5
375.416	84.5
375.642	97.5
375.868	87.5
376.094	91.5
376.319	84.5
376.545	94.5
376.771	86.5
376.997	87.5
377.222	76.5
377.448	88.5
377.674	88.5
377.899	76.5
378.125	75.5
378.35	89.5
378.576	72.5
378.802	79.5
379.027	87.5
379.253	82.5
379.478	83.5
379.704	78.5
379.929	63.5
380.155	86.5
380.38	80.5
380.606	77.5
380.831	90.5
381.057	91.5
381.282	80.5
381.507	86.5
381.733	78.5
381.958	76.5
382.184	79.5
382.409	82.5
382.634	81.5
382.86	74.5
383.085	74.5
383.31	74.5
383.535	85.5
383.761	92.5
383.986	79.5
384.211	73.5
384.436	93.5
384.662	80.5
384.887	81.5
385.112	92.5
385.337	85.5
385.562	76.5
385.787	77.5
386.013	77.5
386.238	85.5
386.463	87.5
386.688	94.5
386.913	74.5
387.138	80.5
387.363	95.5
387.588	89.5
387.813	84.5
388.038	82.5
388.263	72.5
388.488	69.5
388.713	97.5
388.938	85.5
389.163	80.5
389.387	84.5
389.612	88.5
389.837	89.5
390.062	79.5
390.287	89.5
390.512	82.5
390.736	90.5
390.961	91.5
391.186	92.5
391.411	78.5
391.636	81.5
391.86	88.5
392.085	90.5
392.31	74.5
392.534	66.5
392.759	84.5
392.984	84.5
393.208	84.5
393.433	79.5
393.658	87.5
393.882	90.5
394.107	95.5
394.331	72.5
394.556	83.5
394.78	78.5
395.005	65.5
395.229	74.5
395.454	90.5
395.678	81.5
395.903	78.5
396.127	89.5
396.352	95.5
396.576	82.5
396.801	90.5
397.025	81.5
397.249	90.5
397.474	87.5
397.698	67.5
397.922	72.5
398.147	85.5
398.371	92.5
398.595	89.5
398.82	78.5
399.044	86.5
399.268	73.5
399.492	89.5
399.717	93.5
399.941	95.5
400.165	100.5
400.389	86.5
400.613	79.5
400.837	104.5
401.062	89.5
401.286	101.5
401.51	90.5
401.734	93.5
401.958	78.5
402.182	73.5
402.406	82.5
402.63	93.5
402.854	78.5
403.078	79.5
403.302	82.5
403.526	93.5
403.75	81.5
403.974	80.5
404.198	90.5
404.422	84.5
404.645	88.5
404.869	75.5
405.093	75.5
405.317	87.5
405.541	85.5
405.765	85.5
405.988	75.5
406.212	94.5
406.436	88.5
406.66	95.5
406.883	88.5
407.107	86.5
407.331	80.5
407.555	89.5
407.778	85.5
408.002	87.5
408.226	83.5
408.449	67.5
408.673	73.5
408.896	82.5
409.12	81.5
409.344	79.5
409.567	80.5
409.791	75.5
410.014	96.5
410.238	94.5
410.461	81.5
410.685	86.5
410.908	85.5
411.132	94.5
411.355	96.5
411.578	75.5
411.802	98.5
412.025	87.5
412.249	74.5
412.472	58.5
412.695	85.5
412.919	85.5
413.142	77.5
413.365	71.5
413.589	91.5
413.812	84.5
414.035	87.5
414.258	86.5
414.482	92.5
414.705	77.5
414.928	94.5
415.151	79.5
415.374	72.5
415.597	83.5
415.821	92.5
416.044	74.5
416.267	87.5
416.49	71.5
416.713	87.5
416.936	93.5
417.159	89.5
417.382	81.5
417.605	90.5
417.828	90.5
418.051	88.5
418.274	89.5
418.497	79.5
418.72	78.5
418.943	86.5
419.166	67.5
419.389	87.5
419.611	87.5
419.834	101.5
420.057	92.5
420.28	89.5
420.503	88.5
420.726	80.5
420.948	94.5
421.171	98.5
421.394	97.5
421.617	78.5
421.839	92.5
422.062	81.5
422.285	89.5
422.507	95.5
422.73	91.5
422.953	81.5
423.175	61.5
423.398	76.5
423.621	88.5
423.843	85.5
424.066	75.5
424.288	79.5
424.511	88.5
424.733	97.5
424.956	86.5
425.178	66.5
425.401	95.5
425.623	83.5
425.846	96.5
426.068	88.5
426.291	74.5
426.513	85.5
426.735	83.5
426.958	80.5
427.18	88.5
427.402	87.5
427.625	76.5
427.847	74.5
428.069	102.5
428.292	81.5
428.514	86.5
428.736	78.5
428.958	81.5
429.181	75.5
429.403	83.5
429.625	93.5
429.847	74.5
430.069	81.5
430.292	78.5
430.514	86.5
430.736	79.5
430.958	75.5
431.18	85.5
431.402	89.5
431.624	84.5
431.846	88.5
432.068	87.5
432.29	92.5
432.512	82.5
432.734	80.5
432.956	85.5
433.178	80.5
433.4	63.5
433.622	89.5
433.844	84.5
434.066	91.5
434.287	81.5
434.509	73.5
434.731	86.5
434.953	90.5
435.175	88.5
435.397	76.5
435.618	81.5
435.84	88.5
436.062	90.5
436.284	81.5
436.505	98.5
436.727	74.5
436.949	84.5
437.17	86.5
437.392	84.5
437.614	82.5
437.835	71.5
438.057	77.5
438.278	62.5
438.5	87.5
438.721	82.5
438.943	80.5
439.165	89.5
439.386	74.5
439.608	77.5
439.829	75.5
440.05	94.5
440.272	82.5
440.493	94.5
440.715	90.5
440.936	89.5
441.158	74.5
441.379	71.5
441.6	79.5
441.822	87.5
442.043	87.5
442.264	108.5
442.486	99.5
442.707	84.5
442.928	92.5
443.149	89.5
443.371	76.5
443.592	89.5
443.813	74.5
444.034	79.5
444.255	88.5
444.476	94.5
444.698	82.5
444.919	74.5
445.14	157.5
445.361	114.5
445.582	90.5
445.803	90.5
446.024	96.5
446.245	76.5
446.466	89.5
446.687	78.5
446.908	89.5
447.129	80.5
447.35	98.5
447.571	94.5
447.792	89.5
448.013	84.5
448.234	79.5
448.455	90.5
448.675	84.5
448.896	95.5
449.117	78.5
449.338	67.5
449.559	87.5
449.779	90.5
450	91.5
450.221	93.5
450.442	77.5
450.662	89.5
450.883	81.5
451.104	88.5
451.324	84.5
451.545	108.5
451.766	91.5
451.986	91.5
452.207	80.5
452.428	85.5
452.648	74.5
452.869	94.5
453.089	86.5
453.31	64.5
453.53	88.5
453.751	77.5
453.971	86.5
454.192	71.5
454.412	73.5
454.633	82.5
454.853	79.5
455.073	86.5
455.294	84.5
455.514	75.5
455.734	80.5
455.955	90.5
456.175	85.5
456.395	92.5
456.616	84.5
456.836	102.5
457.056	81.5
457.276	93.5
457.497	91.5
457.717	84.5
457.937	80.5
458.157	84.5
458.377	92.5
458.598	80.5
458.818	76.5
459.038	75.5
459.258	69.5
459.478	76.5
459.698	72.5
459.918	81.5
460.138	79.5
460.358	79.5
460.578	79.5
460.798	88.5
461.018	80.5
461.238	84.5
461.458	98.5
461.678	100.5
461.898	81.5
462.118	79.5
462.338	99.5
462.558	91.5
462.777	86.5
462.997	102.5
463.217	104.5
463.437	104.5
463.657	91.5
463.876	96.5
464.096	96.5
464.316	82.5
464.536	85.5
464.755	89.5
464.975	79.5
465.195	83.5
465.414	83.5
465.634	87.5
465.854	89.5
466.073	90.5
466.293	97.5
466.512	88.5
466.732	80.5
466.951	92.5
467.171	85.5
467.391	85.5
467.61	92.5
467.829	84.5
468.049	82.5
468.268	72.5
468.488	57.5
468.707	95.5
468.927	83.5
469.146	92.5
469.365	86.5
469.585	91.5
469.804	85.5
470.023	77.5
470.243	89.5
470.462	75.5
470.681	84.5
470.901	77.5
471.12	78.5
471.339	90.5
471.558	76.5
471.777	80.5
471.997	84.5
472.216	84.5
472.435	84.5
472.654	88.5
472.873	89.5
473.092	88.5
473.311	76.5
473.53	77.5
473.749	78.5
473.968	81.5
474.187	67.5
474.406	87.5
474.625	88.5
474.844	93.5
475.063	88.5
475.282	86.5
475.501	80.5
475.72	93.5
475.939	73.5
476.158	79.5
476.377	76.5
476.596	75.5
476.814	84.5
477.033	92.5
477.252	86.5
477.471	81.5
477.69	96.5
477.908	85.5
478.127	100.5
478.346	81.5
478.564	86.5
478.783	86.5
479.002	92.5
479.22	93.5
479.439	94.5
479.658	94.5
479.876	80.5
480.095	91.5
480.313	67.5
480.532	85.5
480.751	75.5
480.969	96.5
481.188	86.5
481.406	86.5
481.624	86.5
481.843	78.5
482.061	79.5
482.28	92.5
482.498	74.5
482.717	91.5
482.935	79.5
483.153	80.5
483.372	97.5
483.59	77.5
483.808	76.5
484.027	79.5
484.245	72.5
484.463	75.5
484.681	89.5
484.9	93.5
485.118	97.5
485.336	76.5
485.554	86.5
485.772	85.5
485.99	95.5
486.209	74.5
486.427	70.5
486.645	85.5
486.863	75.5
487.081	77.5
487.299	79.5
487.517	100.5
487.735	78.5
487.953	87.5
488.171	84.5
488.389	89.5
488.607	88.5
488.825	87.5
489.043	95.5
489.261	98.5
489.479	88.5
489.696	87.5
489.914	76.5
490.132	69.5
490.35	93.5
490.568	82.5
490.786	83.5
491.003	78.5
491.221	90.5
491.439	89.5
491.657	100.5
491.874	84.5
492.092	94.5
492.31	84.5
492.527	80.5
492.745	95.5
492.963	77.5
493.18	93.5
493.398	87.5
493.615	92.5
493.833	90.5
494.05	85.5
494.268	77.5
494.485	92.5
494.703	81.5
494.92	84.5
495.138	92.5
495.355	89.5
495.573	88.5
495.79	82.5
496.008	86.5
496.225	79.5
496.442	89.5
496.66	91.5
496.877	85.5
497.094	81.5
497.312	88.5
497.529	89.5
497.746	86.5
497.963	82.5
498.181	83.5
498.398	93.5
498.615	102.5
498.832	84.5
499.049	98.5
499.267	85.5
499.484	89.5
499.701	95.5
499.918	95.5
500.135	96.5
500.352	102.5
500.569	100.5
500.786	102.5
501.003	112.5
501.22	105.5
501.437	96.5
501.654	115.5
501.871	116.5
502.088	88.5
502.305	91.5
502.522	81.5
502.739	93.5
502.956	97.5
503.172	91.5
503.389	87.5
503.606	94.5
503.823	88.5
504.04	97.5
504.256	100.5
504.473	87.5
504.69	96.5
504.907	108.5
505.123	89.5
505.34	80.5
505.557	84.5
505.773	76.5
505.99	73.5
506.207	74.5
506.423	82.5
506.64	84.5
506.856	86.5
507.073	82.5
507.289	95.5
507.506	84.5
507.722	67.5
507.939	85.5
508.155	87.5
508.372	86.5
508.588	97.5
508.805	83.5
509.021	79.5
509.238	78.5
509.454	76.5
509.67	80.5
509.887	84.5
510.103	87.5
510.319	92.5
510.536	75.5
510.752	82.5
510.968	92.5
511.184	86.5
511.401	81.5
511.617	88.5
511.833	93.5
512.049	72.5
512.265	92.5
512.481	91.5
512.698	88.5
512.914	88.5
513.13	88.5
513.346	89.5
513.562	78.5
513.778	99.5
513.994	84.5
514.21	86.5
514.426	86.5
514.642	97.5
514.858	88.5
515.074	80.5
515.29	93.5
515.506	88.5
515.721	81.5
515.937	75.5
516.153	80.5
516.369	85.5
516.585	95.5
516.801	86.5
517.016	83.5
517.232	103.5
517.448	95.5
517.664	79.5
517.879	73.5
518.095	87.5
518.311	90.5
518.527	88.5
518.742	88.5
518.958	80.5
519.173	82.5
519.389	81.5
519.605	88.5
519.82	88.5
520.036	93.5
520.251	84.5
520.467	94.5
520.682	99.5
520.898	86.5
521.113	75.5
521.329	84.5
521.544	96.5
521.76	93.5
521.975	85.5
522.19	82.5
522.406	82.5
522.621	84.5
522.836	94.5
523.052	80.5
523.267	78.5
523.482	87.5
523.698	82.5
523.913	79.5
524.128	108.5
524.343	96.5
524.559	84.5
524.774	84.5
524.989	80.5
525.204	87.5
525.419	80.5
525.634	96.5
525.849	92.5
526.064	91.5
526.28	104.5
526.495	86.5
526.71	87.5
526.925	86.5
527.14	90.5
527.355	81.5
527.57	92.5
527.785	83.5
527.999	72.5
528.214	93.5
528.429	92.5
528.644	89.5
528.859	92.5
529.074	92.5
529.289	86.5
529.503	84.5
529.718	82.5
529.933	70.5
530.148	91.5
530.363	92.5
530.577	85.5
530.792	73.5
531.007	74.5
531.221	92.5
531.436	100.5
531.651	80.5
531.865	92.5
532.08	86.5
532.295	73.5
532.509	78.5
532.724	77.5
532.938	91.5
533.153	76.5
533.367	91.5
533.582	83.5
533.796	91.5
534.011	82.5
534.225	95.5
534.44	88.5
534.654	94.5
534.868	82.5
535.083	81.5
535.297	79.5
535.511	88.5
535.726	83.5
535.94	93.5
536.154	84.5
536.369	63.5
536.583	87.5
536.797	78.5
537.011	76.5
537.225	89.5
537.44	74.5
537.654	82.5
537.868	87.5
538.082	78.5
538.296	84.5
538.51	85.5
538.724	73.5
538.938	95.5
539.153	82.5
539.367	82.5
539.581	85.5
539.795	84.5
540.009	80.5
540.222	84.5
