Data from BG_HRD10591_060.txt Node
Date: Fri May 16 15:33:37 EDT 2025
User: Yrep
Spectrometer: HR+D1059
Trigger mode: 1
Integration Time (sec): 1.000000E-1
Scans to average: 1
Electric dark correction enabled: true
Nonlinearity correction enabled: false
Boxcar width: 0
XAxis mode: Wavelengths
Number of Pixels in Spectrum: 2048
>>>>>Begin Spectral Data<<<<<
223.165	-12
223.4	-12
223.635	-12
223.869	-22
224.104	-18
224.338	-7
224.573	-26
224.808	-9
225.042	0
225.277	-10
225.511	-18
225.746	6
225.98	9
226.215	11
226.449	18
226.683	18
226.918	25
227.152	35
227.387	35
227.621	34
227.856	44
228.09	51
228.324	49
228.559	61
228.793	59
229.027	59
229.262	58
229.496	61
229.73	75
229.964	84
230.199	78
230.433	70
230.667	74
230.901	79
231.136	90
231.37	87
231.604	75
231.838	77
232.072	86
232.306	77
232.541	88
232.775	93
233.009	85
233.243	77
233.477	82
233.711	72
233.945	79
234.179	75
234.413	90
234.647	83
234.881	75
235.115	89
235.349	86
235.583	60
235.817	83
236.051	84
236.285	88
236.519	80
236.753	81
236.987	74
237.221	75
237.455	78
237.689	72
237.922	89
238.156	82
238.39	79
238.624	70
238.858	76
239.091	77
239.325	77
239.559	78
239.793	79
240.027	71
240.26	91
240.494	66
240.728	61
240.961	82
241.195	84
241.429	83
241.662	78
241.896	83
242.13	83
242.363	80
242.597	90
242.83	78
243.064	80
243.298	97
243.531	77
243.765	75
243.998	69
244.232	56
244.465	84
244.699	87
244.932	79
245.166	72
245.399	76
245.633	76
245.866	86
246.099	85
246.333	82
246.566	67
246.8	73
247.033	80
247.266	86
247.5	86
247.733	79
247.966	76
248.2	83
248.433	73
248.666	76
248.899	87
249.133	80
249.366	79
249.599	84
249.832	70
250.066	83
250.299	74
250.532	94
250.765	84
250.998	70
251.231	83
251.465	88
251.698	76
251.931	86
252.164	96
252.397	101
252.63	76
252.863	72
253.096	75
253.329	83
253.562	91
253.795	98
254.028	85
254.261	85
254.494	77
254.727	91
254.96	92
255.193	81
255.426	91
255.659	91
255.892	83
256.124	88
256.357	70
256.59	98
256.823	93
257.056	81
257.289	86
257.521	97
257.754	73
257.987	88
258.22	83
258.452	89
258.685	92
258.918	79
259.151	66
259.383	95
259.616	78
259.849	78
260.081	76
260.314	71
260.547	83
260.779	86
261.012	80
261.244	80
261.477	105
261.71	93
261.942	87
262.175	90
262.407	81
262.64	63
262.872	90
263.105	69
263.337	83
263.57	74
263.802	79
264.035	97
264.267	84
264.499	91
264.732	92
264.964	82
265.197	81
265.429	85
265.661	87
265.894	92
266.126	80
266.358	76
266.591	80
266.823	83
267.055	71
267.287	80
267.52	80
267.752	86
267.984	97
268.216	70
268.448	94
268.681	77
268.913	71
269.145	81
269.377	86
269.609	82
269.841	82
270.073	84
270.306	95
270.538	98
270.77	87
271.002	95
271.234	93
271.466	83
271.698	83
271.93	87
272.162	74
272.394	86
272.626	79
272.858	97
273.09	84
273.322	85
273.553	81
273.785	93
274.017	95
274.249	101
274.481	99
274.713	89
274.945	89
275.176	78
275.408	82
275.64	93
275.872	95
276.104	82
276.335	93
276.567	101
276.799	72
277.031	73
277.262	94
277.494	95
277.726	80
277.957	73
278.189	81
278.421	92
278.652	82
278.884	91
279.115	76
279.347	80
279.579	101
279.81	100
280.042	92
280.273	89
280.505	86
280.736	76
280.968	93
281.199	93
281.431	91
281.662	88
281.894	78
282.125	79
282.356	76
282.588	77
282.819	76
283.051	82
283.282	81
283.513	77
283.745	90
283.976	87
284.207	70
284.439	104
284.67	99
284.901	88
285.132	82
285.364	94
285.595	81
285.826	86
286.057	92
286.288	81
286.52	86
286.751	86
286.982	84
287.213	88
287.444	85
287.675	98
287.906	83
288.138	94
288.369	83
288.6	76
288.831	91
289.062	99
289.293	96
289.524	96
289.755	93
289.986	86
290.217	86
290.448	71
290.679	89
290.91	97
291.141	82
291.371	88
291.602	84
291.833	90
292.064	98
292.295	86
292.526	83
292.757	94
292.987	89
293.218	85
293.449	97
293.68	97
293.91	98
294.141	100
294.372	91
294.603	89
294.833	109
295.064	83
295.295	93
295.525	93
295.756	71
295.987	68
296.217	90
296.448	100
296.679	93
296.909	77
297.14	93
297.37	89
297.601	99
297.831	99
298.062	88
298.292	88
298.523	95
298.753	84
298.984	90
299.214	95
299.445	92
299.675	97
299.905	95
300.136	89
300.366	87
300.597	82
300.827	89
301.057	89
301.288	70
301.518	80
301.748	87
301.979	83
302.209	86
302.439	88
302.669	84
302.9	86
303.13	87
303.36	84
303.59	95
303.82	96
304.051	91
304.281	89
304.511	81
304.741	100
304.971	100
305.201	83
305.431	84
305.661	83
305.891	82
306.121	100
306.352	84
306.582	87
306.812	96
307.042	98
307.272	94
307.502	95
307.731	83
307.961	94
308.191	87
308.421	91
308.651	91
308.881	91
309.111	88
309.341	91
309.571	85
309.8	82
310.03	94
310.26	84
310.49	92
310.72	94
310.949	84
311.179	81
311.409	95
311.639	90
311.868	85
312.098	99
312.328	84
312.557	93
312.787	86
313.017	104
313.246	101
313.476	100
313.706	88
313.935	80
314.165	104
314.394	77
314.624	68
314.853	96
315.083	96
315.312	88
315.542	99
315.771	97
316.001	93
316.23	81
316.46	90
316.689	88
316.919	86
317.148	89
317.377	79
317.607	88
317.836	91
318.065	88
318.295	91
318.524	96
318.753	95
318.983	108
319.212	97
319.441	88
319.67	99
319.9	76
320.129	81
320.358	88
320.587	97
320.816	83
321.046	103
321.275	107
321.504	97
321.733	88
321.962	91
322.191	81
322.42	91
322.649	76
322.878	84
323.108	85
323.337	96
323.566	91
323.795	99
324.024	92
324.253	91
324.482	82
324.71	81
324.939	95
325.168	79
325.397	94
325.626	91
325.855	77
326.084	91
326.313	91
326.542	77
326.77	96
326.999	92
327.228	91
327.457	99
327.686	91
327.914	92
328.143	84
328.372	93
328.6	94
328.829	92
329.058	87
329.287	84
329.515	90
329.744	97
329.972	93
330.201	79
330.43	97
330.658	91
330.887	82
331.115	81
331.344	78
331.572	86
331.801	94
332.03	104
332.258	110
332.486	93
332.715	88
332.943	97
333.172	95
333.4	93
333.629	80
333.857	88
334.085	65
334.314	79
334.542	99
334.771	82
334.999	89
335.227	89
335.455	96
335.684	94
335.912	81
336.14	77
336.369	93
336.597	95
336.825	84
337.053	81
337.281	93
337.51	85
337.738	85
337.966	89
338.194	97
338.422	96
338.65	88
338.878	94
339.106	104
339.334	98
339.562	90
339.79	94
340.018	89
340.246	77
340.474	86
340.702	86
340.93	86
341.158	81
341.386	81
341.614	97
341.842	105
342.07	91
342.298	88
342.526	88
342.754	93
342.981	94
343.209	84
343.437	103
343.665	80
343.893	100
344.12	85
344.348	89
344.576	101
344.804	69
345.031	73
345.259	97
345.487	82
345.714	78
345.942	94
346.17	83
346.397	89
346.625	79
346.853	82
347.08	97
347.308	99
347.535	77
347.763	108
347.99	105
348.218	84
348.445	78
348.673	87
348.9	85
349.128	84
349.355	87
349.583	83
349.81	95
350.037	83
350.265	91
350.492	96
350.72	92
350.947	85
351.174	97
351.402	89
351.629	86
351.856	76
352.083	85
352.311	94
352.538	78
352.765	90
352.992	99
353.22	97
353.447	81
353.674	91
353.901	83
354.128	95
354.355	94
354.583	76
354.81	88
355.037	104
355.264	85
355.491	86
355.718	83
355.945	86
356.172	76
356.399	75
356.626	79
356.853	91
357.08	79
357.307	84
357.534	102
357.761	96
357.988	89
358.215	106
358.441	103
358.668	86
358.895	80
359.122	97
359.349	87
359.576	99
359.802	96
360.029	84
360.256	105
360.483	92
360.709	80
360.936	86
361.163	83
361.39	90
361.616	91
361.843	94
362.07	82
362.296	89
362.523	82
362.749	86
362.976	79
363.203	87
363.429	93
363.656	81
363.882	56
364.109	96
364.335	97
364.562	92
364.788	83
365.015	80
365.241	84
365.468	75
365.694	84
365.92	80
366.147	91
366.373	95
366.599	85
366.826	80
367.052	95
367.278	94
367.505	91
367.731	94
367.957	68
368.184	93
368.41	92
368.636	84
368.862	90
369.089	76
369.315	92
369.541	94
369.767	81
369.993	101
370.219	100
370.445	96
370.672	86
370.898	97
371.124	85
371.35	82
371.576	76
371.802	85
372.028	91
372.254	80
372.48	88
372.706	75
372.932	82
373.158	91
373.384	100
373.61	99
373.835	88
374.061	84
374.287	83
374.513	83
374.739	83
374.965	84
375.191	91
375.416	87
375.642	90
375.868	99
376.094	91
376.319	108
376.545	93
376.771	94
376.997	90
377.222	92
377.448	84
377.674	106
377.899	86
378.125	104
378.35	90
378.576	84
378.802	116
379.027	91
379.253	90
379.478	94
379.704	108
379.929	90
380.155	95
380.38	93
380.606	81
380.831	90
381.057	84
381.282	84
381.507	77
381.733	87
381.958	104
382.184	108
382.409	91
382.634	97
382.86	94
383.085	85
383.31	99
383.535	86
383.761	82
383.986	86
384.211	93
384.436	92
384.662	96
384.887	84
385.112	78
385.337	91
385.562	102
385.787	90
386.013	90
386.238	107
386.463	80
386.688	102
386.913	100
387.138	75
387.363	92
387.588	101
387.813	93
388.038	94
388.263	96
388.488	93
388.713	93
388.938	89
389.163	85
389.387	84
389.612	77
389.837	90
390.062	91
390.287	85
390.512	80
390.736	88
390.961	75
391.186	78
391.411	85
391.636	88
391.86	86
392.085	88
392.31	91
392.534	94
392.759	82
392.984	87
393.208	70
393.433	68
393.658	84
393.882	91
394.107	83
394.331	96
394.556	86
394.78	90
395.005	77
395.229	97
395.454	106
395.678	88
395.903	92
396.127	78
396.352	95
396.576	81
396.801	80
397.025	82
397.249	87
397.474	89
397.698	86
397.922	98
398.147	84
398.371	94
398.595	94
398.82	82
399.044	93
399.268	78
399.492	97
399.717	89
399.941	95
400.165	81
400.389	91
400.613	79
400.837	77
401.062	89
401.286	92
401.51	80
401.734	90
401.958	81
402.182	92
402.406	94
402.63	75
402.854	94
403.078	91
403.302	92
403.526	86
403.75	111
403.974	81
404.198	82
404.422	87
404.645	102
404.869	97
405.093	83
405.317	92
405.541	105
405.765	95
405.988	89
406.212	95
406.436	85
406.66	84
406.883	92
407.107	81
407.331	84
407.555	88
407.778	106
408.002	89
408.226	86
408.449	90
408.673	92
408.896	81
409.12	99
409.344	90
409.567	93
409.791	86
410.014	97
410.238	90
410.461	86
410.685	101
410.908	97
411.132	74
411.355	84
411.578	93
411.802	88
412.025	94
412.249	92
412.472	92
412.695	83
412.919	76
413.142	76
413.365	89
413.589	81
413.812	82
414.035	111
414.258	95
414.482	91
414.705	95
414.928	98
415.151	100
415.374	92
415.597	85
415.821	86
416.044	83
416.267	97
416.49	85
416.713	88
416.936	88
417.159	70
417.382	82
417.605	97
417.828	91
418.051	97
418.274	77
418.497	74
418.72	90
418.943	86
419.166	92
419.389	94
419.611	89
419.834	82
420.057	94
420.28	83
420.503	82
420.726	97
420.948	91
421.171	99
421.394	91
421.617	82
421.839	88
422.062	77
422.285	95
422.507	90
422.73	90
422.953	102
423.175	89
423.398	84
423.621	92
423.843	90
424.066	84
424.288	99
424.511	89
424.733	80
424.956	99
425.178	99
425.401	97
425.623	93
425.846	88
426.068	90
426.291	111
426.513	98
426.735	98
426.958	89
427.18	90
427.402	88
427.625	81
427.847	87
428.069	99
428.292	94
428.514	91
428.736	93
428.958	83
429.181	81
429.403	94
429.625	94
429.847	93
430.069	92
430.292	88
430.514	90
430.736	85
430.958	80
431.18	88
431.402	86
431.624	88
431.846	96
432.068	88
432.29	88
432.512	91
432.734	93
432.956	88
433.178	84
433.4	82
433.622	89
433.844	94
434.066	89
434.287	87
434.509	80
434.731	96
434.953	82
435.175	93
435.397	83
435.618	104
435.84	92
436.062	97
436.284	96
436.505	89
436.727	85
436.949	92
437.17	92
437.392	77
437.614	98
437.835	78
438.057	85
438.278	90
438.5	93
438.721	87
438.943	92
439.165	94
439.386	88
439.608	83
439.829	86
440.05	102
440.272	93
440.493	72
440.715	84
440.936	96
441.158	76
441.379	100
441.6	82
441.822	86
442.043	98
442.264	82
442.486	86
442.707	90
442.928	90
443.149	83
443.371	84
443.592	90
443.813	89
444.034	98
444.255	80
444.476	88
444.698	86
444.919	91
445.14	169
445.361	125
445.582	91
445.803	87
446.024	88
446.245	93
446.466	78
446.687	74
446.908	84
447.129	84
447.35	92
447.571	96
447.792	95
448.013	87
448.234	88
448.455	90
448.675	92
448.896	87
449.117	100
449.338	85
449.559	93
449.779	93
450	81
450.221	84
450.442	86
450.662	91
450.883	84
451.104	90
451.324	86
451.545	78
451.766	99
451.986	81
452.207	93
452.428	98
452.648	92
452.869	98
453.089	88
453.31	88
453.53	92
453.751	85
453.971	78
454.192	80
454.412	89
454.633	83
454.853	93
455.073	95
455.294	89
455.514	83
455.734	98
455.955	95
456.175	83
456.395	93
456.616	83
456.836	84
457.056	97
457.276	82
457.497	94
457.717	80
457.937	85
458.157	79
458.377	82
458.598	90
458.818	92
459.038	98
459.258	96
459.478	88
459.698	97
459.918	104
460.138	85
460.358	108
460.578	93
460.798	84
461.018	97
461.238	94
461.458	93
461.678	80
461.898	102
462.118	82
462.338	94
462.558	104
462.777	89
462.997	104
463.217	108
463.437	93
463.657	98
463.876	80
464.096	94
464.316	82
464.536	85
464.755	97
464.975	88
465.195	70
465.414	77
465.634	99
465.854	78
466.073	88
466.293	81
466.512	76
466.732	85
466.951	98
467.171	76
467.391	96
467.61	93
467.829	89
468.049	86
468.268	84
468.488	82
468.707	90
468.927	82
469.146	80
469.365	89
469.585	84
469.804	77
470.023	83
470.243	78
470.462	94
470.681	78
470.901	83
471.12	82
471.339	87
471.558	86
471.777	101
471.997	93
472.216	90
472.435	85
472.654	77
472.873	95
473.092	97
473.311	90
473.53	81
473.749	88
473.968	104
474.187	89
474.406	97
474.625	86
474.844	96
475.063	84
475.282	110
475.501	89
475.72	80
475.939	94
476.158	80
476.377	81
476.596	88
476.814	83
477.033	83
477.252	92
477.471	90
477.69	79
477.908	86
478.127	96
478.346	98
478.564	92
478.783	84
479.002	75
479.22	94
479.439	101
479.658	84
479.876	93
480.095	82
480.313	97
480.532	90
480.751	106
480.969	107
481.188	87
481.406	101
481.624	106
481.843	89
482.061	84
482.28	104
482.498	90
482.717	87
482.935	84
483.153	88
483.372	90
483.59	93
483.808	93
484.027	87
484.245	83
484.463	106
484.681	82
484.9	90
485.118	97
485.336	82
485.554	88
485.772	94
485.99	96
486.209	82
486.427	80
486.645	73
486.863	82
487.081	89
487.299	92
487.517	89
487.735	100
487.953	94
488.171	94
488.389	108
488.607	89
488.825	82
489.043	104
489.261	95
489.479	82
489.696	96
489.914	85
490.132	93
490.35	83
490.568	89
490.786	82
491.003	92
491.221	93
491.439	80
491.657	90
491.874	85
492.092	85
492.31	78
492.527	113
492.745	79
492.963	96
493.18	92
493.398	98
493.615	92
493.833	95
494.05	91
494.268	90
494.485	89
494.703	96
494.92	86
495.138	89
495.355	95
495.573	85
495.79	95
496.008	83
496.225	84
496.442	108
496.66	88
496.877	84
497.094	93
497.312	72
497.529	84
497.746	89
497.963	90
498.181	99
498.398	97
498.615	100
498.832	90
499.049	101
499.267	109
499.484	97
499.701	93
499.918	102
500.135	106
500.352	109
500.569	121
500.786	108
501.003	109
501.22	99
501.437	102
501.654	86
501.871	109
502.088	99
502.305	86
502.522	94
502.739	106
502.956	96
503.172	104
503.389	112
503.606	96
503.823	82
504.04	101
504.256	94
504.473	84
504.69	104
504.907	89
505.123	97
505.34	96
505.557	99
505.773	89
505.99	107
506.207	97
506.423	94
506.64	88
506.856	94
507.073	92
507.289	93
507.506	91
507.722	89
507.939	80
508.155	89
508.372	96
508.588	85
508.805	86
509.021	91
509.238	100
509.454	88
509.67	86
509.887	102
510.103	89
510.319	91
510.536	80
510.752	93
510.968	93
511.184	92
511.401	74
511.617	96
511.833	95
512.049	87
512.265	92
512.481	90
512.698	80
512.914	93
513.13	74
513.346	87
513.562	91
513.778	85
513.994	84
514.21	90
514.426	89
514.642	93
514.858	94
515.074	94
515.29	99
515.506	82
515.721	78
515.937	96
516.153	89
516.369	83
516.585	94
516.801	86
517.016	98
517.232	105
517.448	104
517.664	96
517.879	85
518.095	99
518.311	92
518.527	97
518.742	88
518.958	86
519.173	99
519.389	86
519.605	84
519.82	89
520.036	93
520.251	85
520.467	81
520.682	82
520.898	85
521.113	83
521.329	94
521.544	84
521.76	93
521.975	88
522.19	96
522.406	95
522.621	101
522.836	92
523.052	74
523.267	86
523.482	80
523.698	100
523.913	90
524.128	92
524.343	87
524.559	90
524.774	83
524.989	92
525.204	86
525.419	83
525.634	90
525.849	78
526.064	101
526.28	92
526.495	82
526.71	78
526.925	85
527.14	85
527.355	92
527.57	107
527.785	95
527.999	82
528.214	92
528.429	78
528.644	99
528.859	89
529.074	87
529.289	105
529.503	87
529.718	89
529.933	91
530.148	90
530.363	92
530.577	88
530.792	89
531.007	92
531.221	93
531.436	94
531.651	95
531.865	80
532.08	95
532.295	94
532.509	74
532.724	73
532.938	88
533.153	83
533.367	83
533.582	100
533.796	71
534.011	88
534.225	78
534.44	81
534.654	108
534.868	89
535.083	81
535.297	80
535.511	100
535.726	83
535.94	92
536.154	90
536.369	96
536.583	94
536.797	92
537.011	89
537.225	86
537.44	89
537.654	93
537.868	95
538.082	96
538.296	95
538.51	89
538.724	98
538.938	84
539.153	95
539.367	85
539.581	77
539.795	89
540.009	100
540.222	80
540.436	91
540.65	86
540.864	91
541.078	95
541.292	74
541.506	99
541.72	88
541.934	83
542.147	98
542.361	88
542.575	95
542.789	90
543.002	78
543.216	98
543.43	102
543.644	88
543.857	83
544.071	79
544.285	91
544.498	96
544.712	105
544.925	89
545.139	90
545.352	80
545.566	86
545.779	92
545.993	92
546.206	87
546.42	96
546.633	87
546.847	101
547.06	86
547.274	89
547.487	85
547.7	95
547.914	82
548.127	73
548.34	94
548.554	99
548.767	84
548.98	93
549.193	79
549.407	86
549.62	99
549.833	83
550.046	92
550.259	97
550.473	89
550.686	92
550.899	84
551.112	97
551.325	100
551.538	87
551.751	80
551.964	92
552.177	95
552.39	98
552.603	93
552.816	107
553.029	85
553.242	83
553.455	79
553.667	91
553.88	91
554.093	97
554.306	80
554.519	84
554.732	88
554.944	88
555.157	96
555.37	95
555.583	95
555.795	94
556.008	90
556.221	85
556.433	95
556.646	83
556.859	75
557.071	76
557.284	85
557.496	97
557.709	96
557.921	99
558.134	88
558.346	88
558.559	79
558.771	85
558.984	97
559.196	88
559.409	92
559.621	83
559.833	96
560.046	99
560.258	102
560.47	83
560.683	79
560.895	73
561.107	73
561.32	81
561.532	94
561.744	89
561.956	94
562.168	90
562.381	80
562.593	98
562.805	96
563.017	93
563.229	95
563.441	85
563.653	105
563.865	93
564.077	85
564.289	90
564.501	81
564.713	92
564.925	81
565.137	81
565.349	103
565.561	92
565.773	79
565.985	93
566.197	98
566.408	67
566.62	81
566.832	100
567.044	94
567.255	97
567.467	89
567.679	92
567.891	85
568.102	85
568.314	91
568.526	88
568.737	92
568.949	91
569.161	92
569.372	87
569.584	90
569.795	101
570.007	99
570.218	82
570.43	111
570.641	95
570.853	95
571.064	96
571.276	93
571.487	98
571.698	83
571.91	75
572.121	82
572.333	96
572.544	83
572.755	88
572.966	78
573.178	90
573.389	81
573.6	96
573.811	101
574.023	86
574.234	87
574.445	92
574.656	91
574.867	92
575.078	93
575.289	87
575.501	99
575.712	82
575.923	66
576.134	84
576.345	85
576.556	89
576.767	95
576.978	90
577.188	77
577.399	97
577.61	85
577.821	95
578.032	107
578.243	96
578.454	82
578.665	101
578.875	100
579.086	96
579.297	89
579.508	101
579.718	98
579.929	79
580.14	84
580.35	88
580.561	80
580.772	95
580.982	78
581.193	86
581.403	95
581.614	89
581.825	78
582.035	93
582.246	75
582.456	89
582.667	91
582.877	94
583.087	85
583.298	100
583.508	84
583.719	96
583.929	84
584.139	101
584.35	80
584.56	88
584.77	88
584.981	109
585.191	88
585.401	81
585.611	84
585.821	90
586.032	79
586.242	80
586.452	92
586.662	104
586.872	98
587.082	96
587.292	77
587.502	93
587.713	76
587.923	86
588.133	97
588.343	97
588.553	89
588.762	85
