Data from BG_HRD10591_067.txt Node
Date: Fri May 16 15:33:40 EDT 2025
User: Yrep
Spectrometer: HR+D1059
Trigger mode: 1
Integration Time (sec): 1.000000E-1
Scans to average: 1
Electric dark correction enabled: true
Nonlinearity correction enabled: false
Boxcar width: 0
XAxis mode: Wavelengths
Number of Pixels in Spectrum: 2048
>>>>>Begin Spectral Data<<<<<
223.165	-10.06
223.4	-10.06
223.635	-10.06
223.869	-25.06
224.104	-35.06
224.338	-18.06
224.573	-14.06
224.808	-12.06
225.042	0.94
225.277	2.94
225.511	9.94
225.746	14.94
225.98	-2.06
226.215	16.94
226.449	16.94
226.683	19.94
226.918	26.94
227.152	6.94
227.387	37.94
227.621	33.94
227.856	43.94
228.09	51.94
228.324	67.94
228.559	50.94
228.793	50.94
229.027	59.94
229.262	71.94
229.496	73.94
229.73	49.94
229.964	65.94
230.199	74.94
230.433	72.94
230.667	70.94
230.901	67.94
231.136	75.94
231.37	67.94
231.604	67.94
231.838	86.94
232.072	61.94
232.306	82.94
232.541	81.94
232.775	78.94
233.009	85.94
233.243	80.94
233.477	69.94
233.711	79.94
233.945	82.94
234.179	82.94
234.413	84.94
234.647	88.94
234.881	74.94
235.115	83.94
235.349	67.94
235.583	71.94
235.817	76.94
236.051	65.94
236.285	86.94
236.519	81.94
236.753	71.94
236.987	66.94
237.221	71.94
237.455	70.94
237.689	62.94
237.922	75.94
238.156	74.94
238.39	67.94
238.624	55.94
238.858	70.94
239.091	74.94
239.325	77.94
239.559	73.94
239.793	70.94
240.027	62.94
240.26	66.94
240.494	73.94
240.728	68.94
240.961	68.94
241.195	82.94
241.429	75.94
241.662	77.94
241.896	84.94
242.13	75.94
242.363	82.94
242.597	81.94
242.83	77.94
243.064	67.94
243.298	80.94
243.531	67.94
243.765	94.94
243.998	81.94
244.232	85.94
244.465	82.94
244.699	83.94
244.932	64.94
245.166	79.94
245.399	73.94
245.633	69.94
245.866	79.94
246.099	66.94
246.333	72.94
246.566	82.94
246.8	79.94
247.033	84.94
247.266	71.94
247.5	78.94
247.733	71.94
247.966	62.94
248.2	73.94
248.433	82.94
248.666	79.94
248.899	88.94
249.133	72.94
249.366	74.94
249.599	64.94
249.832	67.94
250.066	88.94
250.299	81.94
250.532	79.94
250.765	78.94
250.998	86.94
251.231	72.94
251.465	76.94
251.698	87.94
251.931	81.94
252.164	68.94
252.397	75.94
252.63	90.94
252.863	82.94
253.096	80.94
253.329	91.94
253.562	85.94
253.795	85.94
254.028	72.94
254.261	65.94
254.494	79.94
254.727	75.94
254.96	72.94
255.193	80.94
255.426	67.94
255.659	90.94
255.892	80.94
256.124	78.94
256.357	74.94
256.59	78.94
256.823	69.94
257.056	80.94
257.289	72.94
257.521	73.94
257.754	75.94
257.987	79.94
258.22	77.94
258.452	76.94
258.685	78.94
258.918	73.94
259.151	72.94
259.383	77.94
259.616	73.94
259.849	70.94
260.081	81.94
260.314	87.94
260.547	87.94
260.779	80.94
261.012	64.94
261.244	77.94
261.477	93.94
261.71	75.94
261.942	89.94
262.175	80.94
262.407	75.94
262.64	75.94
262.872	67.94
263.105	77.94
263.337	76.94
263.57	76.94
263.802	81.94
264.035	90.94
264.267	104.94
264.499	75.94
264.732	76.94
264.964	78.94
265.197	84.94
265.429	70.94
265.661	85.94
265.894	91.94
266.126	92.94
266.358	71.94
266.591	65.94
266.823	76.94
267.055	77.94
267.287	90.94
267.52	86.94
267.752	87.94
267.984	81.94
268.216	96.94
268.448	74.94
268.681	73.94
268.913	84.94
269.145	82.94
269.377	90.94
269.609	68.94
269.841	81.94
270.073	108.94
270.306	83.94
270.538	71.94
270.77	80.94
271.002	77.94
271.234	77.94
271.466	79.94
271.698	90.94
271.93	82.94
272.162	76.94
272.394	80.94
272.626	88.94
272.858	74.94
273.09	69.94
273.322	73.94
273.553	70.94
273.785	75.94
274.017	67.94
274.249	86.94
274.481	94.94
274.713	70.94
274.945	72.94
275.176	82.94
275.408	83.94
275.64	75.94
275.872	80.94
276.104	76.94
276.335	90.94
276.567	91.94
276.799	87.94
277.031	82.94
277.262	98.94
277.494	104.94
277.726	77.94
277.957	86.94
278.189	87.94
278.421	90.94
278.652	79.94
278.884	87.94
279.115	83.94
279.347	65.94
279.579	78.94
279.81	77.94
280.042	87.94
280.273	95.94
280.505	84.94
280.736	77.94
280.968	81.94
281.199	85.94
281.431	85.94
281.662	86.94
281.894	92.94
282.125	81.94
282.356	69.94
282.588	73.94
282.819	89.94
283.051	94.94
283.282	81.94
283.513	99.94
283.745	74.94
283.976	86.94
284.207	92.94
284.439	81.94
284.67	86.94
284.901	77.94
285.132	81.94
285.364	85.94
285.595	92.94
285.826	93.94
286.057	90.94
286.288	92.94
286.52	78.94
286.751	83.94
286.982	68.94
287.213	89.94
287.444	82.94
287.675	70.94
287.906	81.94
288.138	67.94
288.369	75.94
288.6	90.94
288.831	84.94
289.062	80.94
289.293	91.94
289.524	74.94
289.755	76.94
289.986	86.94
290.217	73.94
290.448	71.94
290.679	89.94
290.91	96.94
291.141	82.94
291.371	83.94
291.602	65.94
291.833	71.94
292.064	86.94
292.295	73.94
292.526	83.94
292.757	101.94
292.987	81.94
293.218	85.94
293.449	78.94
293.68	83.94
293.91	93.94
294.141	89.94
294.372	87.94
294.603	84.94
294.833	81.94
295.064	88.94
295.295	93.94
295.525	93.94
295.756	66.94
295.987	85.94
296.217	75.94
296.448	80.94
296.679	92.94
296.909	94.94
297.14	93.94
297.37	79.94
297.601	70.94
297.831	81.94
298.062	90.94
298.292	86.94
298.523	81.94
298.753	78.94
298.984	99.94
299.214	87.94
299.445	93.94
299.675	87.94
299.905	76.94
300.136	77.94
300.366	80.94
300.597	72.94
300.827	71.94
301.057	84.94
301.288	92.94
301.518	72.94
301.748	87.94
301.979	108.94
302.209	91.94
302.439	97.94
302.669	96.94
302.9	91.94
303.13	81.94
303.36	80.94
303.59	74.94
303.82	85.94
304.051	73.94
304.281	81.94
304.511	85.94
304.741	90.94
304.971	80.94
305.201	85.94
305.431	90.94
305.661	83.94
305.891	87.94
306.121	97.94
306.352	79.94
306.582	74.94
306.812	84.94
307.042	76.94
307.272	73.94
307.502	74.94
307.731	93.94
307.961	93.94
308.191	98.94
308.421	92.94
308.651	94.94
308.881	84.94
309.111	78.94
309.341	79.94
309.571	79.94
309.8	90.94
310.03	85.94
310.26	74.94
310.49	86.94
310.72	91.94
310.949	106.94
311.179	89.94
311.409	91.94
311.639	94.94
311.868	89.94
312.098	90.94
312.328	88.94
312.557	76.94
312.787	89.94
313.017	77.94
313.246	92.94
313.476	108.94
313.706	67.94
313.935	83.94
314.165	73.94
314.394	84.94
314.624	78.94
314.853	89.94
315.083	85.94
315.312	86.94
315.542	84.94
315.771	87.94
316.001	85.94
316.23	90.94
316.46	66.94
316.689	87.94
316.919	104.94
317.148	80.94
317.377	82.94
317.607	93.94
317.836	77.94
318.065	91.94
318.295	68.94
318.524	85.94
318.753	80.94
318.983	75.94
319.212	89.94
319.441	90.94
319.67	94.94
319.9	87.94
320.129	79.94
320.358	89.94
320.587	93.94
320.816	102.94
321.046	88.94
321.275	83.94
321.504	95.94
321.733	94.94
321.962	81.94
322.191	92.94
322.42	81.94
322.649	87.94
322.878	93.94
323.108	98.94
323.337	90.94
323.566	82.94
323.795	75.94
324.024	85.94
324.253	82.94
324.482	85.94
324.71	81.94
324.939	87.94
325.168	85.94
325.397	85.94
325.626	79.94
325.855	81.94
326.084	78.94
326.313	78.94
326.542	91.94
326.77	87.94
326.999	92.94
327.228	90.94
327.457	83.94
327.686	82.94
327.914	83.94
328.143	76.94
328.372	85.94
328.6	83.94
328.829	83.94
329.058	88.94
329.287	81.94
329.515	96.94
329.744	100.94
329.972	99.94
330.201	91.94
330.43	79.94
330.658	79.94
330.887	83.94
331.115	69.94
331.344	93.94
331.572	91.94
331.801	74.94
332.03	95.94
332.258	93.94
332.486	71.94
332.715	86.94
332.943	75.94
333.172	90.94
333.4	95.94
333.629	79.94
333.857	87.94
334.085	85.94
334.314	88.94
334.542	78.94
334.771	73.94
334.999	88.94
335.227	87.94
335.455	87.94
335.684	94.94
335.912	78.94
336.14	93.94
336.369	92.94
336.597	91.94
336.825	79.94
337.053	92.94
337.281	87.94
337.51	79.94
337.738	90.94
337.966	77.94
338.194	71.94
338.422	74.94
338.65	77.94
338.878	93.94
339.106	84.94
339.334	98.94
339.562	79.94
339.79	87.94
340.018	90.94
340.246	68.94
340.474	102.94
340.702	99.94
340.93	94.94
341.158	95.94
341.386	92.94
341.614	99.94
341.842	74.94
342.07	85.94
342.298	81.94
342.526	64.94
342.754	80.94
342.981	78.94
343.209	94.94
343.437	106.94
343.665	73.94
343.893	78.94
344.12	74.94
344.348	81.94
344.576	90.94
344.804	83.94
345.031	82.94
345.259	87.94
345.487	83.94
345.714	89.94
345.942	81.94
346.17	93.94
346.397	89.94
346.625	78.94
346.853	85.94
347.08	85.94
347.308	101.94
347.535	86.94
347.763	89.94
347.99	88.94
348.218	95.94
348.445	73.94
348.673	79.94
348.9	77.94
349.128	82.94
349.355	93.94
349.583	73.94
349.81	76.94
350.037	102.94
350.265	89.94
350.492	83.94
350.72	85.94
350.947	84.94
351.174	88.94
351.402	76.94
351.629	97.94
351.856	83.94
352.083	77.94
352.311	79.94
352.538	73.94
352.765	80.94
352.992	83.94
353.22	96.94
353.447	76.94
353.674	84.94
353.901	89.94
354.128	86.94
354.355	87.94
354.583	81.94
354.81	85.94
355.037	84.94
355.264	78.94
355.491	78.94
355.718	74.94
355.945	84.94
356.172	94.94
356.399	81.94
356.626	67.94
356.853	85.94
357.08	88.94
357.307	86.94
357.534	81.94
357.761	67.94
357.988	87.94
358.215	95.94
358.441	90.94
358.668	89.94
358.895	89.94
359.122	81.94
359.349	82.94
359.576	86.94
359.802	79.94
360.029	78.94
360.256	90.94
360.483	79.94
360.709	80.94
360.936	89.94
361.163	92.94
361.39	86.94
361.616	88.94
361.843	90.94
362.07	86.94
362.296	99.94
362.523	78.94
362.749	91.94
362.976	78.94
363.203	99.94
363.429	73.94
363.656	89.94
363.882	93.94
364.109	84.94
364.335	90.94
364.562	83.94
364.788	88.94
365.015	84.94
365.241	81.94
365.468	83.94
365.694	74.94
365.92	80.94
366.147	86.94
366.373	90.94
366.599	70.94
366.826	72.94
367.052	90.94
367.278	89.94
367.505	86.94
367.731	101.94
367.957	93.94
368.184	75.94
368.41	89.94
368.636	88.94
368.862	80.94
369.089	91.94
369.315	85.94
369.541	79.94
369.767	79.94
369.993	87.94
370.219	90.94
370.445	85.94
370.672	89.94
370.898	78.94
371.124	85.94
371.35	81.94
371.576	85.94
371.802	88.94
372.028	92.94
372.254	91.94
372.48	84.94
372.706	77.94
372.932	82.94
373.158	90.94
373.384	78.94
373.61	92.94
373.835	80.94
374.061	99.94
374.287	78.94
374.513	94.94
374.739	66.94
374.965	82.94
375.191	85.94
375.416	88.94
375.642	79.94
375.868	88.94
376.094	91.94
376.319	86.94
376.545	79.94
376.771	78.94
376.997	71.94
377.222	85.94
377.448	79.94
377.674	81.94
377.899	87.94
378.125	75.94
378.35	78.94
378.576	73.94
378.802	87.94
379.027	83.94
379.253	79.94
379.478	88.94
379.704	75.94
379.929	78.94
380.155	80.94
380.38	83.94
380.606	106.94
380.831	87.94
381.057	87.94
381.282	91.94
381.507	81.94
381.733	92.94
381.958	97.94
382.184	88.94
382.409	83.94
382.634	70.94
382.86	80.94
383.085	89.94
383.31	89.94
383.535	78.94
383.761	85.94
383.986	79.94
384.211	76.94
384.436	93.94
384.662	87.94
384.887	68.94
385.112	81.94
385.337	79.94
385.562	82.94
385.787	78.94
386.013	84.94
386.238	81.94
386.463	75.94
386.688	83.94
386.913	80.94
387.138	91.94
387.363	73.94
387.588	87.94
387.813	82.94
388.038	83.94
388.263	85.94
388.488	91.94
388.713	75.94
388.938	87.94
389.163	82.94
389.387	81.94
389.612	82.94
389.837	74.94
390.062	81.94
390.287	80.94
390.512	87.94
390.736	69.94
390.961	79.94
391.186	85.94
391.411	81.94
391.636	86.94
391.86	83.94
392.085	81.94
392.31	94.94
392.534	87.94
392.759	76.94
392.984	79.94
393.208	88.94
393.433	85.94
393.658	80.94
393.882	79.94
394.107	81.94
394.331	83.94
394.556	69.94
394.78	89.94
395.005	78.94
395.229	71.94
395.454	90.94
395.678	77.94
395.903	77.94
396.127	83.94
396.352	93.94
396.576	81.94
396.801	89.94
397.025	81.94
397.249	100.94
397.474	95.94
397.698	101.94
397.922	83.94
398.147	74.94
398.371	74.94
398.595	85.94
398.82	91.94
399.044	98.94
399.268	83.94
399.492	79.94
399.717	106.94
399.941	97.94
400.165	73.94
400.389	91.94
400.613	92.94
400.837	80.94
401.062	93.94
401.286	80.94
401.51	96.94
401.734	91.94
401.958	79.94
402.182	97.94
402.406	78.94
402.63	82.94
402.854	85.94
403.078	89.94
403.302	89.94
403.526	97.94
403.75	80.94
403.974	90.94
404.198	82.94
404.422	85.94
404.645	80.94
404.869	88.94
405.093	79.94
405.317	91.94
405.541	85.94
405.765	81.94
405.988	96.94
406.212	98.94
406.436	94.94
406.66	82.94
406.883	76.94
407.107	91.94
407.331	82.94
407.555	85.94
407.778	87.94
408.002	76.94
408.226	85.94
408.449	101.94
408.673	97.94
408.896	93.94
409.12	97.94
409.344	79.94
409.567	85.94
409.791	104.94
410.014	90.94
410.238	84.94
410.461	83.94
410.685	83.94
410.908	92.94
411.132	109.94
411.355	67.94
411.578	86.94
411.802	99.94
412.025	74.94
412.249	85.94
412.472	81.94
412.695	87.94
412.919	86.94
413.142	72.94
413.365	72.94
413.589	76.94
413.812	73.94
414.035	90.94
414.258	91.94
414.482	91.94
414.705	78.94
414.928	94.94
415.151	102.94
415.374	89.94
415.597	77.94
415.821	81.94
416.044	82.94
416.267	96.94
416.49	86.94
416.713	95.94
416.936	79.94
417.159	88.94
417.382	87.94
417.605	78.94
417.828	94.94
418.051	91.94
418.274	92.94
418.497	81.94
418.72	75.94
418.943	83.94
419.166	85.94
419.389	83.94
419.611	91.94
419.834	86.94
420.057	79.94
420.28	86.94
420.503	93.94
420.726	87.94
420.948	91.94
421.171	82.94
421.394	73.94
421.617	80.94
421.839	94.94
422.062	89.94
422.285	78.94
422.507	78.94
422.73	88.94
422.953	102.94
423.175	84.94
423.398	79.94
423.621	79.94
423.843	95.94
424.066	92.94
424.288	81.94
424.511	96.94
424.733	92.94
424.956	85.94
425.178	93.94
425.401	78.94
425.623	87.94
425.846	84.94
426.068	82.94
426.291	94.94
426.513	83.94
426.735	81.94
426.958	81.94
427.18	89.94
427.402	80.94
427.625	97.94
427.847	82.94
428.069	89.94
428.292	86.94
428.514	83.94
428.736	87.94
428.958	86.94
429.181	86.94
429.403	80.94
429.625	90.94
429.847	75.94
430.069	85.94
430.292	97.94
430.514	90.94
430.736	83.94
430.958	66.94
431.18	77.94
431.402	80.94
431.624	87.94
431.846	86.94
432.068	98.94
432.29	86.94
432.512	89.94
432.734	75.94
432.956	82.94
433.178	82.94
433.4	72.94
433.622	82.94
433.844	82.94
434.066	74.94
434.287	71.94
434.509	79.94
434.731	70.94
434.953	80.94
435.175	97.94
435.397	82.94
435.618	79.94
435.84	91.94
436.062	73.94
436.284	81.94
436.505	97.94
436.727	77.94
436.949	79.94
437.17	80.94
437.392	88.94
437.614	92.94
437.835	82.94
438.057	86.94
438.278	88.94
438.5	91.94
438.721	96.94
438.943	88.94
439.165	93.94
439.386	93.94
439.608	88.94
439.829	75.94
440.05	88.94
440.272	83.94
440.493	72.94
440.715	80.94
440.936	80.94
441.158	84.94
441.379	92.94
441.6	83.94
441.822	79.94
442.043	94.94
442.264	90.94
442.486	90.94
442.707	85.94
442.928	81.94
443.149	91.94
443.371	75.94
443.592	105.94
443.813	98.94
444.034	91.94
444.255	81.94
444.476	75.94
444.698	72.94
444.919	77.94
445.14	153.94
445.361	125.94
445.582	91.94
445.803	93.94
446.024	77.94
446.245	89.94
446.466	87.94
446.687	81.94
446.908	83.94
447.129	79.94
447.35	86.94
447.571	89.94
447.792	93.94
448.013	94.94
448.234	69.94
448.455	95.94
448.675	73.94
448.896	80.94
449.117	83.94
449.338	82.94
449.559	70.94
449.779	78.94
450	77.94
450.221	74.94
450.442	88.94
450.662	78.94
450.883	90.94
451.104	89.94
451.324	79.94
451.545	101.94
451.766	98.94
451.986	86.94
452.207	93.94
452.428	86.94
452.648	81.94
452.869	94.94
453.089	92.94
453.31	91.94
453.53	89.94
453.751	86.94
453.971	80.94
454.192	73.94
454.412	72.94
454.633	79.94
454.853	87.94
455.073	79.94
455.294	74.94
455.514	75.94
455.734	84.94
455.955	90.94
456.175	78.94
456.395	95.94
456.616	82.94
456.836	78.94
457.056	97.94
457.276	80.94
457.497	84.94
457.717	88.94
457.937	88.94
458.157	79.94
458.377	97.94
458.598	86.94
458.818	84.94
459.038	92.94
459.258	78.94
459.478	79.94
459.698	79.94
459.918	87.94
460.138	79.94
460.358	95.94
460.578	95.94
460.798	86.94
461.018	78.94
461.238	84.94
461.458	83.94
461.678	89.94
461.898	94.94
462.118	87.94
462.338	87.94
462.558	92.94
462.777	88.94
462.997	84.94
463.217	104.94
463.437	86.94
463.657	86.94
463.876	93.94
464.096	92.94
464.316	77.94
464.536	96.94
464.755	77.94
464.975	95.94
465.195	88.94
465.414	91.94
465.634	73.94
465.854	98.94
466.073	82.94
466.293	75.94
466.512	88.94
466.732	104.94
466.951	97.94
467.171	89.94
467.391	85.94
467.61	94.94
467.829	81.94
468.049	87.94
468.268	82.94
468.488	82.94
468.707	87.94
468.927	79.94
469.146	81.94
469.365	88.94
469.585	71.94
469.804	85.94
470.023	86.94
470.243	79.94
470.462	89.94
470.681	79.94
470.901	82.94
471.12	91.94
471.339	88.94
471.558	105.94
471.777	84.94
471.997	94.94
472.216	89.94
472.435	81.94
472.654	64.94
472.873	108.94
473.092	80.94
473.311	82.94
473.53	82.94
473.749	90.94
473.968	78.94
474.187	93.94
474.406	85.94
474.625	92.94
474.844	77.94
475.063	88.94
475.282	75.94
475.501	76.94
475.72	81.94
475.939	97.94
476.158	74.94
476.377	102.94
476.596	85.94
476.814	89.94
477.033	90.94
477.252	99.94
477.471	82.94
477.69	85.94
477.908	80.94
478.127	93.94
478.346	79.94
478.564	85.94
478.783	85.94
479.002	86.94
479.22	91.94
479.439	94.94
479.658	86.94
479.876	86.94
480.095	78.94
480.313	75.94
480.532	90.94
480.751	96.94
480.969	95.94
481.188	83.94
481.406	77.94
481.624	90.94
481.843	74.94
482.061	79.94
482.28	80.94
482.498	97.94
482.717	78.94
482.935	86.94
483.153	90.94
483.372	85.94
483.59	77.94
483.808	76.94
484.027	88.94
484.245	82.94
484.463	90.94
484.681	92.94
484.9	78.94
485.118	83.94
485.336	63.94
485.554	87.94
485.772	77.94
485.99	71.94
486.209	93.94
486.427	94.94
486.645	95.94
486.863	80.94
487.081	79.94
487.299	92.94
487.517	91.94
487.735	95.94
487.953	83.94
488.171	92.94
488.389	90.94
488.607	82.94
488.825	65.94
489.043	96.94
489.261	79.94
489.479	87.94
489.696	84.94
489.914	87.94
490.132	101.94
490.35	88.94
490.568	82.94
490.786	82.94
491.003	90.94
491.221	96.94
491.439	89.94
491.657	93.94
491.874	75.94
492.092	77.94
492.31	72.94
492.527	91.94
492.745	94.94
492.963	81.94
493.18	89.94
493.398	76.94
493.615	82.94
493.833	93.94
494.05	73.94
494.268	87.94
494.485	98.94
494.703	94.94
494.92	75.94
495.138	93.94
495.355	80.94
495.573	97.94
495.79	83.94
496.008	80.94
496.225	81.94
496.442	70.94
496.66	83.94
496.877	99.94
497.094	85.94
497.312	82.94
497.529	87.94
497.746	105.94
497.963	90.94
498.181	89.94
498.398	91.94
498.615	85.94
498.832	92.94
499.049	85.94
499.267	90.94
499.484	102.94
499.701	82.94
499.918	100.94
500.135	101.94
500.352	108.94
500.569	107.94
500.786	97.94
501.003	98.94
501.22	107.94
501.437	113.94
501.654	106.94
501.871	103.94
502.088	92.94
502.305	92.94
502.522	77.94
502.739	103.94
502.956	86.94
503.172	73.94
503.389	98.94
503.606	82.94
503.823	94.94
504.04	98.94
504.256	82.94
504.473	86.94
504.69	90.94
504.907	83.94
505.123	78.94
505.34	84.94
505.557	75.94
505.773	94.94
505.99	85.94
506.207	89.94
506.423	72.94
506.64	78.94
506.856	83.94
507.073	74.94
507.289	92.94
507.506	87.94
507.722	88.94
507.939	95.94
508.155	91.94
508.372	83.94
508.588	88.94
508.805	91.94
509.021	81.94
509.238	77.94
509.454	74.94
509.67	90.94
509.887	101.94
510.103	79.94
510.319	98.94
510.536	88.94
510.752	90.94
510.968	103.94
511.184	89.94
511.401	78.94
511.617	80.94
511.833	94.94
512.049	81.94
512.265	86.94
512.481	92.94
512.698	102.94
512.914	83.94
513.13	85.94
513.346	82.94
513.562	73.94
513.778	90.94
513.994	88.94
514.21	85.94
514.426	79.94
514.642	82.94
514.858	78.94
515.074	93.94
515.29	98.94
515.506	89.94
515.721	93.94
515.937	98.94
516.153	102.94
516.369	91.94
516.585	88.94
516.801	92.94
517.016	87.94
517.232	103.94
517.448	90.94
517.664	93.94
517.879	83.94
518.095	81.94
518.311	86.94
518.527	85.94
518.742	81.94
518.958	90.94
519.173	89.94
519.389	87.94
519.605	96.94
