Data from BG_HRD10591_034.txt Node
Date: Fri May 16 15:33:24 EDT 2025
User: Yrep
Spectrometer: HR+D1059
Trigger mode: 1
Integration Time (sec): 1.000000E-1
Scans to average: 1
Electric dark correction enabled: true
Nonlinearity correction enabled: false
Boxcar width: 0
XAxis mode: Wavelengths
Number of Pixels in Spectrum: 2048
>>>>>Begin Spectral Data<<<<<
223.165	-26.06
223.4	-26.06
223.635	-26.06
223.869	-16.06
224.104	-28.06
224.338	-20.06
224.573	-30.06
224.808	-13.06
225.042	-2.06
225.277	0.94
225.511	-7.06
225.746	9.94
225.98	13.94
226.215	14.94
226.449	17.94
226.683	12.94
226.918	37.94
227.152	33.94
227.387	45.94
227.621	30.94
227.856	56.94
228.09	47.94
228.324	53.94
228.559	59.94
228.793	57.94
229.027	54.94
229.262	62.94
229.496	73.94
229.73	79.94
229.964	77.94
230.199	83.94
230.433	81.94
230.667	77.94
230.901	73.94
231.136	76.94
231.37	76.94
231.604	69.94
231.838	90.94
232.072	85.94
232.306	90.94
232.541	74.94
232.775	81.94
233.009	90.94
233.243	76.94
233.477	88.94
233.711	89.94
233.945	85.94
234.179	75.94
234.413	82.94
234.647	95.94
234.881	78.94
235.115	70.94
235.349	82.94
235.583	82.94
235.817	86.94
236.051	74.94
236.285	82.94
236.519	73.94
236.753	80.94
236.987	71.94
237.221	77.94
237.455	82.94
237.689	81.94
237.922	75.94
238.156	65.94
238.39	87.94
238.624	74.94
238.858	70.94
239.091	78.94
239.325	81.94
239.559	73.94
239.793	81.94
240.027	78.94
240.26	56.94
240.494	75.94
240.728	72.94
240.961	67.94
241.195	74.94
241.429	77.94
241.662	77.94
241.896	86.94
242.13	72.94
242.363	92.94
242.597	82.94
242.83	74.94
243.064	83.94
243.298	78.94
243.531	79.94
243.765	62.94
243.998	85.94
244.232	85.94
244.465	71.94
244.699	81.94
244.932	77.94
245.166	66.94
245.399	81.94
245.633	75.94
245.866	81.94
246.099	79.94
246.333	75.94
246.566	77.94
246.8	71.94
247.033	73.94
247.266	72.94
247.5	79.94
247.733	72.94
247.966	74.94
248.2	84.94
248.433	73.94
248.666	71.94
248.899	98.94
249.133	62.94
249.366	78.94
249.599	82.94
249.832	74.94
250.066	77.94
250.299	73.94
250.532	87.94
250.765	67.94
250.998	82.94
251.231	73.94
251.465	60.94
251.698	67.94
251.931	87.94
252.164	75.94
252.397	91.94
252.63	80.94
252.863	81.94
253.096	70.94
253.329	75.94
253.562	73.94
253.795	76.94
254.028	88.94
254.261	83.94
254.494	73.94
254.727	82.94
254.96	59.94
255.193	74.94
255.426	98.94
255.659	79.94
255.892	90.94
256.124	79.94
256.357	73.94
256.59	87.94
256.823	82.94
257.056	75.94
257.289	85.94
257.521	73.94
257.754	82.94
257.987	81.94
258.22	82.94
258.452	83.94
258.685	80.94
258.918	84.94
259.151	65.94
259.383	87.94
259.616	82.94
259.849	73.94
260.081	93.94
260.314	75.94
260.547	80.94
260.779	87.94
261.012	79.94
261.244	75.94
261.477	84.94
261.71	65.94
261.942	89.94
262.175	73.94
262.407	76.94
262.64	78.94
262.872	92.94
263.105	82.94
263.337	75.94
263.57	80.94
263.802	74.94
264.035	79.94
264.267	68.94
264.499	66.94
264.732	85.94
264.964	75.94
265.197	71.94
265.429	56.94
265.661	81.94
265.894	88.94
266.126	90.94
266.358	75.94
266.591	88.94
266.823	96.94
267.055	80.94
267.287	84.94
267.52	79.94
267.752	75.94
267.984	77.94
268.216	83.94
268.448	75.94
268.681	83.94
268.913	81.94
269.145	80.94
269.377	83.94
269.609	78.94
269.841	87.94
270.073	88.94
270.306	75.94
270.538	92.94
270.77	77.94
271.002	71.94
271.234	87.94
271.466	86.94
271.698	82.94
271.93	79.94
272.162	77.94
272.394	72.94
272.626	66.94
272.858	73.94
273.09	80.94
273.322	88.94
273.553	75.94
273.785	79.94
274.017	76.94
274.249	73.94
274.481	71.94
274.713	91.94
274.945	83.94
275.176	66.94
275.408	90.94
275.64	86.94
275.872	85.94
276.104	92.94
276.335	86.94
276.567	80.94
276.799	77.94
277.031	95.94
277.262	89.94
277.494	75.94
277.726	94.94
277.957	84.94
278.189	78.94
278.421	78.94
278.652	81.94
278.884	79.94
279.115	76.94
279.347	81.94
279.579	84.94
279.81	86.94
280.042	96.94
280.273	84.94
280.505	102.94
280.736	72.94
280.968	75.94
281.199	91.94
281.431	83.94
281.662	72.94
281.894	91.94
282.125	79.94
282.356	87.94
282.588	75.94
282.819	78.94
283.051	76.94
283.282	95.94
283.513	103.94
283.745	66.94
283.976	85.94
284.207	75.94
284.439	95.94
284.67	83.94
284.901	78.94
285.132	88.94
285.364	85.94
285.595	88.94
285.826	78.94
286.057	83.94
286.288	72.94
286.52	83.94
286.751	91.94
286.982	90.94
287.213	88.94
287.444	92.94
287.675	85.94
287.906	81.94
288.138	82.94
288.369	85.94
288.6	75.94
288.831	81.94
289.062	91.94
289.293	86.94
289.524	86.94
289.755	80.94
289.986	68.94
290.217	89.94
290.448	86.94
290.679	88.94
290.91	88.94
291.141	78.94
291.371	87.94
291.602	84.94
291.833	89.94
292.064	91.94
292.295	80.94
292.526	75.94
292.757	83.94
292.987	79.94
293.218	75.94
293.449	96.94
293.68	87.94
293.91	82.94
294.141	90.94
294.372	99.94
294.603	82.94
294.833	78.94
295.064	81.94
295.295	80.94
295.525	70.94
295.756	94.94
295.987	83.94
296.217	89.94
296.448	83.94
296.679	76.94
296.909	87.94
297.14	77.94
297.37	81.94
297.601	97.94
297.831	86.94
298.062	86.94
298.292	89.94
298.523	85.94
298.753	81.94
298.984	83.94
299.214	71.94
299.445	95.94
299.675	94.94
299.905	78.94
300.136	94.94
300.366	79.94
300.597	85.94
300.827	82.94
301.057	67.94
301.288	97.94
301.518	86.94
301.748	69.94
301.979	89.94
302.209	93.94
302.439	78.94
302.669	71.94
302.9	90.94
303.13	73.94
303.36	91.94
303.59	78.94
303.82	87.94
304.051	91.94
304.281	94.94
304.511	81.94
304.741	84.94
304.971	65.94
305.201	81.94
305.431	99.94
305.661	87.94
305.891	76.94
306.121	95.94
306.352	83.94
306.582	89.94
306.812	87.94
307.042	87.94
307.272	81.94
307.502	96.94
307.731	89.94
307.961	87.94
308.191	81.94
308.421	78.94
308.651	82.94
308.881	82.94
309.111	85.94
309.341	73.94
309.571	88.94
309.8	72.94
310.03	79.94
310.26	90.94
310.49	97.94
310.72	89.94
310.949	91.94
311.179	95.94
311.409	85.94
311.639	97.94
311.868	72.94
312.098	82.94
312.328	86.94
312.557	86.94
312.787	83.94
313.017	86.94
313.246	89.94
313.476	75.94
313.706	90.94
313.935	95.94
314.165	76.94
314.394	88.94
314.624	83.94
314.853	80.94
315.083	90.94
315.312	75.94
315.542	78.94
315.771	92.94
316.001	82.94
316.23	89.94
316.46	90.94
316.689	93.94
316.919	71.94
317.148	81.94
317.377	78.94
317.607	88.94
317.836	87.94
318.065	74.94
318.295	83.94
318.524	93.94
318.753	96.94
318.983	80.94
319.212	86.94
319.441	73.94
319.67	83.94
319.9	85.94
320.129	90.94
320.358	89.94
320.587	88.94
320.816	100.94
321.046	80.94
321.275	85.94
321.504	73.94
321.733	87.94
321.962	83.94
322.191	83.94
322.42	68.94
322.649	86.94
322.878	82.94
323.108	85.94
323.337	73.94
323.566	94.94
323.795	68.94
324.024	102.94
324.253	80.94
324.482	92.94
324.71	92.94
324.939	76.94
325.168	91.94
325.397	84.94
325.626	95.94
325.855	80.94
326.084	87.94
326.313	85.94
326.542	86.94
326.77	98.94
326.999	87.94
327.228	89.94
327.457	96.94
327.686	70.94
327.914	85.94
328.143	85.94
328.372	96.94
328.6	96.94
328.829	86.94
329.058	93.94
329.287	77.94
329.515	75.94
329.744	90.94
329.972	89.94
330.201	98.94
330.43	92.94
330.658	98.94
330.887	71.94
331.115	87.94
331.344	80.94
331.572	95.94
331.801	94.94
332.03	85.94
332.258	97.94
332.486	90.94
332.715	77.94
332.943	81.94
333.172	97.94
333.4	82.94
333.629	83.94
333.857	72.94
334.085	79.94
334.314	75.94
334.542	75.94
334.771	77.94
334.999	105.94
335.227	86.94
335.455	87.94
335.684	85.94
335.912	70.94
336.14	78.94
336.369	86.94
336.597	92.94
336.825	88.94
337.053	86.94
337.281	82.94
337.51	95.94
337.738	83.94
337.966	91.94
338.194	77.94
338.422	96.94
338.65	90.94
338.878	90.94
339.106	78.94
339.334	82.94
339.562	89.94
339.79	103.94
340.018	87.94
340.246	77.94
340.474	91.94
340.702	106.94
340.93	89.94
341.158	89.94
341.386	75.94
341.614	83.94
341.842	105.94
342.07	86.94
342.298	85.94
342.526	86.94
342.754	88.94
342.981	77.94
343.209	79.94
343.437	95.94
343.665	87.94
343.893	89.94
344.12	79.94
344.348	68.94
344.576	83.94
344.804	92.94
345.031	87.94
345.259	77.94
345.487	85.94
345.714	96.94
345.942	93.94
346.17	94.94
346.397	85.94
346.625	90.94
346.853	96.94
347.08	84.94
347.308	86.94
347.535	97.94
347.763	65.94
347.99	97.94
348.218	88.94
348.445	85.94
348.673	81.94
348.9	83.94
349.128	91.94
349.355	90.94
349.583	83.94
349.81	79.94
350.037	89.94
350.265	93.94
350.492	95.94
350.72	78.94
350.947	70.94
351.174	99.94
351.402	78.94
351.629	90.94
351.856	81.94
352.083	93.94
352.311	89.94
352.538	82.94
352.765	77.94
352.992	89.94
353.22	94.94
353.447	97.94
353.674	94.94
353.901	91.94
354.128	84.94
354.355	82.94
354.583	83.94
354.81	98.94
355.037	97.94
355.264	88.94
355.491	83.94
355.718	81.94
355.945	93.94
356.172	87.94
356.399	85.94
356.626	89.94
356.853	91.94
357.08	92.94
357.307	81.94
357.534	93.94
357.761	81.94
357.988	81.94
358.215	91.94
358.441	92.94
358.668	98.94
358.895	87.94
359.122	90.94
359.349	75.94
359.576	86.94
359.802	81.94
360.029	73.94
360.256	82.94
360.483	89.94
360.709	79.94
360.936	93.94
361.163	88.94
361.39	91.94
361.616	85.94
361.843	68.94
362.07	82.94
362.296	92.94
362.523	87.94
362.749	90.94
362.976	86.94
363.203	102.94
363.429	96.94
363.656	87.94
363.882	86.94
364.109	82.94
364.335	84.94
364.562	87.94
364.788	87.94
365.015	95.94
365.241	92.94
365.468	89.94
365.694	85.94
365.92	81.94
366.147	87.94
366.373	80.94
366.599	88.94
366.826	72.94
367.052	96.94
367.278	93.94
367.505	89.94
367.731	88.94
367.957	83.94
368.184	92.94
368.41	82.94
368.636	99.94
368.862	90.94
369.089	88.94
369.315	82.94
369.541	96.94
369.767	85.94
369.993	96.94
370.219	104.94
370.445	87.94
370.672	95.94
370.898	103.94
371.124	85.94
371.35	98.94
371.576	89.94
371.802	85.94
372.028	88.94
372.254	93.94
372.48	87.94
372.706	87.94
372.932	97.94
373.158	83.94
373.384	85.94
373.61	93.94
373.835	87.94
374.061	91.94
374.287	85.94
374.513	88.94
374.739	77.94
374.965	94.94
375.191	89.94
375.416	101.94
375.642	96.94
375.868	86.94
376.094	89.94
376.319	88.94
376.545	72.94
376.771	93.94
376.997	94.94
377.222	93.94
377.448	85.94
377.674	92.94
377.899	90.94
378.125	96.94
378.35	78.94
378.576	88.94
378.802	84.94
379.027	96.94
379.253	101.94
379.478	83.94
379.704	87.94
379.929	81.94
380.155	87.94
380.38	88.94
380.606	84.94
380.831	82.94
381.057	91.94
381.282	93.94
381.507	89.94
381.733	98.94
381.958	83.94
382.184	81.94
382.409	87.94
382.634	88.94
382.86	83.94
383.085	96.94
383.31	94.94
383.535	73.94
383.761	89.94
383.986	97.94
384.211	77.94
384.436	74.94
384.662	88.94
384.887	93.94
385.112	91.94
385.337	93.94
385.562	90.94
385.787	89.94
386.013	90.94
386.238	80.94
386.463	93.94
386.688	88.94
386.913	94.94
387.138	83.94
387.363	91.94
387.588	91.94
387.813	82.94
388.038	82.94
388.263	93.94
388.488	89.94
388.713	90.94
388.938	83.94
389.163	87.94
389.387	89.94
389.612	98.94
389.837	93.94
390.062	90.94
390.287	85.94
390.512	83.94
390.736	85.94
390.961	104.94
391.186	85.94
391.411	75.94
391.636	89.94
391.86	76.94
392.085	90.94
392.31	82.94
392.534	88.94
392.759	98.94
392.984	103.94
393.208	93.94
393.433	95.94
393.658	78.94
393.882	95.94
394.107	85.94
394.331	85.94
394.556	80.94
394.78	81.94
395.005	88.94
395.229	85.94
395.454	91.94
395.678	82.94
395.903	77.94
396.127	71.94
396.352	86.94
396.576	82.94
396.801	96.94
397.025	83.94
397.249	89.94
397.474	102.94
397.698	91.94
397.922	88.94
398.147	88.94
398.371	84.94
398.595	80.94
398.82	82.94
399.044	86.94
399.268	115.94
399.492	85.94
399.717	96.94
399.941	93.94
400.165	93.94
400.389	86.94
400.613	82.94
400.837	91.94
401.062	99.94
401.286	74.94
401.51	80.94
401.734	88.94
401.958	79.94
402.182	89.94
402.406	85.94
402.63	69.94
402.854	93.94
403.078	77.94
403.302	97.94
403.526	94.94
403.75	88.94
403.974	100.94
404.198	89.94
404.422	77.94
404.645	81.94
404.869	94.94
405.093	94.94
405.317	94.94
405.541	88.94
405.765	76.94
405.988	85.94
406.212	87.94
406.436	80.94
406.66	87.94
406.883	95.94
407.107	88.94
407.331	97.94
407.555	87.94
407.778	80.94
408.002	83.94
408.226	86.94
408.449	94.94
408.673	101.94
408.896	95.94
409.12	85.94
409.344	98.94
409.567	85.94
409.791	91.94
410.014	94.94
410.238	78.94
410.461	82.94
410.685	87.94
410.908	96.94
411.132	92.94
411.355	86.94
411.578	77.94
411.802	97.94
412.025	96.94
412.249	78.94
412.472	82.94
412.695	102.94
412.919	73.94
413.142	87.94
413.365	81.94
413.589	85.94
413.812	88.94
414.035	84.94
414.258	77.94
414.482	81.94
414.705	90.94
414.928	91.94
415.151	80.94
415.374	95.94
415.597	89.94
415.821	93.94
416.044	81.94
416.267	80.94
416.49	77.94
416.713	89.94
416.936	101.94
417.159	82.94
417.382	77.94
417.605	83.94
417.828	75.94
418.051	98.94
418.274	92.94
418.497	80.94
418.72	82.94
418.943	98.94
419.166	91.94
419.389	101.94
419.611	83.94
419.834	79.94
420.057	95.94
420.28	101.94
420.503	85.94
420.726	104.94
420.948	98.94
421.171	85.94
421.394	93.94
421.617	88.94
421.839	67.94
422.062	90.94
422.285	94.94
422.507	88.94
422.73	93.94
422.953	92.94
423.175	86.94
423.398	90.94
423.621	95.94
423.843	80.94
424.066	80.94
424.288	93.94
424.511	87.94
424.733	77.94
424.956	96.94
425.178	98.94
425.401	90.94
425.623	92.94
425.846	74.94
426.068	81.94
426.291	97.94
426.513	71.94
426.735	84.94
426.958	89.94
427.18	87.94
427.402	85.94
427.625	75.94
427.847	74.94
428.069	84.94
428.292	80.94
428.514	81.94
428.736	90.94
428.958	93.94
429.181	88.94
429.403	86.94
429.625	93.94
429.847	80.94
430.069	85.94
430.292	83.94
430.514	85.94
430.736	83.94
430.958	77.94
431.18	80.94
431.402	94.94
431.624	77.94
431.846	84.94
432.068	85.94
432.29	88.94
432.512	88.94
432.734	86.94
432.956	75.94
433.178	79.94
433.4	92.94
433.622	76.94
433.844	91.94
434.066	79.94
434.287	96.94
434.509	95.94
434.731	89.94
434.953	94.94
435.175	82.94
435.397	85.94
435.618	93.94
435.84	96.94
436.062	82.94
436.284	96.94
436.505	97.94
436.727	87.94
436.949	81.94
437.17	109.94
437.392	89.94
437.614	91.94
437.835	72.94
438.057	87.94
438.278	93.94
438.5	83.94
438.721	88.94
438.943	96.94
439.165	82.94
439.386	106.94
439.608	92.94
439.829	77.94
440.05	81.94
440.272	72.94
440.493	83.94
440.715	87.94
440.936	94.94
441.158	77.94
441.379	89.94
441.6	94.94
441.822	94.94
442.043	84.94
442.264	78.94
442.486	81.94
442.707	92.94
442.928	98.94
443.149	90.94
443.371	87.94
443.592	101.94
443.813	98.94
444.034	90.94
444.255	98.94
444.476	67.94
444.698	105.94
444.919	86.94
445.14	151.94
445.361	118.94
445.582	86.94
445.803	77.94
446.024	77.94
446.245	92.94
446.466	75.94
446.687	79.94
446.908	88.94
447.129	93.94
447.35	72.94
447.571	91.94
447.792	91.94
448.013	88.94
448.234	104.94
448.455	83.94
448.675	89.94
448.896	101.94
449.117	87.94
449.338	77.94
449.559	92.94
449.779	87.94
450	93.94
450.221	80.94
450.442	89.94
450.662	90.94
450.883	89.94
451.104	75.94
451.324	87.94
451.545	83.94
451.766	72.94
451.986	98.94
452.207	85.94
452.428	85.94
452.648	97.94
452.869	99.94
453.089	85.94
453.31	91.94
453.53	106.94
453.751	97.94
453.971	88.94
454.192	78.94
454.412	72.94
454.633	90.94
454.853	86.94
455.073	75.94
455.294	74.94
455.514	80.94
455.734	87.94
455.955	82.94
456.175	91.94
456.395	79.94
456.616	73.94
456.836	69.94
457.056	91.94
457.276	83.94
457.497	95.94
457.717	75.94
457.937	82.94
458.157	89.94
458.377	87.94
458.598	89.94
458.818	91.94
459.038	84.94
459.258	98.94
459.478	96.94
459.698	85.94
459.918	89.94
460.138	95.94
460.358	89.94
460.578	85.94
460.798	78.94
461.018	89.94
461.238	93.94
461.458	93.94
461.678	81.94
461.898	83.94
462.118	93.94
462.338	82.94
462.558	87.94
462.777	93.94
462.997	89.94
463.217	85.94
463.437	90.94
463.657	89.94
463.876	81.94
464.096	78.94
464.316	97.94
464.536	85.94
464.755	87.94
464.975	91.94
465.195	81.94
465.414	80.94
465.634	85.94
465.854	81.94
466.073	74.94
466.293	83.94
466.512	96.94
466.732	95.94
466.951	89.94
467.171	79.94
467.391	80.94
467.61	76.94
467.829	89.94
468.049	83.94
468.268	82.94
468.488	90.94
468.707	79.94
468.927	90.94
469.146	89.94
469.365	79.94
469.585	92.94
469.804	79.94
470.023	94.94
470.243	80.94
470.462	75.94
470.681	92.94
470.901	83.94
471.12	80.94
471.339	95.94
471.558	87.94
471.777	89.94
471.997	87.94
472.216	84.94
472.435	74.94
472.654	86.94
472.873	93.94
473.092	82.94
473.311	94.94
473.53	96.94
473.749	86.94
473.968	101.94
474.187	89.94
474.406	79.94
474.625	91.94
474.844	93.94
475.063	77.94
475.282	71.94
475.501	83.94
475.72	83.94
475.939	77.94
476.158	74.94
476.377	87.94
476.596	98.94
476.814	78.94
477.033	77.94
477.252	81.94
477.471	85.94
477.69	82.94
477.908	93.94
478.127	94.94
478.346	76.94
478.564	86.94
478.783	80.94
479.002	86.94
479.22	97.94
479.439	90.94
479.658	88.94
479.876	73.94
480.095	92.94
480.313	87.94
480.532	97.94
480.751	83.94
480.969	91.94
481.188	85.94
481.406	85.94
481.624	98.94
481.843	85.94
482.061	88.94
482.28	84.94
482.498	84.94
482.717	79.94
482.935	94.94
483.153	79.94
483.372	91.94
483.59	103.94
483.808	81.94
484.027	91.94
484.245	101.94
484.463	82.94
484.681	97.94
484.9	83.94
485.118	81.94
485.336	79.94
485.554	108.94
485.772	88.94
485.99	87.94
486.209	88.94
486.427	96.94
486.645	85.94
486.863	64.94
487.081	95.94
487.299	79.94
487.517	104.94
487.735	81.94
487.953	87.94
488.171	81.94
488.389	102.94
488.607	92.94
488.825	101.94
489.043	85.94
489.261	82.94
489.479	101.94
489.696	80.94
489.914	87.94
490.132	80.94
490.35	89.94
490.568	103.94
490.786	87.94
491.003	89.94
491.221	82.94
491.439	75.94
491.657	88.94
491.874	95.94
492.092	77.94
492.31	95.94
492.527	83.94
492.745	82.94
492.963	97.94
493.18	92.94
493.398	97.94
493.615	88.94
493.833	107.94
494.05	91.94
494.268	79.94
494.485	93.94
494.703	90.94
494.92	92.94
495.138	87.94
495.355	82.94
495.573	101.94
495.79	95.94
496.008	84.94
496.225	90.94
496.442	80.94
496.66	79.94
496.877	94.94
497.094	105.94
497.312	91.94
497.529	99.94
497.746	94.94
497.963	85.94
498.181	81.94
498.398	85.94
498.615	96.94
498.832	93.94
499.049	79.94
499.267	96.94
499.484	107.94
499.701	104.94
499.918	103.94
500.135	115.94
500.352	119.94
500.569	101.94
500.786	101.94
501.003	112.94
501.22	95.94
501.437	103.94
501.654	89.94
501.871	91.94
502.088	91.94
502.305	90.94
502.522	90.94
502.739	80.94
502.956	103.94
503.172	105.94
503.389	89.94
503.606	92.94
503.823	88.94
504.04	104.94
504.256	87.94
504.473	77.94
504.69	89.94
504.907	91.94
505.123	93.94
505.34	84.94
505.557	86.94
505.773	102.94
505.99	79.94
506.207	90.94
506.423	83.94
506.64	101.94
506.856	87.94
507.073	87.94
507.289	96.94
507.506	103.94
507.722	85.94
507.939	105.94
508.155	92.94
508.372	69.94
508.588	95.94
508.805	100.94
509.021	87.94
509.238	81.94
509.454	90.94
509.67	91.94
509.887	85.94
510.103	86.94
510.319	86.94
510.536	92.94
510.752	94.94
510.968	83.94
511.184	92.94
511.401	85.94
511.617	83.94
511.833	98.94
512.049	93.94
512.265	80.94
512.481	84.94
512.698	89.94
512.914	90.94
513.13	86.94
513.346	91.94
513.562	87.94
513.778	92.94
513.994	93.94
514.21	86.94
514.426	97.94
514.642	95.94
514.858	90.94
515.074	82.94
515.29	104.94
515.506	103.94
515.721	96.94
515.937	96.94
516.153	91.94
516.369	99.94
516.585	89.94
516.801	98.94
517.016	91.94
517.232	95.94
517.448	101.94
517.664	86.94
517.879	80.94
518.095	88.94
518.311	91.94
518.527	89.94
518.742	94.94
518.958	86.94
519.173	91.94
519.389	85.94
