Data from BG_HRD10591_051.txt Node
Date: Fri May 16 15:33:32 EDT 2025
User: Yrep
Spectrometer: HR+D1059
Trigger mode: 1
Integration Time (sec): 1.000000E-1
Scans to average: 1
Electric dark correction enabled: true
Nonlinearity correction enabled: false
Boxcar width: 0
XAxis mode: Wavelengths
Number of Pixels in Spectrum: 2048
>>>>>Begin Spectral Data<<<<<
223.165	-9.56
223.4	-9.56
223.635	-9.56
223.869	-14.56
224.104	-13.56
224.338	-19.56
224.573	-23.56
224.808	-22.56
225.042	5.44
225.277	-12.56
225.511	0.44
225.746	3.44
225.98	-3.56
226.215	18.44
226.449	21.44
226.683	27.44
226.918	16.44
227.152	26.44
227.387	33.44
227.621	40.44
227.856	50.44
228.09	48.44
228.324	49.44
228.559	60.44
228.793	68.44
229.027	68.44
229.262	74.44
229.496	60.44
229.73	65.44
229.964	81.44
230.199	79.44
230.433	66.44
230.667	81.44
230.901	57.44
231.136	67.44
231.37	88.44
231.604	74.44
231.838	82.44
232.072	82.44
232.306	84.44
232.541	81.44
232.775	75.44
233.009	67.44
233.243	74.44
233.477	98.44
233.711	81.44
233.945	74.44
234.179	89.44
234.413	90.44
234.647	71.44
234.881	79.44
235.115	73.44
235.349	76.44
235.583	76.44
235.817	79.44
236.051	82.44
236.285	78.44
236.519	66.44
236.753	78.44
236.987	73.44
237.221	68.44
237.455	67.44
237.689	87.44
237.922	78.44
238.156	83.44
238.39	95.44
238.624	85.44
238.858	66.44
239.091	81.44
239.325	76.44
239.559	79.44
239.793	79.44
240.027	82.44
240.26	76.44
240.494	64.44
240.728	78.44
240.961	64.44
241.195	66.44
241.429	59.44
241.662	83.44
241.896	90.44
242.13	79.44
242.363	73.44
242.597	80.44
242.83	82.44
243.064	79.44
243.298	70.44
243.531	83.44
243.765	81.44
243.998	73.44
244.232	73.44
244.465	80.44
244.699	86.44
244.932	87.44
245.166	68.44
245.399	59.44
245.633	71.44
245.866	74.44
246.099	73.44
246.333	89.44
246.566	79.44
246.8	81.44
247.033	77.44
247.266	81.44
247.5	74.44
247.733	71.44
247.966	83.44
248.2	74.44
248.433	68.44
248.666	79.44
248.899	84.44
249.133	72.44
249.366	68.44
249.599	73.44
249.832	65.44
250.066	78.44
250.299	83.44
250.532	83.44
250.765	81.44
250.998	71.44
251.231	59.44
251.465	81.44
251.698	79.44
251.931	83.44
252.164	70.44
252.397	94.44
252.63	77.44
252.863	82.44
253.096	83.44
253.329	68.44
253.562	76.44
253.795	73.44
254.028	74.44
254.261	82.44
254.494	86.44
254.727	79.44
254.96	78.44
255.193	67.44
255.426	89.44
255.659	69.44
255.892	87.44
256.124	85.44
256.357	73.44
256.59	86.44
256.823	75.44
257.056	62.44
257.289	71.44
257.521	82.44
257.754	76.44
257.987	66.44
258.22	76.44
258.452	103.44
258.685	87.44
258.918	79.44
259.151	81.44
259.383	81.44
259.616	87.44
259.849	88.44
260.081	79.44
260.314	76.44
260.547	78.44
260.779	58.44
261.012	85.44
261.244	79.44
261.477	77.44
261.71	79.44
261.942	77.44
262.175	93.44
262.407	83.44
262.64	82.44
262.872	86.44
263.105	75.44
263.337	88.44
263.57	94.44
263.802	88.44
264.035	87.44
264.267	80.44
264.499	75.44
264.732	88.44
264.964	90.44
265.197	67.44
265.429	79.44
265.661	72.44
265.894	83.44
266.126	79.44
266.358	91.44
266.591	80.44
266.823	85.44
267.055	93.44
267.287	86.44
267.52	96.44
267.752	72.44
267.984	83.44
268.216	83.44
268.448	86.44
268.681	80.44
268.913	82.44
269.145	88.44
269.377	95.44
269.609	77.44
269.841	91.44
270.073	89.44
270.306	92.44
270.538	83.44
270.77	79.44
271.002	79.44
271.234	80.44
271.466	79.44
271.698	79.44
271.93	82.44
272.162	101.44
272.394	90.44
272.626	91.44
272.858	96.44
273.09	99.44
273.322	73.44
273.553	83.44
273.785	87.44
274.017	96.44
274.249	88.44
274.481	86.44
274.713	73.44
274.945	85.44
275.176	89.44
275.408	104.44
275.64	97.44
275.872	84.44
276.104	77.44
276.335	96.44
276.567	82.44
276.799	87.44
277.031	99.44
277.262	83.44
277.494	88.44
277.726	84.44
277.957	64.44
278.189	92.44
278.421	75.44
278.652	105.44
278.884	74.44
279.115	87.44
279.347	82.44
279.579	93.44
279.81	78.44
280.042	83.44
280.273	65.44
280.505	83.44
280.736	95.44
280.968	94.44
281.199	87.44
281.431	83.44
281.662	86.44
281.894	83.44
282.125	98.44
282.356	87.44
282.588	78.44
282.819	101.44
283.051	84.44
283.282	75.44
283.513	88.44
283.745	87.44
283.976	81.44
284.207	79.44
284.439	91.44
284.67	87.44
284.901	91.44
285.132	84.44
285.364	89.44
285.595	84.44
285.826	90.44
286.057	81.44
286.288	87.44
286.52	84.44
286.751	102.44
286.982	71.44
287.213	77.44
287.444	83.44
287.675	89.44
287.906	81.44
288.138	81.44
288.369	83.44
288.6	85.44
288.831	81.44
289.062	94.44
289.293	87.44
289.524	88.44
289.755	93.44
289.986	83.44
290.217	86.44
290.448	89.44
290.679	97.44
290.91	72.44
291.141	88.44
291.371	87.44
291.602	90.44
291.833	101.44
292.064	89.44
292.295	87.44
292.526	98.44
292.757	87.44
292.987	83.44
293.218	88.44
293.449	89.44
293.68	92.44
293.91	75.44
294.141	81.44
294.372	77.44
294.603	77.44
294.833	84.44
295.064	85.44
295.295	86.44
295.525	93.44
295.756	83.44
295.987	90.44
296.217	86.44
296.448	86.44
296.679	79.44
296.909	92.44
297.14	77.44
297.37	91.44
297.601	88.44
297.831	91.44
298.062	83.44
298.292	85.44
298.523	85.44
298.753	93.44
298.984	80.44
299.214	95.44
299.445	78.44
299.675	81.44
299.905	80.44
300.136	80.44
300.366	86.44
300.597	96.44
300.827	94.44
301.057	97.44
301.288	95.44
301.518	101.44
301.748	85.44
301.979	107.44
302.209	90.44
302.439	82.44
302.669	80.44
302.9	77.44
303.13	90.44
303.36	85.44
303.59	87.44
303.82	82.44
304.051	90.44
304.281	97.44
304.511	90.44
304.741	86.44
304.971	98.44
305.201	82.44
305.431	75.44
305.661	82.44
305.891	91.44
306.121	85.44
306.352	87.44
306.582	76.44
306.812	84.44
307.042	76.44
307.272	67.44
307.502	66.44
307.731	80.44
307.961	85.44
308.191	75.44
308.421	81.44
308.651	72.44
308.881	90.44
309.111	81.44
309.341	79.44
309.571	82.44
309.8	79.44
310.03	76.44
310.26	86.44
310.49	101.44
310.72	78.44
310.949	68.44
311.179	86.44
311.409	94.44
311.639	82.44
311.868	85.44
312.098	79.44
312.328	84.44
312.557	91.44
312.787	77.44
313.017	75.44
313.246	89.44
313.476	79.44
313.706	94.44
313.935	88.44
314.165	81.44
314.394	91.44
314.624	91.44
314.853	110.44
315.083	81.44
315.312	90.44
315.542	77.44
315.771	93.44
316.001	93.44
316.23	93.44
316.46	92.44
316.689	101.44
316.919	89.44
317.148	83.44
317.377	97.44
317.607	71.44
317.836	81.44
318.065	86.44
318.295	81.44
318.524	92.44
318.753	77.44
318.983	85.44
319.212	79.44
319.441	90.44
319.67	68.44
319.9	99.44
320.129	91.44
320.358	93.44
320.587	90.44
320.816	114.44
321.046	91.44
321.275	80.44
321.504	87.44
321.733	85.44
321.962	77.44
322.191	85.44
322.42	86.44
322.649	74.44
322.878	102.44
323.108	70.44
323.337	91.44
323.566	91.44
323.795	88.44
324.024	98.44
324.253	83.44
324.482	95.44
324.71	81.44
324.939	91.44
325.168	98.44
325.397	97.44
325.626	86.44
325.855	93.44
326.084	76.44
326.313	82.44
326.542	92.44
326.77	96.44
326.999	87.44
327.228	86.44
327.457	86.44
327.686	99.44
327.914	88.44
328.143	96.44
328.372	77.44
328.6	81.44
328.829	72.44
329.058	81.44
329.287	75.44
329.515	84.44
329.744	96.44
329.972	78.44
330.201	90.44
330.43	89.44
330.658	83.44
330.887	66.44
331.115	86.44
331.344	103.44
331.572	89.44
331.801	81.44
332.03	83.44
332.258	102.44
332.486	104.44
332.715	81.44
332.943	89.44
333.172	88.44
333.4	101.44
333.629	102.44
333.857	95.44
334.085	89.44
334.314	87.44
334.542	93.44
334.771	106.44
334.999	86.44
335.227	78.44
335.455	96.44
335.684	75.44
335.912	96.44
336.14	87.44
336.369	73.44
336.597	91.44
336.825	95.44
337.053	88.44
337.281	78.44
337.51	83.44
337.738	89.44
337.966	81.44
338.194	86.44
338.422	90.44
338.65	88.44
338.878	86.44
339.106	77.44
339.334	86.44
339.562	76.44
339.79	92.44
340.018	83.44
340.246	91.44
340.474	94.44
340.702	89.44
340.93	86.44
341.158	85.44
341.386	86.44
341.614	87.44
341.842	81.44
342.07	89.44
342.298	82.44
342.526	82.44
342.754	89.44
342.981	94.44
343.209	87.44
343.437	90.44
343.665	88.44
343.893	87.44
344.12	74.44
344.348	93.44
344.576	78.44
344.804	69.44
345.031	93.44
345.259	85.44
345.487	90.44
345.714	98.44
345.942	91.44
346.17	90.44
346.397	90.44
346.625	90.44
346.853	101.44
347.08	78.44
347.308	88.44
347.535	86.44
347.763	70.44
347.99	82.44
348.218	95.44
348.445	83.44
348.673	83.44
348.9	89.44
349.128	75.44
349.355	88.44
349.583	67.44
349.81	83.44
350.037	78.44
350.265	102.44
350.492	80.44
350.72	88.44
350.947	82.44
351.174	89.44
351.402	75.44
351.629	87.44
351.856	93.44
352.083	60.44
352.311	78.44
352.538	86.44
352.765	94.44
352.992	90.44
353.22	96.44
353.447	98.44
353.674	95.44
353.901	74.44
354.128	78.44
354.355	76.44
354.583	67.44
354.81	83.44
355.037	83.44
355.264	86.44
355.491	87.44
355.718	73.44
355.945	87.44
356.172	73.44
356.399	70.44
356.626	73.44
356.853	79.44
357.08	93.44
357.307	98.44
357.534	71.44
357.761	88.44
357.988	82.44
358.215	81.44
358.441	78.44
358.668	94.44
358.895	82.44
359.122	95.44
359.349	79.44
359.576	81.44
359.802	83.44
360.029	81.44
360.256	80.44
360.483	79.44
360.709	98.44
360.936	104.44
361.163	82.44
361.39	97.44
361.616	86.44
361.843	73.44
362.07	88.44
362.296	92.44
362.523	65.44
362.749	71.44
362.976	95.44
363.203	81.44
363.429	93.44
363.656	76.44
363.882	76.44
364.109	73.44
364.335	81.44
364.562	82.44
364.788	85.44
365.015	73.44
365.241	82.44
365.468	92.44
365.694	87.44
365.92	88.44
366.147	92.44
366.373	81.44
366.599	83.44
366.826	80.44
367.052	81.44
367.278	102.44
367.505	73.44
367.731	110.44
367.957	81.44
368.184	80.44
368.41	79.44
368.636	81.44
368.862	76.44
369.089	86.44
369.315	87.44
369.541	89.44
369.767	84.44
369.993	101.44
370.219	89.44
370.445	90.44
370.672	89.44
370.898	98.44
371.124	87.44
371.35	79.44
371.576	98.44
371.802	80.44
372.028	75.44
372.254	89.44
372.48	81.44
372.706	79.44
372.932	87.44
373.158	90.44
373.384	90.44
373.61	71.44
373.835	88.44
374.061	71.44
374.287	95.44
374.513	96.44
374.739	85.44
374.965	81.44
375.191	84.44
375.416	95.44
375.642	94.44
375.868	90.44
376.094	95.44
376.319	101.44
376.545	86.44
376.771	83.44
376.997	70.44
377.222	84.44
377.448	87.44
377.674	91.44
377.899	90.44
378.125	82.44
378.35	91.44
378.576	71.44
378.802	83.44
379.027	77.44
379.253	87.44
379.478	98.44
379.704	76.44
379.929	95.44
380.155	88.44
380.38	81.44
380.606	86.44
380.831	84.44
381.057	92.44
381.282	89.44
381.507	79.44
381.733	89.44
381.958	82.44
382.184	76.44
382.409	85.44
382.634	81.44
382.86	80.44
383.085	104.44
383.31	93.44
383.535	76.44
383.761	84.44
383.986	82.44
384.211	95.44
384.436	77.44
384.662	98.44
384.887	87.44
385.112	96.44
385.337	73.44
385.562	92.44
385.787	80.44
386.013	96.44
386.238	92.44
386.463	91.44
386.688	96.44
386.913	73.44
387.138	73.44
387.363	87.44
387.588	97.44
387.813	84.44
388.038	109.44
388.263	91.44
388.488	73.44
388.713	95.44
388.938	90.44
389.163	95.44
389.387	102.44
389.612	74.44
389.837	88.44
390.062	94.44
390.287	92.44
390.512	80.44
390.736	89.44
390.961	85.44
391.186	86.44
391.411	77.44
391.636	85.44
391.86	91.44
392.085	105.44
392.31	81.44
392.534	87.44
392.759	97.44
392.984	93.44
393.208	88.44
393.433	77.44
393.658	88.44
393.882	89.44
394.107	81.44
394.331	91.44
394.556	90.44
394.78	102.44
395.005	88.44
395.229	102.44
395.454	87.44
395.678	86.44
395.903	88.44
396.127	88.44
396.352	92.44
396.576	76.44
396.801	89.44
397.025	86.44
397.249	85.44
397.474	87.44
397.698	100.44
397.922	86.44
398.147	79.44
398.371	67.44
398.595	85.44
398.82	97.44
399.044	95.44
399.268	109.44
399.492	99.44
399.717	93.44
399.941	80.44
400.165	94.44
400.389	75.44
400.613	92.44
400.837	92.44
401.062	91.44
401.286	95.44
401.51	77.44
401.734	86.44
401.958	92.44
402.182	85.44
402.406	75.44
402.63	90.44
402.854	93.44
403.078	88.44
403.302	92.44
403.526	83.44
403.75	94.44
403.974	88.44
404.198	85.44
404.422	98.44
404.645	87.44
404.869	73.44
405.093	80.44
405.317	76.44
405.541	82.44
405.765	92.44
405.988	78.44
406.212	84.44
406.436	66.44
406.66	95.44
406.883	92.44
407.107	71.44
407.331	98.44
407.555	85.44
407.778	95.44
408.002	74.44
408.226	90.44
408.449	84.44
408.673	86.44
408.896	85.44
409.12	83.44
409.344	82.44
409.567	79.44
409.791	97.44
410.014	102.44
410.238	86.44
410.461	80.44
410.685	76.44
410.908	77.44
411.132	86.44
411.355	84.44
411.578	94.44
411.802	74.44
412.025	89.44
412.249	97.44
412.472	80.44
412.695	96.44
412.919	92.44
413.142	98.44
413.365	83.44
413.589	94.44
413.812	74.44
414.035	91.44
414.258	96.44
414.482	77.44
414.705	86.44
414.928	82.44
415.151	78.44
415.374	85.44
415.597	91.44
415.821	93.44
416.044	86.44
416.267	82.44
416.49	87.44
416.713	77.44
416.936	97.44
417.159	75.44
417.382	79.44
417.605	86.44
417.828	83.44
418.051	93.44
418.274	79.44
418.497	89.44
418.72	84.44
418.943	83.44
419.166	86.44
419.389	83.44
419.611	82.44
419.834	85.44
420.057	82.44
420.28	78.44
420.503	84.44
420.726	83.44
420.948	72.44
421.171	77.44
421.394	88.44
421.617	79.44
421.839	95.44
422.062	80.44
422.285	85.44
422.507	88.44
422.73	88.44
422.953	82.44
423.175	89.44
423.398	89.44
423.621	81.44
423.843	88.44
424.066	86.44
424.288	82.44
424.511	75.44
424.733	86.44
424.956	82.44
425.178	87.44
425.401	89.44
425.623	92.44
425.846	98.44
426.068	97.44
426.291	90.44
426.513	90.44
426.735	77.44
426.958	95.44
427.18	85.44
427.402	77.44
427.625	91.44
427.847	88.44
428.069	77.44
428.292	86.44
428.514	79.44
428.736	106.44
428.958	89.44
429.181	80.44
429.403	82.44
429.625	81.44
429.847	76.44
430.069	92.44
430.292	81.44
430.514	79.44
430.736	84.44
430.958	92.44
431.18	80.44
431.402	92.44
431.624	87.44
431.846	67.44
432.068	83.44
432.29	86.44
432.512	97.44
432.734	83.44
432.956	89.44
433.178	76.44
433.4	69.44
433.622	92.44
433.844	100.44
434.066	95.44
434.287	103.44
434.509	94.44
434.731	81.44
434.953	84.44
435.175	77.44
435.397	97.44
435.618	84.44
435.84	89.44
436.062	78.44
436.284	73.44
436.505	81.44
436.727	95.44
436.949	88.44
437.17	78.44
437.392	89.44
437.614	93.44
437.835	90.44
438.057	83.44
438.278	69.44
438.5	84.44
438.721	85.44
438.943	107.44
439.165	84.44
439.386	81.44
439.608	83.44
439.829	73.44
440.05	82.44
440.272	79.44
440.493	77.44
440.715	96.44
440.936	83.44
441.158	85.44
441.379	84.44
441.6	101.44
441.822	92.44
442.043	85.44
442.264	95.44
442.486	83.44
442.707	91.44
442.928	92.44
443.149	80.44
443.371	96.44
443.592	99.44
443.813	102.44
444.034	98.44
444.255	103.44
444.476	90.44
444.698	83.44
444.919	88.44
445.14	175.44
445.361	126.44
445.582	86.44
445.803	90.44
446.024	98.44
446.245	90.44
446.466	102.44
446.687	79.44
446.908	97.44
447.129	78.44
447.35	89.44
447.571	96.44
447.792	84.44
448.013	75.44
448.234	85.44
448.455	66.44
448.675	85.44
448.896	88.44
449.117	89.44
449.338	87.44
449.559	74.44
449.779	85.44
450	74.44
450.221	86.44
450.442	94.44
450.662	88.44
450.883	89.44
451.104	89.44
451.324	87.44
451.545	89.44
451.766	78.44
451.986	79.44
452.207	77.44
452.428	93.44
452.648	95.44
452.869	88.44
453.089	96.44
453.31	79.44
453.53	73.44
453.751	98.44
453.971	81.44
454.192	96.44
454.412	99.44
454.633	83.44
454.853	93.44
455.073	98.44
455.294	86.44
455.514	75.44
455.734	67.44
455.955	81.44
456.175	81.44
456.395	72.44
456.616	91.44
456.836	91.44
457.056	80.44
457.276	79.44
457.497	83.44
457.717	82.44
457.937	73.44
458.157	92.44
458.377	81.44
458.598	68.44
458.818	72.44
459.038	104.44
459.258	96.44
459.478	96.44
459.698	89.44
459.918	99.44
460.138	83.44
460.358	94.44
460.578	82.44
460.798	81.44
461.018	89.44
461.238	79.44
461.458	83.44
461.678	89.44
461.898	90.44
462.118	80.44
462.338	94.44
462.558	92.44
462.777	94.44
462.997	89.44
463.217	90.44
463.437	102.44
463.657	94.44
463.876	82.44
464.096	98.44
464.316	103.44
464.536	81.44
464.755	104.44
464.975	78.44
465.195	75.44
465.414	79.44
465.634	85.44
465.854	85.44
466.073	101.44
466.293	94.44
466.512	76.44
466.732	92.44
466.951	80.44
467.171	82.44
467.391	87.44
467.61	101.44
467.829	81.44
468.049	87.44
468.268	89.44
468.488	98.44
468.707	95.44
468.927	85.44
469.146	91.44
469.365	88.44
469.585	79.44
469.804	83.44
470.023	79.44
470.243	75.44
470.462	90.44
470.681	80.44
470.901	102.44
471.12	101.44
471.339	80.44
471.558	97.44
471.777	89.44
471.997	80.44
472.216	90.44
472.435	90.44
472.654	89.44
472.873	87.44
473.092	85.44
473.311	86.44
473.53	73.44
473.749	75.44
473.968	93.44
474.187	82.44
474.406	89.44
474.625	85.44
474.844	83.44
475.063	83.44
475.282	80.44
475.501	78.44
475.72	88.44
475.939	103.44
476.158	85.44
476.377	96.44
476.596	102.44
476.814	82.44
477.033	82.44
477.252	83.44
477.471	88.44
477.69	88.44
477.908	82.44
478.127	96.44
478.346	80.44
478.564	78.44
478.783	89.44
479.002	76.44
479.22	81.44
479.439	89.44
479.658	78.44
479.876	73.44
480.095	80.44
480.313	85.44
480.532	74.44
480.751	100.44
480.969	85.44
481.188	79.44
481.406	102.44
481.624	101.44
481.843	94.44
482.061	87.44
482.28	90.44
482.498	93.44
482.717	106.44
482.935	96.44
483.153	92.44
483.372	96.44
483.59	94.44
483.808	88.44
484.027	89.44
484.245	67.44
484.463	86.44
484.681	92.44
484.9	100.44
485.118	74.44
485.336	80.44
485.554	92.44
485.772	89.44
485.99	89.44
486.209	83.44
486.427	89.44
486.645	86.44
486.863	102.44
487.081	84.44
487.299	92.44
487.517	101.44
487.735	78.44
487.953	87.44
488.171	85.44
488.389	85.44
488.607	74.44
488.825	90.44
489.043	96.44
489.261	80.44
489.479	97.44
489.696	85.44
489.914	98.44
490.132	95.44
490.35	81.44
490.568	85.44
490.786	89.44
491.003	98.44
491.221	89.44
491.439	89.44
491.657	87.44
491.874	87.44
492.092	94.44
492.31	81.44
492.527	80.44
492.745	91.44
492.963	93.44
493.18	75.44
493.398	88.44
493.615	79.44
493.833	82.44
494.05	101.44
494.268	86.44
494.485	77.44
494.703	80.44
494.92	85.44
495.138	81.44
495.355	95.44
495.573	97.44
495.79	83.44
496.008	92.44
496.225	95.44
496.442	87.44
496.66	72.44
496.877	73.44
497.094	89.44
497.312	88.44
497.529	102.44
497.746	96.44
497.963	85.44
498.181	95.44
498.398	104.44
498.615	97.44
498.832	99.44
499.049	92.44
499.267	79.44
499.484	89.44
499.701	101.44
499.918	108.44
500.135	95.44
500.352	109.44
500.569	98.44
500.786	103.44
501.003	101.44
501.22	98.44
501.437	89.44
501.654	94.44
501.871	94.44
502.088	98.44
502.305	90.44
502.522	89.44
502.739	90.44
502.956	105.44
503.172	103.44
503.389	86.44
503.606	79.44
503.823	105.44
504.04	86.44
504.256	90.44
504.473	93.44
504.69	79.44
504.907	86.44
505.123	84.44
505.34	72.44
505.557	86.44
505.773	99.44
505.99	85.44
506.207	81.44
506.423	81.44
506.64	71.44
506.856	96.44
507.073	85.44
507.289	88.44
507.506	81.44
507.722	92.44
507.939	87.44
508.155	85.44
508.372	94.44
508.588	86.44
508.805	88.44
509.021	85.44
509.238	86.44
509.454	99.44
509.67	88.44
509.887	92.44
510.103	94.44
510.319	103.44
510.536	106.44
510.752	100.44
510.968	87.44
511.184	87.44
511.401	101.44
511.617	93.44
511.833	88.44
512.049	76.44
512.265	94.44
512.481	94.44
512.698	80.44
512.914	87.44
513.13	103.44
513.346	90.44
513.562	97.44
513.778	89.44
513.994	89.44
514.21	85.44
514.426	87.44
514.642	78.44
514.858	94.44
515.074	83.44
515.29	101.44
515.506	80.44
515.721	97.44
515.937	79.44
516.153	88.44
516.369	73.44
516.585	80.44
516.801	86.44
517.016	94.44
517.232	97.44
517.448	89.44
517.664	79.44
517.879	73.44
518.095	86.44
518.311	77.44
518.527	91.44
518.742	90.44
518.958	80.44
519.173	94.44
519.389	86.44
