Data from BG_HRD10591_049.txt Node
Date: Fri May 16 15:33:31 EDT 2025
User: Yrep
Spectrometer: HR+D1059
Trigger mode: 1
Integration Time (sec): 1.000000E-1
Scans to average: 1
Electric dark correction enabled: true
Nonlinearity correction enabled: false
Boxcar width: 0
XAxis mode: Wavelengths
Number of Pixels in Spectrum: 2048
>>>>>Begin Spectral Data<<<<<
223.165	-19.62
223.4	-19.62
223.635	-19.62
223.869	-19.62
224.104	-7.62
224.338	-0.62
224.573	-21.62
224.808	5.38
225.042	-18.62
225.277	4.38
225.511	-13.62
225.746	-1.62
225.98	8.38
226.215	8.38
226.449	10.38
226.683	22.38
226.918	22.38
227.152	21.38
227.387	37.38
227.621	23.38
227.856	40.38
228.09	54.38
228.324	48.38
228.559	47.38
228.793	57.38
229.027	64.38
229.262	49.38
229.496	62.38
229.73	68.38
229.964	57.38
230.199	70.38
230.433	70.38
230.667	51.38
230.901	86.38
231.136	76.38
231.37	72.38
231.604	85.38
231.838	79.38
232.072	73.38
232.306	80.38
232.541	72.38
232.775	77.38
233.009	82.38
233.243	93.38
233.477	78.38
233.711	84.38
233.945	70.38
234.179	79.38
234.413	73.38
234.647	70.38
234.881	82.38
235.115	75.38
235.349	79.38
235.583	88.38
235.817	80.38
236.051	77.38
236.285	75.38
236.519	66.38
236.753	62.38
236.987	64.38
237.221	65.38
237.455	72.38
237.689	75.38
237.922	63.38
238.156	85.38
238.39	74.38
238.624	75.38
238.858	76.38
239.091	67.38
239.325	71.38
239.559	80.38
239.793	74.38
240.027	65.38
240.26	65.38
240.494	80.38
240.728	82.38
240.961	71.38
241.195	85.38
241.429	94.38
241.662	71.38
241.896	74.38
242.13	78.38
242.363	87.38
242.597	67.38
242.83	92.38
243.064	82.38
243.298	70.38
243.531	75.38
243.765	73.38
243.998	75.38
244.232	83.38
244.465	78.38
244.699	70.38
244.932	80.38
245.166	64.38
245.399	75.38
245.633	88.38
245.866	76.38
246.099	61.38
246.333	83.38
246.566	90.38
246.8	70.38
247.033	83.38
247.266	74.38
247.5	76.38
247.733	72.38
247.966	73.38
248.2	68.38
248.433	78.38
248.666	71.38
248.899	75.38
249.133	84.38
249.366	78.38
249.599	72.38
249.832	72.38
250.066	93.38
250.299	90.38
250.532	67.38
250.765	78.38
250.998	74.38
251.231	85.38
251.465	73.38
251.698	79.38
251.931	81.38
252.164	81.38
252.397	75.38
252.63	78.38
252.863	71.38
253.096	64.38
253.329	76.38
253.562	89.38
253.795	75.38
254.028	86.38
254.261	71.38
254.494	77.38
254.727	86.38
254.96	75.38
255.193	72.38
255.426	81.38
255.659	84.38
255.892	75.38
256.124	79.38
256.357	78.38
256.59	82.38
256.823	72.38
257.056	76.38
257.289	72.38
257.521	68.38
257.754	72.38
257.987	71.38
258.22	72.38
258.452	82.38
258.685	79.38
258.918	78.38
259.151	83.38
259.383	85.38
259.616	88.38
259.849	86.38
260.081	104.38
260.314	83.38
260.547	81.38
260.779	87.38
261.012	74.38
261.244	76.38
261.477	72.38
261.71	68.38
261.942	89.38
262.175	88.38
262.407	72.38
262.64	70.38
262.872	70.38
263.105	81.38
263.337	86.38
263.57	86.38
263.802	65.38
264.035	87.38
264.267	79.38
264.499	81.38
264.732	87.38
264.964	74.38
265.197	74.38
265.429	79.38
265.661	75.38
265.894	74.38
266.126	80.38
266.358	80.38
266.591	68.38
266.823	84.38
267.055	68.38
267.287	75.38
267.52	80.38
267.752	75.38
267.984	84.38
268.216	74.38
268.448	87.38
268.681	83.38
268.913	87.38
269.145	81.38
269.377	92.38
269.609	98.38
269.841	73.38
270.073	77.38
270.306	83.38
270.538	80.38
270.77	83.38
271.002	55.38
271.234	73.38
271.466	78.38
271.698	77.38
271.93	67.38
272.162	82.38
272.394	87.38
272.626	69.38
272.858	81.38
273.09	79.38
273.322	82.38
273.553	75.38
273.785	90.38
274.017	65.38
274.249	92.38
274.481	66.38
274.713	88.38
274.945	89.38
275.176	74.38
275.408	83.38
275.64	87.38
275.872	86.38
276.104	79.38
276.335	78.38
276.567	72.38
276.799	86.38
277.031	70.38
277.262	79.38
277.494	82.38
277.726	80.38
277.957	86.38
278.189	88.38
278.421	71.38
278.652	82.38
278.884	82.38
279.115	88.38
279.347	82.38
279.579	90.38
279.81	79.38
280.042	82.38
280.273	82.38
280.505	101.38
280.736	61.38
280.968	84.38
281.199	85.38
281.431	87.38
281.662	75.38
281.894	70.38
282.125	82.38
282.356	87.38
282.588	94.38
282.819	79.38
283.051	91.38
283.282	81.38
283.513	96.38
283.745	80.38
283.976	88.38
284.207	74.38
284.439	91.38
284.67	93.38
284.901	86.38
285.132	91.38
285.364	79.38
285.595	83.38
285.826	82.38
286.057	72.38
286.288	92.38
286.52	76.38
286.751	78.38
286.982	87.38
287.213	78.38
287.444	79.38
287.675	85.38
287.906	90.38
288.138	88.38
288.369	85.38
288.6	96.38
288.831	74.38
289.062	75.38
289.293	93.38
289.524	89.38
289.755	98.38
289.986	87.38
290.217	85.38
290.448	81.38
290.679	79.38
290.91	86.38
291.141	89.38
291.371	82.38
291.602	70.38
291.833	72.38
292.064	100.38
292.295	83.38
292.526	102.38
292.757	90.38
292.987	84.38
293.218	77.38
293.449	79.38
293.68	86.38
293.91	80.38
294.141	88.38
294.372	86.38
294.603	86.38
294.833	87.38
295.064	84.38
295.295	85.38
295.525	80.38
295.756	85.38
295.987	87.38
296.217	84.38
296.448	90.38
296.679	82.38
296.909	87.38
297.14	94.38
297.37	85.38
297.601	89.38
297.831	88.38
298.062	82.38
298.292	82.38
298.523	91.38
298.753	78.38
298.984	78.38
299.214	74.38
299.445	94.38
299.675	79.38
299.905	84.38
300.136	95.38
300.366	77.38
300.597	66.38
300.827	96.38
301.057	80.38
301.288	73.38
301.518	78.38
301.748	79.38
301.979	82.38
302.209	90.38
302.439	89.38
302.669	70.38
302.9	71.38
303.13	98.38
303.36	87.38
303.59	80.38
303.82	78.38
304.051	93.38
304.281	78.38
304.511	82.38
304.741	80.38
304.971	72.38
305.201	84.38
305.431	76.38
305.661	83.38
305.891	86.38
306.121	83.38
306.352	88.38
306.582	80.38
306.812	96.38
307.042	90.38
307.272	76.38
307.502	75.38
307.731	77.38
307.961	91.38
308.191	78.38
308.421	75.38
308.651	86.38
308.881	74.38
309.111	77.38
309.341	81.38
309.571	88.38
309.8	95.38
310.03	93.38
310.26	91.38
310.49	74.38
310.72	79.38
310.949	78.38
311.179	94.38
311.409	79.38
311.639	80.38
311.868	72.38
312.098	84.38
312.328	79.38
312.557	82.38
312.787	77.38
313.017	82.38
313.246	88.38
313.476	87.38
313.706	91.38
313.935	82.38
314.165	86.38
314.394	85.38
314.624	79.38
314.853	59.38
315.083	89.38
315.312	87.38
315.542	80.38
315.771	81.38
316.001	77.38
316.23	87.38
316.46	82.38
316.689	65.38
316.919	83.38
317.148	89.38
317.377	82.38
317.607	71.38
317.836	86.38
318.065	80.38
318.295	91.38
318.524	75.38
318.753	76.38
318.983	86.38
319.212	94.38
319.441	94.38
319.67	78.38
319.9	81.38
320.129	86.38
320.358	85.38
320.587	99.38
320.816	87.38
321.046	86.38
321.275	88.38
321.504	94.38
321.733	88.38
321.962	75.38
322.191	88.38
322.42	99.38
322.649	79.38
322.878	95.38
323.108	77.38
323.337	76.38
323.566	86.38
323.795	86.38
324.024	99.38
324.253	84.38
324.482	96.38
324.71	84.38
324.939	79.38
325.168	82.38
325.397	70.38
325.626	91.38
325.855	87.38
326.084	88.38
326.313	76.38
326.542	88.38
326.77	72.38
326.999	68.38
327.228	76.38
327.457	74.38
327.686	95.38
327.914	83.38
328.143	86.38
328.372	73.38
328.6	83.38
328.829	76.38
329.058	94.38
329.287	82.38
329.515	92.38
329.744	78.38
329.972	88.38
330.201	74.38
330.43	89.38
330.658	93.38
330.887	68.38
331.115	68.38
331.344	79.38
331.572	93.38
331.801	68.38
332.03	92.38
332.258	94.38
332.486	84.38
332.715	80.38
332.943	82.38
333.172	81.38
333.4	94.38
333.629	81.38
333.857	88.38
334.085	71.38
334.314	82.38
334.542	80.38
334.771	96.38
334.999	88.38
335.227	91.38
335.455	85.38
335.684	89.38
335.912	82.38
336.14	92.38
336.369	86.38
336.597	91.38
336.825	95.38
337.053	90.38
337.281	94.38
337.51	80.38
337.738	92.38
337.966	88.38
338.194	90.38
338.422	80.38
338.65	86.38
338.878	93.38
339.106	88.38
339.334	87.38
339.562	71.38
339.79	86.38
340.018	86.38
340.246	81.38
340.474	93.38
340.702	77.38
340.93	93.38
341.158	102.38
341.386	91.38
341.614	93.38
341.842	99.38
342.07	90.38
342.298	85.38
342.526	83.38
342.754	75.38
342.981	77.38
343.209	89.38
343.437	89.38
343.665	78.38
343.893	76.38
344.12	74.38
344.348	97.38
344.576	77.38
344.804	75.38
345.031	82.38
345.259	86.38
345.487	86.38
345.714	82.38
345.942	80.38
346.17	76.38
346.397	91.38
346.625	85.38
346.853	89.38
347.08	89.38
347.308	87.38
347.535	69.38
347.763	79.38
347.99	78.38
348.218	76.38
348.445	79.38
348.673	77.38
348.9	78.38
349.128	76.38
349.355	90.38
349.583	68.38
349.81	72.38
350.037	85.38
350.265	75.38
350.492	86.38
350.72	68.38
350.947	94.38
351.174	90.38
351.402	78.38
351.629	100.38
351.856	70.38
352.083	91.38
352.311	85.38
352.538	86.38
352.765	82.38
352.992	90.38
353.22	86.38
353.447	78.38
353.674	78.38
353.901	81.38
354.128	90.38
354.355	83.38
354.583	90.38
354.81	93.38
355.037	75.38
355.264	84.38
355.491	82.38
355.718	90.38
355.945	96.38
356.172	84.38
356.399	74.38
356.626	79.38
356.853	77.38
357.08	81.38
357.307	80.38
357.534	78.38
357.761	87.38
357.988	89.38
358.215	84.38
358.441	80.38
358.668	74.38
358.895	74.38
359.122	77.38
359.349	75.38
359.576	79.38
359.802	68.38
360.029	93.38
360.256	79.38
360.483	88.38
360.709	87.38
360.936	88.38
361.163	75.38
361.39	82.38
361.616	95.38
361.843	79.38
362.07	90.38
362.296	78.38
362.523	78.38
362.749	80.38
362.976	85.38
363.203	85.38
363.429	93.38
363.656	76.38
363.882	77.38
364.109	75.38
364.335	78.38
364.562	86.38
364.788	84.38
365.015	87.38
365.241	73.38
365.468	90.38
365.694	76.38
365.92	67.38
366.147	76.38
366.373	88.38
366.599	84.38
366.826	86.38
367.052	82.38
367.278	78.38
367.505	82.38
367.731	78.38
367.957	85.38
368.184	75.38
368.41	79.38
368.636	84.38
368.862	87.38
369.089	85.38
369.315	93.38
369.541	85.38
369.767	67.38
369.993	87.38
370.219	82.38
370.445	78.38
370.672	86.38
370.898	80.38
371.124	87.38
371.35	90.38
371.576	87.38
371.802	85.38
372.028	84.38
372.254	78.38
372.48	95.38
372.706	89.38
372.932	85.38
373.158	80.38
373.384	81.38
373.61	77.38
373.835	87.38
374.061	66.38
374.287	78.38
374.513	66.38
374.739	82.38
374.965	82.38
375.191	108.38
375.416	94.38
375.642	89.38
375.868	84.38
376.094	85.38
376.319	86.38
376.545	99.38
376.771	78.38
376.997	68.38
377.222	83.38
377.448	80.38
377.674	84.38
377.899	72.38
378.125	86.38
378.35	92.38
378.576	79.38
378.802	95.38
379.027	92.38
379.253	95.38
379.478	94.38
379.704	78.38
379.929	85.38
380.155	95.38
380.38	91.38
380.606	77.38
380.831	82.38
381.057	88.38
381.282	90.38
381.507	84.38
381.733	77.38
381.958	85.38
382.184	85.38
382.409	67.38
382.634	76.38
382.86	71.38
383.085	74.38
383.31	72.38
383.535	93.38
383.761	83.38
383.986	70.38
384.211	83.38
384.436	64.38
384.662	75.38
384.887	86.38
385.112	92.38
385.337	87.38
385.562	83.38
385.787	91.38
386.013	88.38
386.238	75.38
386.463	79.38
386.688	88.38
386.913	95.38
387.138	78.38
387.363	86.38
387.588	82.38
387.813	71.38
388.038	86.38
388.263	80.38
388.488	86.38
388.713	83.38
388.938	93.38
389.163	96.38
389.387	89.38
389.612	90.38
389.837	90.38
390.062	83.38
390.287	64.38
390.512	83.38
390.736	92.38
390.961	74.38
391.186	95.38
391.411	82.38
391.636	76.38
391.86	78.38
392.085	88.38
392.31	74.38
392.534	82.38
392.759	91.38
392.984	78.38
393.208	83.38
393.433	79.38
393.658	77.38
393.882	88.38
394.107	82.38
394.331	90.38
394.556	63.38
394.78	78.38
395.005	88.38
395.229	79.38
395.454	91.38
395.678	71.38
395.903	89.38
396.127	68.38
396.352	87.38
396.576	78.38
396.801	71.38
397.025	87.38
397.249	87.38
397.474	83.38
397.698	81.38
397.922	90.38
398.147	89.38
398.371	80.38
398.595	81.38
398.82	71.38
399.044	71.38
399.268	73.38
399.492	91.38
399.717	92.38
399.941	92.38
400.165	72.38
400.389	76.38
400.613	77.38
400.837	88.38
401.062	94.38
401.286	72.38
401.51	90.38
401.734	82.38
401.958	78.38
402.182	85.38
402.406	87.38
402.63	91.38
402.854	98.38
403.078	92.38
403.302	88.38
403.526	95.38
403.75	82.38
403.974	94.38
404.198	99.38
404.422	93.38
404.645	87.38
404.869	96.38
405.093	87.38
405.317	87.38
405.541	93.38
405.765	94.38
405.988	86.38
406.212	92.38
406.436	77.38
406.66	94.38
406.883	87.38
407.107	94.38
407.331	98.38
407.555	96.38
407.778	82.38
408.002	92.38
408.226	87.38
408.449	87.38
408.673	91.38
408.896	91.38
409.12	98.38
409.344	80.38
409.567	89.38
409.791	90.38
410.014	89.38
410.238	79.38
410.461	65.38
410.685	67.38
410.908	92.38
411.132	82.38
411.355	93.38
411.578	73.38
411.802	86.38
412.025	80.38
412.249	84.38
412.472	94.38
412.695	80.38
412.919	86.38
413.142	89.38
413.365	82.38
413.589	91.38
413.812	73.38
414.035	86.38
414.258	98.38
414.482	72.38
414.705	85.38
414.928	87.38
415.151	82.38
415.374	106.38
415.597	91.38
415.821	80.38
416.044	86.38
416.267	103.38
416.49	92.38
416.713	87.38
416.936	103.38
417.159	82.38
417.382	83.38
417.605	85.38
417.828	86.38
418.051	69.38
418.274	84.38
418.497	86.38
418.72	83.38
418.943	89.38
419.166	86.38
419.389	83.38
419.611	80.38
419.834	96.38
420.057	84.38
420.28	91.38
420.503	92.38
420.726	75.38
420.948	92.38
421.171	63.38
421.394	95.38
421.617	90.38
421.839	86.38
422.062	75.38
422.285	64.38
422.507	91.38
422.73	69.38
422.953	79.38
423.175	95.38
423.398	79.38
423.621	82.38
423.843	86.38
424.066	90.38
424.288	73.38
424.511	96.38
424.733	83.38
424.956	85.38
425.178	76.38
425.401	92.38
425.623	87.38
425.846	94.38
426.068	67.38
426.291	70.38
426.513	78.38
426.735	95.38
426.958	91.38
427.18	88.38
427.402	88.38
427.625	88.38
427.847	89.38
428.069	93.38
428.292	77.38
428.514	77.38
428.736	83.38
428.958	87.38
429.181	78.38
429.403	64.38
429.625	89.38
429.847	87.38
430.069	86.38
430.292	73.38
430.514	80.38
430.736	86.38
430.958	78.38
431.18	86.38
431.402	83.38
431.624	73.38
431.846	76.38
432.068	83.38
432.29	86.38
432.512	87.38
432.734	87.38
432.956	91.38
433.178	94.38
433.4	87.38
433.622	91.38
433.844	100.38
434.066	94.38
434.287	95.38
434.509	79.38
434.731	76.38
434.953	94.38
435.175	77.38
435.397	91.38
435.618	91.38
435.84	88.38
436.062	78.38
436.284	75.38
436.505	84.38
436.727	99.38
436.949	68.38
437.17	88.38
437.392	81.38
437.614	82.38
437.835	72.38
438.057	83.38
438.278	91.38
438.5	88.38
438.721	100.38
438.943	75.38
439.165	87.38
439.386	89.38
439.608	85.38
439.829	98.38
440.05	88.38
440.272	91.38
440.493	86.38
440.715	87.38
440.936	83.38
441.158	75.38
441.379	78.38
441.6	80.38
441.822	109.38
442.043	71.38
442.264	89.38
442.486	101.38
442.707	82.38
442.928	79.38
443.149	84.38
443.371	94.38
443.592	92.38
443.813	92.38
444.034	78.38
444.255	85.38
444.476	86.38
444.698	91.38
444.919	84.38
445.14	181.38
445.361	112.38
445.582	94.38
445.803	92.38
446.024	71.38
446.245	76.38
446.466	69.38
446.687	92.38
446.908	98.38
447.129	89.38
447.35	87.38
447.571	76.38
447.792	84.38
448.013	84.38
448.234	87.38
448.455	99.38
448.675	89.38
448.896	79.38
449.117	91.38
449.338	85.38
449.559	80.38
449.779	88.38
450	82.38
450.221	79.38
450.442	76.38
450.662	90.38
450.883	81.38
451.104	79.38
451.324	84.38
451.545	74.38
451.766	82.38
451.986	71.38
452.207	86.38
452.428	91.38
452.648	88.38
452.869	78.38
453.089	80.38
453.31	79.38
453.53	90.38
453.751	95.38
453.971	84.38
454.192	76.38
454.412	78.38
454.633	93.38
454.853	86.38
455.073	92.38
455.294	86.38
455.514	83.38
455.734	77.38
455.955	80.38
456.175	80.38
456.395	92.38
456.616	103.38
456.836	93.38
457.056	89.38
457.276	90.38
457.497	86.38
457.717	78.38
457.937	82.38
458.157	82.38
458.377	90.38
458.598	70.38
458.818	84.38
459.038	80.38
459.258	84.38
459.478	79.38
459.698	83.38
459.918	91.38
460.138	97.38
460.358	76.38
460.578	89.38
460.798	75.38
461.018	94.38
461.238	84.38
461.458	78.38
461.678	77.38
461.898	81.38
462.118	82.38
462.338	89.38
462.558	96.38
462.777	99.38
462.997	86.38
463.217	90.38
463.437	91.38
463.657	94.38
463.876	91.38
464.096	91.38
464.316	100.38
464.536	78.38
464.755	88.38
464.975	88.38
465.195	80.38
465.414	99.38
465.634	90.38
465.854	94.38
466.073	94.38
466.293	86.38
466.512	92.38
466.732	79.38
466.951	82.38
467.171	88.38
467.391	90.38
467.61	88.38
467.829	83.38
468.049	85.38
468.268	66.38
468.488	90.38
468.707	79.38
468.927	78.38
469.146	88.38
469.365	98.38
469.585	73.38
469.804	83.38
470.023	82.38
470.243	83.38
470.462	101.38
470.681	86.38
470.901	90.38
471.12	84.38
471.339	83.38
471.558	85.38
471.777	98.38
471.997	92.38
472.216	78.38
472.435	84.38
472.654	84.38
472.873	93.38
473.092	92.38
473.311	75.38
473.53	88.38
473.749	81.38
473.968	85.38
474.187	77.38
474.406	83.38
474.625	91.38
474.844	83.38
475.063	88.38
475.282	74.38
475.501	80.38
475.72	88.38
475.939	68.38
476.158	75.38
476.377	70.38
476.596	92.38
476.814	100.38
477.033	95.38
477.252	98.38
477.471	86.38
477.69	93.38
477.908	91.38
478.127	95.38
478.346	91.38
478.564	100.38
478.783	76.38
479.002	92.38
479.22	79.38
479.439	92.38
479.658	93.38
479.876	96.38
480.095	75.38
480.313	87.38
480.532	92.38
480.751	92.38
480.969	84.38
481.188	79.38
481.406	91.38
481.624	84.38
481.843	84.38
482.061	88.38
482.28	85.38
482.498	96.38
482.717	85.38
482.935	82.38
483.153	75.38
483.372	98.38
483.59	91.38
483.808	81.38
484.027	100.38
484.245	83.38
484.463	84.38
484.681	84.38
484.9	80.38
485.118	84.38
485.336	85.38
485.554	88.38
485.772	98.38
485.99	78.38
486.209	71.38
486.427	95.38
486.645	79.38
486.863	76.38
487.081	85.38
487.299	80.38
487.517	86.38
487.735	72.38
487.953	77.38
488.171	95.38
488.389	82.38
488.607	80.38
488.825	91.38
489.043	71.38
489.261	82.38
489.479	90.38
489.696	84.38
489.914	86.38
490.132	94.38
490.35	94.38
490.568	93.38
490.786	77.38
491.003	69.38
491.221	87.38
491.439	79.38
491.657	92.38
491.874	77.38
492.092	82.38
492.31	87.38
492.527	90.38
492.745	78.38
492.963	86.38
493.18	83.38
493.398	84.38
493.615	87.38
493.833	73.38
494.05	84.38
494.268	95.38
494.485	90.38
494.703	81.38
494.92	85.38
495.138	80.38
495.355	94.38
495.573	83.38
495.79	97.38
496.008	85.38
496.225	75.38
496.442	91.38
496.66	88.38
496.877	86.38
497.094	86.38
497.312	83.38
497.529	76.38
497.746	88.38
497.963	93.38
498.181	95.38
498.398	78.38
498.615	102.38
498.832	90.38
499.049	99.38
499.267	95.38
499.484	106.38
499.701	94.38
499.918	90.38
500.135	109.38
500.352	96.38
500.569	117.38
500.786	106.38
501.003	107.38
501.22	109.38
501.437	96.38
501.654	95.38
501.871	104.38
502.088	100.38
502.305	102.38
502.522	105.38
502.739	83.38
502.956	92.38
503.172	75.38
503.389	91.38
503.606	63.38
503.823	86.38
504.04	99.38
504.256	91.38
504.473	82.38
504.69	87.38
504.907	99.38
505.123	95.38
505.34	87.38
505.557	85.38
505.773	89.38
505.99	91.38
506.207	87.38
506.423	79.38
506.64	92.38
506.856	78.38
507.073	94.38
507.289	90.38
507.506	93.38
507.722	88.38
507.939	90.38
508.155	98.38
508.372	86.38
508.588	84.38
508.805	88.38
509.021	86.38
509.238	82.38
509.454	92.38
509.67	90.38
509.887	91.38
510.103	84.38
510.319	69.38
510.536	90.38
510.752	82.38
510.968	86.38
511.184	77.38
511.401	85.38
511.617	99.38
511.833	88.38
512.049	79.38
512.265	79.38
512.481	96.38
512.698	78.38
512.914	76.38
513.13	83.38
513.346	94.38
513.562	91.38
513.778	77.38
513.994	83.38
514.21	87.38
514.426	87.38
514.642	84.38
514.858	93.38
515.074	85.38
515.29	91.38
515.506	95.38
515.721	87.38
515.937	75.38
516.153	93.38
516.369	89.38
516.585	81.38
516.801	91.38
517.016	73.38
517.232	90.38
517.448	87.38
517.664	90.38
517.879	87.38
518.095	88.38
518.311	82.38
518.527	92.38
518.742	83.38
518.958	76.38
519.173	92.38
519.389	85.38
519.605	75.38
519.82	75.38
520.036	86.38
