Data from BG_HRD10591_071.txt Node
Date: Fri May 16 15:33:42 EDT 2025
User: Yrep
Spectrometer: HR+D1059
Trigger mode: 1
Integration Time (sec): 1.000000E-1
Scans to average: 1
Electric dark correction enabled: true
Nonlinearity correction enabled: false
Boxcar width: 0
XAxis mode: Wavelengths
Number of Pixels in Spectrum: 2048
>>>>>Begin Spectral Data<<<<<
223.165	-13.88
223.4	-13.88
223.635	-13.88
223.869	-20.88
224.104	-24.88
224.338	-11.88
224.573	-21.88
224.808	-4.88
225.042	-10.88
225.277	-1.88
225.511	1.12
225.746	2.12
225.98	0.12
226.215	13.12
226.449	18.12
226.683	7.12
226.918	34.12
227.152	35.12
227.387	38.12
227.621	33.12
227.856	52.12
228.09	44.12
228.324	48.12
228.559	66.12
228.793	66.12
229.027	63.12
229.262	58.12
229.496	69.12
229.73	67.12
229.964	58.12
230.199	85.12
230.433	81.12
230.667	90.12
230.901	73.12
231.136	86.12
231.37	90.12
231.604	84.12
231.838	86.12
232.072	77.12
232.306	76.12
232.541	84.12
232.775	81.12
233.009	90.12
233.243	80.12
233.477	80.12
233.711	83.12
233.945	77.12
234.179	86.12
234.413	81.12
234.647	90.12
234.881	80.12
235.115	71.12
235.349	72.12
235.583	75.12
235.817	65.12
236.051	70.12
236.285	66.12
236.519	88.12
236.753	97.12
236.987	72.12
237.221	80.12
237.455	70.12
237.689	78.12
237.922	75.12
238.156	73.12
238.39	80.12
238.624	65.12
238.858	74.12
239.091	78.12
239.325	76.12
239.559	81.12
239.793	80.12
240.027	74.12
240.26	70.12
240.494	69.12
240.728	68.12
240.961	76.12
241.195	86.12
241.429	62.12
241.662	76.12
241.896	73.12
242.13	76.12
242.363	68.12
242.597	70.12
242.83	71.12
243.064	77.12
243.298	87.12
243.531	99.12
243.765	83.12
243.998	89.12
244.232	79.12
244.465	69.12
244.699	68.12
244.932	70.12
245.166	87.12
245.399	79.12
245.633	75.12
245.866	74.12
246.099	72.12
246.333	94.12
246.566	86.12
246.8	79.12
247.033	68.12
247.266	78.12
247.5	78.12
247.733	86.12
247.966	86.12
248.2	74.12
248.433	82.12
248.666	78.12
248.899	76.12
249.133	78.12
249.366	81.12
249.599	78.12
249.832	82.12
250.066	78.12
250.299	63.12
250.532	92.12
250.765	83.12
250.998	73.12
251.231	86.12
251.465	88.12
251.698	66.12
251.931	88.12
252.164	72.12
252.397	90.12
252.63	80.12
252.863	71.12
253.096	72.12
253.329	78.12
253.562	71.12
253.795	79.12
254.028	84.12
254.261	76.12
254.494	77.12
254.727	80.12
254.96	85.12
255.193	86.12
255.426	80.12
255.659	78.12
255.892	91.12
256.124	82.12
256.357	76.12
256.59	76.12
256.823	88.12
257.056	77.12
257.289	70.12
257.521	77.12
257.754	88.12
257.987	76.12
258.22	84.12
258.452	72.12
258.685	77.12
258.918	76.12
259.151	79.12
259.383	66.12
259.616	89.12
259.849	82.12
260.081	88.12
260.314	83.12
260.547	83.12
260.779	72.12
261.012	65.12
261.244	82.12
261.477	74.12
261.71	80.12
261.942	71.12
262.175	77.12
262.407	90.12
262.64	72.12
262.872	87.12
263.105	88.12
263.337	82.12
263.57	64.12
263.802	83.12
264.035	80.12
264.267	90.12
264.499	86.12
264.732	82.12
264.964	83.12
265.197	86.12
265.429	88.12
265.661	90.12
265.894	80.12
266.126	79.12
266.358	83.12
266.591	74.12
266.823	75.12
267.055	75.12
267.287	98.12
267.52	82.12
267.752	68.12
267.984	102.12
268.216	75.12
268.448	89.12
268.681	90.12
268.913	93.12
269.145	87.12
269.377	83.12
269.609	89.12
269.841	68.12
270.073	83.12
270.306	76.12
270.538	73.12
270.77	88.12
271.002	102.12
271.234	84.12
271.466	83.12
271.698	87.12
271.93	93.12
272.162	92.12
272.394	83.12
272.626	86.12
272.858	79.12
273.09	87.12
273.322	75.12
273.553	72.12
273.785	80.12
274.017	76.12
274.249	83.12
274.481	70.12
274.713	83.12
274.945	81.12
275.176	96.12
275.408	96.12
275.64	81.12
275.872	76.12
276.104	82.12
276.335	88.12
276.567	67.12
276.799	74.12
277.031	78.12
277.262	89.12
277.494	86.12
277.726	87.12
277.957	85.12
278.189	88.12
278.421	83.12
278.652	93.12
278.884	91.12
279.115	91.12
279.347	103.12
279.579	87.12
279.81	78.12
280.042	76.12
280.273	78.12
280.505	95.12
280.736	85.12
280.968	82.12
281.199	85.12
281.431	87.12
281.662	86.12
281.894	92.12
282.125	88.12
282.356	80.12
282.588	79.12
282.819	84.12
283.051	79.12
283.282	66.12
283.513	88.12
283.745	103.12
283.976	94.12
284.207	88.12
284.439	78.12
284.67	95.12
284.901	92.12
285.132	75.12
285.364	88.12
285.595	92.12
285.826	89.12
286.057	75.12
286.288	93.12
286.52	94.12
286.751	83.12
286.982	84.12
287.213	77.12
287.444	98.12
287.675	98.12
287.906	87.12
288.138	90.12
288.369	99.12
288.6	76.12
288.831	79.12
289.062	95.12
289.293	97.12
289.524	95.12
289.755	91.12
289.986	90.12
290.217	79.12
290.448	82.12
290.679	86.12
290.91	91.12
291.141	83.12
291.371	79.12
291.602	95.12
291.833	73.12
292.064	93.12
292.295	88.12
292.526	90.12
292.757	96.12
292.987	78.12
293.218	76.12
293.449	91.12
293.68	86.12
293.91	79.12
294.141	84.12
294.372	82.12
294.603	107.12
294.833	90.12
295.064	75.12
295.295	102.12
295.525	87.12
295.756	91.12
295.987	86.12
296.217	90.12
296.448	86.12
296.679	94.12
296.909	82.12
297.14	84.12
297.37	89.12
297.601	102.12
297.831	96.12
298.062	77.12
298.292	85.12
298.523	91.12
298.753	102.12
298.984	97.12
299.214	82.12
299.445	98.12
299.675	95.12
299.905	85.12
300.136	87.12
300.366	95.12
300.597	89.12
300.827	83.12
301.057	90.12
301.288	82.12
301.518	89.12
301.748	84.12
301.979	97.12
302.209	87.12
302.439	74.12
302.669	76.12
302.9	84.12
303.13	84.12
303.36	76.12
303.59	88.12
303.82	80.12
304.051	81.12
304.281	80.12
304.511	89.12
304.741	92.12
304.971	93.12
305.201	89.12
305.431	83.12
305.661	93.12
305.891	88.12
306.121	82.12
306.352	90.12
306.582	90.12
306.812	82.12
307.042	80.12
307.272	87.12
307.502	83.12
307.731	76.12
307.961	78.12
308.191	84.12
308.421	89.12
308.651	83.12
308.881	86.12
309.111	88.12
309.341	98.12
309.571	98.12
309.8	88.12
310.03	98.12
310.26	102.12
310.49	90.12
310.72	93.12
310.949	90.12
311.179	82.12
311.409	102.12
311.639	83.12
311.868	80.12
312.098	106.12
312.328	76.12
312.557	79.12
312.787	87.12
313.017	74.12
313.246	94.12
313.476	79.12
313.706	88.12
313.935	84.12
314.165	89.12
314.394	81.12
314.624	97.12
314.853	99.12
315.083	93.12
315.312	89.12
315.542	82.12
315.771	102.12
316.001	80.12
316.23	104.12
316.46	94.12
316.689	86.12
316.919	84.12
317.148	75.12
317.377	86.12
317.607	100.12
317.836	84.12
318.065	98.12
318.295	96.12
318.524	98.12
318.753	92.12
318.983	86.12
319.212	81.12
319.441	83.12
319.67	82.12
319.9	79.12
320.129	90.12
320.358	95.12
320.587	86.12
320.816	88.12
321.046	91.12
321.275	73.12
321.504	82.12
321.733	91.12
321.962	90.12
322.191	88.12
322.42	80.12
322.649	80.12
322.878	88.12
323.108	91.12
323.337	81.12
323.566	112.12
323.795	94.12
324.024	105.12
324.253	82.12
324.482	73.12
324.71	84.12
324.939	83.12
325.168	97.12
325.397	98.12
325.626	88.12
325.855	89.12
326.084	87.12
326.313	96.12
326.542	94.12
326.77	88.12
326.999	86.12
327.228	94.12
327.457	68.12
327.686	78.12
327.914	93.12
328.143	84.12
328.372	88.12
328.6	87.12
328.829	88.12
329.058	82.12
329.287	93.12
329.515	80.12
329.744	83.12
329.972	90.12
330.201	90.12
330.43	88.12
330.658	91.12
330.887	80.12
331.115	84.12
331.344	91.12
331.572	97.12
331.801	96.12
332.03	89.12
332.258	92.12
332.486	90.12
332.715	76.12
332.943	83.12
333.172	89.12
333.4	82.12
333.629	84.12
333.857	97.12
334.085	86.12
334.314	89.12
334.542	100.12
334.771	96.12
334.999	84.12
335.227	72.12
335.455	90.12
335.684	88.12
335.912	81.12
336.14	84.12
336.369	74.12
336.597	85.12
336.825	84.12
337.053	93.12
337.281	83.12
337.51	97.12
337.738	83.12
337.966	87.12
338.194	87.12
338.422	95.12
338.65	102.12
338.878	84.12
339.106	83.12
339.334	94.12
339.562	81.12
339.79	82.12
340.018	81.12
340.246	98.12
340.474	76.12
340.702	104.12
340.93	90.12
341.158	89.12
341.386	84.12
341.614	74.12
341.842	72.12
342.07	79.12
342.298	91.12
342.526	83.12
342.754	85.12
342.981	88.12
343.209	86.12
343.437	83.12
343.665	82.12
343.893	86.12
344.12	91.12
344.348	99.12
344.576	105.12
344.804	83.12
345.031	82.12
345.259	93.12
345.487	97.12
345.714	88.12
345.942	74.12
346.17	87.12
346.397	88.12
346.625	87.12
346.853	81.12
347.08	91.12
347.308	84.12
347.535	76.12
347.763	82.12
347.99	87.12
348.218	78.12
348.445	84.12
348.673	83.12
348.9	102.12
349.128	87.12
349.355	81.12
349.583	78.12
349.81	89.12
350.037	75.12
350.265	89.12
350.492	97.12
350.72	83.12
350.947	97.12
351.174	94.12
351.402	79.12
351.629	74.12
351.856	79.12
352.083	74.12
352.311	86.12
352.538	73.12
352.765	95.12
352.992	88.12
353.22	78.12
353.447	92.12
353.674	85.12
353.901	90.12
354.128	90.12
354.355	89.12
354.583	82.12
354.81	81.12
355.037	85.12
355.264	97.12
355.491	74.12
355.718	89.12
355.945	79.12
356.172	80.12
356.399	84.12
356.626	91.12
356.853	90.12
357.08	81.12
357.307	118.12
357.534	73.12
357.761	96.12
357.988	82.12
358.215	79.12
358.441	75.12
358.668	95.12
358.895	89.12
359.122	64.12
359.349	88.12
359.576	70.12
359.802	62.12
360.029	90.12
360.256	92.12
360.483	78.12
360.709	99.12
360.936	89.12
361.163	73.12
361.39	77.12
361.616	82.12
361.843	69.12
362.07	100.12
362.296	91.12
362.523	91.12
362.749	84.12
362.976	86.12
363.203	93.12
363.429	91.12
363.656	81.12
363.882	90.12
364.109	83.12
364.335	75.12
364.562	86.12
364.788	84.12
365.015	82.12
365.241	75.12
365.468	92.12
365.694	79.12
365.92	87.12
366.147	82.12
366.373	76.12
366.599	82.12
366.826	92.12
367.052	102.12
367.278	79.12
367.505	85.12
367.731	99.12
367.957	102.12
368.184	92.12
368.41	83.12
368.636	80.12
368.862	106.12
369.089	95.12
369.315	89.12
369.541	80.12
369.767	83.12
369.993	77.12
370.219	89.12
370.445	70.12
370.672	90.12
370.898	89.12
371.124	95.12
371.35	95.12
371.576	89.12
371.802	87.12
372.028	79.12
372.254	76.12
372.48	83.12
372.706	82.12
372.932	86.12
373.158	77.12
373.384	83.12
373.61	83.12
373.835	89.12
374.061	86.12
374.287	87.12
374.513	90.12
374.739	93.12
374.965	94.12
375.191	92.12
375.416	77.12
375.642	86.12
375.868	92.12
376.094	102.12
376.319	81.12
376.545	81.12
376.771	92.12
376.997	76.12
377.222	94.12
377.448	86.12
377.674	92.12
377.899	90.12
378.125	84.12
378.35	97.12
378.576	84.12
378.802	82.12
379.027	84.12
379.253	88.12
379.478	83.12
379.704	79.12
379.929	99.12
380.155	90.12
380.38	84.12
380.606	79.12
380.831	89.12
381.057	96.12
381.282	86.12
381.507	81.12
381.733	77.12
381.958	84.12
382.184	80.12
382.409	88.12
382.634	72.12
382.86	88.12
383.085	90.12
383.31	91.12
383.535	81.12
383.761	65.12
383.986	80.12
384.211	90.12
384.436	86.12
384.662	84.12
384.887	86.12
385.112	90.12
385.337	99.12
385.562	77.12
385.787	86.12
386.013	90.12
386.238	78.12
386.463	86.12
386.688	88.12
386.913	91.12
387.138	86.12
387.363	83.12
387.588	104.12
387.813	82.12
388.038	107.12
388.263	93.12
388.488	93.12
388.713	77.12
388.938	72.12
389.163	80.12
389.387	73.12
389.612	80.12
389.837	86.12
390.062	68.12
390.287	90.12
390.512	82.12
390.736	99.12
390.961	87.12
391.186	90.12
391.411	92.12
391.636	95.12
391.86	89.12
392.085	82.12
392.31	103.12
392.534	94.12
392.759	90.12
392.984	84.12
393.208	99.12
393.433	98.12
393.658	83.12
393.882	82.12
394.107	88.12
394.331	79.12
394.556	84.12
394.78	91.12
395.005	98.12
395.229	81.12
395.454	91.12
395.678	77.12
395.903	92.12
396.127	89.12
396.352	78.12
396.576	81.12
396.801	91.12
397.025	91.12
397.249	83.12
397.474	87.12
397.698	75.12
397.922	94.12
398.147	90.12
398.371	84.12
398.595	80.12
398.82	82.12
399.044	65.12
399.268	84.12
399.492	80.12
399.717	103.12
399.941	103.12
400.165	98.12
400.389	92.12
400.613	100.12
400.837	99.12
401.062	87.12
401.286	82.12
401.51	85.12
401.734	94.12
401.958	85.12
402.182	73.12
402.406	77.12
402.63	94.12
402.854	97.12
403.078	89.12
403.302	83.12
403.526	81.12
403.75	88.12
403.974	87.12
404.198	98.12
404.422	90.12
404.645	98.12
404.869	95.12
405.093	91.12
405.317	87.12
405.541	85.12
405.765	98.12
405.988	72.12
406.212	98.12
406.436	82.12
406.66	80.12
406.883	82.12
407.107	100.12
407.331	103.12
407.555	113.12
407.778	99.12
408.002	92.12
408.226	95.12
408.449	83.12
408.673	90.12
408.896	91.12
409.12	95.12
409.344	84.12
409.567	98.12
409.791	83.12
410.014	85.12
410.238	90.12
410.461	93.12
410.685	96.12
410.908	98.12
411.132	90.12
411.355	82.12
411.578	99.12
411.802	89.12
412.025	86.12
412.249	87.12
412.472	106.12
412.695	87.12
412.919	82.12
413.142	80.12
413.365	95.12
413.589	96.12
413.812	78.12
414.035	90.12
414.258	83.12
414.482	82.12
414.705	77.12
414.928	87.12
415.151	90.12
415.374	75.12
415.597	86.12
415.821	97.12
416.044	90.12
416.267	93.12
416.49	81.12
416.713	112.12
416.936	82.12
417.159	79.12
417.382	92.12
417.605	96.12
417.828	79.12
418.051	83.12
418.274	87.12
418.497	75.12
418.72	80.12
418.943	81.12
419.166	73.12
419.389	94.12
419.611	91.12
419.834	78.12
420.057	78.12
420.28	97.12
420.503	86.12
420.726	86.12
420.948	95.12
421.171	100.12
421.394	84.12
421.617	104.12
421.839	89.12
422.062	80.12
422.285	98.12
422.507	81.12
422.73	77.12
422.953	91.12
423.175	89.12
423.398	85.12
423.621	92.12
423.843	94.12
424.066	103.12
424.288	87.12
424.511	86.12
424.733	78.12
424.956	77.12
425.178	79.12
425.401	88.12
425.623	87.12
425.846	66.12
426.068	90.12
426.291	91.12
426.513	90.12
426.735	102.12
426.958	95.12
427.18	94.12
427.402	91.12
427.625	91.12
427.847	82.12
428.069	82.12
428.292	73.12
428.514	90.12
428.736	99.12
428.958	82.12
429.181	87.12
429.403	93.12
429.625	90.12
429.847	86.12
430.069	88.12
430.292	93.12
430.514	92.12
430.736	81.12
430.958	84.12
431.18	76.12
431.402	99.12
431.624	101.12
431.846	100.12
432.068	72.12
432.29	86.12
432.512	87.12
432.734	98.12
432.956	63.12
433.178	92.12
433.4	82.12
433.622	93.12
433.844	94.12
434.066	76.12
434.287	78.12
434.509	78.12
434.731	96.12
434.953	89.12
435.175	82.12
435.397	80.12
435.618	94.12
435.84	96.12
436.062	96.12
436.284	96.12
436.505	80.12
436.727	78.12
436.949	82.12
437.17	100.12
437.392	85.12
437.614	75.12
437.835	80.12
438.057	95.12
438.278	94.12
438.5	72.12
438.721	90.12
438.943	89.12
439.165	97.12
439.386	68.12
439.608	71.12
439.829	80.12
440.05	89.12
440.272	96.12
440.493	90.12
440.715	85.12
440.936	86.12
441.158	96.12
441.379	99.12
441.6	90.12
441.822	84.12
442.043	93.12
442.264	95.12
442.486	74.12
442.707	85.12
442.928	82.12
443.149	93.12
443.371	86.12
443.592	80.12
443.813	84.12
444.034	90.12
444.255	82.12
444.476	77.12
444.698	80.12
444.919	75.12
445.14	140.12
445.361	115.12
445.582	91.12
445.803	87.12
446.024	75.12
446.245	95.12
446.466	82.12
446.687	74.12
446.908	86.12
447.129	108.12
447.35	97.12
447.571	98.12
447.792	84.12
448.013	90.12
448.234	97.12
448.455	86.12
448.675	82.12
448.896	92.12
449.117	94.12
449.338	94.12
449.559	93.12
449.779	105.12
450	80.12
450.221	88.12
450.442	97.12
450.662	77.12
450.883	69.12
451.104	96.12
451.324	82.12
451.545	82.12
451.766	73.12
451.986	87.12
452.207	73.12
452.428	93.12
452.648	84.12
452.869	85.12
453.089	90.12
453.31	88.12
453.53	92.12
453.751	87.12
453.971	76.12
454.192	81.12
454.412	82.12
454.633	98.12
454.853	77.12
455.073	84.12
455.294	91.12
455.514	101.12
455.734	79.12
455.955	75.12
456.175	75.12
456.395	84.12
456.616	73.12
456.836	90.12
457.056	96.12
457.276	82.12
457.497	87.12
457.717	94.12
457.937	84.12
458.157	79.12
458.377	88.12
458.598	97.12
458.818	91.12
459.038	97.12
459.258	85.12
459.478	78.12
459.698	94.12
459.918	97.12
460.138	82.12
460.358	88.12
460.578	88.12
460.798	86.12
461.018	83.12
461.238	81.12
461.458	92.12
461.678	88.12
461.898	84.12
462.118	88.12
462.338	100.12
462.558	100.12
462.777	95.12
462.997	88.12
463.217	101.12
463.437	72.12
463.657	103.12
463.876	80.12
464.096	78.12
464.316	94.12
464.536	95.12
464.755	96.12
464.975	95.12
465.195	107.12
465.414	90.12
465.634	93.12
465.854	83.12
466.073	80.12
466.293	85.12
466.512	92.12
466.732	87.12
466.951	86.12
467.171	87.12
467.391	89.12
467.61	79.12
467.829	79.12
468.049	84.12
468.268	93.12
468.488	91.12
468.707	88.12
468.927	94.12
469.146	82.12
469.365	90.12
469.585	93.12
469.804	86.12
470.023	83.12
470.243	82.12
470.462	87.12
470.681	88.12
470.901	85.12
471.12	90.12
471.339	72.12
471.558	85.12
471.777	84.12
471.997	94.12
472.216	72.12
472.435	92.12
472.654	99.12
472.873	87.12
473.092	95.12
473.311	79.12
473.53	92.12
473.749	80.12
473.968	86.12
474.187	94.12
474.406	91.12
474.625	84.12
474.844	73.12
475.063	108.12
475.282	76.12
475.501	90.12
475.72	90.12
475.939	71.12
476.158	82.12
476.377	84.12
476.596	88.12
476.814	97.12
477.033	89.12
477.252	91.12
477.471	89.12
477.69	92.12
477.908	104.12
478.127	76.12
478.346	83.12
478.564	93.12
478.783	89.12
479.002	78.12
479.22	80.12
479.439	98.12
479.658	92.12
479.876	98.12
480.095	89.12
480.313	82.12
480.532	78.12
480.751	88.12
480.969	89.12
481.188	83.12
481.406	79.12
481.624	84.12
481.843	95.12
482.061	95.12
482.28	76.12
482.498	79.12
482.717	83.12
482.935	93.12
483.153	76.12
483.372	88.12
483.59	91.12
483.808	85.12
484.027	78.12
484.245	82.12
484.463	97.12
484.681	96.12
484.9	100.12
485.118	99.12
485.336	98.12
485.554	84.12
485.772	95.12
485.99	84.12
486.209	90.12
486.427	95.12
486.645	81.12
486.863	93.12
487.081	89.12
487.299	79.12
487.517	96.12
487.735	90.12
487.953	92.12
488.171	84.12
488.389	84.12
488.607	93.12
488.825	97.12
489.043	67.12
489.261	83.12
489.479	88.12
489.696	83.12
489.914	93.12
490.132	97.12
490.35	102.12
490.568	106.12
490.786	83.12
491.003	106.12
491.221	72.12
491.439	88.12
491.657	106.12
491.874	94.12
492.092	99.12
492.31	99.12
492.527	80.12
492.745	72.12
492.963	91.12
493.18	91.12
493.398	83.12
493.615	93.12
493.833	86.12
494.05	91.12
494.268	93.12
494.485	95.12
494.703	89.12
494.92	106.12
495.138	83.12
495.355	97.12
495.573	88.12
495.79	93.12
496.008	88.12
496.225	88.12
496.442	97.12
496.66	104.12
496.877	95.12
497.094	104.12
497.312	89.12
497.529	83.12
497.746	106.12
497.963	88.12
498.181	90.12
498.398	95.12
498.615	97.12
498.832	89.12
499.049	88.12
499.267	92.12
499.484	96.12
499.701	112.12
499.918	101.12
500.135	114.12
500.352	108.12
500.569	112.12
500.786	110.12
501.003	110.12
501.22	97.12
501.437	86.12
501.654	94.12
501.871	87.12
502.088	94.12
502.305	97.12
502.522	98.12
502.739	103.12
502.956	105.12
503.172	97.12
503.389	94.12
503.606	104.12
503.823	90.12
504.04	109.12
504.256	92.12
504.473	95.12
504.69	97.12
504.907	89.12
505.123	106.12
505.34	84.12
505.557	83.12
505.773	92.12
505.99	90.12
506.207	81.12
506.423	91.12
506.64	110.12
506.856	97.12
507.073	102.12
507.289	92.12
507.506	93.12
507.722	79.12
507.939	96.12
508.155	87.12
508.372	83.12
508.588	88.12
508.805	86.12
509.021	113.12
509.238	82.12
509.454	86.12
509.67	81.12
509.887	102.12
510.103	84.12
510.319	82.12
510.536	94.12
510.752	93.12
510.968	78.12
511.184	88.12
511.401	90.12
511.617	95.12
511.833	100.12
512.049	95.12
512.265	99.12
512.481	97.12
512.698	94.12
512.914	95.12
513.13	92.12
513.346	77.12
513.562	96.12
513.778	93.12
513.994	84.12
514.21	80.12
514.426	78.12
514.642	99.12
514.858	103.12
515.074	92.12
515.29	104.12
515.506	102.12
515.721	90.12
515.937	72.12
516.153	85.12
516.369	84.12
516.585	88.12
516.801	87.12
517.016	96.12
517.232	95.12
517.448	85.12
517.664	85.12
517.879	94.12
518.095	85.12
518.311	95.12
518.527	93.12
518.742	95.12
518.958	94.12
519.173	104.12
