Data from BG_HRD10591_031.txt Node
Date: Fri May 16 15:33:22 EDT 2025
User: Yrep
Spectrometer: HR+D1059
Trigger mode: 1
Integration Time (sec): 1.000000E-1
Scans to average: 1
Electric dark correction enabled: true
Nonlinearity correction enabled: false
Boxcar width: 0
XAxis mode: Wavelengths
Number of Pixels in Spectrum: 2048
>>>>>Begin Spectral Data<<<<<
223.165	-18.94
223.4	-18.94
223.635	-18.94
223.869	-28.94
224.104	-27.94
224.338	-17.94
224.573	-8.94
224.808	-14.94
225.042	-12.94
225.277	-6.94
225.511	-7.94
225.746	4.06
225.98	5.06
226.215	20.06
226.449	20.06
226.683	20.06
226.918	41.06
227.152	35.06
227.387	41.06
227.621	36.06
227.856	34.06
228.09	51.06
228.324	57.06
228.559	67.06
228.793	61.06
229.027	58.06
229.262	65.06
229.496	54.06
229.73	70.06
229.964	60.06
230.199	67.06
230.433	81.06
230.667	80.06
230.901	71.06
231.136	76.06
231.37	68.06
231.604	72.06
231.838	71.06
232.072	95.06
232.306	79.06
232.541	87.06
232.775	62.06
233.009	81.06
233.243	85.06
233.477	74.06
233.711	65.06
233.945	88.06
234.179	93.06
234.413	71.06
234.647	78.06
234.881	83.06
235.115	78.06
235.349	69.06
235.583	84.06
235.817	78.06
236.051	82.06
236.285	72.06
236.519	65.06
236.753	79.06
236.987	73.06
237.221	76.06
237.455	88.06
237.689	84.06
237.922	65.06
238.156	80.06
238.39	77.06
238.624	74.06
238.858	73.06
239.091	67.06
239.325	79.06
239.559	65.06
239.793	69.06
240.027	80.06
240.26	63.06
240.494	77.06
240.728	80.06
240.961	61.06
241.195	82.06
241.429	80.06
241.662	76.06
241.896	72.06
242.13	77.06
242.363	76.06
242.597	78.06
242.83	71.06
243.064	72.06
243.298	76.06
243.531	61.06
243.765	69.06
243.998	68.06
244.232	90.06
244.465	77.06
244.699	70.06
244.932	83.06
245.166	64.06
245.399	78.06
245.633	71.06
245.866	81.06
246.099	84.06
246.333	80.06
246.566	78.06
246.8	57.06
247.033	88.06
247.266	79.06
247.5	75.06
247.733	65.06
247.966	84.06
248.2	70.06
248.433	68.06
248.666	65.06
248.899	77.06
249.133	69.06
249.366	75.06
249.599	77.06
249.832	74.06
250.066	83.06
250.299	97.06
250.532	76.06
250.765	84.06
250.998	58.06
251.231	77.06
251.465	70.06
251.698	68.06
251.931	82.06
252.164	71.06
252.397	74.06
252.63	78.06
252.863	80.06
253.096	87.06
253.329	81.06
253.562	57.06
253.795	78.06
254.028	77.06
254.261	81.06
254.494	76.06
254.727	75.06
254.96	75.06
255.193	78.06
255.426	80.06
255.659	85.06
255.892	87.06
256.124	69.06
256.357	91.06
256.59	88.06
256.823	74.06
257.056	60.06
257.289	74.06
257.521	75.06
257.754	82.06
257.987	93.06
258.22	81.06
258.452	85.06
258.685	88.06
258.918	86.06
259.151	72.06
259.383	77.06
259.616	71.06
259.849	79.06
260.081	80.06
260.314	87.06
260.547	86.06
260.779	86.06
261.012	70.06
261.244	72.06
261.477	82.06
261.71	87.06
261.942	66.06
262.175	95.06
262.407	87.06
262.64	87.06
262.872	83.06
263.105	78.06
263.337	74.06
263.57	83.06
263.802	73.06
264.035	75.06
264.267	76.06
264.499	75.06
264.732	89.06
264.964	68.06
265.197	64.06
265.429	80.06
265.661	87.06
265.894	79.06
266.126	71.06
266.358	61.06
266.591	80.06
266.823	76.06
267.055	86.06
267.287	59.06
267.52	87.06
267.752	89.06
267.984	85.06
268.216	83.06
268.448	87.06
268.681	83.06
268.913	68.06
269.145	72.06
269.377	78.06
269.609	95.06
269.841	89.06
270.073	74.06
270.306	78.06
270.538	81.06
270.77	83.06
271.002	75.06
271.234	61.06
271.466	88.06
271.698	80.06
271.93	91.06
272.162	93.06
272.394	89.06
272.626	82.06
272.858	86.06
273.09	71.06
273.322	85.06
273.553	77.06
273.785	85.06
274.017	91.06
274.249	85.06
274.481	86.06
274.713	77.06
274.945	75.06
275.176	78.06
275.408	85.06
275.64	64.06
275.872	69.06
276.104	88.06
276.335	87.06
276.567	94.06
276.799	86.06
277.031	68.06
277.262	54.06
277.494	83.06
277.726	84.06
277.957	96.06
278.189	84.06
278.421	84.06
278.652	83.06
278.884	79.06
279.115	81.06
279.347	70.06
279.579	99.06
279.81	75.06
280.042	79.06
280.273	71.06
280.505	88.06
280.736	100.06
280.968	75.06
281.199	74.06
281.431	76.06
281.662	76.06
281.894	63.06
282.125	84.06
282.356	65.06
282.588	83.06
282.819	78.06
283.051	87.06
283.282	80.06
283.513	70.06
283.745	73.06
283.976	76.06
284.207	82.06
284.439	79.06
284.67	86.06
284.901	78.06
285.132	89.06
285.364	93.06
285.595	73.06
285.826	82.06
286.057	76.06
286.288	73.06
286.52	81.06
286.751	91.06
286.982	93.06
287.213	88.06
287.444	79.06
287.675	79.06
287.906	88.06
288.138	87.06
288.369	85.06
288.6	101.06
288.831	79.06
289.062	87.06
289.293	72.06
289.524	93.06
289.755	66.06
289.986	79.06
290.217	87.06
290.448	79.06
290.679	79.06
290.91	80.06
291.141	83.06
291.371	80.06
291.602	80.06
291.833	89.06
292.064	85.06
292.295	88.06
292.526	92.06
292.757	87.06
292.987	86.06
293.218	70.06
293.449	75.06
293.68	105.06
293.91	85.06
294.141	77.06
294.372	76.06
294.603	76.06
294.833	85.06
295.064	89.06
295.295	67.06
295.525	83.06
295.756	93.06
295.987	80.06
296.217	96.06
296.448	104.06
296.679	88.06
296.909	94.06
297.14	86.06
297.37	81.06
297.601	90.06
297.831	93.06
298.062	85.06
298.292	92.06
298.523	80.06
298.753	89.06
298.984	93.06
299.214	86.06
299.445	79.06
299.675	101.06
299.905	97.06
300.136	85.06
300.366	92.06
300.597	67.06
300.827	76.06
301.057	84.06
301.288	95.06
301.518	79.06
301.748	77.06
301.979	92.06
302.209	87.06
302.439	78.06
302.669	83.06
302.9	83.06
303.13	80.06
303.36	85.06
303.59	92.06
303.82	74.06
304.051	85.06
304.281	81.06
304.511	77.06
304.741	83.06
304.971	79.06
305.201	79.06
305.431	93.06
305.661	77.06
305.891	84.06
306.121	81.06
306.352	91.06
306.582	89.06
306.812	86.06
307.042	73.06
307.272	82.06
307.502	82.06
307.731	95.06
307.961	65.06
308.191	79.06
308.421	88.06
308.651	82.06
308.881	76.06
309.111	81.06
309.341	84.06
309.571	88.06
309.8	79.06
310.03	87.06
310.26	88.06
310.49	74.06
310.72	89.06
310.949	88.06
311.179	78.06
311.409	88.06
311.639	64.06
311.868	87.06
312.098	82.06
312.328	91.06
312.557	94.06
312.787	69.06
313.017	95.06
313.246	78.06
313.476	75.06
313.706	78.06
313.935	80.06
314.165	80.06
314.394	74.06
314.624	78.06
314.853	66.06
315.083	79.06
315.312	75.06
315.542	82.06
315.771	86.06
316.001	85.06
316.23	89.06
316.46	80.06
316.689	74.06
316.919	84.06
317.148	83.06
317.377	69.06
317.607	78.06
317.836	99.06
318.065	89.06
318.295	83.06
318.524	74.06
318.753	83.06
318.983	88.06
319.212	81.06
319.441	69.06
319.67	79.06
319.9	81.06
320.129	84.06
320.358	85.06
320.587	84.06
320.816	77.06
321.046	76.06
321.275	97.06
321.504	85.06
321.733	89.06
321.962	100.06
322.191	82.06
322.42	84.06
322.649	96.06
322.878	76.06
323.108	84.06
323.337	82.06
323.566	109.06
323.795	91.06
324.024	88.06
324.253	89.06
324.482	76.06
324.71	72.06
324.939	84.06
325.168	84.06
325.397	100.06
325.626	88.06
325.855	79.06
326.084	85.06
326.313	90.06
326.542	101.06
326.77	83.06
326.999	77.06
327.228	77.06
327.457	84.06
327.686	77.06
327.914	83.06
328.143	81.06
328.372	72.06
328.6	82.06
328.829	75.06
329.058	87.06
329.287	77.06
329.515	91.06
329.744	90.06
329.972	70.06
330.201	82.06
330.43	80.06
330.658	93.06
330.887	92.06
331.115	91.06
331.344	76.06
331.572	89.06
331.801	88.06
332.03	81.06
332.258	91.06
332.486	79.06
332.715	63.06
332.943	78.06
333.172	75.06
333.4	88.06
333.629	88.06
333.857	84.06
334.085	69.06
334.314	79.06
334.542	78.06
334.771	87.06
334.999	95.06
335.227	71.06
335.455	84.06
335.684	88.06
335.912	78.06
336.14	90.06
336.369	87.06
336.597	85.06
336.825	71.06
337.053	76.06
337.281	88.06
337.51	97.06
337.738	80.06
337.966	88.06
338.194	89.06
338.422	76.06
338.65	86.06
338.878	73.06
339.106	84.06
339.334	85.06
339.562	73.06
339.79	88.06
340.018	81.06
340.246	82.06
340.474	85.06
340.702	79.06
340.93	69.06
341.158	99.06
341.386	88.06
341.614	81.06
341.842	85.06
342.07	80.06
342.298	77.06
342.526	74.06
342.754	87.06
342.981	80.06
343.209	87.06
343.437	87.06
343.665	92.06
343.893	81.06
344.12	87.06
344.348	85.06
344.576	80.06
344.804	84.06
345.031	90.06
345.259	81.06
345.487	77.06
345.714	97.06
345.942	88.06
346.17	86.06
346.397	84.06
346.625	92.06
346.853	78.06
347.08	91.06
347.308	81.06
347.535	90.06
347.763	65.06
347.99	90.06
348.218	93.06
348.445	82.06
348.673	83.06
348.9	103.06
349.128	78.06
349.355	78.06
349.583	84.06
349.81	91.06
350.037	85.06
350.265	85.06
350.492	84.06
350.72	70.06
350.947	99.06
351.174	88.06
351.402	94.06
351.629	97.06
351.856	81.06
352.083	72.06
352.311	75.06
352.538	77.06
352.765	87.06
352.992	89.06
353.22	68.06
353.447	77.06
353.674	86.06
353.901	73.06
354.128	87.06
354.355	80.06
354.583	83.06
354.81	84.06
355.037	96.06
355.264	79.06
355.491	84.06
355.718	86.06
355.945	94.06
356.172	87.06
356.399	89.06
356.626	83.06
356.853	78.06
357.08	83.06
357.307	91.06
357.534	77.06
357.761	85.06
357.988	83.06
358.215	91.06
358.441	89.06
358.668	88.06
358.895	80.06
359.122	69.06
359.349	91.06
359.576	81.06
359.802	89.06
360.029	85.06
360.256	99.06
360.483	94.06
360.709	92.06
360.936	94.06
361.163	96.06
361.39	93.06
361.616	65.06
361.843	83.06
362.07	89.06
362.296	84.06
362.523	75.06
362.749	85.06
362.976	88.06
363.203	73.06
363.429	85.06
363.656	87.06
363.882	80.06
364.109	77.06
364.335	77.06
364.562	90.06
364.788	92.06
365.015	98.06
365.241	96.06
365.468	99.06
365.694	81.06
365.92	80.06
366.147	79.06
366.373	86.06
366.599	86.06
366.826	83.06
367.052	84.06
367.278	88.06
367.505	82.06
367.731	94.06
367.957	100.06
368.184	64.06
368.41	74.06
368.636	86.06
368.862	84.06
369.089	79.06
369.315	79.06
369.541	81.06
369.767	75.06
369.993	96.06
370.219	75.06
370.445	68.06
370.672	77.06
370.898	89.06
371.124	73.06
371.35	80.06
371.576	71.06
371.802	85.06
372.028	87.06
372.254	86.06
372.48	78.06
372.706	74.06
372.932	71.06
373.158	89.06
373.384	66.06
373.61	93.06
373.835	79.06
374.061	81.06
374.287	87.06
374.513	89.06
374.739	99.06
374.965	75.06
375.191	72.06
375.416	84.06
375.642	78.06
375.868	67.06
376.094	74.06
376.319	85.06
376.545	89.06
376.771	83.06
376.997	95.06
377.222	75.06
377.448	79.06
377.674	86.06
377.899	83.06
378.125	92.06
378.35	76.06
378.576	83.06
378.802	77.06
379.027	82.06
379.253	86.06
379.478	71.06
379.704	61.06
379.929	75.06
380.155	79.06
380.38	81.06
380.606	77.06
380.831	84.06
381.057	84.06
381.282	72.06
381.507	79.06
381.733	86.06
381.958	97.06
382.184	84.06
382.409	90.06
382.634	70.06
382.86	90.06
383.085	71.06
383.31	65.06
383.535	76.06
383.761	74.06
383.986	86.06
384.211	102.06
384.436	91.06
384.662	80.06
384.887	81.06
385.112	78.06
385.337	74.06
385.562	89.06
385.787	77.06
386.013	78.06
386.238	84.06
386.463	90.06
386.688	101.06
386.913	92.06
387.138	90.06
387.363	94.06
387.588	81.06
387.813	77.06
388.038	91.06
388.263	80.06
388.488	87.06
388.713	70.06
388.938	78.06
389.163	85.06
389.387	96.06
389.612	89.06
389.837	81.06
390.062	79.06
390.287	76.06
390.512	80.06
390.736	78.06
390.961	79.06
391.186	94.06
391.411	77.06
391.636	78.06
391.86	79.06
392.085	90.06
392.31	86.06
392.534	85.06
392.759	77.06
392.984	99.06
393.208	83.06
393.433	88.06
393.658	76.06
393.882	89.06
394.107	83.06
394.331	87.06
394.556	92.06
394.78	91.06
395.005	80.06
395.229	103.06
395.454	68.06
395.678	74.06
395.903	94.06
396.127	103.06
396.352	91.06
396.576	79.06
396.801	83.06
397.025	93.06
397.249	85.06
397.474	77.06
397.698	81.06
397.922	81.06
398.147	74.06
398.371	90.06
398.595	85.06
398.82	90.06
399.044	78.06
399.268	87.06
399.492	71.06
399.717	106.06
399.941	88.06
400.165	102.06
400.389	103.06
400.613	85.06
400.837	103.06
401.062	78.06
401.286	76.06
401.51	91.06
401.734	83.06
401.958	71.06
402.182	84.06
402.406	84.06
402.63	83.06
402.854	83.06
403.078	100.06
403.302	82.06
403.526	94.06
403.75	87.06
403.974	91.06
404.198	91.06
404.422	92.06
404.645	83.06
404.869	83.06
405.093	78.06
405.317	95.06
405.541	90.06
405.765	78.06
405.988	100.06
406.212	95.06
406.436	87.06
406.66	100.06
406.883	93.06
407.107	78.06
407.331	82.06
407.555	76.06
407.778	77.06
408.002	86.06
408.226	73.06
408.449	75.06
408.673	95.06
408.896	95.06
409.12	87.06
409.344	83.06
409.567	89.06
409.791	78.06
410.014	87.06
410.238	70.06
410.461	94.06
410.685	95.06
410.908	89.06
411.132	88.06
411.355	82.06
411.578	88.06
411.802	69.06
412.025	87.06
412.249	88.06
412.472	87.06
412.695	97.06
412.919	80.06
413.142	80.06
413.365	89.06
413.589	76.06
413.812	89.06
414.035	99.06
414.258	85.06
414.482	81.06
414.705	70.06
414.928	105.06
415.151	81.06
415.374	82.06
415.597	90.06
415.821	87.06
416.044	74.06
416.267	99.06
416.49	80.06
416.713	87.06
416.936	84.06
417.159	79.06
417.382	81.06
417.605	89.06
417.828	78.06
418.051	85.06
418.274	76.06
418.497	87.06
418.72	84.06
418.943	75.06
419.166	84.06
419.389	79.06
419.611	88.06
419.834	88.06
420.057	80.06
420.28	92.06
420.503	86.06
420.726	96.06
420.948	67.06
421.171	80.06
421.394	75.06
421.617	78.06
421.839	78.06
422.062	89.06
422.285	83.06
422.507	78.06
422.73	103.06
422.953	79.06
423.175	85.06
423.398	69.06
423.621	86.06
423.843	82.06
424.066	89.06
424.288	80.06
424.511	84.06
424.733	83.06
424.956	80.06
425.178	105.06
425.401	93.06
425.623	82.06
425.846	75.06
426.068	95.06
426.291	84.06
426.513	83.06
426.735	92.06
426.958	80.06
427.18	87.06
427.402	79.06
427.625	91.06
427.847	72.06
428.069	79.06
428.292	89.06
428.514	88.06
428.736	82.06
428.958	78.06
429.181	76.06
429.403	85.06
429.625	72.06
429.847	83.06
430.069	83.06
430.292	93.06
430.514	84.06
430.736	92.06
430.958	86.06
431.18	87.06
431.402	101.06
431.624	85.06
431.846	88.06
432.068	94.06
432.29	80.06
432.512	75.06
432.734	74.06
432.956	83.06
433.178	88.06
433.4	86.06
433.622	83.06
433.844	86.06
434.066	87.06
434.287	83.06
434.509	69.06
434.731	66.06
434.953	85.06
435.175	96.06
435.397	81.06
435.618	95.06
435.84	90.06
436.062	89.06
436.284	87.06
436.505	92.06
436.727	83.06
436.949	70.06
437.17	80.06
437.392	88.06
437.614	106.06
437.835	96.06
438.057	80.06
438.278	81.06
438.5	81.06
438.721	87.06
438.943	83.06
439.165	83.06
439.386	87.06
439.608	84.06
439.829	84.06
440.05	93.06
440.272	90.06
440.493	86.06
440.715	79.06
440.936	85.06
441.158	80.06
441.379	78.06
441.6	80.06
441.822	78.06
442.043	95.06
442.264	96.06
442.486	68.06
442.707	80.06
442.928	86.06
443.149	81.06
443.371	83.06
443.592	92.06
443.813	93.06
444.034	79.06
444.255	92.06
444.476	91.06
444.698	87.06
444.919	82.06
445.14	152.06
445.361	116.06
445.582	79.06
445.803	94.06
446.024	80.06
446.245	91.06
446.466	68.06
446.687	73.06
446.908	77.06
447.129	89.06
447.35	95.06
447.571	81.06
447.792	85.06
448.013	79.06
448.234	87.06
448.455	84.06
448.675	83.06
448.896	95.06
449.117	76.06
449.338	83.06
449.559	67.06
449.779	77.06
450	87.06
450.221	76.06
450.442	88.06
450.662	73.06
450.883	88.06
451.104	88.06
451.324	87.06
451.545	87.06
451.766	94.06
451.986	85.06
452.207	95.06
452.428	77.06
452.648	77.06
452.869	91.06
453.089	86.06
453.31	85.06
453.53	86.06
453.751	107.06
453.971	95.06
454.192	87.06
454.412	80.06
454.633	71.06
454.853	90.06
455.073	86.06
455.294	92.06
455.514	76.06
455.734	79.06
455.955	88.06
456.175	83.06
456.395	95.06
456.616	85.06
456.836	79.06
457.056	83.06
457.276	84.06
457.497	87.06
457.717	88.06
457.937	74.06
458.157	78.06
458.377	88.06
458.598	90.06
458.818	75.06
459.038	81.06
459.258	91.06
459.478	85.06
459.698	96.06
459.918	84.06
460.138	91.06
460.358	90.06
460.578	93.06
460.798	90.06
461.018	86.06
461.238	83.06
461.458	74.06
461.678	86.06
461.898	76.06
462.118	93.06
462.338	88.06
462.558	75.06
462.777	86.06
462.997	96.06
463.217	75.06
463.437	92.06
463.657	89.06
463.876	78.06
464.096	93.06
464.316	86.06
464.536	91.06
464.755	95.06
464.975	83.06
465.195	78.06
465.414	80.06
465.634	91.06
465.854	78.06
466.073	92.06
466.293	81.06
466.512	86.06
466.732	87.06
466.951	90.06
467.171	88.06
467.391	85.06
467.61	89.06
467.829	87.06
468.049	95.06
468.268	88.06
468.488	76.06
468.707	78.06
468.927	79.06
469.146	78.06
469.365	77.06
469.585	93.06
469.804	91.06
470.023	88.06
470.243	79.06
470.462	84.06
470.681	91.06
470.901	78.06
471.12	104.06
471.339	85.06
471.558	92.06
471.777	94.06
471.997	88.06
472.216	81.06
472.435	77.06
472.654	80.06
472.873	83.06
473.092	93.06
473.311	86.06
473.53	83.06
473.749	71.06
473.968	73.06
474.187	79.06
474.406	73.06
474.625	76.06
474.844	108.06
475.063	77.06
475.282	84.06
475.501	79.06
475.72	96.06
475.939	96.06
476.158	81.06
476.377	80.06
476.596	87.06
476.814	79.06
477.033	83.06
477.252	112.06
477.471	87.06
477.69	85.06
477.908	73.06
478.127	73.06
478.346	100.06
478.564	93.06
478.783	76.06
479.002	88.06
479.22	86.06
479.439	86.06
479.658	91.06
479.876	86.06
480.095	78.06
480.313	99.06
480.532	81.06
480.751	83.06
480.969	85.06
481.188	93.06
481.406	80.06
481.624	88.06
481.843	79.06
482.061	68.06
482.28	85.06
482.498	84.06
482.717	87.06
482.935	83.06
483.153	93.06
483.372	89.06
483.59	89.06
483.808	101.06
484.027	85.06
484.245	86.06
484.463	88.06
484.681	101.06
484.9	85.06
485.118	78.06
485.336	100.06
485.554	68.06
485.772	92.06
485.99	93.06
486.209	80.06
486.427	69.06
486.645	78.06
486.863	95.06
487.081	77.06
487.299	79.06
487.517	84.06
487.735	88.06
487.953	91.06
488.171	85.06
488.389	93.06
488.607	83.06
488.825	87.06
489.043	96.06
489.261	93.06
489.479	77.06
489.696	68.06
489.914	89.06
490.132	92.06
490.35	85.06
490.568	77.06
490.786	85.06
491.003	90.06
491.221	83.06
491.439	78.06
491.657	72.06
491.874	86.06
492.092	88.06
492.31	85.06
492.527	74.06
492.745	96.06
492.963	93.06
493.18	90.06
493.398	80.06
493.615	83.06
493.833	70.06
494.05	86.06
494.268	77.06
494.485	85.06
494.703	93.06
494.92	95.06
495.138	92.06
495.355	90.06
495.573	106.06
495.79	69.06
496.008	90.06
496.225	95.06
496.442	90.06
496.66	82.06
496.877	92.06
497.094	93.06
497.312	95.06
497.529	77.06
497.746	83.06
497.963	74.06
498.181	76.06
498.398	100.06
498.615	81.06
498.832	103.06
499.049	96.06
499.267	95.06
499.484	108.06
499.701	115.06
499.918	91.06
500.135	110.06
500.352	109.06
500.569	106.06
500.786	111.06
501.003	115.06
501.22	107.06
501.437	95.06
501.654	103.06
501.871	96.06
502.088	92.06
502.305	91.06
502.522	96.06
502.739	92.06
502.956	78.06
503.172	75.06
503.389	99.06
503.606	84.06
503.823	93.06
504.04	79.06
504.256	90.06
504.473	104.06
504.69	99.06
504.907	108.06
505.123	93.06
505.34	88.06
505.557	76.06
505.773	92.06
505.99	101.06
506.207	84.06
506.423	92.06
506.64	82.06
506.856	91.06
507.073	87.06
507.289	79.06
507.506	84.06
507.722	95.06
507.939	71.06
508.155	81.06
508.372	79.06
508.588	73.06
508.805	81.06
509.021	88.06
509.238	85.06
509.454	93.06
509.67	77.06
509.887	83.06
510.103	83.06
510.319	94.06
510.536	88.06
510.752	77.06
510.968	87.06
511.184	90.06
511.401	77.06
511.617	84.06
511.833	82.06
512.049	84.06
512.265	83.06
512.481	84.06
512.698	80.06
512.914	97.06
513.13	90.06
513.346	77.06
513.562	90.06
513.778	84.06
513.994	84.06
514.21	86.06
514.426	95.06
514.642	102.06
514.858	89.06
515.074	86.06
515.29	86.06
515.506	88.06
515.721	74.06
515.937	99.06
516.153	89.06
516.369	79.06
516.585	82.06
516.801	75.06
517.016	99.06
517.232	87.06
517.448	90.06
517.664	85.06
517.879	82.06
518.095	90.06
518.311	102.06
518.527	89.06
518.742	89.06
518.958	85.06
519.173	90.06
519.389	92.06
519.605	69.06
