Data from BG_HRD10591_096.txt Node
Date: Fri May 16 15:33:54 EDT 2025
User: Yrep
Spectrometer: HR+D1059
Trigger mode: 1
Integration Time (sec): 1.000000E-1
Scans to average: 1
Electric dark correction enabled: true
Nonlinearity correction enabled: false
Boxcar width: 0
XAxis mode: Wavelengths
Number of Pixels in Spectrum: 2048
>>>>>Begin Spectral Data<<<<<
223.165	-24.56
223.4	-24.56
223.635	-24.56
223.869	-9.56
224.104	-20.56
224.338	-16.56
224.573	-11.56
224.808	-5.56
225.042	-5.56
225.277	-1.56
225.511	-12.56
225.746	-1.56
225.98	12.44
226.215	0.44
226.449	8.44
226.683	26.44
226.918	27.44
227.152	34.44
227.387	29.44
227.621	48.44
227.856	59.44
228.09	58.44
228.324	44.44
228.559	54.44
228.793	57.44
229.027	61.44
229.262	59.44
229.496	73.44
229.73	59.44
229.964	83.44
230.199	64.44
230.433	83.44
230.667	67.44
230.901	72.44
231.136	73.44
231.37	79.44
231.604	86.44
231.838	72.44
232.072	83.44
232.306	83.44
232.541	71.44
232.775	80.44
233.009	79.44
233.243	64.44
233.477	77.44
233.711	73.44
233.945	85.44
234.179	91.44
234.413	84.44
234.647	76.44
234.881	80.44
235.115	69.44
235.349	88.44
235.583	76.44
235.817	86.44
236.051	69.44
236.285	75.44
236.519	79.44
236.753	69.44
236.987	72.44
237.221	80.44
237.455	88.44
237.689	90.44
237.922	80.44
238.156	53.44
238.39	82.44
238.624	72.44
238.858	66.44
239.091	81.44
239.325	65.44
239.559	65.44
239.793	81.44
240.027	63.44
240.26	77.44
240.494	61.44
240.728	72.44
240.961	69.44
241.195	68.44
241.429	69.44
241.662	69.44
241.896	79.44
242.13	79.44
242.363	81.44
242.597	65.44
242.83	79.44
243.064	81.44
243.298	77.44
243.531	71.44
243.765	62.44
243.998	64.44
244.232	71.44
244.465	83.44
244.699	63.44
244.932	66.44
245.166	76.44
245.399	81.44
245.633	69.44
245.866	67.44
246.099	79.44
246.333	71.44
246.566	63.44
246.8	87.44
247.033	60.44
247.266	79.44
247.5	57.44
247.733	69.44
247.966	75.44
248.2	70.44
248.433	73.44
248.666	84.44
248.899	80.44
249.133	82.44
249.366	75.44
249.599	65.44
249.832	80.44
250.066	82.44
250.299	78.44
250.532	88.44
250.765	68.44
250.998	75.44
251.231	70.44
251.465	66.44
251.698	72.44
251.931	83.44
252.164	65.44
252.397	80.44
252.63	80.44
252.863	76.44
253.096	65.44
253.329	72.44
253.562	71.44
253.795	100.44
254.028	87.44
254.261	88.44
254.494	68.44
254.727	76.44
254.96	76.44
255.193	70.44
255.426	72.44
255.659	75.44
255.892	76.44
256.124	84.44
256.357	78.44
256.59	80.44
256.823	59.44
257.056	80.44
257.289	79.44
257.521	77.44
257.754	73.44
257.987	65.44
258.22	83.44
258.452	83.44
258.685	71.44
258.918	79.44
259.151	65.44
259.383	68.44
259.616	67.44
259.849	76.44
260.081	79.44
260.314	88.44
260.547	76.44
260.779	72.44
261.012	60.44
261.244	95.44
261.477	78.44
261.71	81.44
261.942	84.44
262.175	64.44
262.407	81.44
262.64	83.44
262.872	99.44
263.105	66.44
263.337	61.44
263.57	81.44
263.802	81.44
264.035	76.44
264.267	82.44
264.499	70.44
264.732	79.44
264.964	75.44
265.197	86.44
265.429	70.44
265.661	71.44
265.894	76.44
266.126	73.44
266.358	73.44
266.591	84.44
266.823	85.44
267.055	73.44
267.287	68.44
267.52	70.44
267.752	85.44
267.984	90.44
268.216	76.44
268.448	86.44
268.681	85.44
268.913	57.44
269.145	70.44
269.377	59.44
269.609	75.44
269.841	76.44
270.073	80.44
270.306	84.44
270.538	80.44
270.77	91.44
271.002	83.44
271.234	91.44
271.466	75.44
271.698	70.44
271.93	69.44
272.162	80.44
272.394	89.44
272.626	87.44
272.858	99.44
273.09	79.44
273.322	75.44
273.553	85.44
273.785	74.44
274.017	84.44
274.249	96.44
274.481	65.44
274.713	77.44
274.945	94.44
275.176	85.44
275.408	85.44
275.64	78.44
275.872	65.44
276.104	79.44
276.335	93.44
276.567	78.44
276.799	85.44
277.031	100.44
277.262	75.44
277.494	92.44
277.726	88.44
277.957	78.44
278.189	89.44
278.421	79.44
278.652	82.44
278.884	83.44
279.115	84.44
279.347	76.44
279.579	84.44
279.81	72.44
280.042	71.44
280.273	60.44
280.505	83.44
280.736	81.44
280.968	80.44
281.199	83.44
281.431	71.44
281.662	68.44
281.894	92.44
282.125	79.44
282.356	69.44
282.588	88.44
282.819	85.44
283.051	82.44
283.282	94.44
283.513	95.44
283.745	76.44
283.976	85.44
284.207	71.44
284.439	84.44
284.67	93.44
284.901	77.44
285.132	75.44
285.364	69.44
285.595	85.44
285.826	82.44
286.057	88.44
286.288	79.44
286.52	87.44
286.751	88.44
286.982	75.44
287.213	72.44
287.444	80.44
287.675	89.44
287.906	94.44
288.138	89.44
288.369	82.44
288.6	83.44
288.831	83.44
289.062	87.44
289.293	84.44
289.524	84.44
289.755	85.44
289.986	86.44
290.217	80.44
290.448	88.44
290.679	94.44
290.91	76.44
291.141	86.44
291.371	83.44
291.602	97.44
291.833	82.44
292.064	76.44
292.295	83.44
292.526	70.44
292.757	89.44
292.987	76.44
293.218	77.44
293.449	74.44
293.68	88.44
293.91	71.44
294.141	65.44
294.372	90.44
294.603	70.44
294.833	87.44
295.064	87.44
295.295	81.44
295.525	84.44
295.756	82.44
295.987	74.44
296.217	76.44
296.448	81.44
296.679	82.44
296.909	77.44
297.14	99.44
297.37	90.44
297.601	73.44
297.831	99.44
298.062	79.44
298.292	83.44
298.523	88.44
298.753	81.44
298.984	71.44
299.214	87.44
299.445	76.44
299.675	77.44
299.905	75.44
300.136	88.44
300.366	75.44
300.597	89.44
300.827	88.44
301.057	78.44
301.288	75.44
301.518	88.44
301.748	95.44
301.979	97.44
302.209	85.44
302.439	81.44
302.669	79.44
302.9	79.44
303.13	95.44
303.36	76.44
303.59	77.44
303.82	72.44
304.051	74.44
304.281	79.44
304.511	90.44
304.741	97.44
304.971	75.44
305.201	90.44
305.431	93.44
305.661	103.44
305.891	87.44
306.121	86.44
306.352	77.44
306.582	95.44
306.812	85.44
307.042	86.44
307.272	80.44
307.502	79.44
307.731	94.44
307.961	69.44
308.191	79.44
308.421	87.44
308.651	85.44
308.881	87.44
309.111	94.44
309.341	71.44
309.571	86.44
309.8	87.44
310.03	79.44
310.26	82.44
310.49	79.44
310.72	81.44
310.949	76.44
311.179	90.44
311.409	92.44
311.639	95.44
311.868	82.44
312.098	75.44
312.328	91.44
312.557	80.44
312.787	88.44
313.017	80.44
313.246	99.44
313.476	76.44
313.706	89.44
313.935	96.44
314.165	75.44
314.394	80.44
314.624	83.44
314.853	59.44
315.083	83.44
315.312	88.44
315.542	94.44
315.771	95.44
316.001	84.44
316.23	81.44
316.46	87.44
316.689	76.44
316.919	69.44
317.148	91.44
317.377	89.44
317.607	83.44
317.836	89.44
318.065	90.44
318.295	81.44
318.524	85.44
318.753	90.44
318.983	83.44
319.212	91.44
319.441	83.44
319.67	83.44
319.9	90.44
320.129	80.44
320.358	80.44
320.587	77.44
320.816	94.44
321.046	91.44
321.275	95.44
321.504	72.44
321.733	77.44
321.962	88.44
322.191	77.44
322.42	92.44
322.649	63.44
322.878	91.44
323.108	93.44
323.337	93.44
323.566	79.44
323.795	88.44
324.024	82.44
324.253	83.44
324.482	71.44
324.71	84.44
324.939	96.44
325.168	78.44
325.397	89.44
325.626	96.44
325.855	76.44
326.084	89.44
326.313	87.44
326.542	73.44
326.77	75.44
326.999	84.44
327.228	79.44
327.457	81.44
327.686	86.44
327.914	84.44
328.143	84.44
328.372	84.44
328.6	88.44
328.829	78.44
329.058	87.44
329.287	87.44
329.515	74.44
329.744	74.44
329.972	79.44
330.201	92.44
330.43	89.44
330.658	84.44
330.887	76.44
331.115	86.44
331.344	72.44
331.572	96.44
331.801	90.44
332.03	79.44
332.258	86.44
332.486	79.44
332.715	89.44
332.943	84.44
333.172	86.44
333.4	91.44
333.629	94.44
333.857	101.44
334.085	92.44
334.314	71.44
334.542	86.44
334.771	87.44
334.999	93.44
335.227	77.44
335.455	64.44
335.684	81.44
335.912	95.44
336.14	68.44
336.369	77.44
336.597	85.44
336.825	72.44
337.053	87.44
337.281	76.44
337.51	83.44
337.738	83.44
337.966	80.44
338.194	75.44
338.422	85.44
338.65	80.44
338.878	83.44
339.106	81.44
339.334	95.44
339.562	71.44
339.79	84.44
340.018	88.44
340.246	69.44
340.474	82.44
340.702	84.44
340.93	92.44
341.158	79.44
341.386	92.44
341.614	90.44
341.842	89.44
342.07	107.44
342.298	85.44
342.526	100.44
342.754	83.44
342.981	85.44
343.209	84.44
343.437	79.44
343.665	71.44
343.893	87.44
344.12	88.44
344.348	73.44
344.576	99.44
344.804	72.44
345.031	102.44
345.259	83.44
345.487	81.44
345.714	81.44
345.942	76.44
346.17	90.44
346.397	79.44
346.625	87.44
346.853	76.44
347.08	78.44
347.308	94.44
347.535	88.44
347.763	84.44
347.99	92.44
348.218	68.44
348.445	79.44
348.673	96.44
348.9	93.44
349.128	89.44
349.355	86.44
349.583	87.44
349.81	79.44
350.037	80.44
350.265	93.44
350.492	93.44
350.72	91.44
350.947	92.44
351.174	75.44
351.402	62.44
351.629	79.44
351.856	89.44
352.083	77.44
352.311	88.44
352.538	87.44
352.765	85.44
352.992	96.44
353.22	83.44
353.447	80.44
353.674	79.44
353.901	87.44
354.128	87.44
354.355	83.44
354.583	84.44
354.81	99.44
355.037	80.44
355.264	101.44
355.491	90.44
355.718	78.44
355.945	77.44
356.172	83.44
356.399	95.44
356.626	87.44
356.853	85.44
357.08	88.44
357.307	88.44
357.534	85.44
357.761	82.44
357.988	78.44
358.215	77.44
358.441	92.44
358.668	68.44
358.895	76.44
359.122	88.44
359.349	88.44
359.576	75.44
359.802	79.44
360.029	83.44
360.256	95.44
360.483	87.44
360.709	91.44
360.936	92.44
361.163	94.44
361.39	75.44
361.616	75.44
361.843	78.44
362.07	86.44
362.296	93.44
362.523	99.44
362.749	77.44
362.976	86.44
363.203	117.44
363.429	88.44
363.656	83.44
363.882	80.44
364.109	87.44
364.335	86.44
364.562	83.44
364.788	86.44
365.015	73.44
365.241	77.44
365.468	73.44
365.694	74.44
365.92	77.44
366.147	72.44
366.373	72.44
366.599	71.44
366.826	75.44
367.052	97.44
367.278	73.44
367.505	81.44
367.731	86.44
367.957	79.44
368.184	80.44
368.41	83.44
368.636	78.44
368.862	86.44
369.089	87.44
369.315	87.44
369.541	92.44
369.767	84.44
369.993	105.44
370.219	82.44
370.445	75.44
370.672	92.44
370.898	94.44
371.124	83.44
371.35	87.44
371.576	82.44
371.802	77.44
372.028	89.44
372.254	92.44
372.48	90.44
372.706	65.44
372.932	83.44
373.158	82.44
373.384	79.44
373.61	84.44
373.835	73.44
374.061	73.44
374.287	85.44
374.513	73.44
374.739	72.44
374.965	94.44
375.191	93.44
375.416	77.44
375.642	81.44
375.868	91.44
376.094	82.44
376.319	80.44
376.545	75.44
376.771	92.44
376.997	82.44
377.222	86.44
377.448	91.44
377.674	89.44
377.899	93.44
378.125	83.44
378.35	80.44
378.576	80.44
378.802	86.44
379.027	85.44
379.253	90.44
379.478	90.44
379.704	79.44
379.929	72.44
380.155	91.44
380.38	71.44
380.606	84.44
380.831	83.44
381.057	85.44
381.282	81.44
381.507	73.44
381.733	65.44
381.958	71.44
382.184	76.44
382.409	87.44
382.634	67.44
382.86	78.44
383.085	91.44
383.31	96.44
383.535	88.44
383.761	90.44
383.986	85.44
384.211	81.44
384.436	71.44
384.662	72.44
384.887	81.44
385.112	80.44
385.337	83.44
385.562	85.44
385.787	77.44
386.013	90.44
386.238	91.44
386.463	68.44
386.688	88.44
386.913	78.44
387.138	76.44
387.363	89.44
387.588	83.44
387.813	83.44
388.038	72.44
388.263	81.44
388.488	82.44
388.713	77.44
388.938	79.44
389.163	81.44
389.387	83.44
389.612	88.44
389.837	85.44
390.062	74.44
390.287	83.44
390.512	88.44
390.736	70.44
390.961	92.44
391.186	73.44
391.411	86.44
391.636	85.44
391.86	90.44
392.085	93.44
392.31	93.44
392.534	79.44
392.759	85.44
392.984	80.44
393.208	87.44
393.433	85.44
393.658	82.44
393.882	90.44
394.107	63.44
394.331	79.44
394.556	86.44
394.78	91.44
395.005	91.44
395.229	80.44
395.454	93.44
395.678	69.44
395.903	99.44
396.127	79.44
396.352	87.44
396.576	85.44
396.801	88.44
397.025	85.44
397.249	72.44
397.474	80.44
397.698	71.44
397.922	83.44
398.147	71.44
398.371	85.44
398.595	81.44
398.82	84.44
399.044	93.44
399.268	92.44
399.492	78.44
399.717	84.44
399.941	92.44
400.165	84.44
400.389	90.44
400.613	80.44
400.837	81.44
401.062	88.44
401.286	84.44
401.51	98.44
401.734	89.44
401.958	87.44
402.182	63.44
402.406	88.44
402.63	75.44
402.854	81.44
403.078	83.44
403.302	85.44
403.526	79.44
403.75	87.44
403.974	92.44
404.198	95.44
404.422	74.44
404.645	81.44
404.869	86.44
405.093	81.44
405.317	87.44
405.541	83.44
405.765	80.44
405.988	76.44
406.212	74.44
406.436	77.44
406.66	92.44
406.883	92.44
407.107	79.44
407.331	84.44
407.555	102.44
407.778	79.44
408.002	67.44
408.226	81.44
408.449	80.44
408.673	93.44
408.896	77.44
409.12	91.44
409.344	107.44
409.567	85.44
409.791	86.44
410.014	86.44
410.238	84.44
410.461	73.44
410.685	72.44
410.908	85.44
411.132	75.44
411.355	86.44
411.578	85.44
411.802	99.44
412.025	78.44
412.249	83.44
412.472	94.44
412.695	79.44
412.919	84.44
413.142	90.44
413.365	92.44
413.589	74.44
413.812	65.44
414.035	94.44
414.258	88.44
414.482	70.44
414.705	82.44
414.928	94.44
415.151	67.44
415.374	91.44
415.597	80.44
415.821	85.44
416.044	83.44
416.267	103.44
416.49	78.44
416.713	74.44
416.936	90.44
417.159	83.44
417.382	87.44
417.605	85.44
417.828	75.44
418.051	71.44
418.274	78.44
418.497	82.44
418.72	78.44
418.943	101.44
419.166	87.44
419.389	94.44
419.611	80.44
419.834	71.44
420.057	99.44
420.28	79.44
420.503	94.44
420.726	87.44
420.948	80.44
421.171	83.44
421.394	77.44
421.617	83.44
421.839	89.44
422.062	72.44
422.285	84.44
422.507	83.44
422.73	67.44
422.953	93.44
423.175	85.44
423.398	89.44
423.621	86.44
423.843	83.44
424.066	70.44
424.288	91.44
424.511	65.44
424.733	75.44
424.956	80.44
425.178	69.44
425.401	81.44
425.623	93.44
425.846	83.44
426.068	91.44
426.291	80.44
426.513	85.44
426.735	85.44
426.958	81.44
427.18	82.44
427.402	75.44
427.625	72.44
427.847	73.44
428.069	81.44
428.292	84.44
428.514	63.44
428.736	87.44
428.958	79.44
429.181	77.44
429.403	91.44
429.625	75.44
429.847	85.44
430.069	75.44
430.292	93.44
430.514	80.44
430.736	83.44
430.958	83.44
431.18	78.44
431.402	74.44
431.624	80.44
431.846	86.44
432.068	83.44
432.29	88.44
432.512	80.44
432.734	92.44
432.956	103.44
433.178	89.44
433.4	101.44
433.622	105.44
433.844	93.44
434.066	86.44
434.287	87.44
434.509	92.44
434.731	79.44
434.953	90.44
435.175	81.44
435.397	91.44
435.618	91.44
435.84	79.44
436.062	95.44
436.284	80.44
436.505	87.44
436.727	79.44
436.949	88.44
437.17	78.44
437.392	85.44
437.614	90.44
437.835	63.44
438.057	87.44
438.278	80.44
438.5	86.44
438.721	79.44
438.943	85.44
439.165	84.44
439.386	82.44
439.608	88.44
439.829	79.44
440.05	90.44
440.272	79.44
440.493	74.44
440.715	85.44
440.936	87.44
441.158	83.44
441.379	83.44
441.6	76.44
441.822	83.44
442.043	80.44
442.264	88.44
442.486	75.44
442.707	85.44
442.928	84.44
443.149	86.44
443.371	69.44
443.592	89.44
443.813	81.44
444.034	79.44
444.255	102.44
444.476	83.44
444.698	86.44
444.919	68.44
445.14	140.44
445.361	99.44
445.582	87.44
445.803	81.44
446.024	88.44
446.245	82.44
446.466	77.44
446.687	92.44
446.908	88.44
447.129	79.44
447.35	76.44
447.571	86.44
447.792	67.44
448.013	70.44
448.234	69.44
448.455	86.44
448.675	83.44
448.896	76.44
449.117	93.44
449.338	91.44
449.559	81.44
449.779	104.44
450	77.44
450.221	93.44
450.442	80.44
450.662	86.44
450.883	75.44
451.104	72.44
451.324	77.44
451.545	78.44
451.766	68.44
451.986	76.44
452.207	79.44
452.428	81.44
452.648	84.44
452.869	91.44
453.089	91.44
453.31	83.44
453.53	104.44
453.751	69.44
453.971	75.44
454.192	67.44
454.412	77.44
454.633	86.44
454.853	83.44
455.073	91.44
455.294	67.44
455.514	92.44
455.734	92.44
455.955	86.44
456.175	94.44
456.395	78.44
456.616	78.44
456.836	93.44
457.056	80.44
457.276	93.44
457.497	97.44
457.717	80.44
457.937	91.44
458.157	79.44
458.377	90.44
458.598	72.44
458.818	81.44
459.038	81.44
459.258	76.44
459.478	83.44
459.698	73.44
459.918	82.44
460.138	79.44
460.358	85.44
460.578	77.44
460.798	85.44
461.018	85.44
461.238	78.44
461.458	91.44
461.678	103.44
461.898	80.44
462.118	88.44
462.338	82.44
462.558	83.44
462.777	100.44
462.997	76.44
463.217	88.44
463.437	87.44
463.657	77.44
463.876	85.44
464.096	77.44
464.316	88.44
464.536	83.44
464.755	98.44
464.975	87.44
465.195	96.44
465.414	80.44
465.634	90.44
465.854	92.44
466.073	82.44
466.293	88.44
466.512	80.44
466.732	79.44
466.951	86.44
467.171	80.44
467.391	82.44
467.61	79.44
467.829	79.44
468.049	66.44
468.268	93.44
468.488	87.44
468.707	83.44
468.927	81.44
469.146	88.44
469.365	86.44
469.585	93.44
469.804	90.44
470.023	78.44
470.243	82.44
470.462	69.44
470.681	77.44
470.901	93.44
471.12	80.44
471.339	81.44
471.558	79.44
471.777	71.44
471.997	81.44
472.216	82.44
472.435	83.44
472.654	91.44
472.873	85.44
473.092	86.44
473.311	84.44
473.53	94.44
473.749	81.44
473.968	88.44
474.187	101.44
474.406	94.44
474.625	95.44
474.844	88.44
475.063	76.44
475.282	81.44
475.501	79.44
475.72	73.44
475.939	75.44
476.158	81.44
476.377	94.44
476.596	86.44
476.814	83.44
477.033	76.44
477.252	82.44
477.471	78.44
477.69	72.44
477.908	90.44
478.127	80.44
478.346	94.44
478.564	82.44
478.783	57.44
479.002	93.44
479.22	88.44
479.439	90.44
479.658	83.44
479.876	83.44
480.095	68.44
480.313	70.44
480.532	82.44
480.751	104.44
480.969	77.44
481.188	75.44
481.406	93.44
481.624	86.44
481.843	86.44
482.061	86.44
482.28	80.44
482.498	85.44
482.717	84.44
482.935	78.44
483.153	95.44
483.372	73.44
483.59	95.44
483.808	85.44
484.027	88.44
484.245	88.44
484.463	92.44
484.681	89.44
484.9	81.44
485.118	75.44
485.336	80.44
485.554	89.44
485.772	83.44
485.99	79.44
486.209	86.44
486.427	91.44
486.645	83.44
486.863	84.44
487.081	84.44
487.299	76.44
487.517	85.44
487.735	94.44
487.953	87.44
488.171	81.44
488.389	89.44
488.607	76.44
488.825	71.44
489.043	83.44
489.261	88.44
489.479	81.44
489.696	102.44
489.914	79.44
490.132	79.44
490.35	100.44
490.568	91.44
490.786	81.44
491.003	88.44
491.221	89.44
491.439	81.44
491.657	88.44
491.874	91.44
492.092	79.44
492.31	89.44
492.527	92.44
492.745	78.44
492.963	83.44
493.18	71.44
493.398	79.44
493.615	86.44
493.833	89.44
494.05	77.44
494.268	79.44
494.485	98.44
494.703	77.44
494.92	85.44
495.138	80.44
495.355	82.44
495.573	88.44
495.79	96.44
496.008	77.44
496.225	93.44
496.442	80.44
496.66	85.44
496.877	80.44
497.094	93.44
497.312	86.44
497.529	93.44
497.746	103.44
497.963	81.44
498.181	86.44
498.398	83.44
498.615	82.44
498.832	93.44
499.049	102.44
499.267	99.44
499.484	96.44
499.701	88.44
499.918	117.44
500.135	103.44
500.352	94.44
500.569	92.44
500.786	102.44
501.003	105.44
501.22	93.44
501.437	91.44
501.654	93.44
501.871	81.44
502.088	107.44
502.305	94.44
502.522	103.44
502.739	75.44
502.956	83.44
503.172	86.44
503.389	99.44
503.606	84.44
503.823	87.44
504.04	81.44
504.256	88.44
504.473	90.44
504.69	94.44
504.907	90.44
505.123	84.44
505.34	89.44
505.557	95.44
505.773	74.44
505.99	76.44
506.207	89.44
506.423	94.44
506.64	71.44
506.856	76.44
507.073	89.44
507.289	83.44
507.506	91.44
507.722	94.44
507.939	91.44
508.155	89.44
508.372	96.44
508.588	83.44
508.805	93.44
509.021	89.44
509.238	79.44
509.454	73.44
509.67	71.44
509.887	93.44
510.103	85.44
510.319	90.44
510.536	99.44
510.752	80.44
510.968	73.44
511.184	76.44
511.401	90.44
511.617	88.44
511.833	85.44
512.049	89.44
512.265	77.44
512.481	80.44
512.698	90.44
512.914	75.44
513.13	87.44
513.346	86.44
513.562	80.44
513.778	90.44
513.994	72.44
514.21	88.44
514.426	85.44
514.642	82.44
514.858	74.44
515.074	88.44
515.29	86.44
515.506	83.44
515.721	86.44
515.937	91.44
516.153	94.44
516.369	89.44
516.585	84.44
516.801	77.44
517.016	92.44
517.232	88.44
517.448	89.44
517.664	94.44
517.879	82.44
518.095	83.44
518.311	88.44
518.527	86.44
518.742	79.44
518.958	82.44
519.173	81.44
519.389	83.44
519.605	73.44
519.82	87.44
