Data from BG_HRD10591_079.txt Node
Date: Fri May 16 15:33:46 EDT 2025
User: Yrep
Spectrometer: HR+D1059
Trigger mode: 1
Integration Time (sec): 1.000000E-1
Scans to average: 1
Electric dark correction enabled: true
Nonlinearity correction enabled: false
Boxcar width: 0
XAxis mode: Wavelengths
Number of Pixels in Spectrum: 2048
>>>>>Begin Spectral Data<<<<<
223.165	4.56
223.4	4.56
223.635	4.56
223.869	-16.44
224.104	-8.44
224.338	-23.44
224.573	-23.44
224.808	-19.44
225.042	-11.44
225.277	3.56
225.511	-14.44
225.746	0.56
225.98	-2.44
226.215	0.56
226.449	26.56
226.683	12.56
226.918	29.56
227.152	41.56
227.387	33.56
227.621	38.56
227.856	40.56
228.09	42.56
228.324	41.56
228.559	44.56
228.793	58.56
229.027	65.56
229.262	68.56
229.496	64.56
229.73	69.56
229.964	85.56
230.199	74.56
230.433	57.56
230.667	79.56
230.901	80.56
231.136	79.56
231.37	72.56
231.604	94.56
231.838	69.56
232.072	80.56
232.306	74.56
232.541	76.56
232.775	64.56
233.009	73.56
233.243	71.56
233.477	73.56
233.711	68.56
233.945	73.56
234.179	70.56
234.413	77.56
234.647	66.56
234.881	65.56
235.115	85.56
235.349	80.56
235.583	77.56
235.817	75.56
236.051	67.56
236.285	80.56
236.519	71.56
236.753	72.56
236.987	83.56
237.221	80.56
237.455	82.56
237.689	63.56
237.922	84.56
238.156	68.56
238.39	76.56
238.624	87.56
238.858	86.56
239.091	70.56
239.325	75.56
239.559	70.56
239.793	77.56
240.027	76.56
240.26	64.56
240.494	79.56
240.728	58.56
240.961	68.56
241.195	64.56
241.429	79.56
241.662	81.56
241.896	69.56
242.13	73.56
242.363	81.56
242.597	65.56
242.83	76.56
243.064	73.56
243.298	67.56
243.531	89.56
243.765	80.56
243.998	63.56
244.232	83.56
244.465	78.56
244.699	79.56
244.932	72.56
245.166	71.56
245.399	59.56
245.633	80.56
245.866	76.56
246.099	61.56
246.333	68.56
246.566	76.56
246.8	70.56
247.033	84.56
247.266	71.56
247.5	71.56
247.733	63.56
247.966	76.56
248.2	76.56
248.433	77.56
248.666	88.56
248.899	79.56
249.133	82.56
249.366	76.56
249.599	74.56
249.832	79.56
250.066	71.56
250.299	81.56
250.532	81.56
250.765	77.56
250.998	86.56
251.231	73.56
251.465	86.56
251.698	79.56
251.931	71.56
252.164	66.56
252.397	86.56
252.63	88.56
252.863	78.56
253.096	76.56
253.329	90.56
253.562	81.56
253.795	76.56
254.028	93.56
254.261	78.56
254.494	79.56
254.727	84.56
254.96	88.56
255.193	75.56
255.426	72.56
255.659	72.56
255.892	71.56
256.124	82.56
256.357	88.56
256.59	82.56
256.823	92.56
257.056	67.56
257.289	80.56
257.521	90.56
257.754	81.56
257.987	65.56
258.22	86.56
258.452	82.56
258.685	85.56
258.918	80.56
259.151	61.56
259.383	80.56
259.616	78.56
259.849	70.56
260.081	67.56
260.314	87.56
260.547	65.56
260.779	73.56
261.012	74.56
261.244	91.56
261.477	86.56
261.71	66.56
261.942	86.56
262.175	76.56
262.407	71.56
262.64	80.56
262.872	78.56
263.105	80.56
263.337	81.56
263.57	84.56
263.802	82.56
264.035	89.56
264.267	74.56
264.499	74.56
264.732	85.56
264.964	81.56
265.197	81.56
265.429	84.56
265.661	74.56
265.894	75.56
266.126	79.56
266.358	81.56
266.591	78.56
266.823	76.56
267.055	72.56
267.287	87.56
267.52	80.56
267.752	66.56
267.984	77.56
268.216	88.56
268.448	64.56
268.681	84.56
268.913	85.56
269.145	85.56
269.377	82.56
269.609	83.56
269.841	70.56
270.073	75.56
270.306	72.56
270.538	89.56
270.77	84.56
271.002	88.56
271.234	89.56
271.466	86.56
271.698	105.56
271.93	85.56
272.162	75.56
272.394	71.56
272.626	89.56
272.858	78.56
273.09	86.56
273.322	95.56
273.553	91.56
273.785	80.56
274.017	72.56
274.249	91.56
274.481	80.56
274.713	81.56
274.945	88.56
275.176	97.56
275.408	71.56
275.64	92.56
275.872	70.56
276.104	84.56
276.335	75.56
276.567	84.56
276.799	95.56
277.031	90.56
277.262	89.56
277.494	93.56
277.726	77.56
277.957	79.56
278.189	78.56
278.421	74.56
278.652	79.56
278.884	82.56
279.115	79.56
279.347	92.56
279.579	80.56
279.81	97.56
280.042	77.56
280.273	88.56
280.505	78.56
280.736	84.56
280.968	74.56
281.199	83.56
281.431	85.56
281.662	84.56
281.894	77.56
282.125	96.56
282.356	63.56
282.588	82.56
282.819	94.56
283.051	93.56
283.282	85.56
283.513	73.56
283.745	72.56
283.976	84.56
284.207	79.56
284.439	86.56
284.67	79.56
284.901	91.56
285.132	79.56
285.364	92.56
285.595	90.56
285.826	87.56
286.057	78.56
286.288	86.56
286.52	82.56
286.751	87.56
286.982	88.56
287.213	85.56
287.444	104.56
287.675	90.56
287.906	83.56
288.138	80.56
288.369	82.56
288.6	86.56
288.831	78.56
289.062	78.56
289.293	88.56
289.524	64.56
289.755	75.56
289.986	93.56
290.217	77.56
290.448	78.56
290.679	87.56
290.91	79.56
291.141	71.56
291.371	88.56
291.602	87.56
291.833	94.56
292.064	85.56
292.295	77.56
292.526	92.56
292.757	86.56
292.987	69.56
293.218	82.56
293.449	90.56
293.68	79.56
293.91	87.56
294.141	83.56
294.372	92.56
294.603	76.56
294.833	74.56
295.064	75.56
295.295	82.56
295.525	77.56
295.756	89.56
295.987	83.56
296.217	94.56
296.448	80.56
296.679	77.56
296.909	75.56
297.14	80.56
297.37	71.56
297.601	77.56
297.831	77.56
298.062	86.56
298.292	84.56
298.523	88.56
298.753	87.56
298.984	93.56
299.214	79.56
299.445	80.56
299.675	74.56
299.905	73.56
300.136	84.56
300.366	81.56
300.597	78.56
300.827	87.56
301.057	76.56
301.288	72.56
301.518	86.56
301.748	74.56
301.979	101.56
302.209	72.56
302.439	74.56
302.669	90.56
302.9	98.56
303.13	91.56
303.36	84.56
303.59	83.56
303.82	82.56
304.051	76.56
304.281	83.56
304.511	96.56
304.741	85.56
304.971	84.56
305.201	82.56
305.431	80.56
305.661	88.56
305.891	74.56
306.121	100.56
306.352	91.56
306.582	81.56
306.812	86.56
307.042	85.56
307.272	92.56
307.502	77.56
307.731	87.56
307.961	89.56
308.191	73.56
308.421	91.56
308.651	87.56
308.881	79.56
309.111	79.56
309.341	74.56
309.571	84.56
309.8	84.56
310.03	81.56
310.26	74.56
310.49	87.56
310.72	78.56
310.949	95.56
311.179	91.56
311.409	72.56
311.639	90.56
311.868	85.56
312.098	85.56
312.328	90.56
312.557	93.56
312.787	74.56
313.017	80.56
313.246	88.56
313.476	73.56
313.706	74.56
313.935	73.56
314.165	74.56
314.394	90.56
314.624	80.56
314.853	84.56
315.083	80.56
315.312	86.56
315.542	84.56
315.771	84.56
316.001	86.56
316.23	84.56
316.46	80.56
316.689	81.56
316.919	98.56
317.148	91.56
317.377	90.56
317.607	86.56
317.836	88.56
318.065	88.56
318.295	84.56
318.524	82.56
318.753	98.56
318.983	86.56
319.212	72.56
319.441	79.56
319.67	68.56
319.9	74.56
320.129	81.56
320.358	89.56
320.587	73.56
320.816	93.56
321.046	86.56
321.275	91.56
321.504	75.56
321.733	75.56
321.962	76.56
322.191	84.56
322.42	85.56
322.649	94.56
322.878	98.56
323.108	93.56
323.337	87.56
323.566	90.56
323.795	87.56
324.024	85.56
324.253	90.56
324.482	82.56
324.71	87.56
324.939	80.56
325.168	87.56
325.397	89.56
325.626	84.56
325.855	86.56
326.084	77.56
326.313	84.56
326.542	80.56
326.77	76.56
326.999	80.56
327.228	81.56
327.457	91.56
327.686	70.56
327.914	91.56
328.143	79.56
328.372	88.56
328.6	82.56
328.829	83.56
329.058	85.56
329.287	67.56
329.515	81.56
329.744	66.56
329.972	81.56
330.201	79.56
330.43	82.56
330.658	77.56
330.887	89.56
331.115	87.56
331.344	68.56
331.572	103.56
331.801	78.56
332.03	85.56
332.258	94.56
332.486	75.56
332.715	86.56
332.943	84.56
333.172	83.56
333.4	82.56
333.629	73.56
333.857	71.56
334.085	84.56
334.314	80.56
334.542	88.56
334.771	85.56
334.999	80.56
335.227	90.56
335.455	76.56
335.684	82.56
335.912	75.56
336.14	89.56
336.369	80.56
336.597	89.56
336.825	94.56
337.053	95.56
337.281	84.56
337.51	73.56
337.738	83.56
337.966	83.56
338.194	72.56
338.422	74.56
338.65	73.56
338.878	91.56
339.106	73.56
339.334	92.56
339.562	89.56
339.79	82.56
340.018	81.56
340.246	84.56
340.474	76.56
340.702	75.56
340.93	93.56
341.158	71.56
341.386	76.56
341.614	79.56
341.842	81.56
342.07	88.56
342.298	80.56
342.526	78.56
342.754	92.56
342.981	76.56
343.209	76.56
343.437	97.56
343.665	95.56
343.893	73.56
344.12	81.56
344.348	85.56
344.576	70.56
344.804	89.56
345.031	81.56
345.259	84.56
345.487	86.56
345.714	81.56
345.942	74.56
346.17	82.56
346.397	86.56
346.625	94.56
346.853	76.56
347.08	90.56
347.308	102.56
347.535	80.56
347.763	89.56
347.99	87.56
348.218	89.56
348.445	85.56
348.673	83.56
348.9	79.56
349.128	86.56
349.355	82.56
349.583	87.56
349.81	85.56
350.037	73.56
350.265	83.56
350.492	88.56
350.72	88.56
350.947	80.56
351.174	84.56
351.402	81.56
351.629	80.56
351.856	84.56
352.083	82.56
352.311	89.56
352.538	84.56
352.765	88.56
352.992	91.56
353.22	89.56
353.447	84.56
353.674	88.56
353.901	80.56
354.128	67.56
354.355	82.56
354.583	85.56
354.81	95.56
355.037	94.56
355.264	89.56
355.491	69.56
355.718	63.56
355.945	79.56
356.172	90.56
356.399	82.56
356.626	89.56
356.853	90.56
357.08	72.56
357.307	77.56
357.534	74.56
357.761	82.56
357.988	78.56
358.215	79.56
358.441	80.56
358.668	90.56
358.895	80.56
359.122	103.56
359.349	89.56
359.576	86.56
359.802	68.56
360.029	73.56
360.256	81.56
360.483	75.56
360.709	90.56
360.936	93.56
361.163	65.56
361.39	84.56
361.616	79.56
361.843	89.56
362.07	89.56
362.296	81.56
362.523	75.56
362.749	83.56
362.976	85.56
363.203	92.56
363.429	77.56
363.656	95.56
363.882	84.56
364.109	84.56
364.335	81.56
364.562	84.56
364.788	81.56
365.015	102.56
365.241	79.56
365.468	81.56
365.694	66.56
365.92	75.56
366.147	78.56
366.373	82.56
366.599	82.56
366.826	87.56
367.052	91.56
367.278	96.56
367.505	93.56
367.731	89.56
367.957	76.56
368.184	82.56
368.41	80.56
368.636	69.56
368.862	97.56
369.089	88.56
369.315	88.56
369.541	75.56
369.767	96.56
369.993	76.56
370.219	79.56
370.445	84.56
370.672	82.56
370.898	84.56
371.124	83.56
371.35	84.56
371.576	76.56
371.802	66.56
372.028	83.56
372.254	72.56
372.48	66.56
372.706	61.56
372.932	86.56
373.158	72.56
373.384	71.56
373.61	90.56
373.835	92.56
374.061	71.56
374.287	77.56
374.513	76.56
374.739	67.56
374.965	90.56
375.191	80.56
375.416	84.56
375.642	84.56
375.868	71.56
376.094	76.56
376.319	85.56
376.545	66.56
376.771	82.56
376.997	86.56
377.222	82.56
377.448	71.56
377.674	89.56
377.899	80.56
378.125	79.56
378.35	75.56
378.576	85.56
378.802	80.56
379.027	80.56
379.253	87.56
379.478	84.56
379.704	68.56
379.929	76.56
380.155	78.56
380.38	87.56
380.606	71.56
380.831	88.56
381.057	106.56
381.282	80.56
381.507	84.56
381.733	86.56
381.958	78.56
382.184	84.56
382.409	70.56
382.634	84.56
382.86	88.56
383.085	83.56
383.31	92.56
383.535	90.56
383.761	87.56
383.986	87.56
384.211	63.56
384.436	87.56
384.662	88.56
384.887	79.56
385.112	73.56
385.337	73.56
385.562	85.56
385.787	74.56
386.013	68.56
386.238	71.56
386.463	85.56
386.688	105.56
386.913	86.56
387.138	73.56
387.363	84.56
387.588	92.56
387.813	77.56
388.038	76.56
388.263	64.56
388.488	75.56
388.713	94.56
388.938	86.56
389.163	80.56
389.387	78.56
389.612	92.56
389.837	71.56
390.062	77.56
390.287	84.56
390.512	86.56
390.736	81.56
390.961	87.56
391.186	80.56
391.411	75.56
391.636	78.56
391.86	80.56
392.085	89.56
392.31	79.56
392.534	78.56
392.759	90.56
392.984	80.56
393.208	92.56
393.433	83.56
393.658	85.56
393.882	90.56
394.107	85.56
394.331	81.56
394.556	89.56
394.78	73.56
395.005	88.56
395.229	86.56
395.454	73.56
395.678	81.56
395.903	82.56
396.127	80.56
396.352	82.56
396.576	84.56
396.801	85.56
397.025	89.56
397.249	87.56
397.474	100.56
397.698	77.56
397.922	90.56
398.147	76.56
398.371	66.56
398.595	86.56
398.82	91.56
399.044	84.56
399.268	89.56
399.492	80.56
399.717	73.56
399.941	74.56
400.165	85.56
400.389	94.56
400.613	87.56
400.837	81.56
401.062	81.56
401.286	82.56
401.51	83.56
401.734	75.56
401.958	80.56
402.182	81.56
402.406	77.56
402.63	92.56
402.854	85.56
403.078	79.56
403.302	73.56
403.526	93.56
403.75	97.56
403.974	79.56
404.198	79.56
404.422	80.56
404.645	73.56
404.869	76.56
405.093	90.56
405.317	90.56
405.541	86.56
405.765	69.56
405.988	73.56
406.212	76.56
406.436	79.56
406.66	73.56
406.883	93.56
407.107	84.56
407.331	82.56
407.555	76.56
407.778	86.56
408.002	75.56
408.226	83.56
408.449	65.56
408.673	76.56
408.896	84.56
409.12	81.56
409.344	80.56
409.567	92.56
409.791	75.56
410.014	82.56
410.238	85.56
410.461	97.56
410.685	82.56
410.908	80.56
411.132	84.56
411.355	90.56
411.578	80.56
411.802	81.56
412.025	69.56
412.249	82.56
412.472	79.56
412.695	79.56
412.919	92.56
413.142	90.56
413.365	80.56
413.589	77.56
413.812	80.56
414.035	82.56
414.258	92.56
414.482	88.56
414.705	101.56
414.928	86.56
415.151	64.56
415.374	78.56
415.597	74.56
415.821	88.56
416.044	78.56
416.267	78.56
416.49	69.56
416.713	75.56
416.936	76.56
417.159	75.56
417.382	83.56
417.605	75.56
417.828	81.56
418.051	75.56
418.274	86.56
418.497	79.56
418.72	88.56
418.943	79.56
419.166	88.56
419.389	81.56
419.611	81.56
419.834	77.56
420.057	77.56
420.28	72.56
420.503	86.56
420.726	69.56
420.948	76.56
421.171	73.56
421.394	86.56
421.617	69.56
421.839	76.56
422.062	82.56
422.285	74.56
422.507	70.56
422.73	80.56
422.953	86.56
423.175	72.56
423.398	86.56
423.621	88.56
423.843	85.56
424.066	78.56
424.288	81.56
424.511	74.56
424.733	77.56
424.956	76.56
425.178	85.56
425.401	80.56
425.623	87.56
425.846	63.56
426.068	60.56
426.291	73.56
426.513	77.56
426.735	85.56
426.958	74.56
427.18	81.56
427.402	79.56
427.625	85.56
427.847	76.56
428.069	84.56
428.292	81.56
428.514	82.56
428.736	76.56
428.958	66.56
429.181	78.56
429.403	76.56
429.625	74.56
429.847	88.56
430.069	78.56
430.292	77.56
430.514	82.56
430.736	93.56
430.958	92.56
431.18	78.56
431.402	86.56
431.624	88.56
431.846	78.56
432.068	73.56
432.29	79.56
432.512	90.56
432.734	68.56
432.956	81.56
433.178	92.56
433.4	82.56
433.622	66.56
433.844	72.56
434.066	75.56
434.287	74.56
434.509	74.56
434.731	74.56
434.953	79.56
435.175	77.56
435.397	76.56
435.618	83.56
435.84	72.56
436.062	80.56
436.284	69.56
436.505	82.56
436.727	82.56
436.949	75.56
437.17	79.56
437.392	70.56
437.614	84.56
437.835	73.56
438.057	84.56
438.278	73.56
438.5	75.56
438.721	76.56
438.943	73.56
439.165	78.56
439.386	79.56
439.608	76.56
439.829	81.56
440.05	86.56
440.272	97.56
440.493	79.56
440.715	80.56
440.936	70.56
441.158	84.56
441.379	78.56
441.6	74.56
441.822	93.56
442.043	75.56
442.264	79.56
442.486	75.56
442.707	73.56
442.928	73.56
443.149	79.56
443.371	90.56
443.592	68.56
443.813	79.56
444.034	76.56
444.255	87.56
444.476	81.56
444.698	90.56
444.919	83.56
445.14	162.56
445.361	112.56
445.582	84.56
445.803	76.56
446.024	76.56
446.245	84.56
446.466	73.56
446.687	80.56
446.908	76.56
447.129	66.56
447.35	84.56
447.571	81.56
447.792	84.56
448.013	80.56
448.234	62.56
448.455	87.56
448.675	78.56
448.896	70.56
449.117	82.56
449.338	80.56
449.559	86.56
449.779	76.56
450	65.56
450.221	78.56
450.442	86.56
450.662	83.56
450.883	79.56
451.104	73.56
451.324	65.56
451.545	66.56
451.766	85.56
451.986	60.56
452.207	86.56
452.428	70.56
452.648	89.56
452.869	96.56
453.089	76.56
453.31	94.56
453.53	72.56
453.751	85.56
453.971	86.56
454.192	91.56
454.412	82.56
454.633	80.56
454.853	86.56
455.073	88.56
455.294	72.56
455.514	71.56
455.734	90.56
455.955	85.56
456.175	87.56
456.395	69.56
456.616	90.56
456.836	73.56
457.056	81.56
457.276	88.56
457.497	92.56
457.717	76.56
457.937	85.56
458.157	82.56
458.377	75.56
458.598	80.56
458.818	84.56
459.038	78.56
459.258	72.56
459.478	105.56
459.698	84.56
459.918	81.56
460.138	80.56
460.358	89.56
460.578	86.56
460.798	78.56
461.018	75.56
461.238	90.56
461.458	90.56
461.678	95.56
461.898	86.56
462.118	83.56
462.338	79.56
462.558	77.56
462.777	91.56
462.997	88.56
463.217	93.56
463.437	80.56
463.657	77.56
463.876	86.56
464.096	80.56
464.316	70.56
464.536	80.56
464.755	77.56
464.975	65.56
465.195	76.56
465.414	92.56
465.634	87.56
465.854	81.56
466.073	81.56
466.293	79.56
466.512	75.56
466.732	79.56
466.951	66.56
467.171	78.56
467.391	75.56
467.61	91.56
467.829	81.56
468.049	82.56
468.268	81.56
468.488	74.56
468.707	81.56
468.927	90.56
469.146	82.56
469.365	78.56
469.585	76.56
469.804	84.56
470.023	82.56
470.243	85.56
470.462	86.56
470.681	81.56
470.901	88.56
471.12	85.56
471.339	86.56
471.558	70.56
471.777	97.56
471.997	79.56
472.216	75.56
472.435	85.56
472.654	70.56
472.873	91.56
473.092	86.56
473.311	97.56
473.53	75.56
473.749	88.56
473.968	84.56
474.187	80.56
474.406	94.56
474.625	72.56
474.844	90.56
475.063	84.56
475.282	94.56
475.501	79.56
475.72	77.56
475.939	80.56
476.158	76.56
476.377	89.56
476.596	71.56
476.814	73.56
477.033	88.56
477.252	80.56
477.471	72.56
477.69	92.56
477.908	77.56
478.127	84.56
478.346	74.56
478.564	76.56
478.783	80.56
479.002	88.56
479.22	78.56
479.439	85.56
479.658	76.56
479.876	85.56
480.095	76.56
480.313	76.56
480.532	92.56
480.751	90.56
480.969	95.56
481.188	80.56
481.406	73.56
481.624	87.56
481.843	72.56
482.061	71.56
482.28	70.56
482.498	78.56
482.717	82.56
482.935	71.56
483.153	70.56
483.372	78.56
483.59	89.56
483.808	81.56
484.027	78.56
484.245	102.56
484.463	73.56
484.681	78.56
484.9	84.56
485.118	78.56
485.336	75.56
485.554	80.56
485.772	95.56
485.99	71.56
486.209	82.56
486.427	84.56
486.645	66.56
486.863	86.56
487.081	72.56
487.299	86.56
487.517	81.56
487.735	78.56
487.953	73.56
488.171	81.56
488.389	70.56
488.607	82.56
488.825	82.56
489.043	76.56
489.261	86.56
489.479	74.56
489.696	85.56
489.914	88.56
490.132	80.56
490.35	76.56
490.568	72.56
490.786	67.56
491.003	82.56
491.221	64.56
491.439	76.56
491.657	83.56
491.874	87.56
492.092	84.56
492.31	96.56
492.527	78.56
492.745	88.56
492.963	86.56
493.18	80.56
493.398	80.56
493.615	95.56
493.833	86.56
494.05	97.56
494.268	71.56
494.485	83.56
494.703	83.56
494.92	80.56
495.138	88.56
495.355	78.56
495.573	94.56
495.79	84.56
496.008	89.56
496.225	78.56
496.442	101.56
496.66	74.56
496.877	86.56
497.094	95.56
497.312	88.56
497.529	78.56
497.746	81.56
497.963	79.56
498.181	77.56
498.398	84.56
498.615	69.56
498.832	69.56
499.049	69.56
499.267	89.56
499.484	81.56
499.701	73.56
499.918	87.56
500.135	89.56
500.352	79.56
500.569	81.56
500.786	73.56
501.003	76.56
501.22	81.56
501.437	79.56
501.654	70.56
501.871	79.56
502.088	77.56
502.305	93.56
502.522	82.56
502.739	79.56
502.956	61.56
503.172	93.56
503.389	96.56
503.606	98.56
503.823	74.56
504.04	75.56
504.256	89.56
504.473	89.56
504.69	79.56
504.907	95.56
505.123	80.56
505.34	80.56
505.557	81.56
505.773	86.56
505.99	97.56
506.207	81.56
506.423	82.56
506.64	84.56
506.856	90.56
507.073	88.56
507.289	78.56
507.506	76.56
507.722	76.56
507.939	87.56
508.155	82.56
508.372	82.56
508.588	78.56
508.805	77.56
509.021	88.56
509.238	98.56
509.454	83.56
509.67	88.56
509.887	71.56
510.103	76.56
510.319	86.56
510.536	81.56
510.752	84.56
510.968	82.56
511.184	73.56
511.401	85.56
511.617	94.56
511.833	91.56
512.049	66.56
512.265	79.56
512.481	89.56
512.698	72.56
512.914	74.56
513.13	93.56
513.346	64.56
513.562	82.56
513.778	81.56
513.994	69.56
514.21	71.56
514.426	81.56
514.642	85.56
514.858	87.56
515.074	96.56
515.29	87.56
515.506	97.56
515.721	72.56
515.937	84.56
516.153	85.56
516.369	88.56
516.585	68.56
516.801	86.56
517.016	80.56
517.232	81.56
517.448	82.56
517.664	74.56
517.879	81.56
518.095	75.56
518.311	88.56
518.527	84.56
518.742	81.56
518.958	79.56
519.173	82.56
519.389	84.56
519.605	71.56
519.82	88.56
520.036	70.56
520.251	78.56
