Data from BG_HRD10591_052.txt Node
Date: Fri May 16 15:33:33 EDT 2025
User: Yrep
Spectrometer: HR+D1059
Trigger mode: 1
Integration Time (sec): 1.000000E-1
Scans to average: 1
Electric dark correction enabled: true
Nonlinearity correction enabled: false
Boxcar width: 0
XAxis mode: Wavelengths
Number of Pixels in Spectrum: 2048
>>>>>Begin Spectral Data<<<<<
223.165	-17.44
223.4	-17.44
223.635	-17.44
223.869	-13.44
224.104	-28.44
224.338	-18.44
224.573	-13.44
224.808	-15.44
225.042	0.56
225.277	-0.44
225.511	2.56
225.746	8.56
225.98	3.56
226.215	10.56
226.449	23.56
226.683	27.56
226.918	11.56
227.152	18.56
227.387	25.56
227.621	35.56
227.856	42.56
228.09	50.56
228.324	54.56
228.559	64.56
228.793	48.56
229.027	62.56
229.262	65.56
229.496	64.56
229.73	67.56
229.964	70.56
230.199	60.56
230.433	57.56
230.667	71.56
230.901	72.56
231.136	87.56
231.37	83.56
231.604	71.56
231.838	87.56
232.072	84.56
232.306	80.56
232.541	77.56
232.775	70.56
233.009	75.56
233.243	71.56
233.477	83.56
233.711	82.56
233.945	64.56
234.179	72.56
234.413	90.56
234.647	68.56
234.881	85.56
235.115	83.56
235.349	82.56
235.583	77.56
235.817	64.56
236.051	71.56
236.285	62.56
236.519	77.56
236.753	84.56
236.987	66.56
237.221	69.56
237.455	60.56
237.689	81.56
237.922	74.56
238.156	74.56
238.39	76.56
238.624	85.56
238.858	76.56
239.091	66.56
239.325	77.56
239.559	73.56
239.793	56.56
240.027	68.56
240.26	58.56
240.494	77.56
240.728	75.56
240.961	72.56
241.195	70.56
241.429	67.56
241.662	86.56
241.896	89.56
242.13	81.56
242.363	79.56
242.597	70.56
242.83	76.56
243.064	50.56
243.298	80.56
243.531	58.56
243.765	62.56
243.998	82.56
244.232	85.56
244.465	76.56
244.699	77.56
244.932	75.56
245.166	62.56
245.399	80.56
245.633	76.56
245.866	76.56
246.099	82.56
246.333	77.56
246.566	83.56
246.8	69.56
247.033	75.56
247.266	68.56
247.5	68.56
247.733	68.56
247.966	71.56
248.2	71.56
248.433	73.56
248.666	74.56
248.899	66.56
249.133	70.56
249.366	86.56
249.599	74.56
249.832	86.56
250.066	90.56
250.299	75.56
250.532	71.56
250.765	89.56
250.998	75.56
251.231	68.56
251.465	75.56
251.698	88.56
251.931	78.56
252.164	74.56
252.397	70.56
252.63	67.56
252.863	68.56
253.096	86.56
253.329	78.56
253.562	80.56
253.795	83.56
254.028	76.56
254.261	74.56
254.494	90.56
254.727	64.56
254.96	82.56
255.193	66.56
255.426	70.56
255.659	73.56
255.892	86.56
256.124	79.56
256.357	83.56
256.59	83.56
256.823	79.56
257.056	86.56
257.289	92.56
257.521	82.56
257.754	78.56
257.987	70.56
258.22	98.56
258.452	82.56
258.685	75.56
258.918	67.56
259.151	66.56
259.383	84.56
259.616	73.56
259.849	76.56
260.081	81.56
260.314	92.56
260.547	84.56
260.779	71.56
261.012	73.56
261.244	68.56
261.477	74.56
261.71	83.56
261.942	91.56
262.175	74.56
262.407	75.56
262.64	83.56
262.872	85.56
263.105	67.56
263.337	80.56
263.57	61.56
263.802	85.56
264.035	90.56
264.267	84.56
264.499	87.56
264.732	74.56
264.964	81.56
265.197	78.56
265.429	86.56
265.661	82.56
265.894	80.56
266.126	87.56
266.358	78.56
266.591	80.56
266.823	83.56
267.055	87.56
267.287	72.56
267.52	79.56
267.752	63.56
267.984	79.56
268.216	73.56
268.448	83.56
268.681	87.56
268.913	102.56
269.145	79.56
269.377	96.56
269.609	87.56
269.841	93.56
270.073	93.56
270.306	80.56
270.538	80.56
270.77	80.56
271.002	90.56
271.234	69.56
271.466	79.56
271.698	83.56
271.93	74.56
272.162	94.56
272.394	80.56
272.626	84.56
272.858	80.56
273.09	84.56
273.322	82.56
273.553	82.56
273.785	83.56
274.017	75.56
274.249	76.56
274.481	75.56
274.713	81.56
274.945	88.56
275.176	86.56
275.408	83.56
275.64	82.56
275.872	80.56
276.104	78.56
276.335	80.56
276.567	75.56
276.799	88.56
277.031	74.56
277.262	84.56
277.494	73.56
277.726	83.56
277.957	75.56
278.189	80.56
278.421	74.56
278.652	73.56
278.884	85.56
279.115	68.56
279.347	78.56
279.579	82.56
279.81	84.56
280.042	67.56
280.273	79.56
280.505	62.56
280.736	100.56
280.968	86.56
281.199	89.56
281.431	75.56
281.662	91.56
281.894	73.56
282.125	85.56
282.356	90.56
282.588	84.56
282.819	71.56
283.051	82.56
283.282	81.56
283.513	85.56
283.745	96.56
283.976	82.56
284.207	90.56
284.439	78.56
284.67	70.56
284.901	75.56
285.132	81.56
285.364	83.56
285.595	85.56
285.826	74.56
286.057	74.56
286.288	67.56
286.52	76.56
286.751	92.56
286.982	89.56
287.213	76.56
287.444	91.56
287.675	79.56
287.906	76.56
288.138	91.56
288.369	80.56
288.6	82.56
288.831	82.56
289.062	76.56
289.293	84.56
289.524	94.56
289.755	94.56
289.986	80.56
290.217	84.56
290.448	90.56
290.679	88.56
290.91	92.56
291.141	86.56
291.371	80.56
291.602	86.56
291.833	92.56
292.064	89.56
292.295	84.56
292.526	72.56
292.757	86.56
292.987	79.56
293.218	85.56
293.449	78.56
293.68	93.56
293.91	89.56
294.141	94.56
294.372	75.56
294.603	73.56
294.833	70.56
295.064	78.56
295.295	88.56
295.525	70.56
295.756	70.56
295.987	79.56
296.217	80.56
296.448	98.56
296.679	87.56
296.909	85.56
297.14	94.56
297.37	79.56
297.601	73.56
297.831	76.56
298.062	84.56
298.292	80.56
298.523	77.56
298.753	82.56
298.984	84.56
299.214	87.56
299.445	73.56
299.675	86.56
299.905	81.56
300.136	82.56
300.366	96.56
300.597	85.56
300.827	84.56
301.057	88.56
301.288	87.56
301.518	85.56
301.748	79.56
301.979	95.56
302.209	85.56
302.439	90.56
302.669	90.56
302.9	86.56
303.13	88.56
303.36	85.56
303.59	85.56
303.82	91.56
304.051	80.56
304.281	92.56
304.511	93.56
304.741	75.56
304.971	85.56
305.201	91.56
305.431	75.56
305.661	86.56
305.891	93.56
306.121	84.56
306.352	86.56
306.582	68.56
306.812	71.56
307.042	84.56
307.272	83.56
307.502	90.56
307.731	100.56
307.961	82.56
308.191	85.56
308.421	73.56
308.651	92.56
308.881	94.56
309.111	82.56
309.341	82.56
309.571	78.56
309.8	98.56
310.03	79.56
310.26	96.56
310.49	88.56
310.72	81.56
310.949	79.56
311.179	68.56
311.409	94.56
311.639	90.56
311.868	90.56
312.098	94.56
312.328	87.56
312.557	74.56
312.787	83.56
313.017	86.56
313.246	98.56
313.476	78.56
313.706	79.56
313.935	102.56
314.165	94.56
314.394	81.56
314.624	77.56
314.853	89.56
315.083	78.56
315.312	95.56
315.542	84.56
315.771	79.56
316.001	84.56
316.23	98.56
316.46	74.56
316.689	86.56
316.919	82.56
317.148	74.56
317.377	84.56
317.607	76.56
317.836	83.56
318.065	101.56
318.295	86.56
318.524	96.56
318.753	71.56
318.983	87.56
319.212	85.56
319.441	94.56
319.67	81.56
319.9	81.56
320.129	87.56
320.358	95.56
320.587	79.56
320.816	85.56
321.046	86.56
321.275	84.56
321.504	78.56
321.733	87.56
321.962	91.56
322.191	95.56
322.42	91.56
322.649	84.56
322.878	100.56
323.108	82.56
323.337	82.56
323.566	70.56
323.795	73.56
324.024	84.56
324.253	86.56
324.482	84.56
324.71	83.56
324.939	93.56
325.168	89.56
325.397	96.56
325.626	82.56
325.855	74.56
326.084	95.56
326.313	86.56
326.542	91.56
326.77	76.56
326.999	80.56
327.228	86.56
327.457	71.56
327.686	93.56
327.914	78.56
328.143	90.56
328.372	90.56
328.6	86.56
328.829	83.56
329.058	86.56
329.287	95.56
329.515	79.56
329.744	82.56
329.972	81.56
330.201	87.56
330.43	82.56
330.658	87.56
330.887	88.56
331.115	80.56
331.344	86.56
331.572	89.56
331.801	91.56
332.03	84.56
332.258	95.56
332.486	80.56
332.715	82.56
332.943	74.56
333.172	82.56
333.4	76.56
333.629	78.56
333.857	83.56
334.085	102.56
334.314	80.56
334.542	94.56
334.771	70.56
334.999	92.56
335.227	84.56
335.455	88.56
335.684	79.56
335.912	94.56
336.14	82.56
336.369	71.56
336.597	73.56
336.825	86.56
337.053	67.56
337.281	80.56
337.51	94.56
337.738	76.56
337.966	79.56
338.194	80.56
338.422	89.56
338.65	88.56
338.878	93.56
339.106	94.56
339.334	77.56
339.562	78.56
339.79	97.56
340.018	84.56
340.246	73.56
340.474	61.56
340.702	85.56
340.93	91.56
341.158	82.56
341.386	96.56
341.614	101.56
341.842	76.56
342.07	92.56
342.298	95.56
342.526	90.56
342.754	75.56
342.981	87.56
343.209	81.56
343.437	106.56
343.665	76.56
343.893	89.56
344.12	84.56
344.348	87.56
344.576	86.56
344.804	99.56
345.031	93.56
345.259	84.56
345.487	76.56
345.714	68.56
345.942	84.56
346.17	94.56
346.397	78.56
346.625	93.56
346.853	92.56
347.08	90.56
347.308	84.56
347.535	75.56
347.763	88.56
347.99	86.56
348.218	93.56
348.445	84.56
348.673	71.56
348.9	87.56
349.128	84.56
349.355	89.56
349.583	87.56
349.81	91.56
350.037	68.56
350.265	67.56
350.492	93.56
350.72	86.56
350.947	87.56
351.174	93.56
351.402	86.56
351.629	91.56
351.856	94.56
352.083	75.56
352.311	72.56
352.538	85.56
352.765	91.56
352.992	77.56
353.22	88.56
353.447	81.56
353.674	71.56
353.901	76.56
354.128	84.56
354.355	80.56
354.583	78.56
354.81	83.56
355.037	83.56
355.264	89.56
355.491	81.56
355.718	82.56
355.945	82.56
356.172	79.56
356.399	91.56
356.626	77.56
356.853	85.56
357.08	112.56
357.307	95.56
357.534	78.56
357.761	89.56
357.988	80.56
358.215	83.56
358.441	86.56
358.668	82.56
358.895	73.56
359.122	91.56
359.349	81.56
359.576	79.56
359.802	75.56
360.029	81.56
360.256	87.56
360.483	85.56
360.709	96.56
360.936	115.56
361.163	80.56
361.39	74.56
361.616	86.56
361.843	86.56
362.07	86.56
362.296	83.56
362.523	85.56
362.749	82.56
362.976	91.56
363.203	71.56
363.429	91.56
363.656	92.56
363.882	78.56
364.109	79.56
364.335	87.56
364.562	86.56
364.788	88.56
365.015	97.56
365.241	103.56
365.468	96.56
365.694	80.56
365.92	64.56
366.147	77.56
366.373	76.56
366.599	83.56
366.826	79.56
367.052	85.56
367.278	96.56
367.505	102.56
367.731	100.56
367.957	80.56
368.184	80.56
368.41	89.56
368.636	78.56
368.862	94.56
369.089	79.56
369.315	79.56
369.541	83.56
369.767	74.56
369.993	78.56
370.219	68.56
370.445	79.56
370.672	84.56
370.898	80.56
371.124	84.56
371.35	86.56
371.576	80.56
371.802	87.56
372.028	83.56
372.254	76.56
372.48	90.56
372.706	78.56
372.932	73.56
373.158	85.56
373.384	84.56
373.61	94.56
373.835	85.56
374.061	77.56
374.287	83.56
374.513	87.56
374.739	83.56
374.965	84.56
375.191	70.56
375.416	79.56
375.642	86.56
375.868	78.56
376.094	82.56
376.319	88.56
376.545	91.56
376.771	87.56
376.997	74.56
377.222	68.56
377.448	90.56
377.674	82.56
377.899	79.56
378.125	83.56
378.35	79.56
378.576	73.56
378.802	80.56
379.027	93.56
379.253	93.56
379.478	84.56
379.704	98.56
379.929	78.56
380.155	76.56
380.38	87.56
380.606	89.56
380.831	62.56
381.057	91.56
381.282	84.56
381.507	93.56
381.733	82.56
381.958	83.56
382.184	70.56
382.409	77.56
382.634	76.56
382.86	83.56
383.085	84.56
383.31	92.56
383.535	89.56
383.761	87.56
383.986	83.56
384.211	65.56
384.436	85.56
384.662	77.56
384.887	79.56
385.112	84.56
385.337	76.56
385.562	78.56
385.787	90.56
386.013	90.56
386.238	86.56
386.463	77.56
386.688	92.56
386.913	88.56
387.138	87.56
387.363	93.56
387.588	93.56
387.813	92.56
388.038	77.56
388.263	80.56
388.488	82.56
388.713	91.56
388.938	89.56
389.163	83.56
389.387	78.56
389.612	100.56
389.837	85.56
390.062	84.56
390.287	74.56
390.512	72.56
390.736	90.56
390.961	87.56
391.186	89.56
391.411	90.56
391.636	83.56
391.86	86.56
392.085	88.56
392.31	73.56
392.534	80.56
392.759	92.56
392.984	81.56
393.208	76.56
393.433	79.56
393.658	89.56
393.882	85.56
394.107	87.56
394.331	87.56
394.556	90.56
394.78	100.56
395.005	88.56
395.229	67.56
395.454	92.56
395.678	74.56
395.903	78.56
396.127	88.56
396.352	67.56
396.576	78.56
396.801	81.56
397.025	90.56
397.249	86.56
397.474	93.56
397.698	94.56
397.922	94.56
398.147	95.56
398.371	87.56
398.595	73.56
398.82	87.56
399.044	78.56
399.268	91.56
399.492	79.56
399.717	74.56
399.941	66.56
400.165	79.56
400.389	74.56
400.613	78.56
400.837	85.56
401.062	68.56
401.286	90.56
401.51	104.56
401.734	78.56
401.958	78.56
402.182	79.56
402.406	80.56
402.63	89.56
402.854	91.56
403.078	88.56
403.302	74.56
403.526	96.56
403.75	78.56
403.974	70.56
404.198	84.56
404.422	78.56
404.645	76.56
404.869	91.56
405.093	78.56
405.317	87.56
405.541	75.56
405.765	92.56
405.988	89.56
406.212	79.56
406.436	78.56
406.66	70.56
406.883	71.56
407.107	86.56
407.331	78.56
407.555	93.56
407.778	72.56
408.002	76.56
408.226	91.56
408.449	79.56
408.673	89.56
408.896	96.56
409.12	79.56
409.344	81.56
409.567	88.56
409.791	104.56
410.014	83.56
410.238	91.56
410.461	76.56
410.685	86.56
410.908	79.56
411.132	96.56
411.355	91.56
411.578	95.56
411.802	77.56
412.025	84.56
412.249	90.56
412.472	84.56
412.695	87.56
412.919	84.56
413.142	88.56
413.365	90.56
413.589	92.56
413.812	95.56
414.035	82.56
414.258	86.56
414.482	88.56
414.705	83.56
414.928	81.56
415.151	84.56
415.374	90.56
415.597	93.56
415.821	87.56
416.044	87.56
416.267	84.56
416.49	84.56
416.713	99.56
416.936	85.56
417.159	82.56
417.382	79.56
417.605	90.56
417.828	75.56
418.051	86.56
418.274	82.56
418.497	91.56
418.72	79.56
418.943	83.56
419.166	86.56
419.389	93.56
419.611	90.56
419.834	76.56
420.057	88.56
420.28	91.56
420.503	93.56
420.726	78.56
420.948	79.56
421.171	82.56
421.394	92.56
421.617	82.56
421.839	64.56
422.062	86.56
422.285	83.56
422.507	88.56
422.73	78.56
422.953	80.56
423.175	80.56
423.398	90.56
423.621	76.56
423.843	83.56
424.066	99.56
424.288	87.56
424.511	84.56
424.733	72.56
424.956	94.56
425.178	85.56
425.401	83.56
425.623	94.56
425.846	86.56
426.068	88.56
426.291	94.56
426.513	94.56
426.735	71.56
426.958	82.56
427.18	86.56
427.402	88.56
427.625	90.56
427.847	70.56
428.069	56.56
428.292	92.56
428.514	104.56
428.736	82.56
428.958	79.56
429.181	66.56
429.403	71.56
429.625	87.56
429.847	82.56
430.069	92.56
430.292	80.56
430.514	73.56
430.736	79.56
430.958	75.56
431.18	87.56
431.402	81.56
431.624	80.56
431.846	82.56
432.068	61.56
432.29	93.56
432.512	80.56
432.734	98.56
432.956	72.56
433.178	92.56
433.4	81.56
433.622	84.56
433.844	80.56
434.066	89.56
434.287	79.56
434.509	88.56
434.731	82.56
434.953	95.56
435.175	106.56
435.397	98.56
435.618	74.56
435.84	83.56
436.062	62.56
436.284	88.56
436.505	74.56
436.727	78.56
436.949	81.56
437.17	88.56
437.392	89.56
437.614	81.56
437.835	82.56
438.057	80.56
438.278	80.56
438.5	81.56
438.721	72.56
438.943	95.56
439.165	76.56
439.386	90.56
439.608	78.56
439.829	76.56
440.05	78.56
440.272	86.56
440.493	80.56
440.715	89.56
440.936	87.56
441.158	95.56
441.379	84.56
441.6	77.56
441.822	93.56
442.043	108.56
442.264	84.56
442.486	79.56
442.707	84.56
442.928	83.56
443.149	93.56
443.371	86.56
443.592	93.56
443.813	80.56
444.034	87.56
444.255	87.56
444.476	92.56
444.698	96.56
444.919	92.56
445.14	148.56
445.361	115.56
445.582	69.56
445.803	74.56
446.024	81.56
446.245	88.56
446.466	80.56
446.687	71.56
446.908	71.56
447.129	77.56
447.35	90.56
447.571	72.56
447.792	86.56
448.013	86.56
448.234	71.56
448.455	84.56
448.675	90.56
448.896	99.56
449.117	84.56
449.338	84.56
449.559	92.56
449.779	82.56
450	88.56
450.221	83.56
450.442	79.56
450.662	77.56
450.883	82.56
451.104	80.56
451.324	93.56
451.545	83.56
451.766	96.56
451.986	87.56
452.207	88.56
452.428	96.56
452.648	95.56
452.869	88.56
453.089	85.56
453.31	76.56
453.53	76.56
453.751	85.56
453.971	79.56
454.192	88.56
454.412	79.56
454.633	74.56
454.853	81.56
455.073	72.56
455.294	95.56
455.514	83.56
455.734	86.56
455.955	75.56
456.175	75.56
456.395	88.56
456.616	88.56
456.836	80.56
457.056	92.56
457.276	79.56
457.497	86.56
457.717	90.56
457.937	82.56
458.157	83.56
458.377	93.56
458.598	77.56
458.818	86.56
459.038	94.56
459.258	79.56
459.478	86.56
459.698	84.56
459.918	95.56
460.138	82.56
460.358	83.56
460.578	83.56
460.798	75.56
461.018	93.56
461.238	86.56
461.458	69.56
461.678	74.56
461.898	83.56
462.118	84.56
462.338	86.56
462.558	86.56
462.777	89.56
462.997	88.56
463.217	86.56
463.437	79.56
463.657	92.56
463.876	72.56
464.096	85.56
464.316	90.56
464.536	90.56
464.755	94.56
464.975	91.56
465.195	80.56
465.414	83.56
465.634	78.56
465.854	77.56
466.073	81.56
466.293	77.56
466.512	82.56
466.732	81.56
466.951	81.56
467.171	85.56
467.391	79.56
467.61	99.56
467.829	89.56
468.049	96.56
468.268	77.56
468.488	87.56
468.707	85.56
468.927	86.56
469.146	88.56
469.365	86.56
469.585	90.56
469.804	82.56
470.023	85.56
470.243	97.56
470.462	79.56
470.681	102.56
470.901	75.56
471.12	78.56
471.339	84.56
471.558	73.56
471.777	87.56
471.997	92.56
472.216	80.56
472.435	83.56
472.654	76.56
472.873	87.56
473.092	86.56
473.311	79.56
473.53	82.56
473.749	75.56
473.968	86.56
474.187	85.56
474.406	94.56
474.625	86.56
474.844	98.56
475.063	83.56
475.282	78.56
475.501	84.56
475.72	92.56
475.939	87.56
476.158	90.56
476.377	88.56
476.596	76.56
476.814	84.56
477.033	84.56
477.252	90.56
477.471	98.56
477.69	91.56
477.908	90.56
478.127	88.56
478.346	77.56
478.564	88.56
478.783	91.56
479.002	84.56
479.22	86.56
479.439	96.56
479.658	82.56
479.876	89.56
480.095	86.56
480.313	89.56
480.532	89.56
480.751	88.56
480.969	84.56
481.188	79.56
481.406	92.56
481.624	77.56
481.843	78.56
482.061	92.56
482.28	88.56
482.498	93.56
482.717	100.56
482.935	82.56
483.153	94.56
483.372	96.56
483.59	76.56
483.808	74.56
484.027	100.56
484.245	79.56
484.463	67.56
484.681	92.56
484.9	80.56
485.118	84.56
485.336	88.56
485.554	84.56
485.772	78.56
485.99	87.56
486.209	100.56
486.427	85.56
486.645	70.56
486.863	95.56
487.081	76.56
487.299	78.56
487.517	94.56
487.735	85.56
487.953	87.56
488.171	89.56
488.389	87.56
488.607	80.56
488.825	64.56
489.043	69.56
489.261	93.56
489.479	86.56
489.696	94.56
489.914	75.56
490.132	93.56
490.35	86.56
490.568	84.56
490.786	98.56
491.003	84.56
491.221	83.56
491.439	82.56
491.657	91.56
491.874	93.56
492.092	89.56
492.31	82.56
492.527	86.56
492.745	76.56
492.963	76.56
493.18	79.56
493.398	83.56
493.615	87.56
493.833	70.56
494.05	100.56
494.268	79.56
494.485	82.56
494.703	77.56
494.92	76.56
495.138	91.56
495.355	58.56
495.573	95.56
495.79	88.56
496.008	87.56
496.225	89.56
496.442	88.56
496.66	94.56
496.877	75.56
497.094	78.56
497.312	75.56
497.529	90.56
497.746	96.56
497.963	76.56
498.181	72.56
498.398	104.56
498.615	76.56
498.832	85.56
499.049	80.56
499.267	98.56
499.484	87.56
499.701	101.56
499.918	102.56
500.135	94.56
500.352	95.56
500.569	101.56
500.786	95.56
501.003	90.56
501.22	104.56
501.437	93.56
501.654	94.56
501.871	92.56
502.088	82.56
502.305	82.56
502.522	95.56
502.739	104.56
502.956	96.56
503.172	75.56
503.389	100.56
503.606	80.56
503.823	99.56
504.04	77.56
504.256	86.56
504.473	96.56
504.69	90.56
504.907	85.56
505.123	82.56
505.34	86.56
505.557	101.56
505.773	98.56
505.99	104.56
506.207	81.56
506.423	93.56
506.64	95.56
506.856	94.56
507.073	91.56
507.289	77.56
507.506	89.56
507.722	98.56
507.939	89.56
508.155	77.56
508.372	92.56
508.588	95.56
508.805	94.56
509.021	79.56
509.238	77.56
509.454	95.56
509.67	70.56
509.887	70.56
510.103	86.56
510.319	75.56
510.536	75.56
510.752	78.56
510.968	75.56
511.184	79.56
511.401	87.56
511.617	101.56
511.833	90.56
512.049	86.56
512.265	77.56
512.481	87.56
512.698	72.56
512.914	77.56
513.13	72.56
513.346	85.56
513.562	80.56
513.778	73.56
513.994	80.56
514.21	75.56
514.426	85.56
514.642	92.56
514.858	93.56
515.074	104.56
515.29	93.56
515.506	78.56
515.721	90.56
515.937	89.56
516.153	87.56
516.369	78.56
516.585	97.56
516.801	83.56
517.016	91.56
517.232	88.56
517.448	98.56
517.664	80.56
517.879	84.56
518.095	84.56
518.311	94.56
518.527	86.56
518.742	83.56
518.958	93.56
519.173	90.56
519.389	77.56
519.605	70.56
519.82	74.56
