Data from BG_HRD10591_016.txt Node
Date: Fri May 16 15:33:15 EDT 2025
User: Yrep
Spectrometer: HR+D1059
Trigger mode: 1
Integration Time (sec): 1.000000E-1
Scans to average: 1
Electric dark correction enabled: true
Nonlinearity correction enabled: false
Boxcar width: 0
XAxis mode: Wavelengths
Number of Pixels in Spectrum: 2048
>>>>>Begin Spectral Data<<<<<
223.165	-29
223.4	-29
223.635	-29
223.869	-16
224.104	-28
224.338	-19
224.573	-13
224.808	-12
225.042	-4
225.277	4
225.511	11
225.746	8
225.98	9
226.215	14
226.449	4
226.683	14
226.918	32
227.152	25
227.387	33
227.621	47
227.856	57
228.09	41
228.324	60
228.559	58
228.793	49
229.027	72
229.262	67
229.496	62
229.73	72
229.964	55
230.199	75
230.433	80
230.667	76
230.901	72
231.136	84
231.37	75
231.604	84
231.838	92
232.072	79
232.306	74
232.541	94
232.775	93
233.009	91
233.243	83
233.477	76
233.711	75
233.945	89
234.179	69
234.413	85
234.647	86
234.881	77
235.115	87
235.349	75
235.583	81
235.817	73
236.051	71
236.285	89
236.519	73
236.753	66
236.987	88
237.221	90
237.455	80
237.689	80
237.922	69
238.156	75
238.39	76
238.624	77
238.858	78
239.091	72
239.325	70
239.559	79
239.793	77
240.027	76
240.26	73
240.494	62
240.728	57
240.961	75
241.195	75
241.429	83
241.662	83
241.896	75
242.13	76
242.363	83
242.597	77
242.83	78
243.064	84
243.298	75
243.531	83
243.765	77
243.998	81
244.232	64
244.465	73
244.699	61
244.932	68
245.166	81
245.399	85
245.633	88
245.866	87
246.099	88
246.333	83
246.566	81
246.8	74
247.033	75
247.266	73
247.5	83
247.733	81
247.966	79
248.2	80
248.433	71
248.666	70
248.899	74
249.133	79
249.366	93
249.599	78
249.832	90
250.066	89
250.299	82
250.532	85
250.765	95
250.998	79
251.231	82
251.465	91
251.698	81
251.931	77
252.164	77
252.397	94
252.63	79
252.863	75
253.096	80
253.329	71
253.562	77
253.795	82
254.028	85
254.261	87
254.494	88
254.727	88
254.96	75
255.193	76
255.426	96
255.659	73
255.892	83
256.124	81
256.357	84
256.59	85
256.823	83
257.056	69
257.289	68
257.521	83
257.754	82
257.987	87
258.22	79
258.452	88
258.685	75
258.918	78
259.151	89
259.383	77
259.616	83
259.849	75
260.081	97
260.314	85
260.547	86
260.779	88
261.012	64
261.244	84
261.477	85
261.71	79
261.942	80
262.175	87
262.407	76
262.64	89
262.872	81
263.105	93
263.337	83
263.57	75
263.802	74
264.035	90
264.267	97
264.499	75
264.732	82
264.964	69
265.197	85
265.429	88
265.661	75
265.894	86
266.126	88
266.358	83
266.591	99
266.823	81
267.055	67
267.287	92
267.52	90
267.752	63
267.984	81
268.216	76
268.448	83
268.681	85
268.913	79
269.145	101
269.377	83
269.609	81
269.841	83
270.073	72
270.306	75
270.538	87
270.77	89
271.002	78
271.234	84
271.466	81
271.698	77
271.93	89
272.162	93
272.394	87
272.626	77
272.858	72
273.09	87
273.322	90
273.553	97
273.785	94
274.017	90
274.249	74
274.481	84
274.713	95
274.945	80
275.176	91
275.408	86
275.64	87
275.872	81
276.104	78
276.335	87
276.567	95
276.799	84
277.031	90
277.262	82
277.494	88
277.726	79
277.957	88
278.189	87
278.421	65
278.652	85
278.884	84
279.115	79
279.347	94
279.579	83
279.81	83
280.042	83
280.273	91
280.505	79
280.736	79
280.968	99
281.199	76
281.431	82
281.662	77
281.894	81
282.125	83
282.356	92
282.588	81
282.819	98
283.051	82
283.282	91
283.513	90
283.745	88
283.976	73
284.207	90
284.439	91
284.67	94
284.901	95
285.132	77
285.364	87
285.595	87
285.826	81
286.057	86
286.288	80
286.52	78
286.751	83
286.982	99
287.213	83
287.444	87
287.675	82
287.906	95
288.138	67
288.369	84
288.6	94
288.831	87
289.062	85
289.293	95
289.524	81
289.755	81
289.986	91
290.217	95
290.448	79
290.679	87
290.91	84
291.141	79
291.371	93
291.602	97
291.833	96
292.064	103
292.295	80
292.526	80
292.757	82
292.987	84
293.218	85
293.449	81
293.68	91
293.91	86
294.141	87
294.372	76
294.603	101
294.833	87
295.064	91
295.295	71
295.525	89
295.756	104
295.987	88
296.217	95
296.448	87
296.679	77
296.909	95
297.14	83
297.37	81
297.601	84
297.831	96
298.062	83
298.292	91
298.523	91
298.753	90
298.984	95
299.214	86
299.445	81
299.675	98
299.905	80
300.136	75
300.366	85
300.597	75
300.827	79
301.057	80
301.288	95
301.518	93
301.748	102
301.979	95
302.209	88
302.439	99
302.669	84
302.9	80
303.13	90
303.36	87
303.59	88
303.82	82
304.051	93
304.281	99
304.511	97
304.741	90
304.971	82
305.201	92
305.431	96
305.661	77
305.891	98
306.121	87
306.352	83
306.582	88
306.812	85
307.042	96
307.272	106
307.502	73
307.731	87
307.961	103
308.191	92
308.421	88
308.651	88
308.881	99
309.111	87
309.341	95
309.571	82
309.8	95
310.03	103
310.26	83
310.49	90
310.72	92
310.949	78
311.179	92
311.409	83
311.639	91
311.868	97
312.098	90
312.328	81
312.557	92
312.787	96
313.017	100
313.246	82
313.476	97
313.706	89
313.935	84
314.165	93
314.394	85
314.624	84
314.853	98
315.083	93
315.312	95
315.542	97
315.771	92
316.001	97
316.23	90
316.46	87
316.689	100
316.919	93
317.148	96
317.377	81
317.607	90
317.836	91
318.065	81
318.295	72
318.524	86
318.753	95
318.983	92
319.212	77
319.441	88
319.67	87
319.9	97
320.129	89
320.358	93
320.587	87
320.816	73
321.046	89
321.275	93
321.504	84
321.733	83
321.962	79
322.191	88
322.42	94
322.649	83
322.878	74
323.108	82
323.337	93
323.566	92
323.795	100
324.024	83
324.253	80
324.482	81
324.71	72
324.939	86
325.168	88
325.397	89
325.626	83
325.855	90
326.084	87
326.313	97
326.542	90
326.77	87
326.999	106
327.228	87
327.457	83
327.686	93
327.914	93
328.143	90
328.372	85
328.6	83
328.829	90
329.058	79
329.287	73
329.515	84
329.744	99
329.972	87
330.201	97
330.43	96
330.658	78
330.887	84
331.115	81
331.344	89
331.572	87
331.801	91
332.03	90
332.258	89
332.486	85
332.715	97
332.943	87
333.172	75
333.4	92
333.629	93
333.857	87
334.085	73
334.314	80
334.542	93
334.771	98
334.999	75
335.227	87
335.455	95
335.684	84
335.912	76
336.14	100
336.369	88
336.597	84
336.825	98
337.053	80
337.281	91
337.51	77
337.738	91
337.966	90
338.194	95
338.422	87
338.65	84
338.878	89
339.106	77
339.334	80
339.562	83
339.79	93
340.018	93
340.246	97
340.474	93
340.702	82
340.93	88
341.158	91
341.386	90
341.614	78
341.842	89
342.07	73
342.298	87
342.526	90
342.754	95
342.981	94
343.209	81
343.437	97
343.665	92
343.893	90
344.12	90
344.348	83
344.576	87
344.804	75
345.031	82
345.259	98
345.487	92
345.714	88
345.942	93
346.17	84
346.397	79
346.625	79
346.853	85
347.08	77
347.308	89
347.535	66
347.763	94
347.99	85
348.218	84
348.445	77
348.673	90
348.9	83
349.128	87
349.355	91
349.583	74
349.81	88
350.037	85
350.265	97
350.492	97
350.72	97
350.947	88
351.174	84
351.402	93
351.629	80
351.856	81
352.083	82
352.311	85
352.538	90
352.765	95
352.992	83
353.22	91
353.447	87
353.674	80
353.901	82
354.128	94
354.355	89
354.583	89
354.81	88
355.037	84
355.264	95
355.491	89
355.718	75
355.945	90
356.172	89
356.399	81
356.626	78
356.853	83
357.08	84
357.307	98
357.534	93
357.761	105
357.988	107
358.215	97
358.441	90
358.668	77
358.895	85
359.122	98
359.349	84
359.576	88
359.802	91
360.029	90
360.256	70
360.483	88
360.709	75
360.936	98
361.163	93
361.39	91
361.616	90
361.843	86
362.07	81
362.296	80
362.523	94
362.749	95
362.976	91
363.203	92
363.429	83
363.656	82
363.882	81
364.109	81
364.335	78
364.562	81
364.788	87
365.015	87
365.241	91
365.468	98
365.694	82
365.92	84
366.147	88
366.373	96
366.599	99
366.826	89
367.052	96
367.278	108
367.505	84
367.731	88
367.957	79
368.184	84
368.41	85
368.636	78
368.862	100
369.089	86
369.315	93
369.541	96
369.767	79
369.993	90
370.219	77
370.445	73
370.672	85
370.898	95
371.124	93
371.35	82
371.576	94
371.802	92
372.028	90
372.254	95
372.48	73
372.706	97
372.932	81
373.158	90
373.384	88
373.61	95
373.835	92
374.061	95
374.287	84
374.513	75
374.739	88
374.965	80
375.191	91
375.416	89
375.642	95
375.868	98
376.094	91
376.319	100
376.545	93
376.771	83
376.997	95
377.222	103
377.448	91
377.674	91
377.899	85
378.125	97
378.35	86
378.576	75
378.802	83
379.027	92
379.253	97
379.478	85
379.704	82
379.929	89
380.155	83
380.38	81
380.606	80
380.831	77
381.057	90
381.282	83
381.507	84
381.733	94
381.958	97
382.184	89
382.409	76
382.634	95
382.86	97
383.085	92
383.31	86
383.535	83
383.761	89
383.986	81
384.211	75
384.436	79
384.662	80
384.887	83
385.112	92
385.337	99
385.562	95
385.787	76
386.013	95
386.238	92
386.463	81
386.688	99
386.913	90
387.138	97
387.363	94
387.588	71
387.813	86
388.038	85
388.263	89
388.488	71
388.713	93
388.938	97
389.163	83
389.387	80
389.612	88
389.837	84
390.062	91
390.287	65
390.512	87
390.736	83
390.961	79
391.186	98
391.411	90
391.636	107
391.86	79
392.085	87
392.31	80
392.534	87
392.759	81
392.984	91
393.208	81
393.433	87
393.658	91
393.882	103
394.107	87
394.331	86
394.556	91
394.78	83
395.005	81
395.229	98
395.454	90
395.678	97
395.903	88
396.127	89
396.352	88
396.576	79
396.801	104
397.025	89
397.249	94
397.474	85
397.698	98
397.922	94
398.147	81
398.371	79
398.595	95
398.82	95
399.044	93
399.268	86
399.492	92
399.717	91
399.941	88
400.165	89
400.389	84
400.613	84
400.837	90
401.062	72
401.286	96
401.51	84
401.734	84
401.958	76
402.182	91
402.406	89
402.63	81
402.854	82
403.078	91
403.302	94
403.526	97
403.75	85
403.974	89
404.198	81
404.422	104
404.645	79
404.869	80
405.093	84
405.317	72
405.541	92
405.765	88
405.988	81
406.212	89
406.436	87
406.66	87
406.883	101
407.107	87
407.331	85
407.555	88
407.778	98
408.002	76
408.226	89
408.449	93
408.673	80
408.896	85
409.12	88
409.344	87
409.567	89
409.791	96
410.014	84
410.238	90
410.461	89
410.685	91
410.908	87
411.132	102
411.355	92
411.578	85
411.802	88
412.025	83
412.249	85
412.472	100
412.695	87
412.919	85
413.142	84
413.365	91
413.589	98
413.812	79
414.035	72
414.258	87
414.482	95
414.705	68
414.928	79
415.151	83
415.374	88
415.597	79
415.821	89
416.044	84
416.267	73
416.49	98
416.713	69
416.936	73
417.159	78
417.382	83
417.605	85
417.828	92
418.051	79
418.274	90
418.497	89
418.72	81
418.943	97
419.166	96
419.389	88
419.611	87
419.834	79
420.057	94
420.28	82
420.503	76
420.726	91
420.948	85
421.171	87
421.394	81
421.617	100
421.839	89
422.062	82
422.285	79
422.507	95
422.73	84
422.953	89
423.175	98
423.398	84
423.621	82
423.843	82
424.066	84
424.288	89
424.511	87
424.733	91
424.956	81
425.178	85
425.401	84
425.623	83
425.846	106
426.068	83
426.291	82
426.513	76
426.735	92
426.958	97
427.18	100
427.402	84
427.625	81
427.847	69
428.069	80
428.292	88
428.514	95
428.736	96
428.958	104
429.181	91
429.403	83
429.625	87
429.847	99
430.069	92
430.292	80
430.514	89
430.736	71
430.958	95
431.18	96
431.402	87
431.624	82
431.846	83
432.068	80
432.29	90
432.512	87
432.734	92
432.956	92
433.178	97
433.4	77
433.622	93
433.844	86
434.066	79
434.287	88
434.509	85
434.731	92
434.953	84
435.175	91
435.397	94
435.618	97
435.84	91
436.062	100
436.284	86
436.505	98
436.727	74
436.949	100
437.17	90
437.392	92
437.614	93
437.835	80
438.057	68
438.278	91
438.5	80
438.721	88
438.943	86
439.165	83
439.386	81
439.608	85
439.829	92
440.05	85
440.272	88
440.493	95
440.715	66
440.936	77
441.158	92
441.379	104
441.6	95
441.822	87
442.043	76
442.264	77
442.486	92
442.707	74
442.928	92
443.149	93
443.371	87
443.592	88
443.813	81
444.034	88
444.255	95
444.476	101
444.698	87
444.919	95
445.14	174
445.361	121
445.582	95
445.803	96
446.024	76
446.245	93
446.466	95
446.687	75
446.908	79
447.129	97
447.35	94
447.571	89
447.792	74
448.013	85
448.234	78
448.455	81
448.675	87
448.896	88
449.117	75
449.338	84
449.559	92
449.779	87
450	98
450.221	92
450.442	89
450.662	95
450.883	89
451.104	89
451.324	93
451.545	81
451.766	90
451.986	77
452.207	82
452.428	90
452.648	89
452.869	81
453.089	93
453.31	83
453.53	80
453.751	91
453.971	93
454.192	77
454.412	80
454.633	97
454.853	99
455.073	88
455.294	77
455.514	86
455.734	68
455.955	79
456.175	76
456.395	90
456.616	96
456.836	101
457.056	78
457.276	89
457.497	86
457.717	74
457.937	88
458.157	90
458.377	87
458.598	78
458.818	93
459.038	79
459.258	77
459.478	87
459.698	84
459.918	81
460.138	75
460.358	88
460.578	86
460.798	80
461.018	100
461.238	78
461.458	93
461.678	83
461.898	84
462.118	108
462.338	85
462.558	79
462.777	79
462.997	87
463.217	77
463.437	82
463.657	85
463.876	87
464.096	83
464.316	85
464.536	111
464.755	90
464.975	95
465.195	95
465.414	89
465.634	97
465.854	99
466.073	90
466.293	104
466.512	96
466.732	94
466.951	89
467.171	76
467.391	87
467.61	88
467.829	83
468.049	84
468.268	85
468.488	81
468.707	94
468.927	77
469.146	93
469.365	75
469.585	87
469.804	79
470.023	83
470.243	87
470.462	88
470.681	85
470.901	94
471.12	77
471.339	81
471.558	73
471.777	89
471.997	79
472.216	91
472.435	84
472.654	82
472.873	90
473.092	86
473.311	79
473.53	92
473.749	93
473.968	95
474.187	83
474.406	100
474.625	83
474.844	97
475.063	85
475.282	85
475.501	79
475.72	88
475.939	87
476.158	84
476.377	91
476.596	89
476.814	95
477.033	98
477.252	89
477.471	91
477.69	84
477.908	93
478.127	83
478.346	93
478.564	88
478.783	87
479.002	94
479.22	70
479.439	83
479.658	84
479.876	88
480.095	87
480.313	103
480.532	97
480.751	105
480.969	98
481.188	79
481.406	92
481.624	83
481.843	79
482.061	82
482.28	91
482.498	98
482.717	89
482.935	68
483.153	71
483.372	82
483.59	85
483.808	94
484.027	91
484.245	92
484.463	76
484.681	87
484.9	89
485.118	93
485.336	83
485.554	95
485.772	81
485.99	80
486.209	85
486.427	80
486.645	98
486.863	91
487.081	87
487.299	98
487.517	92
487.735	87
487.953	90
488.171	88
488.389	91
488.607	78
488.825	91
489.043	91
489.261	80
489.479	86
489.696	79
489.914	92
490.132	83
490.35	80
490.568	92
490.786	94
491.003	94
491.221	89
491.439	101
491.657	100
491.874	93
492.092	88
492.31	98
492.527	75
492.745	78
492.963	86
493.18	95
493.398	99
493.615	89
493.833	100
494.05	105
494.268	115
494.485	94
494.703	98
494.92	84
495.138	87
495.355	85
495.573	84
495.79	88
496.008	80
496.225	89
496.442	78
496.66	93
496.877	81
497.094	85
497.312	88
497.529	103
497.746	88
497.963	94
498.181	86
498.398	81
498.615	90
498.832	94
499.049	99
499.267	103
499.484	94
499.701	83
499.918	119
500.135	96
500.352	105
500.569	106
500.786	121
501.003	107
501.22	97
501.437	109
501.654	104
501.871	110
502.088	100
502.305	95
502.522	89
502.739	96
502.956	106
503.172	95
503.389	92
503.606	97
503.823	87
504.04	76
504.256	79
504.473	86
504.69	100
504.907	99
505.123	96
505.34	89
505.557	84
505.773	85
505.99	90
506.207	97
506.423	84
506.64	86
506.856	89
507.073	98
507.289	90
507.506	87
507.722	97
507.939	86
508.155	83
508.372	100
508.588	80
508.805	86
509.021	88
509.238	91
509.454	86
509.67	85
509.887	97
510.103	76
510.319	79
510.536	85
510.752	78
510.968	93
511.184	76
511.401	92
511.617	93
511.833	89
512.049	91
512.265	76
512.481	84
512.698	77
512.914	100
513.13	91
513.346	87
513.562	84
513.778	70
513.994	79
514.21	90
514.426	95
514.642	91
514.858	93
515.074	74
515.29	88
515.506	80
515.721	93
515.937	107
516.153	81
516.369	98
516.585	84
516.801	93
517.016	95
517.232	83
517.448	91
517.664	88
517.879	84
518.095	88
518.311	96
518.527	118
518.742	84
518.958	81
519.173	96
519.389	81
519.605	85
519.82	78
520.036	92
520.251	97
520.467	85
520.682	89
520.898	77
521.113	77
521.329	89
521.544	85
521.76	99
521.975	86
522.19	95
522.406	107
522.621	87
522.836	95
523.052	91
523.267	87
523.482	85
523.698	91
523.913	83
524.128	101
524.343	90
524.559	91
524.774	95
524.989	92
525.204	79
525.419	75
525.634	76
525.849	94
526.064	87
526.28	81
526.495	90
526.71	83
526.925	83
527.14	90
527.355	92
527.57	98
527.785	89
527.999	88
528.214	87
528.429	87
528.644	88
528.859	90
529.074	88
529.289	90
529.503	102
529.718	93
529.933	97
530.148	80
530.363	91
530.577	95
530.792	81
531.007	96
531.221	91
531.436	70
531.651	90
531.865	85
532.08	94
532.295	84
532.509	85
532.724	75
532.938	90
533.153	92
533.367	96
533.582	78
533.796	84
534.011	86
534.225	95
534.44	100
534.654	101
534.868	98
535.083	74
535.297	101
535.511	105
535.726	81
535.94	87
536.154	98
536.369	89
536.583	67
536.797	70
537.011	84
537.225	82
537.44	84
537.654	84
537.868	90
538.082	88
538.296	95
538.51	90
538.724	85
538.938	88
539.153	85
539.367	87
539.581	97
539.795	83
540.009	84
540.222	100
540.436	87
540.65	87
540.864	81
541.078	87
541.292	79
541.506	86
541.72	87
541.934	74
542.147	85
542.361	90
542.575	93
542.789	89
543.002	71
543.216	93
543.43	93
543.644	89
543.857	88
544.071	95
544.285	101
544.498	107
544.712	99
544.925	89
545.139	83
545.352	83
545.566	108
545.779	90
545.993	85
546.206	76
546.42	75
546.633	84
546.847	94
547.06	94
547.274	95
547.487	87
547.7	89
547.914	81
548.127	92
548.34	77
548.554	90
548.767	85
548.98	88
549.193	100
549.407	82
549.62	95
549.833	83
550.046	77
550.259	84
550.473	89
550.686	93
550.899	96
551.112	98
551.325	85
551.538	92
551.751	81
551.964	92
552.177	104
552.39	76
552.603	73
552.816	89
553.029	85
553.242	107
553.455	89
553.667	95
553.88	84
554.093	81
554.306	84
554.519	91
554.732	78
554.944	93
555.157	77
555.37	97
555.583	103
555.795	87
556.008	81
556.221	94
556.433	84
556.646	82
556.859	98
557.071	83
557.284	92
557.496	91
557.709	96
557.921	90
558.134	78
558.346	90
558.559	100
558.771	97
558.984	76
559.196	76
559.409	86
559.621	97
559.833	71
560.046	97
560.258	71
560.47	87
560.683	95
560.895	84
561.107	101
561.32	93
561.532	87
561.744	98
561.956	85
562.168	99
562.381	94
562.593	100
562.805	84
563.017	101
563.229	95
563.441	96
563.653	92
563.865	94
564.077	90
564.289	84
564.501	99
564.713	81
564.925	95
565.137	90
565.349	95
565.561	80
565.773	83
565.985	93
566.197	89
566.408	96
566.62	100
566.832	99
567.044	97
567.255	95
567.467	89
567.679	100
567.891	111
568.102	87
568.314	98
568.526	92
568.737	87
568.949	95
569.161	93
569.372	95
569.584	72
569.795	88
570.007	92
570.218	92
570.43	90
570.641	91
570.853	89
571.064	92
571.276	91
571.487	97
571.698	85
571.91	103
572.121	92
572.333	81
572.544	102
572.755	81
572.966	87
573.178	100
573.389	93
573.6	75
573.811	78
574.023	73
574.234	88
574.445	92
574.656	92
574.867	77
575.078	81
575.289	89
575.501	101
575.712	92
575.923	88
576.134	98
576.345	81
576.556	92
576.767	75
576.978	84
577.188	100
577.399	92
577.61	96
577.821	91
578.032	82
578.243	77
578.454	97
578.665	83
578.875	88
579.086	69
579.297	83
579.508	87
579.718	96
579.929	101
580.14	88
580.35	77
580.561	89
580.772	82
580.982	88
581.193	88
581.403	83
581.614	95
581.825	87
582.035	101
582.246	95
582.456	79
582.667	99
582.877	95
583.087	94
583.298	88
583.508	80
583.719	85
583.929	88
584.139	84
584.35	73
584.56	99
584.77	100
584.981	89
585.191	89
585.401	87
585.611	83
585.821	103
586.032	92
586.242	93
586.452	83
586.662	87
586.872	82
587.082	93
587.292	86
587.502	92
587.713	84
587.923	88
588.133	97
588.343	81
588.553	84
588.762	87
588.972	83
589.182	88
589.392	92
589.602	88
