Data from BG_HRD10591_078.txt Node
Date: Fri May 16 15:33:46 EDT 2025
User: Yrep
Spectrometer: HR+D1059
Trigger mode: 1
Integration Time (sec): 1.000000E-1
Scans to average: 1
Electric dark correction enabled: true
Nonlinearity correction enabled: false
Boxcar width: 0
XAxis mode: Wavelengths
Number of Pixels in Spectrum: 2048
>>>>>Begin Spectral Data<<<<<
223.165	-22.62
223.4	-22.62
223.635	-22.62
223.869	-8.62
224.104	-23.62
224.338	-20.62
224.573	-14.62
224.808	-18.62
225.042	-5.62
225.277	-2.62
225.511	-11.62
225.746	6.38
225.98	3.38
226.215	20.38
226.449	14.38
226.683	25.38
226.918	28.38
227.152	30.38
227.387	52.38
227.621	48.38
227.856	46.38
228.09	49.38
228.324	48.38
228.559	55.38
228.793	75.38
229.027	62.38
229.262	69.38
229.496	68.38
229.73	75.38
229.964	85.38
230.199	78.38
230.433	67.38
230.667	76.38
230.901	79.38
231.136	85.38
231.37	75.38
231.604	76.38
231.838	84.38
232.072	83.38
232.306	69.38
232.541	79.38
232.775	75.38
233.009	81.38
233.243	87.38
233.477	86.38
233.711	81.38
233.945	76.38
234.179	86.38
234.413	97.38
234.647	98.38
234.881	76.38
235.115	96.38
235.349	84.38
235.583	79.38
235.817	84.38
236.051	82.38
236.285	75.38
236.519	74.38
236.753	89.38
236.987	78.38
237.221	93.38
237.455	67.38
237.689	85.38
237.922	82.38
238.156	76.38
238.39	85.38
238.624	77.38
238.858	83.38
239.091	76.38
239.325	75.38
239.559	90.38
239.793	91.38
240.027	78.38
240.26	76.38
240.494	79.38
240.728	77.38
240.961	70.38
241.195	78.38
241.429	78.38
241.662	77.38
241.896	82.38
242.13	91.38
242.363	73.38
242.597	54.38
242.83	76.38
243.064	78.38
243.298	68.38
243.531	87.38
243.765	89.38
243.998	68.38
244.232	75.38
244.465	80.38
244.699	68.38
244.932	75.38
245.166	69.38
245.399	83.38
245.633	74.38
245.866	74.38
246.099	75.38
246.333	81.38
246.566	83.38
246.8	65.38
247.033	85.38
247.266	82.38
247.5	71.38
247.733	78.38
247.966	104.38
248.2	71.38
248.433	88.38
248.666	84.38
248.899	81.38
249.133	81.38
249.366	85.38
249.599	91.38
249.832	76.38
250.066	79.38
250.299	75.38
250.532	80.38
250.765	90.38
250.998	75.38
251.231	94.38
251.465	79.38
251.698	80.38
251.931	81.38
252.164	83.38
252.397	85.38
252.63	97.38
252.863	71.38
253.096	71.38
253.329	74.38
253.562	86.38
253.795	81.38
254.028	83.38
254.261	88.38
254.494	83.38
254.727	95.38
254.96	85.38
255.193	70.38
255.426	81.38
255.659	77.38
255.892	70.38
256.124	81.38
256.357	74.38
256.59	86.38
256.823	90.38
257.056	91.38
257.289	84.38
257.521	80.38
257.754	65.38
257.987	88.38
258.22	90.38
258.452	85.38
258.685	85.38
258.918	79.38
259.151	86.38
259.383	94.38
259.616	71.38
259.849	90.38
260.081	93.38
260.314	89.38
260.547	75.38
260.779	81.38
261.012	79.38
261.244	89.38
261.477	89.38
261.71	71.38
261.942	80.38
262.175	80.38
262.407	68.38
262.64	70.38
262.872	94.38
263.105	88.38
263.337	95.38
263.57	78.38
263.802	88.38
264.035	84.38
264.267	82.38
264.499	88.38
264.732	97.38
264.964	71.38
265.197	82.38
265.429	83.38
265.661	75.38
265.894	78.38
266.126	89.38
266.358	89.38
266.591	81.38
266.823	85.38
267.055	96.38
267.287	84.38
267.52	84.38
267.752	76.38
267.984	82.38
268.216	73.38
268.448	76.38
268.681	97.38
268.913	91.38
269.145	84.38
269.377	88.38
269.609	78.38
269.841	88.38
270.073	88.38
270.306	81.38
270.538	84.38
270.77	96.38
271.002	89.38
271.234	94.38
271.466	92.38
271.698	74.38
271.93	81.38
272.162	83.38
272.394	89.38
272.626	87.38
272.858	71.38
273.09	76.38
273.322	97.38
273.553	85.38
273.785	77.38
274.017	99.38
274.249	86.38
274.481	93.38
274.713	90.38
274.945	74.38
275.176	78.38
275.408	87.38
275.64	91.38
275.872	78.38
276.104	71.38
276.335	88.38
276.567	92.38
276.799	92.38
277.031	88.38
277.262	94.38
277.494	80.38
277.726	90.38
277.957	86.38
278.189	80.38
278.421	95.38
278.652	83.38
278.884	89.38
279.115	85.38
279.347	78.38
279.579	84.38
279.81	91.38
280.042	92.38
280.273	96.38
280.505	96.38
280.736	86.38
280.968	72.38
281.199	87.38
281.431	94.38
281.662	84.38
281.894	86.38
282.125	83.38
282.356	98.38
282.588	94.38
282.819	81.38
283.051	94.38
283.282	83.38
283.513	83.38
283.745	88.38
283.976	104.38
284.207	96.38
284.439	102.38
284.67	85.38
284.901	84.38
285.132	88.38
285.364	90.38
285.595	82.38
285.826	97.38
286.057	75.38
286.288	69.38
286.52	91.38
286.751	71.38
286.982	80.38
287.213	82.38
287.444	75.38
287.675	86.38
287.906	92.38
288.138	95.38
288.369	80.38
288.6	99.38
288.831	80.38
289.062	103.38
289.293	67.38
289.524	77.38
289.755	85.38
289.986	83.38
290.217	74.38
290.448	75.38
290.679	85.38
290.91	96.38
291.141	100.38
291.371	92.38
291.602	67.38
291.833	83.38
292.064	88.38
292.295	95.38
292.526	82.38
292.757	83.38
292.987	86.38
293.218	81.38
293.449	85.38
293.68	90.38
293.91	92.38
294.141	91.38
294.372	78.38
294.603	90.38
294.833	70.38
295.064	69.38
295.295	87.38
295.525	77.38
295.756	94.38
295.987	90.38
296.217	81.38
296.448	86.38
296.679	104.38
296.909	81.38
297.14	87.38
297.37	111.38
297.601	91.38
297.831	74.38
298.062	90.38
298.292	96.38
298.523	90.38
298.753	88.38
298.984	76.38
299.214	70.38
299.445	93.38
299.675	87.38
299.905	90.38
300.136	79.38
300.366	96.38
300.597	78.38
300.827	98.38
301.057	92.38
301.288	95.38
301.518	84.38
301.748	99.38
301.979	109.38
302.209	92.38
302.439	100.38
302.669	99.38
302.9	99.38
303.13	98.38
303.36	104.38
303.59	80.38
303.82	92.38
304.051	96.38
304.281	98.38
304.511	85.38
304.741	97.38
304.971	85.38
305.201	93.38
305.431	88.38
305.661	90.38
305.891	85.38
306.121	99.38
306.352	96.38
306.582	94.38
306.812	91.38
307.042	90.38
307.272	86.38
307.502	86.38
307.731	88.38
307.961	86.38
308.191	85.38
308.421	85.38
308.651	88.38
308.881	74.38
309.111	86.38
309.341	90.38
309.571	76.38
309.8	86.38
310.03	87.38
310.26	78.38
310.49	92.38
310.72	75.38
310.949	77.38
311.179	88.38
311.409	77.38
311.639	101.38
311.868	100.38
312.098	81.38
312.328	87.38
312.557	79.38
312.787	97.38
313.017	88.38
313.246	95.38
313.476	83.38
313.706	76.38
313.935	97.38
314.165	100.38
314.394	87.38
314.624	77.38
314.853	107.38
315.083	104.38
315.312	92.38
315.542	89.38
315.771	92.38
316.001	69.38
316.23	92.38
316.46	88.38
316.689	99.38
316.919	90.38
317.148	92.38
317.377	89.38
317.607	92.38
317.836	80.38
318.065	90.38
318.295	81.38
318.524	98.38
318.753	84.38
318.983	98.38
319.212	93.38
319.441	93.38
319.67	89.38
319.9	89.38
320.129	84.38
320.358	92.38
320.587	72.38
320.816	91.38
321.046	88.38
321.275	92.38
321.504	94.38
321.733	75.38
321.962	85.38
322.191	96.38
322.42	75.38
322.649	85.38
322.878	84.38
323.108	83.38
323.337	85.38
323.566	97.38
323.795	80.38
324.024	94.38
324.253	88.38
324.482	93.38
324.71	97.38
324.939	81.38
325.168	79.38
325.397	86.38
325.626	83.38
325.855	73.38
326.084	95.38
326.313	97.38
326.542	91.38
326.77	96.38
326.999	94.38
327.228	84.38
327.457	77.38
327.686	85.38
327.914	89.38
328.143	98.38
328.372	89.38
328.6	77.38
328.829	88.38
329.058	98.38
329.287	96.38
329.515	102.38
329.744	85.38
329.972	97.38
330.201	96.38
330.43	84.38
330.658	92.38
330.887	87.38
331.115	90.38
331.344	89.38
331.572	81.38
331.801	93.38
332.03	98.38
332.258	97.38
332.486	80.38
332.715	75.38
332.943	94.38
333.172	88.38
333.4	97.38
333.629	86.38
333.857	89.38
334.085	97.38
334.314	106.38
334.542	81.38
334.771	115.38
334.999	90.38
335.227	96.38
335.455	83.38
335.684	100.38
335.912	85.38
336.14	86.38
336.369	92.38
336.597	88.38
336.825	105.38
337.053	94.38
337.281	90.38
337.51	81.38
337.738	84.38
337.966	75.38
338.194	100.38
338.422	102.38
338.65	88.38
338.878	88.38
339.106	87.38
339.334	95.38
339.562	99.38
339.79	84.38
340.018	95.38
340.246	90.38
340.474	97.38
340.702	93.38
340.93	90.38
341.158	94.38
341.386	86.38
341.614	90.38
341.842	75.38
342.07	95.38
342.298	93.38
342.526	96.38
342.754	81.38
342.981	79.38
343.209	88.38
343.437	95.38
343.665	91.38
343.893	89.38
344.12	91.38
344.348	88.38
344.576	92.38
344.804	88.38
345.031	81.38
345.259	101.38
345.487	93.38
345.714	87.38
345.942	90.38
346.17	104.38
346.397	101.38
346.625	78.38
346.853	78.38
347.08	92.38
347.308	85.38
347.535	79.38
347.763	90.38
347.99	80.38
348.218	88.38
348.445	78.38
348.673	90.38
348.9	88.38
349.128	89.38
349.355	96.38
349.583	81.38
349.81	98.38
350.037	91.38
350.265	89.38
350.492	83.38
350.72	99.38
350.947	98.38
351.174	93.38
351.402	86.38
351.629	88.38
351.856	95.38
352.083	93.38
352.311	84.38
352.538	116.38
352.765	98.38
352.992	106.38
353.22	91.38
353.447	75.38
353.674	94.38
353.901	90.38
354.128	77.38
354.355	87.38
354.583	91.38
354.81	83.38
355.037	75.38
355.264	82.38
355.491	83.38
355.718	89.38
355.945	106.38
356.172	82.38
356.399	89.38
356.626	84.38
356.853	75.38
357.08	84.38
357.307	93.38
357.534	69.38
357.761	85.38
357.988	97.38
358.215	86.38
358.441	76.38
358.668	83.38
358.895	87.38
359.122	92.38
359.349	92.38
359.576	97.38
359.802	84.38
360.029	88.38
360.256	81.38
360.483	86.38
360.709	82.38
360.936	97.38
361.163	91.38
361.39	80.38
361.616	75.38
361.843	78.38
362.07	85.38
362.296	84.38
362.523	89.38
362.749	88.38
362.976	81.38
363.203	74.38
363.429	86.38
363.656	104.38
363.882	91.38
364.109	89.38
364.335	85.38
364.562	95.38
364.788	90.38
365.015	79.38
365.241	92.38
365.468	99.38
365.694	73.38
365.92	88.38
366.147	75.38
366.373	79.38
366.599	93.38
366.826	90.38
367.052	96.38
367.278	94.38
367.505	91.38
367.731	90.38
367.957	88.38
368.184	86.38
368.41	85.38
368.636	95.38
368.862	89.38
369.089	85.38
369.315	88.38
369.541	88.38
369.767	89.38
369.993	87.38
370.219	82.38
370.445	78.38
370.672	87.38
370.898	92.38
371.124	95.38
371.35	69.38
371.576	92.38
371.802	90.38
372.028	92.38
372.254	86.38
372.48	97.38
372.706	80.38
372.932	87.38
373.158	85.38
373.384	96.38
373.61	91.38
373.835	99.38
374.061	52.38
374.287	85.38
374.513	68.38
374.739	95.38
374.965	82.38
375.191	76.38
375.416	85.38
375.642	90.38
375.868	108.38
376.094	94.38
376.319	82.38
376.545	90.38
376.771	88.38
376.997	84.38
377.222	83.38
377.448	91.38
377.674	105.38
377.899	80.38
378.125	82.38
378.35	78.38
378.576	87.38
378.802	94.38
379.027	76.38
379.253	85.38
379.478	75.38
379.704	88.38
379.929	91.38
380.155	87.38
380.38	79.38
380.606	89.38
380.831	80.38
381.057	88.38
381.282	79.38
381.507	90.38
381.733	80.38
381.958	75.38
382.184	82.38
382.409	78.38
382.634	107.38
382.86	91.38
383.085	82.38
383.31	97.38
383.535	90.38
383.761	85.38
383.986	95.38
384.211	78.38
384.436	103.38
384.662	86.38
384.887	78.38
385.112	92.38
385.337	78.38
385.562	90.38
385.787	91.38
386.013	93.38
386.238	78.38
386.463	81.38
386.688	86.38
386.913	86.38
387.138	80.38
387.363	94.38
387.588	84.38
387.813	81.38
388.038	80.38
388.263	77.38
388.488	88.38
388.713	73.38
388.938	82.38
389.163	83.38
389.387	85.38
389.612	93.38
389.837	90.38
390.062	101.38
390.287	84.38
390.512	80.38
390.736	80.38
390.961	92.38
391.186	83.38
391.411	85.38
391.636	72.38
391.86	90.38
392.085	86.38
392.31	91.38
392.534	92.38
392.759	84.38
392.984	83.38
393.208	84.38
393.433	90.38
393.658	79.38
393.882	84.38
394.107	89.38
394.331	80.38
394.556	81.38
394.78	81.38
395.005	84.38
395.229	100.38
395.454	92.38
395.678	83.38
395.903	96.38
396.127	81.38
396.352	80.38
396.576	76.38
396.801	78.38
397.025	75.38
397.249	84.38
397.474	103.38
397.698	77.38
397.922	82.38
398.147	97.38
398.371	78.38
398.595	97.38
398.82	90.38
399.044	104.38
399.268	96.38
399.492	106.38
399.717	91.38
399.941	98.38
400.165	89.38
400.389	83.38
400.613	93.38
400.837	101.38
401.062	86.38
401.286	79.38
401.51	86.38
401.734	95.38
401.958	90.38
402.182	86.38
402.406	85.38
402.63	86.38
402.854	86.38
403.078	97.38
403.302	102.38
403.526	112.38
403.75	102.38
403.974	79.38
404.198	99.38
404.422	94.38
404.645	90.38
404.869	101.38
405.093	87.38
405.317	80.38
405.541	90.38
405.765	99.38
405.988	77.38
406.212	85.38
406.436	89.38
406.66	104.38
406.883	104.38
407.107	96.38
407.331	89.38
407.555	88.38
407.778	99.38
408.002	93.38
408.226	82.38
408.449	88.38
408.673	88.38
408.896	80.38
409.12	88.38
409.344	84.38
409.567	104.38
409.791	84.38
410.014	93.38
410.238	117.38
410.461	100.38
410.685	82.38
410.908	92.38
411.132	99.38
411.355	83.38
411.578	106.38
411.802	79.38
412.025	80.38
412.249	84.38
412.472	85.38
412.695	92.38
412.919	93.38
413.142	81.38
413.365	85.38
413.589	105.38
413.812	106.38
414.035	91.38
414.258	80.38
414.482	87.38
414.705	96.38
414.928	88.38
415.151	78.38
415.374	83.38
415.597	84.38
415.821	98.38
416.044	90.38
416.267	82.38
416.49	99.38
416.713	91.38
416.936	84.38
417.159	97.38
417.382	89.38
417.605	85.38
417.828	77.38
418.051	89.38
418.274	89.38
418.497	97.38
418.72	82.38
418.943	81.38
419.166	78.38
419.389	92.38
419.611	109.38
419.834	106.38
420.057	101.38
420.28	104.38
420.503	85.38
420.726	96.38
420.948	91.38
421.171	94.38
421.394	92.38
421.617	89.38
421.839	92.38
422.062	77.38
422.285	82.38
422.507	85.38
422.73	86.38
422.953	87.38
423.175	93.38
423.398	82.38
423.621	89.38
423.843	91.38
424.066	91.38
424.288	89.38
424.511	89.38
424.733	94.38
424.956	83.38
425.178	84.38
425.401	99.38
425.623	97.38
425.846	98.38
426.068	94.38
426.291	93.38
426.513	89.38
426.735	83.38
426.958	81.38
427.18	82.38
427.402	98.38
427.625	81.38
427.847	104.38
428.069	89.38
428.292	88.38
428.514	74.38
428.736	94.38
428.958	82.38
429.181	97.38
429.403	83.38
429.625	88.38
429.847	83.38
430.069	97.38
430.292	87.38
430.514	93.38
430.736	93.38
430.958	84.38
431.18	83.38
431.402	100.38
431.624	84.38
431.846	92.38
432.068	86.38
432.29	96.38
432.512	99.38
432.734	79.38
432.956	97.38
433.178	99.38
433.4	86.38
433.622	94.38
433.844	84.38
434.066	87.38
434.287	78.38
434.509	82.38
434.731	77.38
434.953	98.38
435.175	84.38
435.397	92.38
435.618	93.38
435.84	99.38
436.062	81.38
436.284	83.38
436.505	89.38
436.727	104.38
436.949	102.38
437.17	92.38
437.392	100.38
437.614	91.38
437.835	83.38
438.057	89.38
438.278	88.38
438.5	74.38
438.721	97.38
438.943	86.38
439.165	97.38
439.386	101.38
439.608	80.38
439.829	94.38
440.05	90.38
440.272	96.38
440.493	80.38
440.715	85.38
440.936	90.38
441.158	95.38
441.379	89.38
441.6	80.38
441.822	93.38
442.043	88.38
442.264	77.38
442.486	80.38
442.707	90.38
442.928	90.38
443.149	85.38
443.371	84.38
443.592	81.38
443.813	97.38
444.034	97.38
444.255	88.38
444.476	84.38
444.698	89.38
444.919	86.38
445.14	156.38
445.361	114.38
445.582	96.38
445.803	91.38
446.024	93.38
446.245	110.38
446.466	90.38
446.687	78.38
446.908	91.38
447.129	90.38
447.35	95.38
447.571	97.38
447.792	88.38
448.013	76.38
448.234	97.38
448.455	95.38
448.675	87.38
448.896	91.38
449.117	85.38
449.338	89.38
449.559	91.38
449.779	88.38
450	87.38
450.221	83.38
450.442	81.38
450.662	77.38
450.883	88.38
451.104	85.38
451.324	86.38
451.545	83.38
451.766	86.38
451.986	88.38
452.207	88.38
452.428	84.38
452.648	98.38
452.869	96.38
453.089	76.38
453.31	84.38
453.53	88.38
453.751	76.38
453.971	92.38
454.192	77.38
454.412	90.38
454.633	99.38
454.853	92.38
455.073	89.38
455.294	88.38
455.514	91.38
455.734	96.38
455.955	80.38
456.175	79.38
456.395	84.38
456.616	82.38
456.836	78.38
457.056	92.38
457.276	79.38
457.497	106.38
457.717	82.38
457.937	83.38
458.157	89.38
458.377	83.38
458.598	88.38
458.818	80.38
459.038	78.38
459.258	104.38
459.478	81.38
459.698	99.38
459.918	91.38
460.138	83.38
460.358	83.38
460.578	79.38
460.798	94.38
461.018	80.38
461.238	88.38
461.458	92.38
461.678	96.38
461.898	81.38
462.118	98.38
462.338	80.38
462.558	99.38
462.777	98.38
462.997	90.38
463.217	95.38
463.437	92.38
463.657	107.38
463.876	92.38
464.096	93.38
464.316	82.38
464.536	90.38
464.755	96.38
464.975	111.38
465.195	88.38
465.414	83.38
465.634	94.38
465.854	90.38
466.073	86.38
466.293	85.38
466.512	88.38
466.732	85.38
466.951	82.38
467.171	77.38
467.391	78.38
467.61	84.38
467.829	111.38
468.049	98.38
468.268	92.38
468.488	97.38
468.707	88.38
468.927	106.38
469.146	92.38
469.365	89.38
469.585	88.38
469.804	82.38
470.023	89.38
470.243	86.38
470.462	92.38
470.681	88.38
470.901	86.38
471.12	91.38
471.339	91.38
471.558	84.38
471.777	87.38
471.997	83.38
472.216	107.38
472.435	79.38
472.654	88.38
472.873	85.38
473.092	86.38
473.311	69.38
473.53	80.38
473.749	92.38
473.968	105.38
474.187	92.38
474.406	94.38
474.625	100.38
474.844	90.38
475.063	91.38
475.282	89.38
475.501	70.38
475.72	76.38
475.939	78.38
476.158	76.38
476.377	92.38
476.596	101.38
476.814	99.38
477.033	103.38
477.252	64.38
477.471	81.38
477.69	85.38
477.908	85.38
478.127	83.38
478.346	80.38
478.564	83.38
478.783	71.38
479.002	85.38
479.22	98.38
479.439	92.38
479.658	98.38
479.876	100.38
480.095	94.38
480.313	106.38
480.532	94.38
480.751	92.38
480.969	90.38
481.188	82.38
481.406	91.38
481.624	81.38
481.843	92.38
482.061	89.38
482.28	95.38
482.498	84.38
482.717	80.38
482.935	97.38
483.153	105.38
483.372	85.38
483.59	105.38
483.808	74.38
484.027	84.38
484.245	96.38
484.463	84.38
484.681	88.38
484.9	83.38
485.118	89.38
485.336	78.38
485.554	86.38
485.772	90.38
485.99	85.38
486.209	94.38
486.427	88.38
486.645	81.38
486.863	83.38
487.081	83.38
487.299	92.38
487.517	91.38
487.735	82.38
487.953	84.38
488.171	97.38
488.389	94.38
488.607	83.38
488.825	78.38
489.043	54.38
489.261	89.38
489.479	103.38
489.696	90.38
489.914	82.38
490.132	97.38
490.35	88.38
490.568	87.38
490.786	92.38
491.003	94.38
491.221	70.38
491.439	85.38
491.657	93.38
491.874	91.38
492.092	108.38
492.31	85.38
492.527	83.38
492.745	95.38
492.963	84.38
493.18	96.38
493.398	78.38
493.615	97.38
493.833	98.38
494.05	87.38
494.268	78.38
494.485	92.38
494.703	88.38
494.92	96.38
495.138	91.38
495.355	88.38
495.573	100.38
495.79	77.38
496.008	82.38
496.225	88.38
496.442	92.38
496.66	86.38
496.877	85.38
497.094	103.38
497.312	91.38
497.529	92.38
497.746	81.38
497.963	89.38
498.181	87.38
498.398	93.38
498.615	91.38
498.832	105.38
499.049	88.38
499.267	115.38
499.484	104.38
499.701	89.38
499.918	112.38
500.135	117.38
500.352	106.38
500.569	108.38
500.786	114.38
501.003	112.38
501.22	102.38
501.437	88.38
501.654	99.38
501.871	104.38
502.088	92.38
502.305	96.38
502.522	81.38
502.739	93.38
502.956	90.38
503.172	93.38
503.389	91.38
503.606	86.38
503.823	90.38
504.04	107.38
504.256	94.38
504.473	93.38
504.69	96.38
504.907	102.38
505.123	102.38
505.34	86.38
505.557	108.38
505.773	88.38
505.99	73.38
506.207	90.38
506.423	84.38
506.64	83.38
506.856	96.38
507.073	87.38
507.289	84.38
507.506	91.38
507.722	87.38
507.939	86.38
508.155	93.38
508.372	77.38
508.588	97.38
508.805	99.38
509.021	101.38
509.238	94.38
509.454	98.38
509.67	98.38
509.887	85.38
510.103	82.38
510.319	92.38
510.536	95.38
510.752	73.38
510.968	91.38
511.184	91.38
511.401	88.38
511.617	96.38
511.833	76.38
512.049	85.38
512.265	97.38
512.481	84.38
512.698	94.38
512.914	91.38
513.13	98.38
513.346	87.38
513.562	101.38
513.778	95.38
513.994	82.38
514.21	88.38
514.426	93.38
514.642	85.38
514.858	92.38
515.074	84.38
515.29	88.38
515.506	85.38
515.721	78.38
515.937	95.38
516.153	88.38
516.369	94.38
516.585	82.38
516.801	99.38
517.016	96.38
517.232	89.38
517.448	72.38
517.664	86.38
517.879	93.38
518.095	88.38
518.311	81.38
518.527	97.38
518.742	98.38
518.958	81.38
