Data from BG_HRD10591_095.txt Node
Date: Fri May 16 15:33:54 EDT 2025
User: Yrep
Spectrometer: HR+D1059
Trigger mode: 1
Integration Time (sec): 1.000000E-1
Scans to average: 1
Electric dark correction enabled: true
Nonlinearity correction enabled: false
Boxcar width: 0
XAxis mode: Wavelengths
Number of Pixels in Spectrum: 2048
>>>>>Begin Spectral Data<<<<<
223.165	-22.44
223.4	-22.44
223.635	-22.44
223.869	-14.44
224.104	-24.44
224.338	-9.44
224.573	-22.44
224.808	-23.44
225.042	3.56
225.277	-6.44
225.511	-8.44
225.746	14.56
225.98	21.56
226.215	12.56
226.449	8.56
226.683	19.56
226.918	13.56
227.152	37.56
227.387	41.56
227.621	42.56
227.856	55.56
228.09	53.56
228.324	49.56
228.559	58.56
228.793	62.56
229.027	61.56
229.262	55.56
229.496	66.56
229.73	65.56
229.964	76.56
230.199	74.56
230.433	74.56
230.667	69.56
230.901	80.56
231.136	83.56
231.37	68.56
231.604	72.56
231.838	81.56
232.072	75.56
232.306	83.56
232.541	76.56
232.775	72.56
233.009	87.56
233.243	80.56
233.477	92.56
233.711	75.56
233.945	70.56
234.179	77.56
234.413	71.56
234.647	86.56
234.881	79.56
235.115	75.56
235.349	83.56
235.583	78.56
235.817	70.56
236.051	68.56
236.285	86.56
236.519	91.56
236.753	82.56
236.987	72.56
237.221	77.56
237.455	76.56
237.689	63.56
237.922	81.56
238.156	79.56
238.39	79.56
238.624	77.56
238.858	80.56
239.091	65.56
239.325	78.56
239.559	72.56
239.793	68.56
240.027	81.56
240.26	77.56
240.494	80.56
240.728	80.56
240.961	78.56
241.195	78.56
241.429	77.56
241.662	72.56
241.896	71.56
242.13	78.56
242.363	77.56
242.597	71.56
242.83	80.56
243.064	89.56
243.298	83.56
243.531	79.56
243.765	67.56
243.998	75.56
244.232	85.56
244.465	75.56
244.699	72.56
244.932	69.56
245.166	85.56
245.399	90.56
245.633	76.56
245.866	72.56
246.099	76.56
246.333	69.56
246.566	68.56
246.8	87.56
247.033	77.56
247.266	85.56
247.5	79.56
247.733	78.56
247.966	92.56
248.2	84.56
248.433	59.56
248.666	80.56
248.899	69.56
249.133	78.56
249.366	66.56
249.599	76.56
249.832	74.56
250.066	91.56
250.299	73.56
250.532	77.56
250.765	72.56
250.998	87.56
251.231	83.56
251.465	75.56
251.698	71.56
251.931	72.56
252.164	85.56
252.397	87.56
252.63	79.56
252.863	69.56
253.096	76.56
253.329	75.56
253.562	85.56
253.795	77.56
254.028	86.56
254.261	68.56
254.494	74.56
254.727	83.56
254.96	83.56
255.193	91.56
255.426	87.56
255.659	76.56
255.892	65.56
256.124	84.56
256.357	88.56
256.59	69.56
256.823	86.56
257.056	82.56
257.289	71.56
257.521	69.56
257.754	71.56
257.987	79.56
258.22	69.56
258.452	90.56
258.685	76.56
258.918	90.56
259.151	73.56
259.383	81.56
259.616	79.56
259.849	83.56
260.081	73.56
260.314	72.56
260.547	78.56
260.779	87.56
261.012	87.56
261.244	72.56
261.477	83.56
261.71	99.56
261.942	70.56
262.175	88.56
262.407	79.56
262.64	65.56
262.872	55.56
263.105	69.56
263.337	77.56
263.57	99.56
263.802	79.56
264.035	86.56
264.267	73.56
264.499	74.56
264.732	77.56
264.964	85.56
265.197	73.56
265.429	71.56
265.661	82.56
265.894	92.56
266.126	77.56
266.358	80.56
266.591	87.56
266.823	89.56
267.055	89.56
267.287	85.56
267.52	83.56
267.752	90.56
267.984	82.56
268.216	86.56
268.448	87.56
268.681	85.56
268.913	77.56
269.145	68.56
269.377	83.56
269.609	92.56
269.841	79.56
270.073	83.56
270.306	75.56
270.538	85.56
270.77	89.56
271.002	77.56
271.234	91.56
271.466	88.56
271.698	80.56
271.93	90.56
272.162	93.56
272.394	84.56
272.626	91.56
272.858	82.56
273.09	83.56
273.322	87.56
273.553	87.56
273.785	82.56
274.017	75.56
274.249	79.56
274.481	75.56
274.713	83.56
274.945	84.56
275.176	98.56
275.408	85.56
275.64	100.56
275.872	87.56
276.104	92.56
276.335	79.56
276.567	77.56
276.799	80.56
277.031	74.56
277.262	103.56
277.494	95.56
277.726	95.56
277.957	90.56
278.189	70.56
278.421	76.56
278.652	70.56
278.884	80.56
279.115	83.56
279.347	83.56
279.579	81.56
279.81	88.56
280.042	85.56
280.273	84.56
280.505	76.56
280.736	78.56
280.968	83.56
281.199	81.56
281.431	74.56
281.662	81.56
281.894	80.56
282.125	85.56
282.356	69.56
282.588	84.56
282.819	76.56
283.051	83.56
283.282	93.56
283.513	87.56
283.745	83.56
283.976	78.56
284.207	83.56
284.439	95.56
284.67	96.56
284.901	87.56
285.132	76.56
285.364	68.56
285.595	71.56
285.826	96.56
286.057	90.56
286.288	85.56
286.52	82.56
286.751	83.56
286.982	76.56
287.213	87.56
287.444	70.56
287.675	82.56
287.906	85.56
288.138	67.56
288.369	100.56
288.6	78.56
288.831	80.56
289.062	84.56
289.293	90.56
289.524	98.56
289.755	82.56
289.986	81.56
290.217	81.56
290.448	67.56
290.679	84.56
290.91	94.56
291.141	85.56
291.371	66.56
291.602	79.56
291.833	84.56
292.064	82.56
292.295	92.56
292.526	77.56
292.757	82.56
292.987	85.56
293.218	83.56
293.449	53.56
293.68	79.56
293.91	79.56
294.141	81.56
294.372	82.56
294.603	81.56
294.833	93.56
295.064	87.56
295.295	84.56
295.525	79.56
295.756	90.56
295.987	86.56
296.217	81.56
296.448	83.56
296.679	89.56
296.909	89.56
297.14	90.56
297.37	92.56
297.601	85.56
297.831	88.56
298.062	98.56
298.292	85.56
298.523	92.56
298.753	91.56
298.984	88.56
299.214	74.56
299.445	85.56
299.675	81.56
299.905	85.56
300.136	84.56
300.366	90.56
300.597	90.56
300.827	87.56
301.057	75.56
301.288	83.56
301.518	92.56
301.748	83.56
301.979	75.56
302.209	92.56
302.439	87.56
302.669	75.56
302.9	92.56
303.13	78.56
303.36	82.56
303.59	91.56
303.82	82.56
304.051	68.56
304.281	88.56
304.511	85.56
304.741	96.56
304.971	91.56
305.201	83.56
305.431	83.56
305.661	86.56
305.891	84.56
306.121	85.56
306.352	95.56
306.582	84.56
306.812	89.56
307.042	83.56
307.272	87.56
307.502	77.56
307.731	89.56
307.961	88.56
308.191	97.56
308.421	88.56
308.651	83.56
308.881	81.56
309.111	80.56
309.341	87.56
309.571	79.56
309.8	92.56
310.03	77.56
310.26	97.56
310.49	95.56
310.72	85.56
310.949	94.56
311.179	85.56
311.409	75.56
311.639	85.56
311.868	90.56
312.098	82.56
312.328	85.56
312.557	84.56
312.787	81.56
313.017	74.56
313.246	82.56
313.476	87.56
313.706	69.56
313.935	87.56
314.165	89.56
314.394	94.56
314.624	81.56
314.853	80.56
315.083	92.56
315.312	105.56
315.542	87.56
315.771	76.56
316.001	76.56
316.23	95.56
316.46	82.56
316.689	80.56
316.919	90.56
317.148	84.56
317.377	80.56
317.607	88.56
317.836	79.56
318.065	81.56
318.295	91.56
318.524	89.56
318.753	92.56
318.983	98.56
319.212	90.56
319.441	90.56
319.67	91.56
319.9	79.56
320.129	82.56
320.358	89.56
320.587	89.56
320.816	90.56
321.046	95.56
321.275	83.56
321.504	84.56
321.733	83.56
321.962	98.56
322.191	86.56
322.42	91.56
322.649	81.56
322.878	80.56
323.108	107.56
323.337	90.56
323.566	88.56
323.795	99.56
324.024	77.56
324.253	87.56
324.482	67.56
324.71	83.56
324.939	85.56
325.168	87.56
325.397	76.56
325.626	82.56
325.855	79.56
326.084	82.56
326.313	85.56
326.542	86.56
326.77	85.56
326.999	87.56
327.228	84.56
327.457	81.56
327.686	77.56
327.914	85.56
328.143	85.56
328.372	84.56
328.6	87.56
328.829	84.56
329.058	81.56
329.287	93.56
329.515	82.56
329.744	93.56
329.972	88.56
330.201	91.56
330.43	95.56
330.658	91.56
330.887	86.56
331.115	85.56
331.344	91.56
331.572	80.56
331.801	89.56
332.03	86.56
332.258	79.56
332.486	75.56
332.715	80.56
332.943	81.56
333.172	76.56
333.4	91.56
333.629	80.56
333.857	65.56
334.085	83.56
334.314	81.56
334.542	89.56
334.771	84.56
334.999	85.56
335.227	94.56
335.455	100.56
335.684	89.56
335.912	89.56
336.14	84.56
336.369	83.56
336.597	95.56
336.825	81.56
337.053	84.56
337.281	77.56
337.51	87.56
337.738	68.56
337.966	89.56
338.194	100.56
338.422	70.56
338.65	86.56
338.878	75.56
339.106	95.56
339.334	86.56
339.562	88.56
339.79	89.56
340.018	91.56
340.246	87.56
340.474	82.56
340.702	81.56
340.93	97.56
341.158	76.56
341.386	89.56
341.614	79.56
341.842	83.56
342.07	74.56
342.298	93.56
342.526	91.56
342.754	81.56
342.981	91.56
343.209	75.56
343.437	92.56
343.665	80.56
343.893	84.56
344.12	89.56
344.348	87.56
344.576	79.56
344.804	78.56
345.031	76.56
345.259	91.56
345.487	79.56
345.714	83.56
345.942	80.56
346.17	83.56
346.397	82.56
346.625	86.56
346.853	75.56
347.08	77.56
347.308	89.56
347.535	98.56
347.763	83.56
347.99	78.56
348.218	66.56
348.445	82.56
348.673	83.56
348.9	81.56
349.128	84.56
349.355	73.56
349.583	80.56
349.81	62.56
350.037	83.56
350.265	85.56
350.492	91.56
350.72	85.56
350.947	92.56
351.174	88.56
351.402	87.56
351.629	87.56
351.856	82.56
352.083	74.56
352.311	90.56
352.538	77.56
352.765	83.56
352.992	83.56
353.22	76.56
353.447	90.56
353.674	87.56
353.901	93.56
354.128	86.56
354.355	82.56
354.583	93.56
354.81	94.56
355.037	84.56
355.264	93.56
355.491	85.56
355.718	94.56
355.945	89.56
356.172	72.56
356.399	106.56
356.626	79.56
356.853	91.56
357.08	83.56
357.307	83.56
357.534	79.56
357.761	81.56
357.988	97.56
358.215	90.56
358.441	84.56
358.668	78.56
358.895	89.56
359.122	97.56
359.349	103.56
359.576	93.56
359.802	84.56
360.029	81.56
360.256	99.56
360.483	83.56
360.709	81.56
360.936	96.56
361.163	92.56
361.39	90.56
361.616	91.56
361.843	89.56
362.07	92.56
362.296	83.56
362.523	65.56
362.749	91.56
362.976	81.56
363.203	91.56
363.429	84.56
363.656	101.56
363.882	92.56
364.109	89.56
364.335	91.56
364.562	75.56
364.788	86.56
365.015	80.56
365.241	85.56
365.468	85.56
365.694	69.56
365.92	83.56
366.147	79.56
366.373	96.56
366.599	98.56
366.826	101.56
367.052	75.56
367.278	85.56
367.505	81.56
367.731	76.56
367.957	76.56
368.184	84.56
368.41	83.56
368.636	75.56
368.862	91.56
369.089	81.56
369.315	77.56
369.541	97.56
369.767	93.56
369.993	86.56
370.219	85.56
370.445	94.56
370.672	104.56
370.898	85.56
371.124	90.56
371.35	95.56
371.576	91.56
371.802	83.56
372.028	83.56
372.254	88.56
372.48	79.56
372.706	91.56
372.932	89.56
373.158	88.56
373.384	88.56
373.61	101.56
373.835	91.56
374.061	93.56
374.287	83.56
374.513	83.56
374.739	90.56
374.965	88.56
375.191	79.56
375.416	90.56
375.642	79.56
375.868	71.56
376.094	93.56
376.319	98.56
376.545	84.56
376.771	90.56
376.997	93.56
377.222	80.56
377.448	78.56
377.674	79.56
377.899	87.56
378.125	75.56
378.35	80.56
378.576	73.56
378.802	83.56
379.027	83.56
379.253	93.56
379.478	78.56
379.704	83.56
379.929	85.56
380.155	80.56
380.38	83.56
380.606	80.56
380.831	79.56
381.057	88.56
381.282	81.56
381.507	91.56
381.733	74.56
381.958	93.56
382.184	94.56
382.409	80.56
382.634	90.56
382.86	97.56
383.085	84.56
383.31	83.56
383.535	85.56
383.761	74.56
383.986	79.56
384.211	86.56
384.436	87.56
384.662	86.56
384.887	86.56
385.112	86.56
385.337	89.56
385.562	79.56
385.787	91.56
386.013	88.56
386.238	85.56
386.463	87.56
386.688	92.56
386.913	77.56
387.138	89.56
387.363	84.56
387.588	78.56
387.813	92.56
388.038	67.56
388.263	90.56
388.488	90.56
388.713	81.56
388.938	83.56
389.163	86.56
389.387	79.56
389.612	75.56
389.837	84.56
390.062	84.56
390.287	90.56
390.512	86.56
390.736	90.56
390.961	85.56
391.186	100.56
391.411	88.56
391.636	80.56
391.86	98.56
392.085	73.56
392.31	81.56
392.534	87.56
392.759	75.56
392.984	95.56
393.208	90.56
393.433	81.56
393.658	85.56
393.882	87.56
394.107	76.56
394.331	80.56
394.556	73.56
394.78	73.56
395.005	96.56
395.229	79.56
395.454	80.56
395.678	76.56
395.903	79.56
396.127	89.56
396.352	71.56
396.576	76.56
396.801	88.56
397.025	83.56
397.249	73.56
397.474	81.56
397.698	86.56
397.922	91.56
398.147	75.56
398.371	77.56
398.595	87.56
398.82	87.56
399.044	88.56
399.268	74.56
399.492	83.56
399.717	89.56
399.941	99.56
400.165	95.56
400.389	87.56
400.613	79.56
400.837	90.56
401.062	83.56
401.286	86.56
401.51	80.56
401.734	87.56
401.958	78.56
402.182	76.56
402.406	76.56
402.63	75.56
402.854	75.56
403.078	77.56
403.302	89.56
403.526	98.56
403.75	81.56
403.974	81.56
404.198	79.56
404.422	87.56
404.645	88.56
404.869	80.56
405.093	83.56
405.317	95.56
405.541	89.56
405.765	96.56
405.988	90.56
406.212	87.56
406.436	72.56
406.66	84.56
406.883	94.56
407.107	88.56
407.331	91.56
407.555	79.56
407.778	85.56
408.002	77.56
408.226	87.56
408.449	83.56
408.673	85.56
408.896	80.56
409.12	88.56
409.344	82.56
409.567	87.56
409.791	81.56
410.014	84.56
410.238	86.56
410.461	68.56
410.685	66.56
410.908	89.56
411.132	70.56
411.355	80.56
411.578	93.56
411.802	79.56
412.025	78.56
412.249	91.56
412.472	92.56
412.695	65.56
412.919	89.56
413.142	83.56
413.365	83.56
413.589	77.56
413.812	66.56
414.035	98.56
414.258	75.56
414.482	90.56
414.705	86.56
414.928	87.56
415.151	82.56
415.374	69.56
415.597	91.56
415.821	87.56
416.044	91.56
416.267	88.56
416.49	82.56
416.713	73.56
416.936	69.56
417.159	87.56
417.382	75.56
417.605	87.56
417.828	92.56
418.051	84.56
418.274	83.56
418.497	88.56
418.72	79.56
418.943	76.56
419.166	90.56
419.389	66.56
419.611	76.56
419.834	81.56
420.057	81.56
420.28	91.56
420.503	91.56
420.726	80.56
420.948	79.56
421.171	75.56
421.394	94.56
421.617	73.56
421.839	76.56
422.062	75.56
422.285	85.56
422.507	73.56
422.73	68.56
422.953	79.56
423.175	84.56
423.398	79.56
423.621	80.56
423.843	76.56
424.066	77.56
424.288	75.56
424.511	76.56
424.733	79.56
424.956	89.56
425.178	71.56
425.401	76.56
425.623	71.56
425.846	80.56
426.068	63.56
426.291	81.56
426.513	96.56
426.735	75.56
426.958	92.56
427.18	88.56
427.402	67.56
427.625	88.56
427.847	79.56
428.069	79.56
428.292	86.56
428.514	91.56
428.736	78.56
428.958	73.56
429.181	92.56
429.403	74.56
429.625	82.56
429.847	83.56
430.069	94.56
430.292	91.56
430.514	93.56
430.736	76.56
430.958	99.56
431.18	75.56
431.402	82.56
431.624	78.56
431.846	81.56
432.068	87.56
432.29	69.56
432.512	91.56
432.734	85.56
432.956	84.56
433.178	99.56
433.4	84.56
433.622	84.56
433.844	98.56
434.066	76.56
434.287	80.56
434.509	88.56
434.731	89.56
434.953	81.56
435.175	72.56
435.397	79.56
435.618	88.56
435.84	83.56
436.062	91.56
436.284	77.56
436.505	75.56
436.727	73.56
436.949	72.56
437.17	83.56
437.392	85.56
437.614	72.56
437.835	95.56
438.057	77.56
438.278	88.56
438.5	90.56
438.721	78.56
438.943	84.56
439.165	79.56
439.386	67.56
439.608	88.56
439.829	84.56
440.05	87.56
440.272	83.56
440.493	76.56
440.715	81.56
440.936	90.56
441.158	80.56
441.379	78.56
441.6	76.56
441.822	95.56
442.043	88.56
442.264	92.56
442.486	88.56
442.707	80.56
442.928	85.56
443.149	79.56
443.371	70.56
443.592	76.56
443.813	97.56
444.034	72.56
444.255	88.56
444.476	69.56
444.698	67.56
444.919	88.56
445.14	145.56
445.361	96.56
445.582	96.56
445.803	81.56
446.024	85.56
446.245	68.56
446.466	84.56
446.687	72.56
446.908	83.56
447.129	91.56
447.35	90.56
447.571	74.56
447.792	98.56
448.013	71.56
448.234	63.56
448.455	75.56
448.675	91.56
448.896	83.56
449.117	83.56
449.338	95.56
449.559	95.56
449.779	81.56
450	85.56
450.221	87.56
450.442	79.56
450.662	69.56
450.883	79.56
451.104	81.56
451.324	88.56
451.545	81.56
451.766	80.56
451.986	69.56
452.207	84.56
452.428	66.56
452.648	96.56
452.869	77.56
453.089	84.56
453.31	80.56
453.53	83.56
453.751	89.56
453.971	96.56
454.192	63.56
454.412	71.56
454.633	75.56
454.853	93.56
455.073	88.56
455.294	86.56
455.514	83.56
455.734	99.56
455.955	88.56
456.175	80.56
456.395	84.56
456.616	94.56
456.836	79.56
457.056	79.56
457.276	88.56
457.497	77.56
457.717	72.56
457.937	89.56
458.157	78.56
458.377	84.56
458.598	86.56
458.818	85.56
459.038	79.56
459.258	81.56
459.478	84.56
459.698	76.56
459.918	72.56
460.138	73.56
460.358	90.56
460.578	86.56
460.798	86.56
461.018	76.56
461.238	67.56
461.458	69.56
461.678	96.56
461.898	96.56
462.118	87.56
462.338	75.56
462.558	74.56
462.777	88.56
462.997	83.56
463.217	73.56
463.437	87.56
463.657	69.56
463.876	82.56
464.096	73.56
464.316	73.56
464.536	83.56
464.755	89.56
464.975	81.56
465.195	85.56
465.414	93.56
465.634	75.56
465.854	87.56
466.073	85.56
466.293	79.56
466.512	77.56
466.732	77.56
466.951	67.56
467.171	82.56
467.391	90.56
467.61	79.56
467.829	87.56
468.049	85.56
468.268	76.56
468.488	81.56
468.707	80.56
468.927	69.56
469.146	82.56
469.365	87.56
469.585	90.56
469.804	93.56
470.023	83.56
470.243	93.56
470.462	75.56
470.681	69.56
470.901	70.56
471.12	79.56
471.339	94.56
471.558	82.56
471.777	88.56
471.997	75.56
472.216	95.56
472.435	95.56
472.654	74.56
472.873	73.56
473.092	86.56
473.311	90.56
473.53	82.56
473.749	75.56
473.968	77.56
474.187	89.56
474.406	83.56
474.625	79.56
474.844	84.56
475.063	84.56
475.282	94.56
475.501	69.56
475.72	71.56
475.939	71.56
476.158	79.56
476.377	80.56
476.596	84.56
476.814	91.56
477.033	75.56
477.252	89.56
477.471	83.56
477.69	98.56
477.908	86.56
478.127	90.56
478.346	89.56
478.564	81.56
478.783	90.56
479.002	85.56
479.22	81.56
479.439	96.56
479.658	81.56
479.876	79.56
480.095	81.56
480.313	96.56
480.532	77.56
480.751	90.56
480.969	87.56
481.188	92.56
481.406	85.56
481.624	83.56
481.843	76.56
482.061	82.56
482.28	79.56
482.498	77.56
482.717	90.56
482.935	87.56
483.153	88.56
483.372	85.56
483.59	93.56
483.808	89.56
484.027	88.56
484.245	81.56
484.463	81.56
484.681	109.56
484.9	87.56
485.118	91.56
485.336	84.56
485.554	80.56
485.772	81.56
485.99	91.56
486.209	83.56
486.427	69.56
486.645	74.56
486.863	89.56
487.081	87.56
487.299	95.56
487.517	91.56
487.735	78.56
487.953	96.56
488.171	94.56
488.389	86.56
488.607	79.56
488.825	85.56
489.043	80.56
489.261	93.56
489.479	78.56
489.696	75.56
489.914	82.56
490.132	82.56
490.35	72.56
490.568	73.56
490.786	95.56
491.003	61.56
491.221	75.56
491.439	81.56
491.657	78.56
491.874	82.56
492.092	77.56
492.31	78.56
492.527	77.56
492.745	83.56
492.963	79.56
493.18	95.56
493.398	81.56
493.615	67.56
493.833	74.56
494.05	77.56
494.268	89.56
494.485	79.56
494.703	91.56
494.92	83.56
495.138	91.56
495.355	88.56
495.573	79.56
495.79	87.56
496.008	85.56
496.225	81.56
496.442	85.56
496.66	87.56
496.877	83.56
497.094	84.56
497.312	84.56
497.529	91.56
497.746	95.56
497.963	79.56
498.181	104.56
498.398	81.56
498.615	85.56
498.832	88.56
499.049	71.56
499.267	98.56
499.484	81.56
499.701	80.56
499.918	89.56
500.135	93.56
500.352	84.56
500.569	92.56
500.786	87.56
501.003	85.56
501.22	79.56
501.437	71.56
501.654	83.56
501.871	79.56
502.088	83.56
502.305	78.56
502.522	70.56
502.739	75.56
502.956	81.56
503.172	81.56
503.389	77.56
503.606	73.56
503.823	79.56
504.04	91.56
504.256	93.56
504.473	78.56
504.69	89.56
504.907	93.56
505.123	85.56
505.34	93.56
505.557	86.56
505.773	92.56
505.99	80.56
506.207	91.56
506.423	75.56
506.64	82.56
506.856	79.56
507.073	94.56
507.289	83.56
507.506	86.56
507.722	85.56
507.939	81.56
508.155	79.56
508.372	83.56
508.588	79.56
508.805	76.56
509.021	76.56
509.238	73.56
509.454	70.56
509.67	81.56
509.887	87.56
510.103	75.56
510.319	83.56
510.536	81.56
510.752	74.56
510.968	83.56
511.184	100.56
511.401	68.56
511.617	84.56
511.833	84.56
512.049	81.56
512.265	84.56
512.481	87.56
512.698	91.56
512.914	70.56
513.13	78.56
513.346	90.56
513.562	88.56
513.778	66.56
513.994	76.56
514.21	85.56
514.426	77.56
514.642	81.56
514.858	79.56
515.074	91.56
515.29	88.56
515.506	82.56
515.721	84.56
515.937	82.56
516.153	87.56
516.369	87.56
516.585	90.56
516.801	85.56
517.016	80.56
517.232	76.56
517.448	89.56
517.664	72.56
517.879	85.56
518.095	77.56
518.311	77.56
518.527	90.56
518.742	81.56
518.958	92.56
519.173	76.56
519.389	80.56
519.605	72.56
519.82	82.56
520.036	80.56
520.251	84.56
