Data from BG_HRD10591_042.txt Node
Date: Fri May 16 15:33:28 EDT 2025
User: Yrep
Spectrometer: HR+D1059
Trigger mode: 1
Integration Time (sec): 1.000000E-1
Scans to average: 1
Electric dark correction enabled: true
Nonlinearity correction enabled: false
Boxcar width: 0
XAxis mode: Wavelengths
Number of Pixels in Spectrum: 2048
>>>>>Begin Spectral Data<<<<<
223.165	-9.69
223.4	-9.69
223.635	-9.69
223.869	-12.69
224.104	-20.69
224.338	-16.69
224.573	-24.69
224.808	-11.69
225.042	-3.69
225.277	-6.69
225.511	-11.69
225.746	9.31
225.98	6.31
226.215	3.31
226.449	18.31
226.683	19.31
226.918	20.31
227.152	41.31
227.387	45.31
227.621	51.31
227.856	52.31
228.09	39.31
228.324	51.31
228.559	44.31
228.793	67.31
229.027	61.31
229.262	70.31
229.496	79.31
229.73	74.31
229.964	74.31
230.199	79.31
230.433	74.31
230.667	91.31
230.901	87.31
231.136	78.31
231.37	75.31
231.604	74.31
231.838	75.31
232.072	76.31
232.306	90.31
232.541	88.31
232.775	76.31
233.009	78.31
233.243	86.31
233.477	78.31
233.711	74.31
233.945	71.31
234.179	72.31
234.413	95.31
234.647	77.31
234.881	70.31
235.115	75.31
235.349	86.31
235.583	80.31
235.817	82.31
236.051	73.31
236.285	76.31
236.519	70.31
236.753	89.31
236.987	90.31
237.221	85.31
237.455	78.31
237.689	75.31
237.922	87.31
238.156	69.31
238.39	74.31
238.624	74.31
238.858	80.31
239.091	72.31
239.325	67.31
239.559	62.31
239.793	70.31
240.027	77.31
240.26	83.31
240.494	73.31
240.728	83.31
240.961	82.31
241.195	85.31
241.429	86.31
241.662	81.31
241.896	73.31
242.13	71.31
242.363	69.31
242.597	82.31
242.83	73.31
243.064	81.31
243.298	90.31
243.531	76.31
243.765	94.31
243.998	66.31
244.232	73.31
244.465	79.31
244.699	86.31
244.932	82.31
245.166	78.31
245.399	60.31
245.633	70.31
245.866	79.31
246.099	83.31
246.333	79.31
246.566	96.31
246.8	84.31
247.033	80.31
247.266	68.31
247.5	80.31
247.733	92.31
247.966	78.31
248.2	86.31
248.433	80.31
248.666	87.31
248.899	89.31
249.133	80.31
249.366	76.31
249.599	90.31
249.832	86.31
250.066	85.31
250.299	84.31
250.532	92.31
250.765	76.31
250.998	82.31
251.231	75.31
251.465	77.31
251.698	85.31
251.931	75.31
252.164	87.31
252.397	100.31
252.63	83.31
252.863	75.31
253.096	78.31
253.329	82.31
253.562	71.31
253.795	78.31
254.028	93.31
254.261	74.31
254.494	81.31
254.727	75.31
254.96	79.31
255.193	92.31
255.426	78.31
255.659	81.31
255.892	84.31
256.124	84.31
256.357	81.31
256.59	95.31
256.823	77.31
257.056	69.31
257.289	72.31
257.521	84.31
257.754	76.31
257.987	75.31
258.22	71.31
258.452	64.31
258.685	72.31
258.918	84.31
259.151	72.31
259.383	73.31
259.616	80.31
259.849	87.31
260.081	86.31
260.314	88.31
260.547	90.31
260.779	76.31
261.012	81.31
261.244	84.31
261.477	78.31
261.71	69.31
261.942	89.31
262.175	89.31
262.407	87.31
262.64	78.31
262.872	77.31
263.105	79.31
263.337	86.31
263.57	72.31
263.802	87.31
264.035	81.31
264.267	88.31
264.499	88.31
264.732	89.31
264.964	98.31
265.197	76.31
265.429	75.31
265.661	94.31
265.894	85.31
266.126	73.31
266.358	74.31
266.591	76.31
266.823	87.31
267.055	92.31
267.287	75.31
267.52	87.31
267.752	90.31
267.984	75.31
268.216	78.31
268.448	95.31
268.681	75.31
268.913	80.31
269.145	88.31
269.377	81.31
269.609	75.31
269.841	81.31
270.073	74.31
270.306	78.31
270.538	80.31
270.77	86.31
271.002	82.31
271.234	83.31
271.466	77.31
271.698	81.31
271.93	82.31
272.162	89.31
272.394	72.31
272.626	74.31
272.858	79.31
273.09	82.31
273.322	78.31
273.553	89.31
273.785	61.31
274.017	78.31
274.249	65.31
274.481	83.31
274.713	80.31
274.945	78.31
275.176	74.31
275.408	77.31
275.64	76.31
275.872	78.31
276.104	83.31
276.335	86.31
276.567	93.31
276.799	89.31
277.031	94.31
277.262	94.31
277.494	81.31
277.726	92.31
277.957	83.31
278.189	75.31
278.421	83.31
278.652	88.31
278.884	74.31
279.115	86.31
279.347	74.31
279.579	92.31
279.81	98.31
280.042	71.31
280.273	83.31
280.505	90.31
280.736	81.31
280.968	83.31
281.199	83.31
281.431	80.31
281.662	86.31
281.894	67.31
282.125	86.31
282.356	81.31
282.588	82.31
282.819	76.31
283.051	102.31
283.282	78.31
283.513	83.31
283.745	88.31
283.976	90.31
284.207	96.31
284.439	79.31
284.67	84.31
284.901	81.31
285.132	86.31
285.364	74.31
285.595	74.31
285.826	89.31
286.057	90.31
286.288	78.31
286.52	103.31
286.751	84.31
286.982	86.31
287.213	81.31
287.444	88.31
287.675	81.31
287.906	84.31
288.138	94.31
288.369	88.31
288.6	76.31
288.831	78.31
289.062	96.31
289.293	78.31
289.524	95.31
289.755	90.31
289.986	74.31
290.217	104.31
290.448	85.31
290.679	94.31
290.91	96.31
291.141	90.31
291.371	80.31
291.602	75.31
291.833	79.31
292.064	69.31
292.295	78.31
292.526	80.31
292.757	78.31
292.987	82.31
293.218	64.31
293.449	78.31
293.68	86.31
293.91	79.31
294.141	91.31
294.372	95.31
294.603	74.31
294.833	84.31
295.064	92.31
295.295	86.31
295.525	88.31
295.756	87.31
295.987	78.31
296.217	67.31
296.448	73.31
296.679	94.31
296.909	93.31
297.14	72.31
297.37	82.31
297.601	81.31
297.831	92.31
298.062	99.31
298.292	100.31
298.523	86.31
298.753	90.31
298.984	83.31
299.214	83.31
299.445	75.31
299.675	107.31
299.905	96.31
300.136	94.31
300.366	82.31
300.597	79.31
300.827	86.31
301.057	89.31
301.288	80.31
301.518	100.31
301.748	84.31
301.979	117.31
302.209	87.31
302.439	76.31
302.669	88.31
302.9	108.31
303.13	97.31
303.36	93.31
303.59	87.31
303.82	96.31
304.051	86.31
304.281	72.31
304.511	89.31
304.741	72.31
304.971	86.31
305.201	82.31
305.431	79.31
305.661	80.31
305.891	87.31
306.121	86.31
306.352	81.31
306.582	88.31
306.812	86.31
307.042	89.31
307.272	86.31
307.502	86.31
307.731	95.31
307.961	93.31
308.191	91.31
308.421	87.31
308.651	78.31
308.881	85.31
309.111	80.31
309.341	99.31
309.571	98.31
309.8	89.31
310.03	71.31
310.26	79.31
310.49	88.31
310.72	88.31
310.949	94.31
311.179	98.31
311.409	90.31
311.639	92.31
311.868	92.31
312.098	97.31
312.328	82.31
312.557	75.31
312.787	89.31
313.017	98.31
313.246	99.31
313.476	91.31
313.706	88.31
313.935	86.31
314.165	88.31
314.394	84.31
314.624	80.31
314.853	81.31
315.083	89.31
315.312	99.31
315.542	83.31
315.771	96.31
316.001	97.31
316.23	83.31
316.46	82.31
316.689	88.31
316.919	82.31
317.148	104.31
317.377	94.31
317.607	87.31
317.836	102.31
318.065	82.31
318.295	84.31
318.524	84.31
318.753	86.31
318.983	77.31
319.212	82.31
319.441	69.31
319.67	91.31
319.9	103.31
320.129	96.31
320.358	95.31
320.587	83.31
320.816	90.31
321.046	79.31
321.275	104.31
321.504	77.31
321.733	82.31
321.962	76.31
322.191	81.31
322.42	83.31
322.649	89.31
322.878	83.31
323.108	83.31
323.337	79.31
323.566	81.31
323.795	79.31
324.024	107.31
324.253	93.31
324.482	92.31
324.71	87.31
324.939	81.31
325.168	71.31
325.397	87.31
325.626	94.31
325.855	78.31
326.084	97.31
326.313	77.31
326.542	70.31
326.77	95.31
326.999	89.31
327.228	74.31
327.457	86.31
327.686	87.31
327.914	81.31
328.143	95.31
328.372	86.31
328.6	91.31
328.829	79.31
329.058	76.31
329.287	84.31
329.515	80.31
329.744	98.31
329.972	95.31
330.201	78.31
330.43	102.31
330.658	78.31
330.887	89.31
331.115	93.31
331.344	100.31
331.572	86.31
331.801	86.31
332.03	91.31
332.258	95.31
332.486	89.31
332.715	93.31
332.943	103.31
333.172	109.31
333.4	91.31
333.629	89.31
333.857	87.31
334.085	87.31
334.314	106.31
334.542	94.31
334.771	83.31
334.999	97.31
335.227	94.31
335.455	91.31
335.684	97.31
335.912	92.31
336.14	82.31
336.369	96.31
336.597	93.31
336.825	94.31
337.053	100.31
337.281	92.31
337.51	63.31
337.738	91.31
337.966	91.31
338.194	91.31
338.422	82.31
338.65	81.31
338.878	95.31
339.106	98.31
339.334	103.31
339.562	92.31
339.79	73.31
340.018	93.31
340.246	81.31
340.474	94.31
340.702	92.31
340.93	92.31
341.158	91.31
341.386	90.31
341.614	69.31
341.842	83.31
342.07	91.31
342.298	90.31
342.526	88.31
342.754	82.31
342.981	87.31
343.209	82.31
343.437	106.31
343.665	81.31
343.893	106.31
344.12	88.31
344.348	84.31
344.576	93.31
344.804	79.31
345.031	90.31
345.259	99.31
345.487	93.31
345.714	94.31
345.942	80.31
346.17	95.31
346.397	86.31
346.625	90.31
346.853	90.31
347.08	102.31
347.308	87.31
347.535	76.31
347.763	84.31
347.99	82.31
348.218	91.31
348.445	92.31
348.673	109.31
348.9	86.31
349.128	89.31
349.355	75.31
349.583	87.31
349.81	83.31
350.037	88.31
350.265	88.31
350.492	93.31
350.72	87.31
350.947	91.31
351.174	90.31
351.402	108.31
351.629	77.31
351.856	84.31
352.083	89.31
352.311	94.31
352.538	101.31
352.765	82.31
352.992	95.31
353.22	89.31
353.447	89.31
353.674	86.31
353.901	81.31
354.128	83.31
354.355	79.31
354.583	96.31
354.81	95.31
355.037	94.31
355.264	92.31
355.491	80.31
355.718	90.31
355.945	77.31
356.172	72.31
356.399	86.31
356.626	84.31
356.853	70.31
357.08	84.31
357.307	85.31
357.534	83.31
357.761	90.31
357.988	78.31
358.215	82.31
358.441	83.31
358.668	87.31
358.895	96.31
359.122	85.31
359.349	88.31
359.576	89.31
359.802	84.31
360.029	78.31
360.256	86.31
360.483	84.31
360.709	93.31
360.936	85.31
361.163	88.31
361.39	84.31
361.616	95.31
361.843	99.31
362.07	95.31
362.296	88.31
362.523	73.31
362.749	90.31
362.976	78.31
363.203	80.31
363.429	84.31
363.656	74.31
363.882	99.31
364.109	83.31
364.335	86.31
364.562	89.31
364.788	87.31
365.015	76.31
365.241	97.31
365.468	84.31
365.694	90.31
365.92	93.31
366.147	92.31
366.373	83.31
366.599	84.31
366.826	86.31
367.052	96.31
367.278	89.31
367.505	90.31
367.731	94.31
367.957	88.31
368.184	95.31
368.41	91.31
368.636	80.31
368.862	74.31
369.089	77.31
369.315	79.31
369.541	93.31
369.767	73.31
369.993	87.31
370.219	60.31
370.445	89.31
370.672	72.31
370.898	84.31
371.124	88.31
371.35	94.31
371.576	85.31
371.802	80.31
372.028	86.31
372.254	88.31
372.48	81.31
372.706	90.31
372.932	94.31
373.158	93.31
373.384	90.31
373.61	96.31
373.835	89.31
374.061	86.31
374.287	89.31
374.513	94.31
374.739	74.31
374.965	87.31
375.191	75.31
375.416	97.31
375.642	100.31
375.868	90.31
376.094	97.31
376.319	89.31
376.545	90.31
376.771	99.31
376.997	82.31
377.222	83.31
377.448	92.31
377.674	90.31
377.899	74.31
378.125	83.31
378.35	76.31
378.576	82.31
378.802	82.31
379.027	92.31
379.253	93.31
379.478	89.31
379.704	95.31
379.929	95.31
380.155	82.31
380.38	76.31
380.606	80.31
380.831	89.31
381.057	97.31
381.282	102.31
381.507	90.31
381.733	67.31
381.958	97.31
382.184	102.31
382.409	96.31
382.634	87.31
382.86	98.31
383.085	75.31
383.31	94.31
383.535	94.31
383.761	88.31
383.986	79.31
384.211	86.31
384.436	75.31
384.662	97.31
384.887	91.31
385.112	89.31
385.337	65.31
385.562	81.31
385.787	73.31
386.013	85.31
386.238	81.31
386.463	79.31
386.688	92.31
386.913	89.31
387.138	86.31
387.363	88.31
387.588	91.31
387.813	84.31
388.038	82.31
388.263	82.31
388.488	81.31
388.713	93.31
388.938	93.31
389.163	96.31
389.387	55.31
389.612	84.31
389.837	90.31
390.062	91.31
390.287	95.31
390.512	92.31
390.736	90.31
390.961	84.31
391.186	114.31
391.411	78.31
391.636	84.31
391.86	84.31
392.085	88.31
392.31	80.31
392.534	76.31
392.759	81.31
392.984	89.31
393.208	91.31
393.433	81.31
393.658	96.31
393.882	81.31
394.107	75.31
394.331	85.31
394.556	90.31
394.78	81.31
395.005	84.31
395.229	80.31
395.454	87.31
395.678	84.31
395.903	77.31
396.127	77.31
396.352	98.31
396.576	81.31
396.801	93.31
397.025	96.31
397.249	90.31
397.474	92.31
397.698	89.31
397.922	95.31
398.147	92.31
398.371	85.31
398.595	77.31
398.82	91.31
399.044	94.31
399.268	102.31
399.492	87.31
399.717	83.31
399.941	105.31
400.165	81.31
400.389	90.31
400.613	84.31
400.837	90.31
401.062	81.31
401.286	102.31
401.51	75.31
401.734	87.31
401.958	92.31
402.182	86.31
402.406	78.31
402.63	88.31
402.854	91.31
403.078	99.31
403.302	79.31
403.526	88.31
403.75	86.31
403.974	84.31
404.198	82.31
404.422	88.31
404.645	93.31
404.869	101.31
405.093	82.31
405.317	86.31
405.541	100.31
405.765	92.31
405.988	94.31
406.212	96.31
406.436	78.31
406.66	85.31
406.883	93.31
407.107	95.31
407.331	94.31
407.555	86.31
407.778	81.31
408.002	100.31
408.226	98.31
408.449	78.31
408.673	89.31
408.896	93.31
409.12	89.31
409.344	94.31
409.567	90.31
409.791	99.31
410.014	100.31
410.238	90.31
410.461	92.31
410.685	82.31
410.908	80.31
411.132	92.31
411.355	92.31
411.578	82.31
411.802	89.31
412.025	75.31
412.249	90.31
412.472	65.31
412.695	89.31
412.919	80.31
413.142	77.31
413.365	90.31
413.589	90.31
413.812	82.31
414.035	99.31
414.258	75.31
414.482	96.31
414.705	96.31
414.928	104.31
415.151	97.31
415.374	92.31
415.597	92.31
415.821	91.31
416.044	89.31
416.267	96.31
416.49	83.31
416.713	93.31
416.936	87.31
417.159	95.31
417.382	102.31
417.605	82.31
417.828	68.31
418.051	92.31
418.274	98.31
418.497	93.31
418.72	88.31
418.943	97.31
419.166	106.31
419.389	97.31
419.611	90.31
419.834	87.31
420.057	92.31
420.28	99.31
420.503	95.31
420.726	86.31
420.948	80.31
421.171	95.31
421.394	77.31
421.617	92.31
421.839	80.31
422.062	74.31
422.285	88.31
422.507	84.31
422.73	94.31
422.953	85.31
423.175	94.31
423.398	96.31
423.621	86.31
423.843	82.31
424.066	83.31
424.288	84.31
424.511	93.31
424.733	95.31
424.956	94.31
425.178	89.31
425.401	86.31
425.623	79.31
425.846	74.31
426.068	82.31
426.291	87.31
426.513	92.31
426.735	86.31
426.958	92.31
427.18	97.31
427.402	104.31
427.625	95.31
427.847	108.31
428.069	86.31
428.292	85.31
428.514	86.31
428.736	86.31
428.958	91.31
429.181	78.31
429.403	95.31
429.625	80.31
429.847	92.31
430.069	86.31
430.292	102.31
430.514	80.31
430.736	88.31
430.958	88.31
431.18	88.31
431.402	95.31
431.624	90.31
431.846	73.31
432.068	95.31
432.29	84.31
432.512	86.31
432.734	86.31
432.956	91.31
433.178	84.31
433.4	70.31
433.622	74.31
433.844	93.31
434.066	90.31
434.287	72.31
434.509	82.31
434.731	87.31
434.953	65.31
435.175	85.31
435.397	87.31
435.618	104.31
435.84	86.31
436.062	83.31
436.284	86.31
436.505	90.31
436.727	83.31
436.949	97.31
437.17	94.31
437.392	89.31
437.614	94.31
437.835	77.31
438.057	74.31
438.278	95.31
438.5	82.31
438.721	82.31
438.943	80.31
439.165	92.31
439.386	90.31
439.608	89.31
439.829	77.31
440.05	102.31
440.272	79.31
440.493	87.31
440.715	83.31
440.936	100.31
441.158	91.31
441.379	96.31
441.6	80.31
441.822	86.31
442.043	87.31
442.264	80.31
442.486	93.31
442.707	104.31
442.928	98.31
443.149	84.31
443.371	94.31
443.592	88.31
443.813	81.31
444.034	92.31
444.255	83.31
444.476	95.31
444.698	84.31
444.919	95.31
445.14	158.31
445.361	134.31
445.582	79.31
445.803	72.31
446.024	91.31
446.245	94.31
446.466	74.31
446.687	87.31
446.908	92.31
447.129	86.31
447.35	82.31
447.571	82.31
447.792	74.31
448.013	71.31
448.234	80.31
448.455	78.31
448.675	92.31
448.896	94.31
449.117	86.31
449.338	81.31
449.559	85.31
449.779	74.31
450	75.31
450.221	68.31
450.442	76.31
450.662	76.31
450.883	86.31
451.104	89.31
451.324	86.31
451.545	74.31
451.766	92.31
451.986	91.31
452.207	86.31
452.428	91.31
452.648	78.31
452.869	82.31
453.089	111.31
453.31	98.31
453.53	78.31
453.751	86.31
453.971	83.31
454.192	99.31
454.412	84.31
454.633	80.31
454.853	102.31
455.073	87.31
455.294	100.31
455.514	96.31
455.734	87.31
455.955	82.31
456.175	78.31
456.395	88.31
456.616	95.31
456.836	89.31
457.056	88.31
457.276	82.31
457.497	82.31
457.717	74.31
457.937	95.31
458.157	77.31
458.377	82.31
458.598	106.31
458.818	97.31
459.038	89.31
459.258	87.31
459.478	94.31
459.698	88.31
459.918	73.31
460.138	105.31
460.358	92.31
460.578	79.31
460.798	81.31
461.018	86.31
461.238	92.31
461.458	91.31
461.678	95.31
461.898	97.31
462.118	97.31
462.338	103.31
462.558	90.31
462.777	106.31
462.997	71.31
463.217	84.31
463.437	87.31
463.657	74.31
463.876	95.31
464.096	82.31
464.316	90.31
464.536	97.31
464.755	101.31
464.975	82.31
465.195	94.31
465.414	91.31
465.634	90.31
465.854	74.31
466.073	103.31
466.293	97.31
466.512	96.31
466.732	105.31
466.951	91.31
467.171	93.31
467.391	104.31
467.61	78.31
467.829	82.31
468.049	74.31
468.268	82.31
468.488	91.31
468.707	86.31
468.927	91.31
469.146	81.31
469.365	78.31
469.585	73.31
469.804	78.31
470.023	84.31
470.243	84.31
470.462	92.31
470.681	92.31
470.901	82.31
471.12	68.31
471.339	88.31
471.558	94.31
471.777	72.31
471.997	78.31
472.216	87.31
472.435	86.31
472.654	85.31
472.873	84.31
473.092	84.31
473.311	86.31
473.53	88.31
473.749	89.31
473.968	89.31
474.187	104.31
474.406	92.31
474.625	106.31
474.844	107.31
475.063	80.31
475.282	99.31
475.501	93.31
475.72	95.31
475.939	78.31
476.158	89.31
476.377	90.31
476.596	78.31
476.814	94.31
477.033	90.31
477.252	93.31
477.471	94.31
477.69	96.31
477.908	80.31
478.127	88.31
478.346	91.31
478.564	93.31
478.783	89.31
479.002	95.31
479.22	98.31
479.439	86.31
479.658	99.31
479.876	94.31
480.095	104.31
480.313	89.31
480.532	104.31
480.751	85.31
480.969	89.31
481.188	80.31
481.406	83.31
481.624	77.31
481.843	102.31
482.061	84.31
482.28	92.31
482.498	96.31
482.717	97.31
482.935	96.31
483.153	90.31
483.372	97.31
483.59	93.31
483.808	98.31
484.027	96.31
484.245	82.31
484.463	87.31
484.681	95.31
484.9	93.31
485.118	101.31
485.336	95.31
485.554	80.31
485.772	94.31
485.99	92.31
486.209	106.31
486.427	96.31
486.645	79.31
486.863	73.31
487.081	100.31
487.299	97.31
487.517	102.31
487.735	91.31
487.953	96.31
488.171	88.31
488.389	82.31
488.607	93.31
488.825	87.31
489.043	88.31
489.261	107.31
489.479	99.31
489.696	96.31
489.914	95.31
490.132	90.31
490.35	92.31
490.568	84.31
490.786	76.31
491.003	85.31
491.221	80.31
491.439	76.31
491.657	82.31
491.874	98.31
492.092	88.31
492.31	97.31
492.527	82.31
492.745	89.31
492.963	72.31
493.18	85.31
493.398	91.31
493.615	90.31
493.833	90.31
494.05	91.31
494.268	117.31
494.485	88.31
494.703	83.31
494.92	79.31
495.138	76.31
495.355	107.31
495.573	96.31
495.79	89.31
496.008	98.31
496.225	103.31
496.442	99.31
496.66	94.31
496.877	87.31
497.094	89.31
497.312	98.31
497.529	84.31
497.746	99.31
497.963	100.31
498.181	86.31
498.398	98.31
498.615	86.31
498.832	87.31
499.049	93.31
499.267	110.31
499.484	101.31
499.701	104.31
499.918	109.31
500.135	106.31
500.352	108.31
500.569	113.31
500.786	109.31
501.003	110.31
501.22	105.31
501.437	115.31
501.654	97.31
501.871	108.31
502.088	96.31
502.305	95.31
502.522	77.31
502.739	106.31
502.956	82.31
503.172	97.31
503.389	82.31
503.606	93.31
503.823	83.31
504.04	98.31
504.256	98.31
504.473	96.31
504.69	103.31
504.907	92.31
505.123	92.31
505.34	81.31
505.557	100.31
505.773	110.31
505.99	87.31
506.207	89.31
506.423	75.31
506.64	95.31
506.856	90.31
507.073	91.31
507.289	89.31
507.506	90.31
507.722	91.31
507.939	80.31
508.155	82.31
508.372	87.31
508.588	87.31
508.805	91.31
509.021	77.31
509.238	86.31
509.454	97.31
509.67	87.31
509.887	86.31
510.103	100.31
510.319	74.31
510.536	90.31
510.752	79.31
510.968	86.31
511.184	91.31
511.401	78.31
511.617	92.31
511.833	86.31
512.049	91.31
512.265	96.31
512.481	87.31
512.698	86.31
512.914	86.31
513.13	87.31
513.346	103.31
513.562	101.31
513.778	90.31
513.994	90.31
514.21	90.31
514.426	98.31
514.642	92.31
514.858	96.31
515.074	92.31
515.29	100.31
515.506	80.31
515.721	96.31
515.937	95.31
516.153	69.31
516.369	83.31
516.585	81.31
516.801	103.31
517.016	91.31
517.232	95.31
517.448	95.31
517.664	91.31
517.879	79.31
518.095	92.31
518.311	92.31
518.527	80.31
518.742	86.31
518.958	82.31
