Data from BG_HRD10591_092.txt Node
Date: Fri May 16 15:33:52 EDT 2025
User: Yrep
Spectrometer: HR+D1059
Trigger mode: 1
Integration Time (sec): 1.000000E-1
Scans to average: 1
Electric dark correction enabled: true
Nonlinearity correction enabled: false
Boxcar width: 0
XAxis mode: Wavelengths
Number of Pixels in Spectrum: 2048
>>>>>Begin Spectral Data<<<<<
223.165	-15.88
223.4	-15.88
223.635	-15.88
223.869	-17.88
224.104	-27.88
224.338	-11.88
224.573	-7.88
224.808	-12.88
225.042	-2.88
225.277	7.12
225.511	1.12
225.746	-0.88
225.98	7.12
226.215	4.12
226.449	6.12
226.683	21.12
226.918	26.12
227.152	25.12
227.387	50.12
227.621	41.12
227.856	37.12
228.09	34.12
228.324	47.12
228.559	50.12
228.793	49.12
229.027	57.12
229.262	50.12
229.496	72.12
229.73	72.12
229.964	72.12
230.199	78.12
230.433	61.12
230.667	80.12
230.901	79.12
231.136	69.12
231.37	68.12
231.604	75.12
231.838	67.12
232.072	72.12
232.306	66.12
232.541	64.12
232.775	74.12
233.009	78.12
233.243	66.12
233.477	93.12
233.711	94.12
233.945	84.12
234.179	85.12
234.413	73.12
234.647	76.12
234.881	67.12
235.115	79.12
235.349	79.12
235.583	70.12
235.817	72.12
236.051	80.12
236.285	73.12
236.519	74.12
236.753	79.12
236.987	65.12
237.221	70.12
237.455	60.12
237.689	75.12
237.922	74.12
238.156	64.12
238.39	70.12
238.624	73.12
238.858	72.12
239.091	67.12
239.325	62.12
239.559	59.12
239.793	65.12
240.027	75.12
240.26	72.12
240.494	83.12
240.728	81.12
240.961	74.12
241.195	74.12
241.429	83.12
241.662	75.12
241.896	73.12
242.13	78.12
242.363	76.12
242.597	78.12
242.83	84.12
243.064	69.12
243.298	72.12
243.531	79.12
243.765	88.12
243.998	66.12
244.232	81.12
244.465	79.12
244.699	75.12
244.932	84.12
245.166	69.12
245.399	75.12
245.633	64.12
245.866	76.12
246.099	73.12
246.333	76.12
246.566	74.12
246.8	91.12
247.033	70.12
247.266	82.12
247.5	65.12
247.733	70.12
247.966	69.12
248.2	85.12
248.433	66.12
248.666	79.12
248.899	56.12
249.133	76.12
249.366	76.12
249.599	85.12
249.832	80.12
250.066	71.12
250.299	80.12
250.532	80.12
250.765	86.12
250.998	67.12
251.231	78.12
251.465	72.12
251.698	78.12
251.931	70.12
252.164	79.12
252.397	74.12
252.63	78.12
252.863	66.12
253.096	74.12
253.329	71.12
253.562	74.12
253.795	89.12
254.028	68.12
254.261	74.12
254.494	78.12
254.727	94.12
254.96	85.12
255.193	80.12
255.426	77.12
255.659	79.12
255.892	78.12
256.124	82.12
256.357	70.12
256.59	91.12
256.823	82.12
257.056	74.12
257.289	55.12
257.521	71.12
257.754	83.12
257.987	91.12
258.22	89.12
258.452	69.12
258.685	74.12
258.918	78.12
259.151	71.12
259.383	84.12
259.616	72.12
259.849	85.12
260.081	69.12
260.314	80.12
260.547	69.12
260.779	74.12
261.012	78.12
261.244	66.12
261.477	82.12
261.71	77.12
261.942	74.12
262.175	86.12
262.407	89.12
262.64	82.12
262.872	89.12
263.105	72.12
263.337	89.12
263.57	83.12
263.802	91.12
264.035	79.12
264.267	80.12
264.499	67.12
264.732	85.12
264.964	80.12
265.197	77.12
265.429	84.12
265.661	82.12
265.894	76.12
266.126	69.12
266.358	84.12
266.591	70.12
266.823	65.12
267.055	70.12
267.287	99.12
267.52	70.12
267.752	77.12
267.984	97.12
268.216	73.12
268.448	79.12
268.681	69.12
268.913	79.12
269.145	70.12
269.377	84.12
269.609	73.12
269.841	74.12
270.073	91.12
270.306	80.12
270.538	90.12
270.77	81.12
271.002	82.12
271.234	92.12
271.466	79.12
271.698	71.12
271.93	80.12
272.162	90.12
272.394	78.12
272.626	87.12
272.858	76.12
273.09	76.12
273.322	88.12
273.553	79.12
273.785	90.12
274.017	81.12
274.249	81.12
274.481	81.12
274.713	89.12
274.945	83.12
275.176	73.12
275.408	92.12
275.64	80.12
275.872	84.12
276.104	86.12
276.335	89.12
276.567	82.12
276.799	80.12
277.031	59.12
277.262	86.12
277.494	77.12
277.726	85.12
277.957	78.12
278.189	70.12
278.421	80.12
278.652	89.12
278.884	77.12
279.115	81.12
279.347	85.12
279.579	78.12
279.81	71.12
280.042	88.12
280.273	94.12
280.505	86.12
280.736	85.12
280.968	79.12
281.199	78.12
281.431	78.12
281.662	82.12
281.894	76.12
282.125	71.12
282.356	62.12
282.588	73.12
282.819	93.12
283.051	82.12
283.282	82.12
283.513	88.12
283.745	93.12
283.976	77.12
284.207	80.12
284.439	70.12
284.67	81.12
284.901	86.12
285.132	79.12
285.364	86.12
285.595	101.12
285.826	92.12
286.057	92.12
286.288	75.12
286.52	89.12
286.751	93.12
286.982	82.12
287.213	78.12
287.444	78.12
287.675	77.12
287.906	72.12
288.138	77.12
288.369	85.12
288.6	87.12
288.831	72.12
289.062	77.12
289.293	92.12
289.524	58.12
289.755	76.12
289.986	98.12
290.217	85.12
290.448	85.12
290.679	88.12
290.91	81.12
291.141	84.12
291.371	86.12
291.602	92.12
291.833	76.12
292.064	82.12
292.295	95.12
292.526	92.12
292.757	90.12
292.987	94.12
293.218	86.12
293.449	85.12
293.68	77.12
293.91	79.12
294.141	92.12
294.372	94.12
294.603	78.12
294.833	80.12
295.064	76.12
295.295	87.12
295.525	81.12
295.756	92.12
295.987	101.12
296.217	90.12
296.448	79.12
296.679	89.12
296.909	87.12
297.14	84.12
297.37	79.12
297.601	92.12
297.831	82.12
298.062	90.12
298.292	78.12
298.523	81.12
298.753	82.12
298.984	81.12
299.214	80.12
299.445	111.12
299.675	90.12
299.905	78.12
300.136	92.12
300.366	86.12
300.597	96.12
300.827	90.12
301.057	88.12
301.288	61.12
301.518	83.12
301.748	85.12
301.979	95.12
302.209	90.12
302.439	89.12
302.669	81.12
302.9	87.12
303.13	73.12
303.36	101.12
303.59	80.12
303.82	96.12
304.051	88.12
304.281	99.12
304.511	90.12
304.741	80.12
304.971	78.12
305.201	96.12
305.431	86.12
305.661	80.12
305.891	81.12
306.121	74.12
306.352	91.12
306.582	86.12
306.812	102.12
307.042	88.12
307.272	62.12
307.502	62.12
307.731	83.12
307.961	84.12
308.191	78.12
308.421	82.12
308.651	87.12
308.881	87.12
309.111	93.12
309.341	83.12
309.571	76.12
309.8	100.12
310.03	92.12
310.26	79.12
310.49	83.12
310.72	96.12
310.949	82.12
311.179	97.12
311.409	71.12
311.639	66.12
311.868	86.12
312.098	86.12
312.328	88.12
312.557	88.12
312.787	88.12
313.017	65.12
313.246	80.12
313.476	84.12
313.706	84.12
313.935	84.12
314.165	70.12
314.394	86.12
314.624	88.12
314.853	95.12
315.083	90.12
315.312	84.12
315.542	86.12
315.771	80.12
316.001	84.12
316.23	80.12
316.46	93.12
316.689	100.12
316.919	95.12
317.148	92.12
317.377	75.12
317.607	92.12
317.836	79.12
318.065	89.12
318.295	81.12
318.524	75.12
318.753	89.12
318.983	80.12
319.212	71.12
319.441	82.12
319.67	72.12
319.9	71.12
320.129	72.12
320.358	88.12
320.587	79.12
320.816	78.12
321.046	84.12
321.275	82.12
321.504	79.12
321.733	84.12
321.962	70.12
322.191	88.12
322.42	83.12
322.649	78.12
322.878	76.12
323.108	92.12
323.337	86.12
323.566	93.12
323.795	88.12
324.024	88.12
324.253	88.12
324.482	81.12
324.71	78.12
324.939	87.12
325.168	76.12
325.397	81.12
325.626	75.12
325.855	82.12
326.084	89.12
326.313	86.12
326.542	71.12
326.77	98.12
326.999	80.12
327.228	85.12
327.457	93.12
327.686	71.12
327.914	87.12
328.143	88.12
328.372	88.12
328.6	84.12
328.829	88.12
329.058	84.12
329.287	99.12
329.515	77.12
329.744	80.12
329.972	88.12
330.201	86.12
330.43	66.12
330.658	96.12
330.887	84.12
331.115	85.12
331.344	92.12
331.572	92.12
331.801	80.12
332.03	82.12
332.258	85.12
332.486	82.12
332.715	80.12
332.943	92.12
333.172	82.12
333.4	101.12
333.629	90.12
333.857	79.12
334.085	78.12
334.314	90.12
334.542	82.12
334.771	81.12
334.999	87.12
335.227	67.12
335.455	83.12
335.684	75.12
335.912	97.12
336.14	100.12
336.369	86.12
336.597	78.12
336.825	76.12
337.053	86.12
337.281	93.12
337.51	90.12
337.738	83.12
337.966	81.12
338.194	94.12
338.422	85.12
338.65	83.12
338.878	90.12
339.106	82.12
339.334	86.12
339.562	92.12
339.79	86.12
340.018	84.12
340.246	72.12
340.474	82.12
340.702	105.12
340.93	69.12
341.158	78.12
341.386	79.12
341.614	88.12
341.842	94.12
342.07	79.12
342.298	94.12
342.526	84.12
342.754	85.12
342.981	92.12
343.209	85.12
343.437	91.12
343.665	74.12
343.893	89.12
344.12	86.12
344.348	87.12
344.576	87.12
344.804	92.12
345.031	85.12
345.259	80.12
345.487	87.12
345.714	80.12
345.942	81.12
346.17	86.12
346.397	98.12
346.625	83.12
346.853	81.12
347.08	90.12
347.308	88.12
347.535	87.12
347.763	82.12
347.99	84.12
348.218	95.12
348.445	86.12
348.673	78.12
348.9	92.12
349.128	73.12
349.355	98.12
349.583	82.12
349.81	86.12
350.037	81.12
350.265	69.12
350.492	73.12
350.72	72.12
350.947	93.12
351.174	88.12
351.402	88.12
351.629	80.12
351.856	80.12
352.083	100.12
352.311	85.12
352.538	75.12
352.765	74.12
352.992	82.12
353.22	83.12
353.447	82.12
353.674	69.12
353.901	80.12
354.128	84.12
354.355	81.12
354.583	88.12
354.81	77.12
355.037	100.12
355.264	85.12
355.491	90.12
355.718	94.12
355.945	72.12
356.172	89.12
356.399	85.12
356.626	100.12
356.853	101.12
357.08	92.12
357.307	96.12
357.534	93.12
357.761	88.12
357.988	89.12
358.215	74.12
358.441	79.12
358.668	76.12
358.895	77.12
359.122	86.12
359.349	76.12
359.576	85.12
359.802	83.12
360.029	96.12
360.256	76.12
360.483	72.12
360.709	87.12
360.936	96.12
361.163	72.12
361.39	90.12
361.616	84.12
361.843	84.12
362.07	96.12
362.296	102.12
362.523	87.12
362.749	88.12
362.976	87.12
363.203	85.12
363.429	72.12
363.656	72.12
363.882	84.12
364.109	72.12
364.335	65.12
364.562	88.12
364.788	85.12
365.015	83.12
365.241	93.12
365.468	85.12
365.694	93.12
365.92	94.12
366.147	81.12
366.373	74.12
366.599	68.12
366.826	74.12
367.052	74.12
367.278	88.12
367.505	81.12
367.731	80.12
367.957	76.12
368.184	82.12
368.41	70.12
368.636	72.12
368.862	76.12
369.089	72.12
369.315	87.12
369.541	85.12
369.767	79.12
369.993	85.12
370.219	92.12
370.445	78.12
370.672	87.12
370.898	78.12
371.124	70.12
371.35	81.12
371.576	84.12
371.802	80.12
372.028	88.12
372.254	78.12
372.48	85.12
372.706	92.12
372.932	79.12
373.158	80.12
373.384	77.12
373.61	78.12
373.835	90.12
374.061	88.12
374.287	75.12
374.513	96.12
374.739	72.12
374.965	96.12
375.191	77.12
375.416	81.12
375.642	95.12
375.868	98.12
376.094	80.12
376.319	84.12
376.545	85.12
376.771	78.12
376.997	94.12
377.222	93.12
377.448	83.12
377.674	76.12
377.899	92.12
378.125	88.12
378.35	88.12
378.576	89.12
378.802	76.12
379.027	93.12
379.253	93.12
379.478	89.12
379.704	84.12
379.929	79.12
380.155	77.12
380.38	78.12
380.606	89.12
380.831	90.12
381.057	86.12
381.282	81.12
381.507	80.12
381.733	81.12
381.958	88.12
382.184	86.12
382.409	84.12
382.634	90.12
382.86	67.12
383.085	81.12
383.31	73.12
383.535	80.12
383.761	104.12
383.986	86.12
384.211	77.12
384.436	90.12
384.662	90.12
384.887	97.12
385.112	86.12
385.337	93.12
385.562	91.12
385.787	74.12
386.013	84.12
386.238	85.12
386.463	94.12
386.688	92.12
386.913	71.12
387.138	84.12
387.363	82.12
387.588	74.12
387.813	84.12
388.038	86.12
388.263	86.12
388.488	75.12
388.713	80.12
388.938	87.12
389.163	93.12
389.387	82.12
389.612	96.12
389.837	89.12
390.062	80.12
390.287	88.12
390.512	89.12
390.736	84.12
390.961	70.12
391.186	77.12
391.411	73.12
391.636	75.12
391.86	75.12
392.085	82.12
392.31	81.12
392.534	96.12
392.759	89.12
392.984	77.12
393.208	84.12
393.433	92.12
393.658	93.12
393.882	86.12
394.107	91.12
394.331	83.12
394.556	87.12
394.78	91.12
395.005	81.12
395.229	80.12
395.454	81.12
395.678	89.12
395.903	96.12
396.127	70.12
396.352	93.12
396.576	84.12
396.801	106.12
397.025	74.12
397.249	85.12
397.474	89.12
397.698	79.12
397.922	84.12
398.147	74.12
398.371	93.12
398.595	83.12
398.82	87.12
399.044	85.12
399.268	76.12
399.492	82.12
399.717	86.12
399.941	95.12
400.165	70.12
400.389	100.12
400.613	81.12
400.837	81.12
401.062	73.12
401.286	96.12
401.51	73.12
401.734	77.12
401.958	83.12
402.182	91.12
402.406	98.12
402.63	92.12
402.854	94.12
403.078	84.12
403.302	83.12
403.526	86.12
403.75	90.12
403.974	96.12
404.198	103.12
404.422	85.12
404.645	74.12
404.869	92.12
405.093	77.12
405.317	79.12
405.541	94.12
405.765	78.12
405.988	78.12
406.212	85.12
406.436	89.12
406.66	79.12
406.883	71.12
407.107	84.12
407.331	94.12
407.555	82.12
407.778	89.12
408.002	92.12
408.226	74.12
408.449	86.12
408.673	78.12
408.896	78.12
409.12	78.12
409.344	81.12
409.567	83.12
409.791	92.12
410.014	85.12
410.238	78.12
410.461	93.12
410.685	84.12
410.908	97.12
411.132	91.12
411.355	77.12
411.578	75.12
411.802	72.12
412.025	91.12
412.249	87.12
412.472	78.12
412.695	92.12
412.919	94.12
413.142	82.12
413.365	94.12
413.589	92.12
413.812	88.12
414.035	85.12
414.258	74.12
414.482	79.12
414.705	87.12
414.928	84.12
415.151	90.12
415.374	70.12
415.597	91.12
415.821	91.12
416.044	83.12
416.267	92.12
416.49	81.12
416.713	80.12
416.936	86.12
417.159	82.12
417.382	84.12
417.605	90.12
417.828	96.12
418.051	92.12
418.274	90.12
418.497	85.12
418.72	88.12
418.943	82.12
419.166	90.12
419.389	66.12
419.611	88.12
419.834	69.12
420.057	81.12
420.28	85.12
420.503	95.12
420.726	87.12
420.948	69.12
421.171	72.12
421.394	75.12
421.617	85.12
421.839	74.12
422.062	82.12
422.285	82.12
422.507	76.12
422.73	79.12
422.953	94.12
423.175	77.12
423.398	88.12
423.621	92.12
423.843	77.12
424.066	94.12
424.288	87.12
424.511	92.12
424.733	72.12
424.956	82.12
425.178	81.12
425.401	72.12
425.623	84.12
425.846	85.12
426.068	76.12
426.291	89.12
426.513	92.12
426.735	82.12
426.958	95.12
427.18	88.12
427.402	76.12
427.625	88.12
427.847	72.12
428.069	85.12
428.292	74.12
428.514	87.12
428.736	71.12
428.958	75.12
429.181	75.12
429.403	89.12
429.625	73.12
429.847	83.12
430.069	84.12
430.292	88.12
430.514	80.12
430.736	75.12
430.958	86.12
431.18	94.12
431.402	97.12
431.624	102.12
431.846	78.12
432.068	97.12
432.29	80.12
432.512	80.12
432.734	76.12
432.956	88.12
433.178	102.12
433.4	77.12
433.622	95.12
433.844	101.12
434.066	82.12
434.287	73.12
434.509	85.12
434.731	102.12
434.953	86.12
435.175	89.12
435.397	91.12
435.618	85.12
435.84	79.12
436.062	59.12
436.284	87.12
436.505	101.12
436.727	73.12
436.949	76.12
437.17	78.12
437.392	86.12
437.614	96.12
437.835	87.12
438.057	81.12
438.278	82.12
438.5	71.12
438.721	90.12
438.943	86.12
439.165	84.12
439.386	75.12
439.608	86.12
439.829	76.12
440.05	82.12
440.272	75.12
440.493	84.12
440.715	86.12
440.936	83.12
441.158	93.12
441.379	83.12
441.6	85.12
441.822	80.12
442.043	71.12
442.264	70.12
442.486	67.12
442.707	91.12
442.928	102.12
443.149	93.12
443.371	76.12
443.592	88.12
443.813	85.12
444.034	88.12
444.255	89.12
444.476	79.12
444.698	81.12
444.919	88.12
445.14	152.12
445.361	112.12
445.582	80.12
445.803	91.12
446.024	84.12
446.245	79.12
446.466	92.12
446.687	86.12
446.908	78.12
447.129	82.12
447.35	94.12
447.571	75.12
447.792	79.12
448.013	82.12
448.234	71.12
448.455	85.12
448.675	81.12
448.896	77.12
449.117	79.12
449.338	81.12
449.559	92.12
449.779	84.12
450	78.12
450.221	80.12
450.442	77.12
450.662	81.12
450.883	85.12
451.104	80.12
451.324	87.12
451.545	87.12
451.766	82.12
451.986	77.12
452.207	87.12
452.428	78.12
452.648	77.12
452.869	79.12
453.089	82.12
453.31	88.12
453.53	87.12
453.751	86.12
453.971	72.12
454.192	92.12
454.412	84.12
454.633	74.12
454.853	71.12
455.073	85.12
455.294	86.12
455.514	84.12
455.734	76.12
455.955	81.12
456.175	79.12
456.395	80.12
456.616	73.12
456.836	78.12
457.056	77.12
457.276	86.12
457.497	98.12
457.717	93.12
457.937	89.12
458.157	71.12
458.377	74.12
458.598	76.12
458.818	100.12
459.038	82.12
459.258	92.12
459.478	89.12
459.698	91.12
459.918	93.12
460.138	68.12
460.358	80.12
460.578	97.12
460.798	92.12
461.018	80.12
461.238	87.12
461.458	79.12
461.678	72.12
461.898	85.12
462.118	90.12
462.338	91.12
462.558	86.12
462.777	84.12
462.997	93.12
463.217	102.12
463.437	92.12
463.657	83.12
463.876	83.12
464.096	72.12
464.316	75.12
464.536	72.12
464.755	93.12
464.975	82.12
465.195	97.12
465.414	87.12
465.634	73.12
465.854	78.12
466.073	68.12
466.293	86.12
466.512	77.12
466.732	82.12
466.951	78.12
467.171	90.12
467.391	64.12
467.61	80.12
467.829	69.12
468.049	91.12
468.268	94.12
468.488	81.12
468.707	80.12
468.927	94.12
469.146	85.12
469.365	81.12
469.585	87.12
469.804	97.12
470.023	89.12
470.243	88.12
470.462	81.12
470.681	86.12
470.901	94.12
471.12	86.12
471.339	81.12
471.558	91.12
471.777	81.12
471.997	78.12
472.216	78.12
472.435	87.12
472.654	77.12
472.873	89.12
473.092	76.12
473.311	88.12
473.53	80.12
473.749	90.12
473.968	74.12
474.187	84.12
474.406	82.12
474.625	97.12
474.844	73.12
475.063	87.12
475.282	77.12
475.501	97.12
475.72	79.12
475.939	78.12
476.158	85.12
476.377	88.12
476.596	81.12
476.814	87.12
477.033	80.12
477.252	70.12
477.471	90.12
477.69	89.12
477.908	85.12
478.127	88.12
478.346	77.12
478.564	100.12
478.783	90.12
479.002	79.12
479.22	76.12
479.439	88.12
479.658	80.12
479.876	72.12
480.095	94.12
480.313	91.12
480.532	96.12
480.751	81.12
480.969	85.12
481.188	82.12
481.406	84.12
481.624	82.12
481.843	63.12
482.061	87.12
482.28	92.12
482.498	86.12
482.717	77.12
482.935	89.12
483.153	84.12
483.372	89.12
483.59	76.12
483.808	79.12
484.027	79.12
484.245	85.12
484.463	74.12
484.681	89.12
484.9	85.12
485.118	90.12
485.336	85.12
485.554	76.12
485.772	78.12
485.99	85.12
486.209	77.12
486.427	87.12
486.645	90.12
486.863	86.12
487.081	81.12
487.299	74.12
487.517	85.12
487.735	88.12
487.953	68.12
488.171	85.12
488.389	71.12
488.607	82.12
488.825	88.12
489.043	88.12
489.261	91.12
489.479	84.12
489.696	75.12
489.914	78.12
490.132	87.12
490.35	89.12
490.568	84.12
490.786	75.12
491.003	88.12
491.221	73.12
491.439	76.12
491.657	93.12
491.874	85.12
492.092	97.12
492.31	89.12
492.527	81.12
492.745	91.12
492.963	78.12
493.18	78.12
493.398	70.12
493.615	80.12
493.833	85.12
494.05	85.12
494.268	89.12
494.485	84.12
494.703	79.12
494.92	78.12
495.138	72.12
495.355	85.12
495.573	88.12
495.79	93.12
496.008	101.12
496.225	74.12
496.442	76.12
496.66	95.12
496.877	88.12
497.094	86.12
497.312	87.12
497.529	85.12
497.746	78.12
497.963	77.12
498.181	103.12
498.398	89.12
498.615	93.12
498.832	78.12
499.049	86.12
499.267	97.12
499.484	87.12
499.701	95.12
499.918	92.12
500.135	93.12
500.352	105.12
500.569	94.12
500.786	108.12
501.003	99.12
501.22	108.12
501.437	105.12
501.654	96.12
501.871	97.12
502.088	90.12
502.305	88.12
502.522	106.12
502.739	88.12
502.956	94.12
503.172	85.12
503.389	94.12
503.606	94.12
503.823	85.12
504.04	90.12
504.256	76.12
504.473	105.12
504.69	94.12
504.907	93.12
505.123	85.12
505.34	88.12
505.557	81.12
505.773	84.12
505.99	80.12
506.207	89.12
506.423	92.12
506.64	81.12
506.856	82.12
507.073	84.12
507.289	82.12
507.506	90.12
507.722	92.12
507.939	85.12
508.155	81.12
508.372	74.12
508.588	80.12
508.805	85.12
509.021	79.12
509.238	96.12
509.454	84.12
509.67	78.12
509.887	81.12
510.103	83.12
510.319	90.12
510.536	96.12
510.752	90.12
510.968	67.12
511.184	72.12
511.401	93.12
511.617	92.12
511.833	78.12
512.049	76.12
512.265	85.12
512.481	95.12
512.698	81.12
512.914	93.12
513.13	72.12
513.346	81.12
513.562	80.12
513.778	87.12
513.994	78.12
514.21	100.12
514.426	78.12
514.642	88.12
514.858	84.12
515.074	71.12
515.29	93.12
515.506	79.12
515.721	75.12
515.937	93.12
516.153	81.12
516.369	75.12
516.585	87.12
516.801	84.12
517.016	81.12
517.232	93.12
517.448	80.12
517.664	85.12
517.879	81.12
518.095	95.12
518.311	77.12
518.527	103.12
518.742	89.12
518.958	96.12
519.173	86.12
519.389	88.12
519.605	98.12
519.82	77.12
