Data from BG_HRD10591_076.txt Node
Date: Fri May 16 15:33:45 EDT 2025
User: Yrep
Spectrometer: HR+D1059
Trigger mode: 1
Integration Time (sec): 1.000000E-1
Scans to average: 1
Electric dark correction enabled: true
Nonlinearity correction enabled: false
Boxcar width: 0
XAxis mode: Wavelengths
Number of Pixels in Spectrum: 2048
>>>>>Begin Spectral Data<<<<<
223.165	-18.56
223.4	-18.56
223.635	-18.56
223.869	-26.56
224.104	-15.56
224.338	-10.56
224.573	-13.56
224.808	-25.56
225.042	3.44
225.277	-15.56
225.511	-9.56
225.746	2.44
225.98	9.44
226.215	11.44
226.449	7.44
226.683	24.44
226.918	40.44
227.152	36.44
227.387	56.44
227.621	42.44
227.856	42.44
228.09	48.44
228.324	44.44
228.559	51.44
228.793	50.44
229.027	56.44
229.262	68.44
229.496	52.44
229.73	69.44
229.964	66.44
230.199	73.44
230.433	73.44
230.667	83.44
230.901	74.44
231.136	79.44
231.37	78.44
231.604	78.44
231.838	69.44
232.072	80.44
232.306	76.44
232.541	73.44
232.775	65.44
233.009	80.44
233.243	85.44
233.477	96.44
233.711	100.44
233.945	76.44
234.179	84.44
234.413	80.44
234.647	89.44
234.881	79.44
235.115	71.44
235.349	72.44
235.583	73.44
235.817	78.44
236.051	71.44
236.285	81.44
236.519	78.44
236.753	65.44
236.987	72.44
237.221	84.44
237.455	63.44
237.689	88.44
237.922	57.44
238.156	89.44
238.39	77.44
238.624	57.44
238.858	63.44
239.091	68.44
239.325	80.44
239.559	93.44
239.793	72.44
240.027	66.44
240.26	77.44
240.494	64.44
240.728	73.44
240.961	71.44
241.195	85.44
241.429	69.44
241.662	81.44
241.896	82.44
242.13	72.44
242.363	72.44
242.597	77.44
242.83	88.44
243.064	76.44
243.298	72.44
243.531	65.44
243.765	73.44
243.998	82.44
244.232	88.44
244.465	61.44
244.699	75.44
244.932	78.44
245.166	79.44
245.399	78.44
245.633	84.44
245.866	80.44
246.099	84.44
246.333	86.44
246.566	80.44
246.8	81.44
247.033	72.44
247.266	89.44
247.5	70.44
247.733	64.44
247.966	84.44
248.2	72.44
248.433	84.44
248.666	76.44
248.899	68.44
249.133	82.44
249.366	84.44
249.599	60.44
249.832	70.44
250.066	77.44
250.299	79.44
250.532	80.44
250.765	93.44
250.998	75.44
251.231	91.44
251.465	68.44
251.698	91.44
251.931	75.44
252.164	84.44
252.397	91.44
252.63	72.44
252.863	78.44
253.096	73.44
253.329	81.44
253.562	66.44
253.795	63.44
254.028	84.44
254.261	81.44
254.494	87.44
254.727	84.44
254.96	78.44
255.193	76.44
255.426	77.44
255.659	57.44
255.892	70.44
256.124	89.44
256.357	61.44
256.59	88.44
256.823	89.44
257.056	89.44
257.289	74.44
257.521	74.44
257.754	89.44
257.987	84.44
258.22	97.44
258.452	59.44
258.685	77.44
258.918	84.44
259.151	76.44
259.383	86.44
259.616	78.44
259.849	94.44
260.081	82.44
260.314	82.44
260.547	78.44
260.779	81.44
261.012	100.44
261.244	81.44
261.477	86.44
261.71	79.44
261.942	78.44
262.175	78.44
262.407	70.44
262.64	77.44
262.872	76.44
263.105	72.44
263.337	100.44
263.57	85.44
263.802	95.44
264.035	85.44
264.267	85.44
264.499	75.44
264.732	81.44
264.964	80.44
265.197	90.44
265.429	87.44
265.661	93.44
265.894	84.44
266.126	81.44
266.358	93.44
266.591	84.44
266.823	88.44
267.055	81.44
267.287	82.44
267.52	87.44
267.752	79.44
267.984	83.44
268.216	83.44
268.448	76.44
268.681	84.44
268.913	94.44
269.145	85.44
269.377	84.44
269.609	88.44
269.841	85.44
270.073	81.44
270.306	88.44
270.538	79.44
270.77	72.44
271.002	89.44
271.234	106.44
271.466	81.44
271.698	80.44
271.93	85.44
272.162	76.44
272.394	85.44
272.626	87.44
272.858	90.44
273.09	88.44
273.322	81.44
273.553	90.44
273.785	82.44
274.017	73.44
274.249	80.44
274.481	77.44
274.713	69.44
274.945	95.44
275.176	90.44
275.408	76.44
275.64	78.44
275.872	78.44
276.104	79.44
276.335	83.44
276.567	87.44
276.799	72.44
277.031	85.44
277.262	72.44
277.494	84.44
277.726	95.44
277.957	79.44
278.189	85.44
278.421	102.44
278.652	87.44
278.884	94.44
279.115	92.44
279.347	90.44
279.579	74.44
279.81	75.44
280.042	84.44
280.273	77.44
280.505	102.44
280.736	94.44
280.968	79.44
281.199	91.44
281.431	80.44
281.662	84.44
281.894	102.44
282.125	90.44
282.356	84.44
282.588	81.44
282.819	87.44
283.051	84.44
283.282	82.44
283.513	103.44
283.745	83.44
283.976	74.44
284.207	86.44
284.439	77.44
284.67	71.44
284.901	74.44
285.132	83.44
285.364	101.44
285.595	83.44
285.826	88.44
286.057	88.44
286.288	79.44
286.52	87.44
286.751	86.44
286.982	84.44
287.213	92.44
287.444	93.44
287.675	89.44
287.906	79.44
288.138	87.44
288.369	78.44
288.6	98.44
288.831	90.44
289.062	81.44
289.293	87.44
289.524	94.44
289.755	88.44
289.986	80.44
290.217	82.44
290.448	87.44
290.679	84.44
290.91	97.44
291.141	78.44
291.371	75.44
291.602	86.44
291.833	91.44
292.064	76.44
292.295	83.44
292.526	95.44
292.757	81.44
292.987	76.44
293.218	79.44
293.449	80.44
293.68	82.44
293.91	80.44
294.141	83.44
294.372	74.44
294.603	81.44
294.833	81.44
295.064	98.44
295.295	81.44
295.525	84.44
295.756	89.44
295.987	85.44
296.217	90.44
296.448	79.44
296.679	93.44
296.909	87.44
297.14	78.44
297.37	85.44
297.601	75.44
297.831	94.44
298.062	79.44
298.292	92.44
298.523	81.44
298.753	85.44
298.984	82.44
299.214	76.44
299.445	81.44
299.675	87.44
299.905	83.44
300.136	90.44
300.366	84.44
300.597	98.44
300.827	91.44
301.057	88.44
301.288	89.44
301.518	80.44
301.748	80.44
301.979	91.44
302.209	105.44
302.439	82.44
302.669	74.44
302.9	85.44
303.13	73.44
303.36	74.44
303.59	78.44
303.82	84.44
304.051	90.44
304.281	95.44
304.511	89.44
304.741	91.44
304.971	92.44
305.201	88.44
305.431	69.44
305.661	89.44
305.891	76.44
306.121	81.44
306.352	90.44
306.582	90.44
306.812	90.44
307.042	71.44
307.272	59.44
307.502	82.44
307.731	89.44
307.961	94.44
308.191	83.44
308.421	78.44
308.651	84.44
308.881	90.44
309.111	90.44
309.341	86.44
309.571	93.44
309.8	73.44
310.03	79.44
310.26	86.44
310.49	89.44
310.72	82.44
310.949	90.44
311.179	93.44
311.409	78.44
311.639	73.44
311.868	88.44
312.098	78.44
312.328	81.44
312.557	82.44
312.787	76.44
313.017	83.44
313.246	84.44
313.476	99.44
313.706	96.44
313.935	94.44
314.165	83.44
314.394	93.44
314.624	86.44
314.853	82.44
315.083	95.44
315.312	93.44
315.542	95.44
315.771	88.44
316.001	86.44
316.23	88.44
316.46	83.44
316.689	78.44
316.919	82.44
317.148	80.44
317.377	85.44
317.607	90.44
317.836	93.44
318.065	74.44
318.295	98.44
318.524	78.44
318.753	92.44
318.983	79.44
319.212	83.44
319.441	96.44
319.67	100.44
319.9	90.44
320.129	95.44
320.358	92.44
320.587	95.44
320.816	88.44
321.046	90.44
321.275	104.44
321.504	84.44
321.733	91.44
321.962	84.44
322.191	94.44
322.42	88.44
322.649	83.44
322.878	86.44
323.108	89.44
323.337	81.44
323.566	72.44
323.795	88.44
324.024	80.44
324.253	68.44
324.482	84.44
324.71	75.44
324.939	80.44
325.168	80.44
325.397	82.44
325.626	80.44
325.855	88.44
326.084	73.44
326.313	92.44
326.542	102.44
326.77	78.44
326.999	90.44
327.228	96.44
327.457	87.44
327.686	90.44
327.914	80.44
328.143	80.44
328.372	88.44
328.6	98.44
328.829	82.44
329.058	79.44
329.287	83.44
329.515	91.44
329.744	101.44
329.972	80.44
330.201	78.44
330.43	85.44
330.658	85.44
330.887	81.44
331.115	90.44
331.344	79.44
331.572	80.44
331.801	100.44
332.03	77.44
332.258	91.44
332.486	84.44
332.715	88.44
332.943	89.44
333.172	104.44
333.4	80.44
333.629	97.44
333.857	85.44
334.085	83.44
334.314	89.44
334.542	103.44
334.771	87.44
334.999	86.44
335.227	83.44
335.455	91.44
335.684	87.44
335.912	83.44
336.14	84.44
336.369	75.44
336.597	98.44
336.825	71.44
337.053	81.44
337.281	90.44
337.51	70.44
337.738	82.44
337.966	103.44
338.194	90.44
338.422	86.44
338.65	94.44
338.878	100.44
339.106	82.44
339.334	87.44
339.562	87.44
339.79	93.44
340.018	88.44
340.246	88.44
340.474	97.44
340.702	104.44
340.93	87.44
341.158	80.44
341.386	90.44
341.614	92.44
341.842	92.44
342.07	85.44
342.298	74.44
342.526	91.44
342.754	84.44
342.981	89.44
343.209	99.44
343.437	113.44
343.665	96.44
343.893	88.44
344.12	94.44
344.348	90.44
344.576	89.44
344.804	98.44
345.031	93.44
345.259	81.44
345.487	100.44
345.714	82.44
345.942	90.44
346.17	93.44
346.397	76.44
346.625	87.44
346.853	77.44
347.08	90.44
347.308	78.44
347.535	95.44
347.763	83.44
347.99	87.44
348.218	90.44
348.445	106.44
348.673	86.44
348.9	101.44
349.128	86.44
349.355	80.44
349.583	94.44
349.81	73.44
350.037	86.44
350.265	90.44
350.492	99.44
350.72	84.44
350.947	80.44
351.174	80.44
351.402	87.44
351.629	79.44
351.856	84.44
352.083	84.44
352.311	90.44
352.538	88.44
352.765	88.44
352.992	87.44
353.22	101.44
353.447	90.44
353.674	84.44
353.901	91.44
354.128	87.44
354.355	84.44
354.583	88.44
354.81	82.44
355.037	83.44
355.264	88.44
355.491	79.44
355.718	89.44
355.945	79.44
356.172	96.44
356.399	81.44
356.626	106.44
356.853	84.44
357.08	86.44
357.307	103.44
357.534	85.44
357.761	95.44
357.988	91.44
358.215	81.44
358.441	79.44
358.668	90.44
358.895	84.44
359.122	94.44
359.349	78.44
359.576	85.44
359.802	97.44
360.029	87.44
360.256	82.44
360.483	77.44
360.709	98.44
360.936	91.44
361.163	86.44
361.39	96.44
361.616	93.44
361.843	88.44
362.07	80.44
362.296	79.44
362.523	85.44
362.749	84.44
362.976	82.44
363.203	89.44
363.429	81.44
363.656	89.44
363.882	84.44
364.109	92.44
364.335	91.44
364.562	97.44
364.788	88.44
365.015	76.44
365.241	103.44
365.468	85.44
365.694	96.44
365.92	106.44
366.147	86.44
366.373	81.44
366.599	80.44
366.826	71.44
367.052	89.44
367.278	89.44
367.505	88.44
367.731	96.44
367.957	82.44
368.184	87.44
368.41	73.44
368.636	82.44
368.862	96.44
369.089	92.44
369.315	86.44
369.541	79.44
369.767	90.44
369.993	87.44
370.219	88.44
370.445	73.44
370.672	80.44
370.898	91.44
371.124	90.44
371.35	87.44
371.576	106.44
371.802	97.44
372.028	79.44
372.254	96.44
372.48	90.44
372.706	90.44
372.932	97.44
373.158	83.44
373.384	96.44
373.61	84.44
373.835	85.44
374.061	85.44
374.287	89.44
374.513	90.44
374.739	70.44
374.965	84.44
375.191	81.44
375.416	92.44
375.642	85.44
375.868	95.44
376.094	99.44
376.319	76.44
376.545	86.44
376.771	91.44
376.997	88.44
377.222	97.44
377.448	74.44
377.674	80.44
377.899	86.44
378.125	89.44
378.35	86.44
378.576	81.44
378.802	84.44
379.027	100.44
379.253	90.44
379.478	93.44
379.704	81.44
379.929	67.44
380.155	72.44
380.38	77.44
380.606	82.44
380.831	93.44
381.057	96.44
381.282	65.44
381.507	80.44
381.733	90.44
381.958	92.44
382.184	76.44
382.409	73.44
382.634	87.44
382.86	84.44
383.085	73.44
383.31	84.44
383.535	97.44
383.761	97.44
383.986	82.44
384.211	61.44
384.436	85.44
384.662	74.44
384.887	84.44
385.112	91.44
385.337	99.44
385.562	77.44
385.787	89.44
386.013	92.44
386.238	85.44
386.463	88.44
386.688	97.44
386.913	76.44
387.138	81.44
387.363	111.44
387.588	85.44
387.813	104.44
388.038	76.44
388.263	90.44
388.488	73.44
388.713	81.44
388.938	91.44
389.163	76.44
389.387	71.44
389.612	91.44
389.837	100.44
390.062	72.44
390.287	74.44
390.512	65.44
390.736	83.44
390.961	90.44
391.186	100.44
391.411	77.44
391.636	82.44
391.86	88.44
392.085	88.44
392.31	68.44
392.534	101.44
392.759	87.44
392.984	85.44
393.208	82.44
393.433	87.44
393.658	68.44
393.882	65.44
394.107	81.44
394.331	82.44
394.556	86.44
394.78	87.44
395.005	75.44
395.229	101.44
395.454	75.44
395.678	81.44
395.903	106.44
396.127	97.44
396.352	104.44
396.576	110.44
396.801	98.44
397.025	79.44
397.249	89.44
397.474	78.44
397.698	72.44
397.922	85.44
398.147	92.44
398.371	89.44
398.595	89.44
398.82	84.44
399.044	93.44
399.268	84.44
399.492	73.44
399.717	79.44
399.941	96.44
400.165	81.44
400.389	81.44
400.613	90.44
400.837	93.44
401.062	82.44
401.286	82.44
401.51	91.44
401.734	91.44
401.958	97.44
402.182	87.44
402.406	90.44
402.63	94.44
402.854	82.44
403.078	76.44
403.302	73.44
403.526	87.44
403.75	87.44
403.974	85.44
404.198	91.44
404.422	79.44
404.645	82.44
404.869	88.44
405.093	87.44
405.317	91.44
405.541	88.44
405.765	86.44
405.988	89.44
406.212	74.44
406.436	85.44
406.66	90.44
406.883	84.44
407.107	92.44
407.331	85.44
407.555	89.44
407.778	79.44
408.002	72.44
408.226	67.44
408.449	82.44
408.673	92.44
408.896	102.44
409.12	94.44
409.344	97.44
409.567	97.44
409.791	86.44
410.014	93.44
410.238	85.44
410.461	84.44
410.685	84.44
410.908	78.44
411.132	95.44
411.355	92.44
411.578	76.44
411.802	80.44
412.025	91.44
412.249	82.44
412.472	73.44
412.695	81.44
412.919	93.44
413.142	86.44
413.365	82.44
413.589	104.44
413.812	75.44
414.035	100.44
414.258	74.44
414.482	89.44
414.705	86.44
414.928	85.44
415.151	96.44
415.374	84.44
415.597	92.44
415.821	78.44
416.044	80.44
416.267	80.44
416.49	88.44
416.713	90.44
416.936	85.44
417.159	94.44
417.382	91.44
417.605	85.44
417.828	79.44
418.051	79.44
418.274	87.44
418.497	72.44
418.72	96.44
418.943	87.44
419.166	80.44
419.389	88.44
419.611	77.44
419.834	76.44
420.057	78.44
420.28	79.44
420.503	90.44
420.726	90.44
420.948	92.44
421.171	92.44
421.394	87.44
421.617	91.44
421.839	97.44
422.062	88.44
422.285	83.44
422.507	86.44
422.73	80.44
422.953	91.44
423.175	77.44
423.398	85.44
423.621	83.44
423.843	89.44
424.066	85.44
424.288	89.44
424.511	90.44
424.733	90.44
424.956	83.44
425.178	92.44
425.401	90.44
425.623	77.44
425.846	88.44
426.068	88.44
426.291	81.44
426.513	85.44
426.735	96.44
426.958	96.44
427.18	86.44
427.402	77.44
427.625	91.44
427.847	91.44
428.069	81.44
428.292	68.44
428.514	92.44
428.736	81.44
428.958	92.44
429.181	87.44
429.403	90.44
429.625	75.44
429.847	80.44
430.069	85.44
430.292	96.44
430.514	93.44
430.736	90.44
430.958	73.44
431.18	81.44
431.402	84.44
431.624	78.44
431.846	87.44
432.068	84.44
432.29	76.44
432.512	85.44
432.734	81.44
432.956	97.44
433.178	94.44
433.4	85.44
433.622	98.44
433.844	86.44
434.066	82.44
434.287	77.44
434.509	90.44
434.731	88.44
434.953	88.44
435.175	82.44
435.397	91.44
435.618	73.44
435.84	80.44
436.062	89.44
436.284	80.44
436.505	95.44
436.727	84.44
436.949	89.44
437.17	71.44
437.392	83.44
437.614	88.44
437.835	80.44
438.057	91.44
438.278	83.44
438.5	72.44
438.721	77.44
438.943	88.44
439.165	81.44
439.386	90.44
439.608	86.44
439.829	95.44
440.05	91.44
440.272	82.44
440.493	72.44
440.715	75.44
440.936	88.44
441.158	86.44
441.379	82.44
441.6	90.44
441.822	87.44
442.043	81.44
442.264	72.44
442.486	81.44
442.707	89.44
442.928	74.44
443.149	88.44
443.371	90.44
443.592	89.44
443.813	101.44
444.034	66.44
444.255	86.44
444.476	78.44
444.698	92.44
444.919	95.44
445.14	150.44
445.361	123.44
445.582	86.44
445.803	88.44
446.024	68.44
446.245	85.44
446.466	66.44
446.687	75.44
446.908	93.44
447.129	89.44
447.35	84.44
447.571	86.44
447.792	95.44
448.013	64.44
448.234	80.44
448.455	93.44
448.675	74.44
448.896	93.44
449.117	83.44
449.338	93.44
449.559	101.44
449.779	82.44
450	78.44
450.221	89.44
450.442	85.44
450.662	89.44
450.883	78.44
451.104	89.44
451.324	88.44
451.545	85.44
451.766	93.44
451.986	93.44
452.207	101.44
452.428	84.44
452.648	82.44
452.869	77.44
453.089	75.44
453.31	89.44
453.53	81.44
453.751	88.44
453.971	73.44
454.192	94.44
454.412	88.44
454.633	73.44
454.853	90.44
455.073	70.44
455.294	92.44
455.514	91.44
455.734	79.44
455.955	64.44
456.175	78.44
456.395	74.44
456.616	84.44
456.836	88.44
457.056	82.44
457.276	89.44
457.497	87.44
457.717	89.44
457.937	78.44
458.157	69.44
458.377	66.44
458.598	102.44
458.818	95.44
459.038	90.44
459.258	73.44
459.478	97.44
459.698	83.44
459.918	86.44
460.138	85.44
460.358	102.44
460.578	72.44
460.798	80.44
461.018	86.44
461.238	72.44
461.458	86.44
461.678	81.44
461.898	81.44
462.118	85.44
462.338	99.44
462.558	89.44
462.777	96.44
462.997	108.44
463.217	76.44
463.437	113.44
463.657	95.44
463.876	97.44
464.096	77.44
464.316	97.44
464.536	97.44
464.755	96.44
464.975	85.44
465.195	88.44
465.414	92.44
465.634	73.44
465.854	80.44
466.073	85.44
466.293	86.44
466.512	90.44
466.732	95.44
466.951	93.44
467.171	75.44
467.391	88.44
467.61	96.44
467.829	95.44
468.049	93.44
468.268	70.44
468.488	76.44
468.707	89.44
468.927	84.44
469.146	78.44
469.365	81.44
469.585	72.44
469.804	92.44
470.023	80.44
470.243	95.44
470.462	97.44
470.681	89.44
470.901	90.44
471.12	93.44
471.339	78.44
471.558	90.44
471.777	76.44
471.997	85.44
472.216	83.44
472.435	101.44
472.654	77.44
472.873	88.44
473.092	77.44
473.311	84.44
473.53	77.44
473.749	70.44
473.968	92.44
474.187	74.44
474.406	85.44
474.625	106.44
474.844	82.44
475.063	84.44
475.282	84.44
475.501	80.44
475.72	113.44
475.939	82.44
476.158	74.44
476.377	81.44
476.596	67.44
476.814	82.44
477.033	87.44
477.252	73.44
477.471	78.44
477.69	75.44
477.908	84.44
478.127	101.44
478.346	86.44
478.564	88.44
478.783	90.44
479.002	83.44
479.22	83.44
479.439	85.44
479.658	65.44
479.876	80.44
480.095	87.44
480.313	84.44
480.532	79.44
480.751	95.44
480.969	80.44
481.188	77.44
481.406	74.44
481.624	73.44
481.843	92.44
482.061	91.44
482.28	83.44
482.498	108.44
482.717	84.44
482.935	88.44
483.153	93.44
483.372	79.44
483.59	75.44
483.808	84.44
484.027	95.44
484.245	84.44
484.463	79.44
484.681	93.44
484.9	95.44
485.118	98.44
485.336	86.44
485.554	81.44
485.772	85.44
485.99	90.44
486.209	97.44
486.427	90.44
486.645	98.44
486.863	79.44
487.081	85.44
487.299	89.44
487.517	85.44
487.735	90.44
487.953	86.44
488.171	97.44
488.389	91.44
488.607	88.44
488.825	89.44
489.043	89.44
489.261	91.44
489.479	86.44
489.696	71.44
489.914	80.44
490.132	82.44
490.35	92.44
490.568	100.44
490.786	79.44
491.003	84.44
491.221	87.44
491.439	95.44
491.657	86.44
491.874	75.44
492.092	80.44
492.31	100.44
492.527	81.44
492.745	93.44
492.963	88.44
493.18	95.44
493.398	103.44
493.615	93.44
493.833	78.44
494.05	77.44
494.268	89.44
494.485	89.44
494.703	94.44
494.92	69.44
495.138	96.44
495.355	93.44
495.573	86.44
495.79	91.44
496.008	86.44
496.225	87.44
496.442	88.44
496.66	96.44
496.877	94.44
497.094	90.44
497.312	75.44
497.529	94.44
497.746	86.44
497.963	76.44
498.181	85.44
498.398	79.44
498.615	86.44
498.832	89.44
499.049	94.44
499.267	98.44
499.484	89.44
499.701	89.44
499.918	96.44
500.135	95.44
500.352	109.44
500.569	96.44
500.786	95.44
501.003	107.44
501.22	104.44
501.437	90.44
501.654	100.44
501.871	80.44
502.088	81.44
502.305	88.44
502.522	85.44
502.739	92.44
502.956	94.44
503.172	78.44
503.389	96.44
503.606	82.44
503.823	80.44
504.04	88.44
504.256	89.44
504.473	80.44
504.69	108.44
504.907	85.44
505.123	99.44
505.34	100.44
505.557	88.44
505.773	102.44
505.99	84.44
506.207	109.44
506.423	87.44
506.64	87.44
506.856	88.44
507.073	91.44
507.289	89.44
507.506	92.44
507.722	92.44
507.939	71.44
508.155	91.44
508.372	104.44
508.588	72.44
508.805	98.44
509.021	86.44
509.238	103.44
509.454	101.44
509.67	84.44
509.887	94.44
510.103	82.44
510.319	90.44
510.536	82.44
510.752	86.44
510.968	96.44
511.184	86.44
511.401	89.44
511.617	86.44
511.833	83.44
512.049	87.44
512.265	94.44
512.481	81.44
512.698	77.44
512.914	88.44
513.13	84.44
513.346	77.44
513.562	81.44
513.778	91.44
513.994	78.44
514.21	93.44
514.426	75.44
514.642	79.44
514.858	78.44
515.074	100.44
515.29	86.44
515.506	95.44
515.721	86.44
515.937	101.44
516.153	72.44
516.369	83.44
516.585	94.44
516.801	88.44
517.016	84.44
517.232	85.44
517.448	102.44
517.664	97.44
517.879	101.44
518.095	100.44
518.311	82.44
518.527	91.44
518.742	82.44
518.958	85.44
519.173	81.44
519.389	74.44
