Data from BG_HRD10591_005.txt Node
Date: Fri May 16 15:33:09 EDT 2025
User: Yrep
Spectrometer: HR+D1059
Trigger mode: 1
Integration Time (sec): 1.000000E-1
Scans to average: 1
Electric dark correction enabled: true
Nonlinearity correction enabled: false
Boxcar width: 0
XAxis mode: Wavelengths
Number of Pixels in Spectrum: 2048
>>>>>Begin Spectral Data<<<<<
223.165	-13
223.4	-13
223.635	-13
223.869	-22
224.104	-18
224.338	-21
224.573	-6
224.808	-12
225.042	-2
225.277	-7
225.511	4
225.746	-2
225.98	14
226.215	17
226.449	27
226.683	9
226.918	24
227.152	8
227.387	40
227.621	32
227.856	40
228.09	50
228.324	54
228.559	49
228.793	60
229.027	58
229.262	62
229.496	74
229.73	78
229.964	84
230.199	65
230.433	66
230.667	76
230.901	74
231.136	82
231.37	81
231.604	90
231.838	73
232.072	82
232.306	79
232.541	76
232.775	90
233.009	70
233.243	80
233.477	72
233.711	72
233.945	82
234.179	69
234.413	77
234.647	67
234.881	84
235.115	90
235.349	74
235.583	87
235.817	83
236.051	80
236.285	79
236.519	72
236.753	79
236.987	71
237.221	79
237.455	74
237.689	78
237.922	86
238.156	82
238.39	71
238.624	72
238.858	81
239.091	71
239.325	82
239.559	69
239.793	74
240.027	77
240.26	67
240.494	66
240.728	74
240.961	66
241.195	94
241.429	77
241.662	80
241.896	64
242.13	82
242.363	88
242.597	66
242.83	69
243.064	75
243.298	74
243.531	57
243.765	86
243.998	70
244.232	81
244.465	75
244.699	75
244.932	86
245.166	72
245.399	90
245.633	86
245.866	80
246.099	86
246.333	79
246.566	76
246.8	79
247.033	74
247.266	85
247.5	63
247.733	74
247.966	72
248.2	67
248.433	70
248.666	74
248.899	67
249.133	73
249.366	86
249.599	81
249.832	75
250.066	83
250.299	79
250.532	69
250.765	94
250.998	92
251.231	72
251.465	67
251.698	79
251.931	87
252.164	84
252.397	82
252.63	83
252.863	81
253.096	73
253.329	89
253.562	84
253.795	82
254.028	82
254.261	90
254.494	85
254.727	74
254.96	74
255.193	72
255.426	82
255.659	68
255.892	78
256.124	95
256.357	89
256.59	81
256.823	82
257.056	70
257.289	65
257.521	83
257.754	78
257.987	74
258.22	82
258.452	92
258.685	70
258.918	70
259.151	89
259.383	76
259.616	77
259.849	87
260.081	72
260.314	100
260.547	96
260.779	85
261.012	68
261.244	92
261.477	89
261.71	85
261.942	107
262.175	80
262.407	87
262.64	86
262.872	77
263.105	84
263.337	94
263.57	80
263.802	87
264.035	79
264.267	76
264.499	97
264.732	82
264.964	78
265.197	85
265.429	76
265.661	69
265.894	70
266.126	84
266.358	89
266.591	79
266.823	84
267.055	84
267.287	92
267.52	78
267.752	83
267.984	93
268.216	90
268.448	97
268.681	82
268.913	84
269.145	83
269.377	90
269.609	79
269.841	86
270.073	80
270.306	67
270.538	102
270.77	74
271.002	75
271.234	73
271.466	81
271.698	87
271.93	84
272.162	86
272.394	82
272.626	80
272.858	89
273.09	90
273.322	77
273.553	74
273.785	82
274.017	91
274.249	83
274.481	71
274.713	77
274.945	86
275.176	75
275.408	79
275.64	97
275.872	89
276.104	83
276.335	88
276.567	99
276.799	98
277.031	88
277.262	93
277.494	90
277.726	92
277.957	81
278.189	84
278.421	76
278.652	89
278.884	68
279.115	69
279.347	88
279.579	90
279.81	88
280.042	93
280.273	83
280.505	91
280.736	82
280.968	91
281.199	83
281.431	93
281.662	79
281.894	68
282.125	77
282.356	80
282.588	85
282.819	82
283.051	82
283.282	78
283.513	96
283.745	83
283.976	82
284.207	83
284.439	81
284.67	95
284.901	94
285.132	75
285.364	84
285.595	94
285.826	100
286.057	73
286.288	80
286.52	87
286.751	88
286.982	87
287.213	87
287.444	99
287.675	80
287.906	90
288.138	94
288.369	92
288.6	96
288.831	98
289.062	87
289.293	90
289.524	95
289.755	100
289.986	76
290.217	77
290.448	87
290.679	83
290.91	85
291.141	93
291.371	88
291.602	92
291.833	90
292.064	77
292.295	100
292.526	91
292.757	85
292.987	92
293.218	95
293.449	96
293.68	93
293.91	79
294.141	92
294.372	90
294.603	88
294.833	96
295.064	91
295.295	82
295.525	92
295.756	100
295.987	91
296.217	93
296.448	84
296.679	88
296.909	74
297.14	91
297.37	79
297.601	77
297.831	80
298.062	77
298.292	82
298.523	83
298.753	81
298.984	82
299.214	78
299.445	95
299.675	94
299.905	91
300.136	82
300.366	80
300.597	87
300.827	95
301.057	87
301.288	75
301.518	71
301.748	88
301.979	96
302.209	95
302.439	86
302.669	81
302.9	93
303.13	84
303.36	90
303.59	97
303.82	111
304.051	94
304.281	72
304.511	103
304.741	80
304.971	77
305.201	75
305.431	96
305.661	97
305.891	90
306.121	108
306.352	78
306.582	80
306.812	82
307.042	82
307.272	78
307.502	95
307.731	81
307.961	76
308.191	90
308.421	94
308.651	84
308.881	89
309.111	92
309.341	99
309.571	95
309.8	82
310.03	83
310.26	80
310.49	84
310.72	91
310.949	86
311.179	88
311.409	84
311.639	88
311.868	96
312.098	86
312.328	82
312.557	99
312.787	78
313.017	88
313.246	81
313.476	74
313.706	85
313.935	80
314.165	88
314.394	87
314.624	99
314.853	88
315.083	82
315.312	70
315.542	86
315.771	90
316.001	85
316.23	94
316.46	84
316.689	92
316.919	87
317.148	84
317.377	108
317.607	104
317.836	93
318.065	84
318.295	90
318.524	76
318.753	82
318.983	84
319.212	88
319.441	100
319.67	89
319.9	83
320.129	85
320.358	94
320.587	79
320.816	91
321.046	92
321.275	88
321.504	81
321.733	85
321.962	93
322.191	92
322.42	93
322.649	80
322.878	82
323.108	75
323.337	88
323.566	84
323.795	88
324.024	93
324.253	81
324.482	94
324.71	79
324.939	87
325.168	100
325.397	95
325.626	90
325.855	90
326.084	91
326.313	75
326.542	81
326.77	90
326.999	88
327.228	99
327.457	93
327.686	77
327.914	94
328.143	81
328.372	92
328.6	80
328.829	86
329.058	88
329.287	90
329.515	85
329.744	83
329.972	77
330.201	85
330.43	95
330.658	96
330.887	91
331.115	96
331.344	95
331.572	91
331.801	89
332.03	85
332.258	97
332.486	90
332.715	89
332.943	86
333.172	99
333.4	82
333.629	90
333.857	94
334.085	80
334.314	90
334.542	88
334.771	80
334.999	91
335.227	88
335.455	78
335.684	85
335.912	83
336.14	103
336.369	85
336.597	86
336.825	92
337.053	87
337.281	82
337.51	86
337.738	89
337.966	99
338.194	88
338.422	86
338.65	91
338.878	106
339.106	95
339.334	78
339.562	74
339.79	85
340.018	82
340.246	84
340.474	82
340.702	88
340.93	79
341.158	92
341.386	93
341.614	83
341.842	104
342.07	71
342.298	102
342.526	84
342.754	91
342.981	86
343.209	80
343.437	97
343.665	101
343.893	100
344.12	85
344.348	74
344.576	88
344.804	90
345.031	88
345.259	92
345.487	70
345.714	82
345.942	90
346.17	95
346.397	76
346.625	88
346.853	90
347.08	84
347.308	92
347.535	84
347.763	97
347.99	91
348.218	91
348.445	89
348.673	98
348.9	76
349.128	101
349.355	74
349.583	82
349.81	85
350.037	100
350.265	91
350.492	76
350.72	91
350.947	84
351.174	74
351.402	86
351.629	79
351.856	75
352.083	91
352.311	90
352.538	91
352.765	91
352.992	92
353.22	79
353.447	98
353.674	82
353.901	85
354.128	83
354.355	86
354.583	88
354.81	91
355.037	85
355.264	76
355.491	78
355.718	85
355.945	86
356.172	88
356.399	96
356.626	94
356.853	95
357.08	87
357.307	81
357.534	98
357.761	95
357.988	94
358.215	74
358.441	84
358.668	94
358.895	84
359.122	82
359.349	84
359.576	73
359.802	85
360.029	97
360.256	82
360.483	83
360.709	86
360.936	93
361.163	96
361.39	85
361.616	96
361.843	92
362.07	90
362.296	111
362.523	90
362.749	98
362.976	86
363.203	83
363.429	81
363.656	81
363.882	83
364.109	95
364.335	86
364.562	82
364.788	102
365.015	93
365.241	90
365.468	69
365.694	83
365.92	86
366.147	82
366.373	91
366.599	95
366.826	89
367.052	86
367.278	68
367.505	86
367.731	95
367.957	90
368.184	90
368.41	96
368.636	91
368.862	94
369.089	79
369.315	84
369.541	88
369.767	83
369.993	85
370.219	84
370.445	96
370.672	85
370.898	90
371.124	90
371.35	89
371.576	94
371.802	72
372.028	73
372.254	92
372.48	93
372.706	93
372.932	91
373.158	91
373.384	101
373.61	104
373.835	104
374.061	95
374.287	101
374.513	76
374.739	78
374.965	78
375.191	93
375.416	82
375.642	95
375.868	82
376.094	80
376.319	87
376.545	83
376.771	78
376.997	102
377.222	93
377.448	104
377.674	74
377.899	76
378.125	83
378.35	80
378.576	94
378.802	89
379.027	96
379.253	98
379.478	91
379.704	83
379.929	87
380.155	84
380.38	86
380.606	83
380.831	94
381.057	88
381.282	99
381.507	93
381.733	94
381.958	77
382.184	94
382.409	97
382.634	92
382.86	84
383.085	85
383.31	98
383.535	92
383.761	92
383.986	94
384.211	89
384.436	95
384.662	86
384.887	88
385.112	79
385.337	90
385.562	88
385.787	79
386.013	75
386.238	90
386.463	89
386.688	111
386.913	98
387.138	94
387.363	100
387.588	86
387.813	91
388.038	85
388.263	79
388.488	76
388.713	84
388.938	86
389.163	83
389.387	96
389.612	92
389.837	82
390.062	94
390.287	85
390.512	95
390.736	80
390.961	99
391.186	89
391.411	81
391.636	82
391.86	69
392.085	87
392.31	70
392.534	78
392.759	71
392.984	82
393.208	74
393.433	90
393.658	87
393.882	88
394.107	88
394.331	83
394.556	78
394.78	102
395.005	92
395.229	80
395.454	94
395.678	90
395.903	99
396.127	93
396.352	86
396.576	103
396.801	79
397.025	89
397.249	81
397.474	102
397.698	90
397.922	80
398.147	90
398.371	88
398.595	96
398.82	90
399.044	93
399.268	92
399.492	84
399.717	73
399.941	74
400.165	75
400.389	83
400.613	90
400.837	96
401.062	100
401.286	91
401.51	107
401.734	84
401.958	79
402.182	93
402.406	95
402.63	90
402.854	78
403.078	87
403.302	86
403.526	89
403.75	86
403.974	86
404.198	84
404.422	87
404.645	89
404.869	103
405.093	97
405.317	71
405.541	97
405.765	96
405.988	83
406.212	98
406.436	84
406.66	86
406.883	87
407.107	88
407.331	91
407.555	88
407.778	92
408.002	74
408.226	93
408.449	94
408.673	86
408.896	95
409.12	87
409.344	89
409.567	90
409.791	93
410.014	100
410.238	90
410.461	87
410.685	86
410.908	90
411.132	95
411.355	95
411.578	91
411.802	79
412.025	84
412.249	88
412.472	88
412.695	75
412.919	86
413.142	86
413.365	83
413.589	98
413.812	91
414.035	94
414.258	102
414.482	83
414.705	83
414.928	82
415.151	89
415.374	84
415.597	84
415.821	78
416.044	82
416.267	93
416.49	90
416.713	84
416.936	96
417.159	96
417.382	94
417.605	83
417.828	58
418.051	77
418.274	85
418.497	104
418.72	88
418.943	92
419.166	98
419.389	102
419.611	88
419.834	82
420.057	93
420.28	93
420.503	81
420.726	94
420.948	96
421.171	89
421.394	95
421.617	92
421.839	90
422.062	85
422.285	107
422.507	78
422.73	92
422.953	82
423.175	87
423.398	96
423.621	80
423.843	86
424.066	84
424.288	76
424.511	90
424.733	87
424.956	91
425.178	94
425.401	68
425.623	77
425.846	94
426.068	78
426.291	95
426.513	88
426.735	86
426.958	85
427.18	89
427.402	87
427.625	88
427.847	80
428.069	82
428.292	90
428.514	106
428.736	82
428.958	94
429.181	103
429.403	97
429.625	81
429.847	87
430.069	83
430.292	91
430.514	89
430.736	76
430.958	99
431.18	91
431.402	97
431.624	87
431.846	102
432.068	90
432.29	76
432.512	91
432.734	93
432.956	83
433.178	89
433.4	92
433.622	83
433.844	82
434.066	98
434.287	91
434.509	78
434.731	102
434.953	57
435.175	100
435.397	81
435.618	90
435.84	92
436.062	92
436.284	94
436.505	88
436.727	84
436.949	88
437.17	90
437.392	74
437.614	91
437.835	81
438.057	75
438.278	91
438.5	89
438.721	87
438.943	91
439.165	100
439.386	103
439.608	90
439.829	81
440.05	98
440.272	93
440.493	79
440.715	91
440.936	83
441.158	83
441.379	78
441.6	74
441.822	87
442.043	75
442.264	98
442.486	100
442.707	96
442.928	98
443.149	102
443.371	103
443.592	99
443.813	80
444.034	85
444.255	87
444.476	88
444.698	89
444.919	86
445.14	189
445.361	129
445.582	76
445.803	78
446.024	83
446.245	73
446.466	77
446.687	84
446.908	80
447.129	86
447.35	82
447.571	88
447.792	83
448.013	79
448.234	103
448.455	96
448.675	97
448.896	94
449.117	89
449.338	92
449.559	89
449.779	91
450	82
450.221	92
450.442	79
450.662	83
450.883	84
451.104	83
451.324	70
451.545	79
451.766	97
451.986	105
452.207	91
452.428	76
452.648	74
452.869	78
453.089	91
453.31	76
453.53	68
453.751	98
453.971	83
454.192	78
454.412	86
454.633	82
454.853	76
455.073	81
455.294	100
455.514	85
455.734	82
455.955	79
456.175	73
456.395	84
456.616	87
456.836	86
457.056	93
457.276	99
457.497	83
457.717	88
457.937	88
458.157	84
458.377	89
458.598	78
458.818	107
459.038	86
459.258	85
459.478	94
459.698	98
459.918	87
460.138	97
460.358	91
460.578	90
460.798	84
461.018	93
461.238	87
461.458	85
461.678	65
461.898	86
462.118	89
462.338	95
462.558	100
462.777	87
462.997	88
463.217	82
463.437	88
463.657	98
463.876	99
464.096	89
464.316	93
464.536	95
464.755	85
464.975	81
465.195	98
465.414	84
465.634	82
465.854	81
466.073	78
466.293	88
466.512	96
466.732	92
466.951	87
467.171	86
467.391	88
467.61	86
467.829	97
468.049	95
468.268	84
468.488	83
468.707	88
468.927	93
469.146	86
469.365	90
469.585	92
469.804	77
470.023	83
470.243	81
470.462	85
470.681	80
470.901	71
471.12	82
471.339	89
471.558	94
471.777	83
471.997	94
472.216	106
472.435	94
472.654	81
472.873	96
473.092	96
473.311	90
473.53	81
473.749	88
473.968	82
474.187	74
474.406	88
474.625	89
474.844	86
475.063	102
475.282	86
475.501	75
475.72	78
475.939	94
476.158	80
476.377	76
476.596	84
476.814	87
477.033	100
477.252	90
477.471	75
477.69	68
477.908	91
478.127	94
478.346	96
478.564	85
478.783	78
479.002	87
479.22	98
479.439	92
479.658	98
479.876	95
480.095	90
480.313	94
480.532	88
480.751	96
480.969	80
481.188	90
481.406	94
481.624	86
481.843	87
482.061	87
482.28	94
482.498	98
482.717	92
482.935	83
483.153	99
483.372	87
483.59	94
483.808	97
484.027	90
484.245	88
484.463	94
484.681	100
484.9	96
485.118	99
485.336	78
485.554	111
485.772	91
485.99	74
486.209	91
486.427	81
486.645	92
486.863	80
487.081	81
487.299	106
487.517	83
487.735	91
487.953	87
488.171	104
488.389	81
488.607	86
488.825	88
489.043	80
489.261	96
489.479	93
489.696	93
489.914	102
490.132	93
490.35	82
490.568	72
490.786	88
491.003	79
491.221	85
491.439	96
491.657	90
491.874	100
492.092	102
492.31	90
492.527	92
492.745	93
492.963	82
493.18	83
493.398	108
493.615	92
493.833	89
494.05	80
494.268	93
494.485	95
494.703	80
494.92	86
495.138	84
495.355	100
495.573	87
495.79	92
496.008	93
496.225	82
496.442	104
496.66	97
496.877	94
497.094	90
497.312	100
497.529	91
497.746	94
497.963	96
498.181	81
498.398	73
498.615	96
498.832	80
499.049	99
499.267	87
499.484	98
499.701	100
499.918	102
500.135	107
500.352	101
500.569	110
500.786	102
501.003	98
501.22	94
501.437	84
501.654	103
501.871	106
502.088	94
502.305	96
502.522	93
502.739	90
502.956	99
503.172	100
503.389	104
503.606	86
503.823	106
504.04	95
504.256	88
504.473	84
504.69	94
504.907	95
505.123	95
505.34	92
505.557	96
505.773	79
505.99	94
506.207	75
506.423	96
506.64	79
506.856	76
507.073	89
507.289	88
507.506	83
507.722	80
507.939	87
508.155	99
508.372	108
508.588	81
508.805	92
509.021	73
509.238	89
509.454	91
509.67	87
509.887	89
510.103	99
510.319	77
510.536	88
510.752	84
510.968	97
511.184	102
511.401	94
511.617	82
511.833	88
512.049	75
512.265	86
512.481	95
512.698	84
512.914	79
513.13	78
513.346	78
513.562	86
513.778	110
513.994	78
514.21	84
514.426	104
514.642	93
514.858	97
515.074	80
515.29	87
515.506	92
515.721	85
515.937	94
516.153	82
516.369	99
516.585	82
516.801	84
517.016	79
517.232	86
517.448	94
517.664	105
517.879	90
518.095	89
518.311	106
518.527	92
518.742	90
518.958	72
519.173	84
519.389	102
519.605	90
519.82	84
520.036	94
520.251	83
520.467	95
520.682	85
520.898	73
521.113	92
521.329	84
521.544	82
521.76	86
521.975	82
522.19	88
522.406	80
522.621	107
522.836	92
523.052	90
523.267	72
523.482	87
523.698	98
523.913	94
524.128	91
524.343	86
524.559	96
524.774	86
524.989	96
525.204	97
525.419	82
525.634	89
525.849	74
526.064	85
526.28	92
526.495	91
526.71	99
526.925	99
527.14	87
527.355	74
527.57	80
527.785	84
527.999	88
528.214	98
528.429	89
528.644	99
528.859	94
529.074	86
529.289	97
529.503	93
529.718	90
529.933	82
530.148	81
530.363	94
530.577	94
530.792	86
531.007	88
531.221	90
531.436	89
531.651	95
531.865	76
532.08	83
532.295	94
532.509	106
532.724	90
532.938	95
533.153	85
533.367	87
533.582	90
533.796	92
534.011	99
534.225	90
534.44	88
534.654	84
534.868	81
535.083	102
535.297	94
535.511	87
535.726	106
535.94	84
536.154	98
536.369	86
536.583	96
536.797	86
537.011	96
537.225	95
537.44	83
537.654	85
537.868	89
538.082	88
538.296	82
538.51	88
538.724	94
538.938	78
539.153	105
539.367	89
539.581	91
539.795	88
540.009	73
540.222	94
540.436	86
540.65	92
540.864	73
541.078	98
541.292	96
541.506	96
541.72	82
541.934	102
542.147	73
542.361	98
542.575	86
542.789	91
543.002	92
543.216	83
543.43	81
543.644	88
543.857	95
544.071	90
544.285	106
544.498	89
544.712	92
544.925	78
545.139	96
545.352	83
545.566	92
545.779	85
545.993	98
546.206	85
546.42	75
546.633	95
546.847	93
547.06	104
547.274	100
547.487	100
547.7	97
547.914	71
548.127	76
548.34	87
548.554	96
548.767	102
548.98	95
549.193	92
549.407	83
549.62	79
549.833	86
550.046	80
550.259	81
550.473	81
550.686	98
550.899	87
551.112	91
551.325	79
551.538	94
551.751	90
551.964	103
552.177	91
552.39	82
552.603	83
552.816	93
553.029	89
553.242	76
553.455	97
553.667	81
553.88	93
554.093	66
554.306	83
554.519	90
554.732	83
554.944	74
555.157	94
555.37	83
555.583	87
555.795	97
556.008	102
556.221	90
556.433	94
556.646	93
556.859	90
557.071	91
557.284	93
557.496	76
557.709	83
557.921	85
558.134	86
558.346	101
558.559	92
558.771	82
558.984	78
559.196	84
559.409	77
559.621	89
559.833	80
560.046	90
560.258	85
560.47	75
560.683	84
560.895	97
561.107	86
561.32	74
561.532	83
561.744	79
561.956	95
562.168	82
562.381	74
562.593	88
562.805	86
563.017	89
563.229	80
563.441	92
563.653	82
563.865	88
564.077	76
564.289	91
564.501	83
564.713	97
564.925	89
565.137	93
565.349	88
565.561	98
565.773	98
565.985	94
566.197	92
566.408	94
566.62	101
566.832	89
567.044	82
567.255	87
567.467	93
567.679	100
567.891	97
568.102	100
568.314	92
568.526	96
568.737	89
568.949	99
569.161	76
569.372	92
569.584	78
569.795	88
570.007	83
570.218	82
570.43	87
570.641	104
570.853	95
571.064	91
571.276	92
571.487	92
571.698	90
571.91	92
572.121	82
572.333	82
572.544	65
572.755	79
572.966	98
573.178	98
573.389	89
573.6	94
573.811	91
574.023	89
574.234	99
574.445	90
574.656	87
574.867	88
575.078	90
575.289	84
575.501	88
575.712	84
575.923	82
576.134	89
576.345	84
576.556	105
576.767	90
576.978	95
577.188	86
577.399	94
577.61	86
577.821	90
578.032	98
578.243	87
578.454	83
578.665	82
578.875	82
579.086	100
579.297	93
579.508	83
579.718	98
579.929	76
580.14	86
580.35	92
580.561	94
580.772	94
580.982	80
581.193	82
581.403	93
581.614	81
581.825	90
582.035	92
582.246	77
582.456	94
582.667	97
582.877	92
583.087	96
583.298	88
583.508	87
583.719	90
583.929	102
584.139	78
584.35	76
584.56	87
584.77	89
584.981	90
585.191	96
585.401	86
585.611	94
585.821	78
586.032	85
586.242	86
586.452	82
586.662	81
586.872	79
587.082	99
587.292	86
587.502	83
587.713	77
587.923	79
588.133	76
588.343	79
588.553	70
588.762	84
588.972	99
589.182	78
