Data from BG_HRD10591_025.txt Node
Date: Fri May 16 15:33:19 EDT 2025
User: Yrep
Spectrometer: HR+D1059
Trigger mode: 1
Integration Time (sec): 1.000000E-1
Scans to average: 1
Electric dark correction enabled: true
Nonlinearity correction enabled: false
Boxcar width: 0
XAxis mode: Wavelengths
Number of Pixels in Spectrum: 2048
>>>>>Begin Spectral Data<<<<<
223.165	-17.75
223.4	-17.75
223.635	-17.75
223.869	-25.75
224.104	-20.75
224.338	-19.75
224.573	-12.75
224.808	-7.75
225.042	-13.75
225.277	8.25
225.511	2.25
225.746	4.25
225.98	-4.75
226.215	11.25
226.449	19.25
226.683	26.25
226.918	24.25
227.152	27.25
227.387	24.25
227.621	31.25
227.856	41.25
228.09	48.25
228.324	54.25
228.559	54.25
228.793	58.25
229.027	66.25
229.262	60.25
229.496	58.25
229.73	78.25
229.964	80.25
230.199	75.25
230.433	63.25
230.667	71.25
230.901	82.25
231.136	73.25
231.37	77.25
231.604	84.25
231.838	84.25
232.072	77.25
232.306	81.25
232.541	68.25
232.775	79.25
233.009	81.25
233.243	82.25
233.477	62.25
233.711	79.25
233.945	86.25
234.179	84.25
234.413	70.25
234.647	77.25
234.881	71.25
235.115	85.25
235.349	67.25
235.583	82.25
235.817	76.25
236.051	76.25
236.285	82.25
236.519	76.25
236.753	77.25
236.987	70.25
237.221	80.25
237.455	76.25
237.689	84.25
237.922	82.25
238.156	84.25
238.39	86.25
238.624	77.25
238.858	71.25
239.091	72.25
239.325	67.25
239.559	72.25
239.793	73.25
240.027	79.25
240.26	78.25
240.494	69.25
240.728	79.25
240.961	72.25
241.195	90.25
241.429	74.25
241.662	83.25
241.896	94.25
242.13	71.25
242.363	72.25
242.597	69.25
242.83	100.25
243.064	78.25
243.298	66.25
243.531	89.25
243.765	77.25
243.998	74.25
244.232	76.25
244.465	80.25
244.699	92.25
244.932	66.25
245.166	81.25
245.399	90.25
245.633	75.25
245.866	76.25
246.099	75.25
246.333	84.25
246.566	78.25
246.8	67.25
247.033	79.25
247.266	81.25
247.5	80.25
247.733	76.25
247.966	75.25
248.2	77.25
248.433	83.25
248.666	74.25
248.899	80.25
249.133	65.25
249.366	96.25
249.599	76.25
249.832	72.25
250.066	77.25
250.299	79.25
250.532	82.25
250.765	77.25
250.998	75.25
251.231	78.25
251.465	70.25
251.698	84.25
251.931	89.25
252.164	87.25
252.397	82.25
252.63	84.25
252.863	82.25
253.096	81.25
253.329	95.25
253.562	73.25
253.795	76.25
254.028	81.25
254.261	93.25
254.494	83.25
254.727	93.25
254.96	78.25
255.193	76.25
255.426	77.25
255.659	73.25
255.892	78.25
256.124	70.25
256.357	79.25
256.59	88.25
256.823	77.25
257.056	82.25
257.289	91.25
257.521	85.25
257.754	80.25
257.987	79.25
258.22	81.25
258.452	79.25
258.685	80.25
258.918	80.25
259.151	76.25
259.383	87.25
259.616	79.25
259.849	85.25
260.081	79.25
260.314	83.25
260.547	85.25
260.779	81.25
261.012	74.25
261.244	86.25
261.477	84.25
261.71	78.25
261.942	87.25
262.175	81.25
262.407	89.25
262.64	83.25
262.872	86.25
263.105	73.25
263.337	77.25
263.57	80.25
263.802	74.25
264.035	84.25
264.267	72.25
264.499	92.25
264.732	90.25
264.964	87.25
265.197	85.25
265.429	76.25
265.661	96.25
265.894	85.25
266.126	83.25
266.358	77.25
266.591	75.25
266.823	73.25
267.055	78.25
267.287	73.25
267.52	64.25
267.752	86.25
267.984	72.25
268.216	80.25
268.448	78.25
268.681	82.25
268.913	90.25
269.145	75.25
269.377	81.25
269.609	76.25
269.841	77.25
270.073	76.25
270.306	90.25
270.538	76.25
270.77	77.25
271.002	90.25
271.234	86.25
271.466	73.25
271.698	89.25
271.93	88.25
272.162	86.25
272.394	75.25
272.626	80.25
272.858	88.25
273.09	85.25
273.322	108.25
273.553	92.25
273.785	95.25
274.017	93.25
274.249	88.25
274.481	70.25
274.713	89.25
274.945	82.25
275.176	81.25
275.408	90.25
275.64	88.25
275.872	79.25
276.104	83.25
276.335	74.25
276.567	88.25
276.799	90.25
277.031	102.25
277.262	87.25
277.494	95.25
277.726	83.25
277.957	77.25
278.189	75.25
278.421	84.25
278.652	86.25
278.884	88.25
279.115	86.25
279.347	95.25
279.579	80.25
279.81	57.25
280.042	89.25
280.273	88.25
280.505	80.25
280.736	82.25
280.968	80.25
281.199	93.25
281.431	83.25
281.662	81.25
281.894	92.25
282.125	95.25
282.356	94.25
282.588	87.25
282.819	90.25
283.051	81.25
283.282	80.25
283.513	77.25
283.745	94.25
283.976	84.25
284.207	87.25
284.439	89.25
284.67	90.25
284.901	100.25
285.132	84.25
285.364	98.25
285.595	95.25
285.826	88.25
286.057	87.25
286.288	76.25
286.52	92.25
286.751	94.25
286.982	92.25
287.213	92.25
287.444	85.25
287.675	87.25
287.906	94.25
288.138	78.25
288.369	82.25
288.6	89.25
288.831	92.25
289.062	92.25
289.293	63.25
289.524	86.25
289.755	88.25
289.986	91.25
290.217	61.25
290.448	82.25
290.679	85.25
290.91	74.25
291.141	79.25
291.371	78.25
291.602	78.25
291.833	79.25
292.064	82.25
292.295	76.25
292.526	91.25
292.757	84.25
292.987	84.25
293.218	87.25
293.449	97.25
293.68	92.25
293.91	77.25
294.141	88.25
294.372	100.25
294.603	78.25
294.833	90.25
295.064	79.25
295.295	75.25
295.525	93.25
295.756	84.25
295.987	77.25
296.217	88.25
296.448	79.25
296.679	102.25
296.909	85.25
297.14	87.25
297.37	80.25
297.601	102.25
297.831	84.25
298.062	91.25
298.292	79.25
298.523	90.25
298.753	88.25
298.984	82.25
299.214	80.25
299.445	91.25
299.675	88.25
299.905	97.25
300.136	96.25
300.366	73.25
300.597	89.25
300.827	76.25
301.057	82.25
301.288	96.25
301.518	89.25
301.748	88.25
301.979	105.25
302.209	92.25
302.439	89.25
302.669	83.25
302.9	90.25
303.13	94.25
303.36	82.25
303.59	90.25
303.82	88.25
304.051	85.25
304.281	89.25
304.511	96.25
304.741	88.25
304.971	90.25
305.201	86.25
305.431	86.25
305.661	86.25
305.891	79.25
306.121	90.25
306.352	96.25
306.582	93.25
306.812	84.25
307.042	74.25
307.272	78.25
307.502	75.25
307.731	83.25
307.961	82.25
308.191	86.25
308.421	85.25
308.651	80.25
308.881	90.25
309.111	90.25
309.341	82.25
309.571	80.25
309.8	74.25
310.03	77.25
310.26	92.25
310.49	89.25
310.72	73.25
310.949	81.25
311.179	82.25
311.409	87.25
311.639	82.25
311.868	88.25
312.098	106.25
312.328	92.25
312.557	84.25
312.787	77.25
313.017	79.25
313.246	86.25
313.476	89.25
313.706	76.25
313.935	86.25
314.165	78.25
314.394	88.25
314.624	98.25
314.853	85.25
315.083	80.25
315.312	81.25
315.542	81.25
315.771	72.25
316.001	75.25
316.23	96.25
316.46	70.25
316.689	92.25
316.919	78.25
317.148	87.25
317.377	84.25
317.607	102.25
317.836	90.25
318.065	98.25
318.295	92.25
318.524	88.25
318.753	86.25
318.983	85.25
319.212	80.25
319.441	86.25
319.67	86.25
319.9	81.25
320.129	86.25
320.358	100.25
320.587	103.25
320.816	84.25
321.046	78.25
321.275	80.25
321.504	89.25
321.733	92.25
321.962	95.25
322.191	89.25
322.42	78.25
322.649	83.25
322.878	84.25
323.108	89.25
323.337	79.25
323.566	80.25
323.795	93.25
324.024	78.25
324.253	72.25
324.482	85.25
324.71	86.25
324.939	86.25
325.168	76.25
325.397	70.25
325.626	81.25
325.855	85.25
326.084	101.25
326.313	82.25
326.542	85.25
326.77	76.25
326.999	86.25
327.228	75.25
327.457	89.25
327.686	65.25
327.914	73.25
328.143	85.25
328.372	102.25
328.6	80.25
328.829	88.25
329.058	81.25
329.287	73.25
329.515	94.25
329.744	85.25
329.972	71.25
330.201	86.25
330.43	93.25
330.658	90.25
330.887	93.25
331.115	74.25
331.344	83.25
331.572	71.25
331.801	64.25
332.03	88.25
332.258	91.25
332.486	86.25
332.715	88.25
332.943	89.25
333.172	79.25
333.4	84.25
333.629	80.25
333.857	78.25
334.085	82.25
334.314	86.25
334.542	79.25
334.771	76.25
334.999	82.25
335.227	76.25
335.455	91.25
335.684	91.25
335.912	100.25
336.14	85.25
336.369	78.25
336.597	79.25
336.825	95.25
337.053	79.25
337.281	79.25
337.51	74.25
337.738	108.25
337.966	82.25
338.194	82.25
338.422	79.25
338.65	94.25
338.878	81.25
339.106	93.25
339.334	97.25
339.562	71.25
339.79	82.25
340.018	85.25
340.246	98.25
340.474	96.25
340.702	90.25
340.93	85.25
341.158	85.25
341.386	92.25
341.614	84.25
341.842	78.25
342.07	85.25
342.298	77.25
342.526	90.25
342.754	84.25
342.981	78.25
343.209	92.25
343.437	102.25
343.665	80.25
343.893	76.25
344.12	87.25
344.348	72.25
344.576	98.25
344.804	93.25
345.031	81.25
345.259	78.25
345.487	79.25
345.714	80.25
345.942	84.25
346.17	76.25
346.397	85.25
346.625	80.25
346.853	79.25
347.08	93.25
347.308	86.25
347.535	92.25
347.763	79.25
347.99	88.25
348.218	92.25
348.445	89.25
348.673	90.25
348.9	94.25
349.128	95.25
349.355	87.25
349.583	90.25
349.81	73.25
350.037	96.25
350.265	90.25
350.492	87.25
350.72	88.25
350.947	72.25
351.174	93.25
351.402	81.25
351.629	88.25
351.856	86.25
352.083	89.25
352.311	81.25
352.538	76.25
352.765	96.25
352.992	87.25
353.22	80.25
353.447	88.25
353.674	75.25
353.901	72.25
354.128	85.25
354.355	79.25
354.583	92.25
354.81	96.25
355.037	79.25
355.264	88.25
355.491	94.25
355.718	78.25
355.945	96.25
356.172	77.25
356.399	100.25
356.626	96.25
356.853	75.25
357.08	87.25
357.307	81.25
357.534	79.25
357.761	77.25
357.988	84.25
358.215	87.25
358.441	88.25
358.668	86.25
358.895	86.25
359.122	100.25
359.349	86.25
359.576	79.25
359.802	77.25
360.029	90.25
360.256	76.25
360.483	78.25
360.709	89.25
360.936	75.25
361.163	77.25
361.39	93.25
361.616	76.25
361.843	78.25
362.07	72.25
362.296	86.25
362.523	77.25
362.749	87.25
362.976	77.25
363.203	106.25
363.429	93.25
363.656	81.25
363.882	81.25
364.109	104.25
364.335	84.25
364.562	87.25
364.788	85.25
365.015	81.25
365.241	90.25
365.468	75.25
365.694	74.25
365.92	86.25
366.147	80.25
366.373	96.25
366.599	95.25
366.826	90.25
367.052	93.25
367.278	77.25
367.505	77.25
367.731	90.25
367.957	95.25
368.184	86.25
368.41	84.25
368.636	90.25
368.862	82.25
369.089	82.25
369.315	95.25
369.541	82.25
369.767	79.25
369.993	66.25
370.219	88.25
370.445	94.25
370.672	97.25
370.898	77.25
371.124	85.25
371.35	85.25
371.576	84.25
371.802	97.25
372.028	78.25
372.254	94.25
372.48	78.25
372.706	83.25
372.932	72.25
373.158	86.25
373.384	80.25
373.61	100.25
373.835	90.25
374.061	86.25
374.287	70.25
374.513	88.25
374.739	84.25
374.965	88.25
375.191	92.25
375.416	91.25
375.642	92.25
375.868	86.25
376.094	92.25
376.319	78.25
376.545	100.25
376.771	79.25
376.997	76.25
377.222	96.25
377.448	84.25
377.674	89.25
377.899	70.25
378.125	91.25
378.35	93.25
378.576	74.25
378.802	74.25
379.027	84.25
379.253	84.25
379.478	77.25
379.704	80.25
379.929	89.25
380.155	79.25
380.38	87.25
380.606	89.25
380.831	91.25
381.057	101.25
381.282	94.25
381.507	84.25
381.733	94.25
381.958	99.25
382.184	92.25
382.409	91.25
382.634	89.25
382.86	88.25
383.085	90.25
383.31	86.25
383.535	90.25
383.761	88.25
383.986	82.25
384.211	83.25
384.436	74.25
384.662	77.25
384.887	86.25
385.112	75.25
385.337	88.25
385.562	93.25
385.787	88.25
386.013	86.25
386.238	80.25
386.463	88.25
386.688	102.25
386.913	102.25
387.138	89.25
387.363	94.25
387.588	92.25
387.813	84.25
388.038	79.25
388.263	87.25
388.488	81.25
388.713	86.25
388.938	93.25
389.163	96.25
389.387	88.25
389.612	89.25
389.837	84.25
390.062	77.25
390.287	74.25
390.512	64.25
390.736	91.25
390.961	87.25
391.186	86.25
391.411	87.25
391.636	80.25
391.86	88.25
392.085	88.25
392.31	72.25
392.534	88.25
392.759	102.25
392.984	88.25
393.208	82.25
393.433	79.25
393.658	88.25
393.882	84.25
394.107	71.25
394.331	86.25
394.556	88.25
394.78	98.25
395.005	87.25
395.229	82.25
395.454	96.25
395.678	105.25
395.903	89.25
396.127	80.25
396.352	86.25
396.576	92.25
396.801	84.25
397.025	92.25
397.249	83.25
397.474	94.25
397.698	86.25
397.922	92.25
398.147	85.25
398.371	100.25
398.595	87.25
398.82	95.25
399.044	87.25
399.268	73.25
399.492	80.25
399.717	94.25
399.941	84.25
400.165	83.25
400.389	92.25
400.613	88.25
400.837	87.25
401.062	85.25
401.286	86.25
401.51	91.25
401.734	81.25
401.958	79.25
402.182	74.25
402.406	84.25
402.63	78.25
402.854	72.25
403.078	83.25
403.302	89.25
403.526	88.25
403.75	81.25
403.974	83.25
404.198	87.25
404.422	74.25
404.645	80.25
404.869	88.25
405.093	80.25
405.317	87.25
405.541	86.25
405.765	99.25
405.988	77.25
406.212	72.25
406.436	90.25
406.66	87.25
406.883	100.25
407.107	90.25
407.331	100.25
407.555	93.25
407.778	96.25
408.002	102.25
408.226	96.25
408.449	80.25
408.673	61.25
408.896	100.25
409.12	76.25
409.344	86.25
409.567	89.25
409.791	96.25
410.014	83.25
410.238	87.25
410.461	73.25
410.685	94.25
410.908	84.25
411.132	92.25
411.355	82.25
411.578	89.25
411.802	92.25
412.025	84.25
412.249	72.25
412.472	87.25
412.695	90.25
412.919	88.25
413.142	78.25
413.365	73.25
413.589	81.25
413.812	90.25
414.035	96.25
414.258	77.25
414.482	75.25
414.705	97.25
414.928	87.25
415.151	80.25
415.374	82.25
415.597	82.25
415.821	82.25
416.044	81.25
416.267	72.25
416.49	86.25
416.713	100.25
416.936	92.25
417.159	86.25
417.382	89.25
417.605	106.25
417.828	99.25
418.051	82.25
418.274	76.25
418.497	90.25
418.72	94.25
418.943	89.25
419.166	76.25
419.389	81.25
419.611	70.25
419.834	77.25
420.057	79.25
420.28	73.25
420.503	69.25
420.726	84.25
420.948	88.25
421.171	84.25
421.394	82.25
421.617	90.25
421.839	77.25
422.062	93.25
422.285	86.25
422.507	74.25
422.73	86.25
422.953	101.25
423.175	87.25
423.398	84.25
423.621	93.25
423.843	82.25
424.066	77.25
424.288	87.25
424.511	80.25
424.733	84.25
424.956	87.25
425.178	95.25
425.401	88.25
425.623	78.25
425.846	89.25
426.068	82.25
426.291	81.25
426.513	84.25
426.735	83.25
426.958	82.25
427.18	86.25
427.402	90.25
427.625	86.25
427.847	81.25
428.069	81.25
428.292	82.25
428.514	86.25
428.736	85.25
428.958	84.25
429.181	85.25
429.403	77.25
429.625	88.25
429.847	95.25
430.069	89.25
430.292	67.25
430.514	92.25
430.736	85.25
430.958	79.25
431.18	77.25
431.402	82.25
431.624	73.25
431.846	89.25
432.068	94.25
432.29	85.25
432.512	95.25
432.734	80.25
432.956	92.25
433.178	74.25
433.4	79.25
433.622	90.25
433.844	88.25
434.066	79.25
434.287	86.25
434.509	80.25
434.731	86.25
434.953	84.25
435.175	72.25
435.397	95.25
435.618	102.25
435.84	95.25
436.062	89.25
436.284	95.25
436.505	93.25
436.727	78.25
436.949	92.25
437.17	78.25
437.392	81.25
437.614	81.25
437.835	76.25
438.057	73.25
438.278	74.25
438.5	87.25
438.721	92.25
438.943	89.25
439.165	80.25
439.386	88.25
439.608	73.25
439.829	85.25
440.05	94.25
440.272	83.25
440.493	85.25
440.715	87.25
440.936	94.25
441.158	80.25
441.379	92.25
441.6	80.25
441.822	94.25
442.043	88.25
442.264	80.25
442.486	93.25
442.707	86.25
442.928	76.25
443.149	68.25
443.371	79.25
443.592	89.25
443.813	86.25
444.034	90.25
444.255	87.25
444.476	75.25
444.698	102.25
444.919	86.25
445.14	180.25
445.361	130.25
445.582	89.25
445.803	76.25
446.024	76.25
446.245	84.25
446.466	84.25
446.687	81.25
446.908	90.25
447.129	93.25
447.35	97.25
447.571	77.25
447.792	66.25
448.013	83.25
448.234	86.25
448.455	75.25
448.675	90.25
448.896	86.25
449.117	95.25
449.338	79.25
449.559	77.25
449.779	82.25
450	81.25
450.221	85.25
450.442	96.25
450.662	88.25
450.883	86.25
451.104	91.25
451.324	113.25
451.545	88.25
451.766	78.25
451.986	96.25
452.207	85.25
452.428	80.25
452.648	89.25
452.869	88.25
453.089	85.25
453.31	74.25
453.53	73.25
453.751	80.25
453.971	96.25
454.192	84.25
454.412	62.25
454.633	88.25
454.853	86.25
455.073	82.25
455.294	96.25
455.514	90.25
455.734	80.25
455.955	63.25
456.175	82.25
456.395	86.25
456.616	77.25
456.836	93.25
457.056	74.25
457.276	86.25
457.497	74.25
457.717	74.25
457.937	91.25
458.157	91.25
458.377	82.25
458.598	88.25
458.818	87.25
459.038	82.25
459.258	83.25
459.478	87.25
459.698	70.25
459.918	80.25
460.138	80.25
460.358	81.25
460.578	83.25
460.798	104.25
461.018	100.25
461.238	91.25
461.458	91.25
461.678	88.25
461.898	83.25
462.118	84.25
462.338	84.25
462.558	101.25
462.777	94.25
462.997	96.25
463.217	86.25
463.437	84.25
463.657	81.25
463.876	86.25
464.096	77.25
464.316	77.25
464.536	105.25
464.755	104.25
464.975	101.25
465.195	81.25
465.414	77.25
465.634	81.25
465.854	78.25
466.073	68.25
466.293	76.25
466.512	84.25
466.732	89.25
466.951	93.25
467.171	96.25
467.391	81.25
467.61	92.25
467.829	86.25
468.049	82.25
468.268	74.25
468.488	88.25
468.707	87.25
468.927	85.25
469.146	83.25
469.365	81.25
469.585	84.25
469.804	73.25
470.023	81.25
470.243	88.25
470.462	93.25
470.681	96.25
470.901	84.25
471.12	84.25
471.339	84.25
471.558	84.25
471.777	102.25
471.997	83.25
472.216	91.25
472.435	93.25
472.654	75.25
472.873	102.25
473.092	86.25
473.311	103.25
473.53	80.25
473.749	85.25
473.968	80.25
474.187	79.25
474.406	84.25
474.625	87.25
474.844	75.25
475.063	91.25
475.282	75.25
475.501	81.25
475.72	80.25
475.939	88.25
476.158	85.25
476.377	87.25
476.596	90.25
476.814	93.25
477.033	101.25
477.252	87.25
477.471	84.25
477.69	80.25
477.908	84.25
478.127	113.25
478.346	88.25
478.564	83.25
478.783	82.25
479.002	84.25
479.22	91.25
479.439	88.25
479.658	76.25
479.876	91.25
480.095	86.25
480.313	99.25
480.532	103.25
480.751	95.25
480.969	82.25
481.188	74.25
481.406	87.25
481.624	75.25
481.843	91.25
482.061	85.25
482.28	85.25
482.498	78.25
482.717	94.25
482.935	87.25
483.153	74.25
483.372	92.25
483.59	85.25
483.808	86.25
484.027	84.25
484.245	69.25
484.463	78.25
484.681	100.25
484.9	74.25
485.118	84.25
485.336	83.25
485.554	82.25
485.772	79.25
485.99	97.25
486.209	89.25
486.427	89.25
486.645	77.25
486.863	87.25
487.081	85.25
487.299	97.25
487.517	78.25
487.735	88.25
487.953	88.25
488.171	90.25
488.389	89.25
488.607	82.25
488.825	76.25
489.043	93.25
489.261	93.25
489.479	80.25
489.696	105.25
489.914	76.25
490.132	86.25
490.35	93.25
490.568	84.25
490.786	89.25
491.003	87.25
491.221	97.25
491.439	85.25
491.657	89.25
491.874	102.25
492.092	84.25
492.31	74.25
492.527	94.25
492.745	85.25
492.963	79.25
493.18	85.25
493.398	97.25
493.615	84.25
493.833	85.25
494.05	87.25
494.268	90.25
494.485	101.25
494.703	96.25
494.92	86.25
495.138	90.25
495.355	83.25
495.573	80.25
495.79	103.25
496.008	91.25
496.225	82.25
496.442	96.25
496.66	96.25
496.877	86.25
497.094	91.25
497.312	100.25
497.529	102.25
497.746	96.25
497.963	85.25
498.181	92.25
498.398	86.25
498.615	84.25
498.832	86.25
499.049	93.25
499.267	95.25
499.484	91.25
499.701	96.25
499.918	84.25
500.135	109.25
500.352	112.25
500.569	103.25
500.786	94.25
501.003	92.25
501.22	103.25
501.437	92.25
501.654	105.25
501.871	99.25
502.088	92.25
502.305	101.25
502.522	96.25
502.739	81.25
502.956	95.25
503.172	95.25
503.389	95.25
503.606	109.25
503.823	101.25
504.04	76.25
504.256	107.25
504.473	85.25
504.69	97.25
504.907	97.25
505.123	76.25
505.34	79.25
505.557	86.25
505.773	90.25
505.99	91.25
506.207	77.25
506.423	80.25
506.64	90.25
506.856	88.25
507.073	82.25
507.289	88.25
507.506	87.25
507.722	90.25
507.939	96.25
508.155	89.25
508.372	80.25
508.588	78.25
508.805	76.25
509.021	82.25
509.238	88.25
509.454	93.25
509.67	78.25
509.887	78.25
510.103	81.25
510.319	73.25
510.536	83.25
510.752	90.25
510.968	91.25
511.184	84.25
511.401	93.25
511.617	88.25
511.833	73.25
512.049	86.25
512.265	89.25
512.481	98.25
512.698	94.25
512.914	80.25
513.13	72.25
513.346	94.25
513.562	86.25
513.778	95.25
513.994	84.25
514.21	72.25
514.426	87.25
514.642	88.25
514.858	98.25
515.074	96.25
515.29	90.25
515.506	91.25
515.721	88.25
515.937	96.25
516.153	93.25
516.369	84.25
516.585	87.25
516.801	77.25
517.016	79.25
517.232	85.25
517.448	84.25
517.664	88.25
517.879	104.25
518.095	88.25
518.311	101.25
518.527	78.25
518.742	94.25
518.958	85.25
519.173	88.25
519.389	73.25
