Data from BG_HRD10591_021.txt Node
Date: Fri May 16 15:33:17 EDT 2025
User: Yrep
Spectrometer: HR+D1059
Trigger mode: 1
Integration Time (sec): 1.000000E-1
Scans to average: 1
Electric dark correction enabled: true
Nonlinearity correction enabled: false
Boxcar width: 0
XAxis mode: Wavelengths
Number of Pixels in Spectrum: 2048
>>>>>Begin Spectral Data<<<<<
223.165	-18.88
223.4	-18.88
223.635	-18.88
223.869	-13.88
224.104	-17.88
224.338	-11.88
224.573	-2.88
224.808	-15.88
225.042	-9.88
225.277	-2.88
225.511	-4.88
225.746	15.12
225.98	3.12
226.215	1.12
226.449	15.12
226.683	19.12
226.918	28.12
227.152	17.12
227.387	26.12
227.621	40.12
227.856	46.12
228.09	53.12
228.324	50.12
228.559	74.12
228.793	55.12
229.027	52.12
229.262	72.12
229.496	81.12
229.73	69.12
229.964	82.12
230.199	80.12
230.433	70.12
230.667	75.12
230.901	83.12
231.136	82.12
231.37	94.12
231.604	86.12
231.838	77.12
232.072	88.12
232.306	76.12
232.541	88.12
232.775	85.12
233.009	76.12
233.243	71.12
233.477	67.12
233.711	77.12
233.945	72.12
234.179	79.12
234.413	82.12
234.647	72.12
234.881	73.12
235.115	76.12
235.349	86.12
235.583	77.12
235.817	87.12
236.051	89.12
236.285	81.12
236.519	73.12
236.753	65.12
236.987	71.12
237.221	80.12
237.455	68.12
237.689	67.12
237.922	75.12
238.156	89.12
238.39	82.12
238.624	81.12
238.858	74.12
239.091	68.12
239.325	69.12
239.559	77.12
239.793	73.12
240.027	85.12
240.26	90.12
240.494	90.12
240.728	67.12
240.961	91.12
241.195	72.12
241.429	74.12
241.662	67.12
241.896	73.12
242.13	68.12
242.363	72.12
242.597	71.12
242.83	72.12
243.064	71.12
243.298	75.12
243.531	72.12
243.765	80.12
243.998	83.12
244.232	82.12
244.465	70.12
244.699	87.12
244.932	82.12
245.166	78.12
245.399	76.12
245.633	73.12
245.866	74.12
246.099	90.12
246.333	78.12
246.566	76.12
246.8	82.12
247.033	89.12
247.266	76.12
247.5	87.12
247.733	75.12
247.966	87.12
248.2	89.12
248.433	69.12
248.666	79.12
248.899	61.12
249.133	78.12
249.366	87.12
249.599	81.12
249.832	77.12
250.066	88.12
250.299	67.12
250.532	75.12
250.765	73.12
250.998	67.12
251.231	82.12
251.465	73.12
251.698	82.12
251.931	90.12
252.164	86.12
252.397	78.12
252.63	67.12
252.863	87.12
253.096	75.12
253.329	79.12
253.562	73.12
253.795	77.12
254.028	89.12
254.261	75.12
254.494	90.12
254.727	90.12
254.96	82.12
255.193	81.12
255.426	94.12
255.659	66.12
255.892	71.12
256.124	65.12
256.357	84.12
256.59	93.12
256.823	85.12
257.056	88.12
257.289	82.12
257.521	76.12
257.754	77.12
257.987	85.12
258.22	82.12
258.452	73.12
258.685	72.12
258.918	76.12
259.151	76.12
259.383	72.12
259.616	81.12
259.849	63.12
260.081	81.12
260.314	81.12
260.547	70.12
260.779	74.12
261.012	79.12
261.244	75.12
261.477	89.12
261.71	84.12
261.942	73.12
262.175	95.12
262.407	93.12
262.64	82.12
262.872	72.12
263.105	83.12
263.337	83.12
263.57	81.12
263.802	74.12
264.035	86.12
264.267	76.12
264.499	95.12
264.732	82.12
264.964	81.12
265.197	78.12
265.429	85.12
265.661	74.12
265.894	67.12
266.126	81.12
266.358	80.12
266.591	86.12
266.823	82.12
267.055	75.12
267.287	95.12
267.52	78.12
267.752	95.12
267.984	90.12
268.216	78.12
268.448	79.12
268.681	87.12
268.913	83.12
269.145	86.12
269.377	75.12
269.609	78.12
269.841	72.12
270.073	77.12
270.306	63.12
270.538	95.12
270.77	84.12
271.002	94.12
271.234	75.12
271.466	98.12
271.698	100.12
271.93	65.12
272.162	73.12
272.394	72.12
272.626	86.12
272.858	96.12
273.09	78.12
273.322	87.12
273.553	87.12
273.785	74.12
274.017	77.12
274.249	74.12
274.481	80.12
274.713	82.12
274.945	86.12
275.176	101.12
275.408	90.12
275.64	85.12
275.872	89.12
276.104	88.12
276.335	89.12
276.567	104.12
276.799	66.12
277.031	79.12
277.262	84.12
277.494	92.12
277.726	89.12
277.957	86.12
278.189	71.12
278.421	81.12
278.652	83.12
278.884	68.12
279.115	85.12
279.347	91.12
279.579	83.12
279.81	65.12
280.042	85.12
280.273	81.12
280.505	85.12
280.736	89.12
280.968	90.12
281.199	78.12
281.431	91.12
281.662	80.12
281.894	85.12
282.125	91.12
282.356	65.12
282.588	81.12
282.819	97.12
283.051	96.12
283.282	89.12
283.513	83.12
283.745	82.12
283.976	81.12
284.207	90.12
284.439	83.12
284.67	93.12
284.901	85.12
285.132	76.12
285.364	87.12
285.595	85.12
285.826	70.12
286.057	88.12
286.288	84.12
286.52	91.12
286.751	75.12
286.982	88.12
287.213	77.12
287.444	77.12
287.675	86.12
287.906	86.12
288.138	81.12
288.369	77.12
288.6	78.12
288.831	82.12
289.062	89.12
289.293	97.12
289.524	65.12
289.755	99.12
289.986	87.12
290.217	78.12
290.448	85.12
290.679	69.12
290.91	91.12
291.141	83.12
291.371	84.12
291.602	87.12
291.833	92.12
292.064	98.12
292.295	85.12
292.526	88.12
292.757	73.12
292.987	75.12
293.218	79.12
293.449	62.12
293.68	88.12
293.91	82.12
294.141	87.12
294.372	101.12
294.603	85.12
294.833	90.12
295.064	97.12
295.295	75.12
295.525	89.12
295.756	87.12
295.987	85.12
296.217	94.12
296.448	88.12
296.679	86.12
296.909	89.12
297.14	91.12
297.37	86.12
297.601	81.12
297.831	98.12
298.062	95.12
298.292	90.12
298.523	82.12
298.753	90.12
298.984	70.12
299.214	88.12
299.445	97.12
299.675	94.12
299.905	74.12
300.136	82.12
300.366	79.12
300.597	79.12
300.827	82.12
301.057	82.12
301.288	75.12
301.518	78.12
301.748	99.12
301.979	94.12
302.209	75.12
302.439	71.12
302.669	85.12
302.9	86.12
303.13	90.12
303.36	78.12
303.59	87.12
303.82	91.12
304.051	96.12
304.281	94.12
304.511	97.12
304.741	91.12
304.971	90.12
305.201	97.12
305.431	87.12
305.661	78.12
305.891	90.12
306.121	102.12
306.352	70.12
306.582	78.12
306.812	81.12
307.042	70.12
307.272	77.12
307.502	80.12
307.731	90.12
307.961	95.12
308.191	86.12
308.421	87.12
308.651	79.12
308.881	96.12
309.111	85.12
309.341	83.12
309.571	90.12
309.8	85.12
310.03	93.12
310.26	80.12
310.49	95.12
310.72	95.12
310.949	87.12
311.179	81.12
311.409	87.12
311.639	78.12
311.868	92.12
312.098	96.12
312.328	78.12
312.557	95.12
312.787	86.12
313.017	88.12
313.246	83.12
313.476	85.12
313.706	81.12
313.935	83.12
314.165	85.12
314.394	81.12
314.624	91.12
314.853	87.12
315.083	96.12
315.312	92.12
315.542	82.12
315.771	94.12
316.001	94.12
316.23	90.12
316.46	81.12
316.689	87.12
316.919	69.12
317.148	85.12
317.377	88.12
317.607	85.12
317.836	95.12
318.065	86.12
318.295	84.12
318.524	89.12
318.753	87.12
318.983	93.12
319.212	86.12
319.441	89.12
319.67	91.12
319.9	63.12
320.129	95.12
320.358	102.12
320.587	88.12
320.816	95.12
321.046	98.12
321.275	88.12
321.504	73.12
321.733	76.12
321.962	79.12
322.191	81.12
322.42	89.12
322.649	90.12
322.878	98.12
323.108	78.12
323.337	78.12
323.566	93.12
323.795	82.12
324.024	86.12
324.253	80.12
324.482	87.12
324.71	92.12
324.939	98.12
325.168	90.12
325.397	66.12
325.626	78.12
325.855	82.12
326.084	90.12
326.313	91.12
326.542	82.12
326.77	98.12
326.999	89.12
327.228	91.12
327.457	73.12
327.686	94.12
327.914	99.12
328.143	99.12
328.372	86.12
328.6	82.12
328.829	89.12
329.058	90.12
329.287	74.12
329.515	75.12
329.744	84.12
329.972	86.12
330.201	83.12
330.43	95.12
330.658	96.12
330.887	99.12
331.115	85.12
331.344	73.12
331.572	88.12
331.801	95.12
332.03	87.12
332.258	76.12
332.486	85.12
332.715	95.12
332.943	94.12
333.172	91.12
333.4	92.12
333.629	82.12
333.857	73.12
334.085	82.12
334.314	93.12
334.542	101.12
334.771	82.12
334.999	79.12
335.227	79.12
335.455	90.12
335.684	99.12
335.912	82.12
336.14	87.12
336.369	83.12
336.597	93.12
336.825	83.12
337.053	92.12
337.281	99.12
337.51	88.12
337.738	81.12
337.966	94.12
338.194	82.12
338.422	86.12
338.65	85.12
338.878	81.12
339.106	88.12
339.334	98.12
339.562	83.12
339.79	95.12
340.018	83.12
340.246	99.12
340.474	85.12
340.702	79.12
340.93	91.12
341.158	82.12
341.386	79.12
341.614	99.12
341.842	77.12
342.07	97.12
342.298	85.12
342.526	67.12
342.754	96.12
342.981	98.12
343.209	79.12
343.437	89.12
343.665	89.12
343.893	73.12
344.12	81.12
344.348	90.12
344.576	92.12
344.804	87.12
345.031	90.12
345.259	74.12
345.487	82.12
345.714	86.12
345.942	83.12
346.17	90.12
346.397	75.12
346.625	88.12
346.853	77.12
347.08	102.12
347.308	88.12
347.535	104.12
347.763	84.12
347.99	71.12
348.218	94.12
348.445	80.12
348.673	95.12
348.9	88.12
349.128	93.12
349.355	82.12
349.583	82.12
349.81	76.12
350.037	78.12
350.265	82.12
350.492	80.12
350.72	82.12
350.947	90.12
351.174	96.12
351.402	82.12
351.629	86.12
351.856	80.12
352.083	97.12
352.311	85.12
352.538	96.12
352.765	88.12
352.992	75.12
353.22	96.12
353.447	69.12
353.674	82.12
353.901	84.12
354.128	96.12
354.355	98.12
354.583	89.12
354.81	88.12
355.037	80.12
355.264	89.12
355.491	80.12
355.718	87.12
355.945	98.12
356.172	76.12
356.399	91.12
356.626	80.12
356.853	82.12
357.08	86.12
357.307	87.12
357.534	92.12
357.761	78.12
357.988	87.12
358.215	101.12
358.441	89.12
358.668	84.12
358.895	70.12
359.122	77.12
359.349	69.12
359.576	71.12
359.802	81.12
360.029	100.12
360.256	88.12
360.483	77.12
360.709	87.12
360.936	89.12
361.163	88.12
361.39	78.12
361.616	77.12
361.843	76.12
362.07	82.12
362.296	89.12
362.523	82.12
362.749	79.12
362.976	82.12
363.203	109.12
363.429	81.12
363.656	81.12
363.882	77.12
364.109	82.12
364.335	81.12
364.562	79.12
364.788	95.12
365.015	90.12
365.241	81.12
365.468	94.12
365.694	81.12
365.92	89.12
366.147	80.12
366.373	79.12
366.599	78.12
366.826	89.12
367.052	81.12
367.278	89.12
367.505	87.12
367.731	87.12
367.957	82.12
368.184	96.12
368.41	106.12
368.636	87.12
368.862	82.12
369.089	84.12
369.315	86.12
369.541	89.12
369.767	85.12
369.993	81.12
370.219	86.12
370.445	80.12
370.672	85.12
370.898	87.12
371.124	84.12
371.35	92.12
371.576	97.12
371.802	86.12
372.028	88.12
372.254	82.12
372.48	85.12
372.706	87.12
372.932	94.12
373.158	90.12
373.384	85.12
373.61	85.12
373.835	78.12
374.061	82.12
374.287	86.12
374.513	82.12
374.739	88.12
374.965	99.12
375.191	88.12
375.416	89.12
375.642	89.12
375.868	98.12
376.094	73.12
376.319	82.12
376.545	89.12
376.771	80.12
376.997	81.12
377.222	86.12
377.448	85.12
377.674	81.12
377.899	84.12
378.125	85.12
378.35	93.12
378.576	94.12
378.802	85.12
379.027	89.12
379.253	99.12
379.478	95.12
379.704	82.12
379.929	80.12
380.155	85.12
380.38	74.12
380.606	70.12
380.831	86.12
381.057	78.12
381.282	82.12
381.507	86.12
381.733	96.12
381.958	82.12
382.184	72.12
382.409	82.12
382.634	103.12
382.86	92.12
383.085	77.12
383.31	83.12
383.535	91.12
383.761	87.12
383.986	69.12
384.211	91.12
384.436	72.12
384.662	81.12
384.887	77.12
385.112	89.12
385.337	91.12
385.562	94.12
385.787	97.12
386.013	86.12
386.238	82.12
386.463	83.12
386.688	99.12
386.913	83.12
387.138	90.12
387.363	93.12
387.588	87.12
387.813	93.12
388.038	94.12
388.263	89.12
388.488	86.12
388.713	78.12
388.938	95.12
389.163	93.12
389.387	98.12
389.612	81.12
389.837	86.12
390.062	84.12
390.287	89.12
390.512	85.12
390.736	82.12
390.961	82.12
391.186	77.12
391.411	84.12
391.636	79.12
391.86	79.12
392.085	94.12
392.31	103.12
392.534	89.12
392.759	103.12
392.984	87.12
393.208	101.12
393.433	99.12
393.658	80.12
393.882	80.12
394.107	90.12
394.331	92.12
394.556	96.12
394.78	84.12
395.005	85.12
395.229	74.12
395.454	93.12
395.678	91.12
395.903	80.12
396.127	82.12
396.352	86.12
396.576	92.12
396.801	81.12
397.025	94.12
397.249	97.12
397.474	101.12
397.698	75.12
397.922	79.12
398.147	87.12
398.371	82.12
398.595	89.12
398.82	92.12
399.044	101.12
399.268	97.12
399.492	90.12
399.717	88.12
399.941	94.12
400.165	79.12
400.389	77.12
400.613	76.12
400.837	88.12
401.062	93.12
401.286	97.12
401.51	99.12
401.734	79.12
401.958	86.12
402.182	91.12
402.406	89.12
402.63	94.12
402.854	89.12
403.078	91.12
403.302	89.12
403.526	90.12
403.75	95.12
403.974	81.12
404.198	89.12
404.422	103.12
404.645	79.12
404.869	89.12
405.093	91.12
405.317	95.12
405.541	89.12
405.765	89.12
405.988	81.12
406.212	94.12
406.436	67.12
406.66	82.12
406.883	99.12
407.107	94.12
407.331	90.12
407.555	90.12
407.778	95.12
408.002	91.12
408.226	81.12
408.449	77.12
408.673	73.12
408.896	90.12
409.12	86.12
409.344	91.12
409.567	95.12
409.791	78.12
410.014	90.12
410.238	95.12
410.461	95.12
410.685	88.12
410.908	86.12
411.132	105.12
411.355	97.12
411.578	73.12
411.802	85.12
412.025	88.12
412.249	94.12
412.472	86.12
412.695	79.12
412.919	96.12
413.142	83.12
413.365	83.12
413.589	101.12
413.812	85.12
414.035	79.12
414.258	93.12
414.482	88.12
414.705	76.12
414.928	91.12
415.151	98.12
415.374	88.12
415.597	90.12
415.821	87.12
416.044	93.12
416.267	83.12
416.49	85.12
416.713	82.12
416.936	79.12
417.159	104.12
417.382	95.12
417.605	97.12
417.828	105.12
418.051	96.12
418.274	75.12
418.497	89.12
418.72	95.12
418.943	89.12
419.166	93.12
419.389	76.12
419.611	97.12
419.834	76.12
420.057	88.12
420.28	80.12
420.503	79.12
420.726	88.12
420.948	98.12
421.171	80.12
421.394	97.12
421.617	88.12
421.839	81.12
422.062	91.12
422.285	80.12
422.507	91.12
422.73	101.12
422.953	92.12
423.175	80.12
423.398	85.12
423.621	76.12
423.843	79.12
424.066	93.12
424.288	90.12
424.511	99.12
424.733	90.12
424.956	108.12
425.178	83.12
425.401	94.12
425.623	96.12
425.846	82.12
426.068	84.12
426.291	106.12
426.513	71.12
426.735	89.12
426.958	104.12
427.18	97.12
427.402	81.12
427.625	95.12
427.847	78.12
428.069	86.12
428.292	81.12
428.514	91.12
428.736	91.12
428.958	89.12
429.181	85.12
429.403	85.12
429.625	90.12
429.847	91.12
430.069	80.12
430.292	87.12
430.514	82.12
430.736	87.12
430.958	94.12
431.18	82.12
431.402	83.12
431.624	86.12
431.846	81.12
432.068	86.12
432.29	96.12
432.512	88.12
432.734	85.12
432.956	78.12
433.178	89.12
433.4	71.12
433.622	91.12
433.844	98.12
434.066	94.12
434.287	84.12
434.509	95.12
434.731	91.12
434.953	92.12
435.175	79.12
435.397	99.12
435.618	83.12
435.84	79.12
436.062	101.12
436.284	98.12
436.505	76.12
436.727	84.12
436.949	74.12
437.17	83.12
437.392	81.12
437.614	90.12
437.835	87.12
438.057	66.12
438.278	95.12
438.5	75.12
438.721	71.12
438.943	78.12
439.165	83.12
439.386	87.12
439.608	96.12
439.829	91.12
440.05	97.12
440.272	81.12
440.493	96.12
440.715	81.12
440.936	89.12
441.158	95.12
441.379	86.12
441.6	81.12
441.822	99.12
442.043	85.12
442.264	80.12
442.486	73.12
442.707	81.12
442.928	87.12
443.149	81.12
443.371	92.12
443.592	88.12
443.813	86.12
444.034	91.12
444.255	79.12
444.476	89.12
444.698	89.12
444.919	110.12
445.14	152.12
445.361	121.12
445.582	98.12
445.803	96.12
446.024	72.12
446.245	82.12
446.466	79.12
446.687	85.12
446.908	92.12
447.129	93.12
447.35	77.12
447.571	85.12
447.792	82.12
448.013	80.12
448.234	76.12
448.455	74.12
448.675	80.12
448.896	84.12
449.117	90.12
449.338	91.12
449.559	92.12
449.779	93.12
450	91.12
450.221	85.12
450.442	86.12
450.662	93.12
450.883	75.12
451.104	93.12
451.324	77.12
451.545	91.12
451.766	89.12
451.986	90.12
452.207	90.12
452.428	102.12
452.648	92.12
452.869	87.12
453.089	82.12
453.31	90.12
453.53	88.12
453.751	89.12
453.971	88.12
454.192	81.12
454.412	77.12
454.633	96.12
454.853	89.12
455.073	76.12
455.294	71.12
455.514	93.12
455.734	83.12
455.955	74.12
456.175	97.12
456.395	79.12
456.616	92.12
456.836	85.12
457.056	82.12
457.276	82.12
457.497	80.12
457.717	87.12
457.937	83.12
458.157	86.12
458.377	86.12
458.598	77.12
458.818	94.12
459.038	89.12
459.258	82.12
459.478	88.12
459.698	86.12
459.918	80.12
460.138	91.12
460.358	91.12
460.578	93.12
460.798	94.12
461.018	90.12
461.238	98.12
461.458	92.12
461.678	102.12
461.898	98.12
462.118	81.12
462.338	95.12
462.558	89.12
462.777	93.12
462.997	102.12
463.217	70.12
463.437	98.12
463.657	93.12
463.876	81.12
464.096	98.12
464.316	91.12
464.536	92.12
464.755	100.12
464.975	85.12
465.195	94.12
465.414	82.12
465.634	89.12
465.854	90.12
466.073	76.12
466.293	81.12
466.512	87.12
466.732	89.12
466.951	99.12
467.171	75.12
467.391	83.12
467.61	95.12
467.829	92.12
468.049	89.12
468.268	75.12
468.488	86.12
468.707	81.12
468.927	84.12
469.146	98.12
469.365	81.12
469.585	87.12
469.804	81.12
470.023	98.12
470.243	79.12
470.462	76.12
470.681	85.12
470.901	93.12
471.12	90.12
471.339	91.12
471.558	75.12
471.777	85.12
471.997	86.12
472.216	95.12
472.435	78.12
472.654	97.12
472.873	111.12
473.092	78.12
473.311	97.12
473.53	94.12
473.749	97.12
473.968	95.12
474.187	77.12
474.406	82.12
474.625	88.12
474.844	95.12
475.063	88.12
475.282	87.12
475.501	94.12
475.72	96.12
475.939	104.12
476.158	99.12
476.377	81.12
476.596	79.12
476.814	98.12
477.033	81.12
477.252	71.12
477.471	88.12
477.69	103.12
477.908	93.12
478.127	109.12
478.346	84.12
478.564	101.12
478.783	87.12
479.002	101.12
479.22	90.12
479.439	95.12
479.658	85.12
479.876	86.12
480.095	91.12
480.313	99.12
480.532	86.12
480.751	104.12
480.969	89.12
481.188	86.12
481.406	90.12
481.624	73.12
481.843	85.12
482.061	94.12
482.28	92.12
482.498	105.12
482.717	85.12
482.935	95.12
483.153	82.12
483.372	85.12
483.59	78.12
483.808	79.12
484.027	97.12
484.245	101.12
484.463	94.12
484.681	104.12
484.9	89.12
485.118	89.12
485.336	95.12
485.554	106.12
485.772	83.12
485.99	74.12
486.209	93.12
486.427	93.12
486.645	87.12
486.863	81.12
487.081	87.12
487.299	87.12
487.517	79.12
487.735	87.12
487.953	80.12
488.171	107.12
488.389	98.12
488.607	94.12
488.825	101.12
489.043	75.12
489.261	85.12
489.479	77.12
489.696	93.12
489.914	88.12
490.132	106.12
490.35	92.12
490.568	79.12
490.786	92.12
491.003	85.12
491.221	91.12
491.439	90.12
491.657	91.12
491.874	93.12
492.092	86.12
492.31	83.12
492.527	95.12
492.745	105.12
492.963	93.12
493.18	90.12
493.398	97.12
493.615	80.12
493.833	97.12
494.05	91.12
494.268	80.12
494.485	100.12
494.703	94.12
494.92	79.12
495.138	98.12
495.355	88.12
495.573	96.12
495.79	88.12
496.008	103.12
496.225	87.12
496.442	88.12
496.66	98.12
496.877	81.12
497.094	95.12
497.312	82.12
497.529	78.12
497.746	90.12
497.963	106.12
498.181	105.12
498.398	88.12
498.615	95.12
498.832	97.12
499.049	89.12
499.267	101.12
499.484	98.12
499.701	103.12
499.918	104.12
500.135	119.12
500.352	107.12
500.569	113.12
500.786	105.12
501.003	109.12
501.22	103.12
501.437	99.12
501.654	75.12
501.871	82.12
502.088	92.12
502.305	97.12
502.522	90.12
502.739	74.12
502.956	83.12
503.172	99.12
503.389	82.12
503.606	88.12
503.823	95.12
504.04	98.12
504.256	83.12
504.473	88.12
504.69	98.12
504.907	102.12
505.123	91.12
505.34	88.12
505.557	94.12
505.773	98.12
505.99	85.12
506.207	93.12
506.423	83.12
506.64	101.12
506.856	86.12
507.073	82.12
507.289	94.12
507.506	94.12
507.722	97.12
507.939	87.12
508.155	67.12
508.372	92.12
508.588	81.12
508.805	90.12
509.021	105.12
509.238	91.12
509.454	86.12
509.67	89.12
509.887	93.12
510.103	83.12
510.319	83.12
510.536	94.12
510.752	87.12
510.968	86.12
511.184	90.12
511.401	109.12
511.617	87.12
511.833	94.12
512.049	87.12
512.265	87.12
512.481	86.12
512.698	87.12
512.914	79.12
513.13	91.12
513.346	98.12
513.562	95.12
513.778	92.12
513.994	94.12
514.21	102.12
514.426	95.12
514.642	94.12
514.858	92.12
515.074	78.12
515.29	109.12
515.506	82.12
515.721	87.12
515.937	71.12
516.153	86.12
516.369	92.12
516.585	86.12
516.801	92.12
517.016	94.12
517.232	95.12
517.448	87.12
517.664	97.12
517.879	81.12
518.095	78.12
518.311	91.12
518.527	91.12
518.742	99.12
518.958	90.12
519.173	91.12
519.389	97.12
