Data from BG_HRD10591_097.txt Node
Date: Fri May 16 15:33:55 EDT 2025
User: Yrep
Spectrometer: HR+D1059
Trigger mode: 1
Integration Time (sec): 1.000000E-1
Scans to average: 1
Electric dark correction enabled: true
Nonlinearity correction enabled: false
Boxcar width: 0
XAxis mode: Wavelengths
Number of Pixels in Spectrum: 2048
>>>>>Begin Spectral Data<<<<<
223.165	-18.19
223.4	-18.19
223.635	-18.19
223.869	-28.19
224.104	-17.19
224.338	-8.19
224.573	-17.19
224.808	-7.19
225.042	-0.19
225.277	-5.19
225.511	-8.19
225.746	-2.19
225.98	0.81
226.215	19.81
226.449	27.81
226.683	17.81
226.918	10.81
227.152	34.81
227.387	43.81
227.621	35.81
227.856	39.81
228.09	55.81
228.324	48.81
228.559	59.81
228.793	59.81
229.027	77.81
229.262	68.81
229.496	65.81
229.73	64.81
229.964	58.81
230.199	87.81
230.433	73.81
230.667	92.81
230.901	78.81
231.136	82.81
231.37	80.81
231.604	70.81
231.838	74.81
232.072	76.81
232.306	81.81
232.541	73.81
232.775	97.81
233.009	74.81
233.243	82.81
233.477	69.81
233.711	79.81
233.945	90.81
234.179	79.81
234.413	77.81
234.647	83.81
234.881	72.81
235.115	70.81
235.349	85.81
235.583	77.81
235.817	82.81
236.051	85.81
236.285	88.81
236.519	75.81
236.753	65.81
236.987	88.81
237.221	87.81
237.455	72.81
237.689	73.81
237.922	88.81
238.156	71.81
238.39	79.81
238.624	68.81
238.858	67.81
239.091	82.81
239.325	77.81
239.559	83.81
239.793	71.81
240.027	74.81
240.26	77.81
240.494	66.81
240.728	81.81
240.961	79.81
241.195	76.81
241.429	95.81
241.662	64.81
241.896	86.81
242.13	73.81
242.363	63.81
242.597	85.81
242.83	75.81
243.064	94.81
243.298	75.81
243.531	83.81
243.765	88.81
243.998	83.81
244.232	78.81
244.465	74.81
244.699	79.81
244.932	67.81
245.166	76.81
245.399	84.81
245.633	85.81
245.866	95.81
246.099	62.81
246.333	68.81
246.566	76.81
246.8	69.81
247.033	62.81
247.266	65.81
247.5	76.81
247.733	80.81
247.966	70.81
248.2	70.81
248.433	75.81
248.666	76.81
248.899	81.81
249.133	86.81
249.366	90.81
249.599	97.81
249.832	85.81
250.066	85.81
250.299	92.81
250.532	79.81
250.765	77.81
250.998	69.81
251.231	73.81
251.465	83.81
251.698	84.81
251.931	90.81
252.164	87.81
252.397	90.81
252.63	85.81
252.863	75.81
253.096	80.81
253.329	82.81
253.562	91.81
253.795	74.81
254.028	73.81
254.261	66.81
254.494	78.81
254.727	88.81
254.96	87.81
255.193	77.81
255.426	89.81
255.659	97.81
255.892	83.81
256.124	80.81
256.357	73.81
256.59	86.81
256.823	85.81
257.056	87.81
257.289	77.81
257.521	86.81
257.754	78.81
257.987	71.81
258.22	75.81
258.452	92.81
258.685	85.81
258.918	79.81
259.151	79.81
259.383	84.81
259.616	76.81
259.849	81.81
260.081	74.81
260.314	80.81
260.547	76.81
260.779	75.81
261.012	78.81
261.244	81.81
261.477	78.81
261.71	88.81
261.942	92.81
262.175	75.81
262.407	68.81
262.64	73.81
262.872	69.81
263.105	82.81
263.337	80.81
263.57	73.81
263.802	98.81
264.035	91.81
264.267	73.81
264.499	70.81
264.732	80.81
264.964	88.81
265.197	98.81
265.429	80.81
265.661	85.81
265.894	85.81
266.126	82.81
266.358	83.81
266.591	87.81
266.823	81.81
267.055	83.81
267.287	100.81
267.52	84.81
267.752	92.81
267.984	81.81
268.216	90.81
268.448	79.81
268.681	91.81
268.913	96.81
269.145	73.81
269.377	81.81
269.609	69.81
269.841	89.81
270.073	87.81
270.306	92.81
270.538	71.81
270.77	74.81
271.002	77.81
271.234	89.81
271.466	84.81
271.698	69.81
271.93	64.81
272.162	90.81
272.394	90.81
272.626	79.81
272.858	78.81
273.09	83.81
273.322	87.81
273.553	95.81
273.785	86.81
274.017	66.81
274.249	87.81
274.481	94.81
274.713	80.81
274.945	83.81
275.176	83.81
275.408	75.81
275.64	73.81
275.872	79.81
276.104	76.81
276.335	76.81
276.567	81.81
276.799	79.81
277.031	77.81
277.262	89.81
277.494	88.81
277.726	82.81
277.957	70.81
278.189	79.81
278.421	105.81
278.652	79.81
278.884	73.81
279.115	89.81
279.347	84.81
279.579	79.81
279.81	79.81
280.042	91.81
280.273	99.81
280.505	77.81
280.736	68.81
280.968	79.81
281.199	82.81
281.431	90.81
281.662	82.81
281.894	68.81
282.125	88.81
282.356	101.81
282.588	80.81
282.819	94.81
283.051	81.81
283.282	82.81
283.513	91.81
283.745	88.81
283.976	83.81
284.207	69.81
284.439	80.81
284.67	84.81
284.901	83.81
285.132	88.81
285.364	90.81
285.595	79.81
285.826	73.81
286.057	90.81
286.288	94.81
286.52	88.81
286.751	80.81
286.982	86.81
287.213	88.81
287.444	80.81
287.675	93.81
287.906	83.81
288.138	84.81
288.369	78.81
288.6	80.81
288.831	79.81
289.062	72.81
289.293	85.81
289.524	85.81
289.755	86.81
289.986	77.81
290.217	82.81
290.448	77.81
290.679	95.81
290.91	87.81
291.141	88.81
291.371	68.81
291.602	70.81
291.833	81.81
292.064	88.81
292.295	85.81
292.526	81.81
292.757	77.81
292.987	86.81
293.218	82.81
293.449	100.81
293.68	79.81
293.91	89.81
294.141	82.81
294.372	73.81
294.603	91.81
294.833	82.81
295.064	89.81
295.295	91.81
295.525	85.81
295.756	93.81
295.987	79.81
296.217	73.81
296.448	103.81
296.679	74.81
296.909	81.81
297.14	84.81
297.37	96.81
297.601	77.81
297.831	94.81
298.062	92.81
298.292	62.81
298.523	86.81
298.753	89.81
298.984	73.81
299.214	93.81
299.445	75.81
299.675	79.81
299.905	88.81
300.136	82.81
300.366	91.81
300.597	76.81
300.827	82.81
301.057	93.81
301.288	79.81
301.518	82.81
301.748	80.81
301.979	93.81
302.209	77.81
302.439	80.81
302.669	76.81
302.9	84.81
303.13	73.81
303.36	86.81
303.59	79.81
303.82	83.81
304.051	87.81
304.281	96.81
304.511	84.81
304.741	85.81
304.971	82.81
305.201	86.81
305.431	85.81
305.661	91.81
305.891	87.81
306.121	88.81
306.352	83.81
306.582	78.81
306.812	73.81
307.042	69.81
307.272	77.81
307.502	86.81
307.731	87.81
307.961	67.81
308.191	86.81
308.421	81.81
308.651	85.81
308.881	105.81
309.111	82.81
309.341	87.81
309.571	91.81
309.8	82.81
310.03	70.81
310.26	74.81
310.49	69.81
310.72	69.81
310.949	87.81
311.179	80.81
311.409	84.81
311.639	76.81
311.868	96.81
312.098	88.81
312.328	82.81
312.557	92.81
312.787	75.81
313.017	109.81
313.246	93.81
313.476	87.81
313.706	78.81
313.935	69.81
314.165	93.81
314.394	101.81
314.624	96.81
314.853	78.81
315.083	82.81
315.312	94.81
315.542	83.81
315.771	98.81
316.001	92.81
316.23	92.81
316.46	87.81
316.689	83.81
316.919	79.81
317.148	80.81
317.377	82.81
317.607	95.81
317.836	80.81
318.065	87.81
318.295	99.81
318.524	90.81
318.753	82.81
318.983	75.81
319.212	79.81
319.441	89.81
319.67	90.81
319.9	76.81
320.129	81.81
320.358	92.81
320.587	77.81
320.816	84.81
321.046	90.81
321.275	87.81
321.504	84.81
321.733	84.81
321.962	76.81
322.191	105.81
322.42	84.81
322.649	85.81
322.878	81.81
323.108	74.81
323.337	78.81
323.566	91.81
323.795	82.81
324.024	97.81
324.253	79.81
324.482	88.81
324.71	76.81
324.939	101.81
325.168	75.81
325.397	80.81
325.626	89.81
325.855	83.81
326.084	79.81
326.313	87.81
326.542	96.81
326.77	83.81
326.999	81.81
327.228	63.81
327.457	87.81
327.686	84.81
327.914	91.81
328.143	88.81
328.372	79.81
328.6	90.81
328.829	69.81
329.058	83.81
329.287	79.81
329.515	85.81
329.744	98.81
329.972	74.81
330.201	84.81
330.43	83.81
330.658	84.81
330.887	72.81
331.115	73.81
331.344	91.81
331.572	78.81
331.801	85.81
332.03	91.81
332.258	85.81
332.486	83.81
332.715	77.81
332.943	82.81
333.172	83.81
333.4	80.81
333.629	89.81
333.857	94.81
334.085	69.81
334.314	79.81
334.542	88.81
334.771	87.81
334.999	59.81
335.227	94.81
335.455	79.81
335.684	78.81
335.912	80.81
336.14	83.81
336.369	89.81
336.597	69.81
336.825	79.81
337.053	81.81
337.281	84.81
337.51	74.81
337.738	95.81
337.966	88.81
338.194	68.81
338.422	82.81
338.65	83.81
338.878	104.81
339.106	77.81
339.334	96.81
339.562	87.81
339.79	92.81
340.018	90.81
340.246	83.81
340.474	93.81
340.702	104.81
340.93	79.81
341.158	78.81
341.386	75.81
341.614	83.81
341.842	85.81
342.07	87.81
342.298	82.81
342.526	80.81
342.754	82.81
342.981	90.81
343.209	79.81
343.437	95.81
343.665	89.81
343.893	82.81
344.12	91.81
344.348	74.81
344.576	85.81
344.804	92.81
345.031	73.81
345.259	94.81
345.487	82.81
345.714	83.81
345.942	84.81
346.17	91.81
346.397	69.81
346.625	82.81
346.853	77.81
347.08	91.81
347.308	95.81
347.535	89.81
347.763	83.81
347.99	79.81
348.218	86.81
348.445	84.81
348.673	89.81
348.9	83.81
349.128	88.81
349.355	73.81
349.583	79.81
349.81	86.81
350.037	87.81
350.265	95.81
350.492	70.81
350.72	89.81
350.947	97.81
351.174	82.81
351.402	81.81
351.629	95.81
351.856	76.81
352.083	71.81
352.311	96.81
352.538	76.81
352.765	83.81
352.992	75.81
353.22	76.81
353.447	68.81
353.674	73.81
353.901	79.81
354.128	82.81
354.355	82.81
354.583	85.81
354.81	77.81
355.037	80.81
355.264	85.81
355.491	77.81
355.718	71.81
355.945	81.81
356.172	88.81
356.399	85.81
356.626	79.81
356.853	81.81
357.08	84.81
357.307	83.81
357.534	65.81
357.761	86.81
357.988	91.81
358.215	82.81
358.441	71.81
358.668	79.81
358.895	77.81
359.122	78.81
359.349	84.81
359.576	78.81
359.802	92.81
360.029	82.81
360.256	74.81
360.483	87.81
360.709	95.81
360.936	85.81
361.163	84.81
361.39	94.81
361.616	68.81
361.843	92.81
362.07	85.81
362.296	88.81
362.523	76.81
362.749	91.81
362.976	94.81
363.203	85.81
363.429	80.81
363.656	77.81
363.882	85.81
364.109	87.81
364.335	83.81
364.562	91.81
364.788	79.81
365.015	71.81
365.241	77.81
365.468	85.81
365.694	78.81
365.92	74.81
366.147	81.81
366.373	75.81
366.599	71.81
366.826	84.81
367.052	87.81
367.278	81.81
367.505	110.81
367.731	97.81
367.957	75.81
368.184	78.81
368.41	84.81
368.636	76.81
368.862	91.81
369.089	81.81
369.315	83.81
369.541	77.81
369.767	83.81
369.993	83.81
370.219	93.81
370.445	76.81
370.672	85.81
370.898	87.81
371.124	79.81
371.35	87.81
371.576	97.81
371.802	82.81
372.028	75.81
372.254	88.81
372.48	75.81
372.706	67.81
372.932	81.81
373.158	89.81
373.384	80.81
373.61	72.81
373.835	73.81
374.061	77.81
374.287	78.81
374.513	77.81
374.739	84.81
374.965	80.81
375.191	83.81
375.416	76.81
375.642	87.81
375.868	88.81
376.094	73.81
376.319	91.81
376.545	76.81
376.771	71.81
376.997	76.81
377.222	88.81
377.448	80.81
377.674	77.81
377.899	81.81
378.125	85.81
378.35	91.81
378.576	88.81
378.802	85.81
379.027	88.81
379.253	79.81
379.478	77.81
379.704	87.81
379.929	79.81
380.155	78.81
380.38	95.81
380.606	96.81
380.831	83.81
381.057	84.81
381.282	88.81
381.507	78.81
381.733	77.81
381.958	77.81
382.184	83.81
382.409	87.81
382.634	80.81
382.86	73.81
383.085	87.81
383.31	80.81
383.535	94.81
383.761	77.81
383.986	78.81
384.211	61.81
384.436	82.81
384.662	79.81
384.887	87.81
385.112	83.81
385.337	84.81
385.562	85.81
385.787	84.81
386.013	89.81
386.238	82.81
386.463	78.81
386.688	83.81
386.913	87.81
387.138	87.81
387.363	84.81
387.588	76.81
387.813	88.81
388.038	94.81
388.263	81.81
388.488	77.81
388.713	83.81
388.938	81.81
389.163	72.81
389.387	83.81
389.612	83.81
389.837	83.81
390.062	96.81
390.287	83.81
390.512	64.81
390.736	79.81
390.961	72.81
391.186	94.81
391.411	92.81
391.636	64.81
391.86	75.81
392.085	76.81
392.31	92.81
392.534	91.81
392.759	87.81
392.984	83.81
393.208	84.81
393.433	80.81
393.658	76.81
393.882	84.81
394.107	94.81
394.331	88.81
394.556	98.81
394.78	77.81
395.005	73.81
395.229	83.81
395.454	84.81
395.678	72.81
395.903	87.81
396.127	93.81
396.352	81.81
396.576	86.81
396.801	83.81
397.025	87.81
397.249	89.81
397.474	76.81
397.698	75.81
397.922	97.81
398.147	91.81
398.371	88.81
398.595	84.81
398.82	83.81
399.044	91.81
399.268	91.81
399.492	77.81
399.717	72.81
399.941	81.81
400.165	67.81
400.389	85.81
400.613	81.81
400.837	91.81
401.062	81.81
401.286	77.81
401.51	83.81
401.734	76.81
401.958	79.81
402.182	92.81
402.406	83.81
402.63	79.81
402.854	90.81
403.078	87.81
403.302	87.81
403.526	88.81
403.75	76.81
403.974	91.81
404.198	87.81
404.422	92.81
404.645	76.81
404.869	82.81
405.093	83.81
405.317	91.81
405.541	87.81
405.765	73.81
405.988	78.81
406.212	87.81
406.436	74.81
406.66	93.81
406.883	80.81
407.107	87.81
407.331	89.81
407.555	80.81
407.778	78.81
408.002	86.81
408.226	80.81
408.449	84.81
408.673	94.81
408.896	75.81
409.12	85.81
409.344	76.81
409.567	85.81
409.791	78.81
410.014	87.81
410.238	85.81
410.461	79.81
410.685	89.81
410.908	81.81
411.132	90.81
411.355	79.81
411.578	90.81
411.802	77.81
412.025	75.81
412.249	76.81
412.472	83.81
412.695	99.81
412.919	89.81
413.142	68.81
413.365	74.81
413.589	87.81
413.812	85.81
414.035	85.81
414.258	82.81
414.482	79.81
414.705	93.81
414.928	86.81
415.151	77.81
415.374	80.81
415.597	81.81
415.821	77.81
416.044	81.81
416.267	80.81
416.49	91.81
416.713	83.81
416.936	83.81
417.159	83.81
417.382	83.81
417.605	81.81
417.828	82.81
418.051	73.81
418.274	84.81
418.497	88.81
418.72	79.81
418.943	81.81
419.166	61.81
419.389	70.81
419.611	79.81
419.834	75.81
420.057	71.81
420.28	73.81
420.503	68.81
420.726	81.81
420.948	78.81
421.171	73.81
421.394	77.81
421.617	76.81
421.839	79.81
422.062	80.81
422.285	83.81
422.507	87.81
422.73	98.81
422.953	77.81
423.175	92.81
423.398	85.81
423.621	73.81
423.843	69.81
424.066	78.81
424.288	77.81
424.511	77.81
424.733	81.81
424.956	83.81
425.178	78.81
425.401	92.81
425.623	81.81
425.846	86.81
426.068	92.81
426.291	83.81
426.513	90.81
426.735	81.81
426.958	82.81
427.18	85.81
427.402	86.81
427.625	74.81
427.847	67.81
428.069	75.81
428.292	68.81
428.514	77.81
428.736	88.81
428.958	66.81
429.181	66.81
429.403	90.81
429.625	81.81
429.847	90.81
430.069	73.81
430.292	81.81
430.514	81.81
430.736	70.81
430.958	87.81
431.18	82.81
431.402	87.81
431.624	90.81
431.846	75.81
432.068	84.81
432.29	72.81
432.512	68.81
432.734	88.81
432.956	79.81
433.178	73.81
433.4	83.81
433.622	80.81
433.844	87.81
434.066	88.81
434.287	82.81
434.509	83.81
434.731	75.81
434.953	88.81
435.175	86.81
435.397	91.81
435.618	87.81
435.84	76.81
436.062	79.81
436.284	85.81
436.505	88.81
436.727	87.81
436.949	79.81
437.17	72.81
437.392	72.81
437.614	72.81
437.835	86.81
438.057	81.81
438.278	71.81
438.5	83.81
438.721	84.81
438.943	94.81
439.165	84.81
439.386	87.81
439.608	78.81
439.829	66.81
440.05	80.81
440.272	84.81
440.493	84.81
440.715	92.81
440.936	85.81
441.158	85.81
441.379	73.81
441.6	96.81
441.822	82.81
442.043	76.81
442.264	88.81
442.486	83.81
442.707	80.81
442.928	83.81
443.149	83.81
443.371	75.81
443.592	75.81
443.813	62.81
444.034	77.81
444.255	68.81
444.476	73.81
444.698	87.81
444.919	87.81
445.14	132.81
445.361	93.81
445.582	76.81
445.803	76.81
446.024	79.81
446.245	76.81
446.466	89.81
446.687	75.81
446.908	79.81
447.129	87.81
447.35	85.81
447.571	79.81
447.792	83.81
448.013	78.81
448.234	82.81
448.455	84.81
448.675	89.81
448.896	78.81
449.117	78.81
449.338	83.81
449.559	80.81
449.779	57.81
450	73.81
450.221	83.81
450.442	82.81
450.662	79.81
450.883	79.81
451.104	77.81
451.324	77.81
451.545	85.81
451.766	86.81
451.986	76.81
452.207	79.81
452.428	82.81
452.648	80.81
452.869	81.81
453.089	76.81
453.31	86.81
453.53	90.81
453.751	73.81
453.971	75.81
454.192	68.81
454.412	87.81
454.633	93.81
454.853	97.81
455.073	76.81
455.294	74.81
455.514	93.81
455.734	82.81
455.955	74.81
456.175	82.81
456.395	82.81
456.616	88.81
456.836	79.81
457.056	88.81
457.276	70.81
457.497	83.81
457.717	87.81
457.937	84.81
458.157	82.81
458.377	79.81
458.598	72.81
458.818	77.81
459.038	68.81
459.258	66.81
459.478	79.81
459.698	84.81
459.918	85.81
460.138	101.81
460.358	92.81
460.578	82.81
460.798	82.81
461.018	84.81
461.238	84.81
461.458	71.81
461.678	83.81
461.898	94.81
462.118	88.81
462.338	75.81
462.558	71.81
462.777	77.81
462.997	91.81
463.217	83.81
463.437	86.81
463.657	76.81
463.876	73.81
464.096	77.81
464.316	85.81
464.536	95.81
464.755	104.81
464.975	76.81
465.195	88.81
465.414	74.81
465.634	71.81
465.854	76.81
466.073	73.81
466.293	84.81
466.512	86.81
466.732	76.81
466.951	78.81
467.171	72.81
467.391	85.81
467.61	92.81
467.829	68.81
468.049	93.81
468.268	83.81
468.488	91.81
468.707	73.81
468.927	73.81
469.146	65.81
469.365	74.81
469.585	81.81
469.804	75.81
470.023	83.81
470.243	79.81
470.462	84.81
470.681	91.81
470.901	97.81
471.12	81.81
471.339	64.81
471.558	94.81
471.777	76.81
471.997	93.81
472.216	84.81
472.435	85.81
472.654	81.81
472.873	94.81
473.092	65.81
473.311	89.81
473.53	96.81
473.749	67.81
473.968	85.81
474.187	83.81
474.406	84.81
474.625	90.81
474.844	83.81
475.063	90.81
475.282	86.81
475.501	80.81
475.72	91.81
475.939	75.81
476.158	80.81
476.377	91.81
476.596	82.81
476.814	73.81
477.033	85.81
477.252	98.81
477.471	75.81
477.69	84.81
477.908	81.81
478.127	82.81
478.346	76.81
478.564	78.81
478.783	93.81
479.002	83.81
479.22	73.81
479.439	83.81
479.658	69.81
479.876	82.81
480.095	80.81
480.313	78.81
480.532	76.81
480.751	76.81
480.969	75.81
481.188	72.81
481.406	54.81
481.624	71.81
481.843	84.81
482.061	98.81
482.28	84.81
482.498	91.81
482.717	77.81
482.935	84.81
483.153	75.81
483.372	80.81
483.59	88.81
483.808	90.81
484.027	90.81
484.245	68.81
484.463	79.81
484.681	88.81
484.9	75.81
485.118	87.81
485.336	74.81
485.554	84.81
485.772	89.81
485.99	94.81
486.209	69.81
486.427	87.81
486.645	78.81
486.863	85.81
487.081	75.81
487.299	78.81
487.517	70.81
487.735	91.81
487.953	84.81
488.171	87.81
488.389	90.81
488.607	80.81
488.825	84.81
489.043	90.81
489.261	75.81
489.479	86.81
489.696	75.81
489.914	82.81
490.132	92.81
490.35	87.81
490.568	88.81
490.786	84.81
491.003	82.81
491.221	90.81
491.439	72.81
491.657	83.81
491.874	77.81
492.092	77.81
492.31	85.81
492.527	89.81
492.745	81.81
492.963	88.81
493.18	87.81
493.398	85.81
493.615	78.81
493.833	81.81
494.05	89.81
494.268	87.81
494.485	81.81
494.703	79.81
494.92	92.81
495.138	86.81
495.355	92.81
495.573	87.81
495.79	79.81
496.008	88.81
496.225	73.81
496.442	68.81
496.66	82.81
496.877	81.81
497.094	85.81
497.312	82.81
497.529	77.81
497.746	77.81
497.963	67.81
498.181	73.81
498.398	75.81
498.615	82.81
498.832	69.81
499.049	90.81
499.267	88.81
499.484	72.81
499.701	81.81
499.918	74.81
500.135	74.81
500.352	87.81
500.569	75.81
500.786	79.81
501.003	91.81
501.22	87.81
501.437	88.81
501.654	90.81
501.871	84.81
502.088	83.81
502.305	67.81
502.522	73.81
502.739	77.81
502.956	91.81
503.172	89.81
503.389	82.81
503.606	79.81
503.823	89.81
504.04	86.81
504.256	77.81
504.473	92.81
504.69	87.81
504.907	76.81
505.123	84.81
505.34	98.81
505.557	87.81
505.773	93.81
505.99	90.81
506.207	84.81
506.423	88.81
506.64	76.81
506.856	82.81
507.073	92.81
507.289	90.81
507.506	99.81
507.722	71.81
507.939	73.81
508.155	82.81
508.372	86.81
508.588	74.81
508.805	77.81
509.021	84.81
509.238	79.81
509.454	70.81
509.67	76.81
509.887	79.81
510.103	79.81
510.319	72.81
510.536	76.81
510.752	85.81
510.968	80.81
511.184	74.81
511.401	88.81
511.617	79.81
511.833	73.81
512.049	79.81
512.265	85.81
512.481	75.81
512.698	95.81
512.914	91.81
513.13	90.81
513.346	80.81
513.562	77.81
513.778	93.81
513.994	86.81
514.21	92.81
514.426	83.81
514.642	73.81
514.858	85.81
515.074	86.81
515.29	87.81
515.506	82.81
515.721	85.81
515.937	88.81
516.153	88.81
516.369	91.81
516.585	81.81
516.801	78.81
517.016	82.81
517.232	89.81
517.448	79.81
517.664	76.81
517.879	91.81
518.095	85.81
518.311	91.81
518.527	77.81
518.742	91.81
518.958	84.81
519.173	81.81
519.389	85.81
519.605	83.81
519.82	87.81
520.036	76.81
520.251	92.81
