Data from BG_HRD10591_070.txt Node
Date: Fri May 16 15:33:42 EDT 2025
User: Yrep
Spectrometer: HR+D1059
Trigger mode: 1
Integration Time (sec): 1.000000E-1
Scans to average: 1
Electric dark correction enabled: true
Nonlinearity correction enabled: false
Boxcar width: 0
XAxis mode: Wavelengths
Number of Pixels in Spectrum: 2048
>>>>>Begin Spectral Data<<<<<
223.165	-6.31
223.4	-6.31
223.635	-6.31
223.869	-28.31
224.104	-39.31
224.338	-15.31
224.573	-19.31
224.808	-8.31
225.042	-2.31
225.277	-14.31
225.511	-4.31
225.746	21.69
225.98	7.69
226.215	4.69
226.449	14.69
226.683	25.69
226.918	19.69
227.152	43.69
227.387	29.69
227.621	37.69
227.856	46.69
228.09	48.69
228.324	64.69
228.559	66.69
228.793	63.69
229.027	52.69
229.262	53.69
229.496	66.69
229.73	55.69
229.964	75.69
230.199	72.69
230.433	50.69
230.667	64.69
230.901	76.69
231.136	73.69
231.37	73.69
231.604	72.69
231.838	61.69
232.072	77.69
232.306	87.69
232.541	77.69
232.775	75.69
233.009	76.69
233.243	87.69
233.477	72.69
233.711	74.69
233.945	79.69
234.179	83.69
234.413	91.69
234.647	83.69
234.881	91.69
235.115	74.69
235.349	85.69
235.583	78.69
235.817	84.69
236.051	86.69
236.285	77.69
236.519	81.69
236.753	72.69
236.987	78.69
237.221	70.69
237.455	79.69
237.689	77.69
237.922	75.69
238.156	67.69
238.39	87.69
238.624	78.69
238.858	67.69
239.091	68.69
239.325	69.69
239.559	85.69
239.793	82.69
240.027	74.69
240.26	86.69
240.494	83.69
240.728	75.69
240.961	67.69
241.195	73.69
241.429	77.69
241.662	77.69
241.896	70.69
242.13	82.69
242.363	77.69
242.597	57.69
242.83	68.69
243.064	72.69
243.298	84.69
243.531	64.69
243.765	76.69
243.998	89.69
244.232	89.69
244.465	76.69
244.699	75.69
244.932	71.69
245.166	81.69
245.399	71.69
245.633	71.69
245.866	64.69
246.099	78.69
246.333	81.69
246.566	65.69
246.8	80.69
247.033	95.69
247.266	78.69
247.5	81.69
247.733	71.69
247.966	75.69
248.2	85.69
248.433	87.69
248.666	87.69
248.899	81.69
249.133	71.69
249.366	74.69
249.599	72.69
249.832	91.69
250.066	82.69
250.299	80.69
250.532	79.69
250.765	71.69
250.998	86.69
251.231	85.69
251.465	85.69
251.698	76.69
251.931	71.69
252.164	82.69
252.397	77.69
252.63	80.69
252.863	78.69
253.096	75.69
253.329	84.69
253.562	85.69
253.795	68.69
254.028	86.69
254.261	89.69
254.494	71.69
254.727	91.69
254.96	88.69
255.193	77.69
255.426	88.69
255.659	81.69
255.892	75.69
256.124	85.69
256.357	74.69
256.59	88.69
256.823	90.69
257.056	75.69
257.289	86.69
257.521	95.69
257.754	71.69
257.987	87.69
258.22	73.69
258.452	71.69
258.685	88.69
258.918	85.69
259.151	66.69
259.383	67.69
259.616	77.69
259.849	77.69
260.081	91.69
260.314	71.69
260.547	68.69
260.779	107.69
261.012	74.69
261.244	68.69
261.477	69.69
261.71	94.69
261.942	68.69
262.175	84.69
262.407	80.69
262.64	71.69
262.872	78.69
263.105	84.69
263.337	77.69
263.57	75.69
263.802	73.69
264.035	88.69
264.267	82.69
264.499	75.69
264.732	64.69
264.964	89.69
265.197	87.69
265.429	72.69
265.661	88.69
265.894	77.69
266.126	66.69
266.358	81.69
266.591	73.69
266.823	77.69
267.055	75.69
267.287	88.69
267.52	78.69
267.752	65.69
267.984	73.69
268.216	74.69
268.448	80.69
268.681	85.69
268.913	91.69
269.145	91.69
269.377	89.69
269.609	84.69
269.841	74.69
270.073	78.69
270.306	73.69
270.538	70.69
270.77	88.69
271.002	85.69
271.234	80.69
271.466	83.69
271.698	79.69
271.93	91.69
272.162	80.69
272.394	80.69
272.626	81.69
272.858	93.69
273.09	82.69
273.322	89.69
273.553	92.69
273.785	80.69
274.017	86.69
274.249	87.69
274.481	85.69
274.713	89.69
274.945	81.69
275.176	78.69
275.408	86.69
275.64	83.69
275.872	75.69
276.104	78.69
276.335	91.69
276.567	84.69
276.799	83.69
277.031	87.69
277.262	65.69
277.494	76.69
277.726	86.69
277.957	77.69
278.189	75.69
278.421	79.69
278.652	82.69
278.884	82.69
279.115	82.69
279.347	87.69
279.579	94.69
279.81	78.69
280.042	83.69
280.273	85.69
280.505	82.69
280.736	82.69
280.968	91.69
281.199	82.69
281.431	70.69
281.662	90.69
281.894	86.69
282.125	91.69
282.356	88.69
282.588	83.69
282.819	75.69
283.051	91.69
283.282	77.69
283.513	87.69
283.745	82.69
283.976	90.69
284.207	93.69
284.439	75.69
284.67	92.69
284.901	73.69
285.132	79.69
285.364	79.69
285.595	96.69
285.826	85.69
286.057	88.69
286.288	86.69
286.52	77.69
286.751	70.69
286.982	78.69
287.213	79.69
287.444	86.69
287.675	74.69
287.906	89.69
288.138	82.69
288.369	83.69
288.6	78.69
288.831	89.69
289.062	90.69
289.293	84.69
289.524	86.69
289.755	75.69
289.986	84.69
290.217	85.69
290.448	82.69
290.679	78.69
290.91	81.69
291.141	75.69
291.371	83.69
291.602	81.69
291.833	76.69
292.064	78.69
292.295	79.69
292.526	95.69
292.757	82.69
292.987	93.69
293.218	82.69
293.449	89.69
293.68	89.69
293.91	81.69
294.141	85.69
294.372	83.69
294.603	89.69
294.833	67.69
295.064	79.69
295.295	91.69
295.525	89.69
295.756	91.69
295.987	72.69
296.217	80.69
296.448	92.69
296.679	74.69
296.909	94.69
297.14	71.69
297.37	96.69
297.601	86.69
297.831	85.69
298.062	88.69
298.292	88.69
298.523	86.69
298.753	80.69
298.984	95.69
299.214	83.69
299.445	75.69
299.675	86.69
299.905	77.69
300.136	68.69
300.366	78.69
300.597	87.69
300.827	93.69
301.057	88.69
301.288	78.69
301.518	85.69
301.748	71.69
301.979	101.69
302.209	91.69
302.439	87.69
302.669	85.69
302.9	80.69
303.13	77.69
303.36	76.69
303.59	82.69
303.82	74.69
304.051	90.69
304.281	85.69
304.511	94.69
304.741	79.69
304.971	93.69
305.201	78.69
305.431	77.69
305.661	84.69
305.891	89.69
306.121	81.69
306.352	86.69
306.582	73.69
306.812	79.69
307.042	82.69
307.272	88.69
307.502	98.69
307.731	96.69
307.961	74.69
308.191	97.69
308.421	83.69
308.651	78.69
308.881	85.69
309.111	86.69
309.341	78.69
309.571	91.69
309.8	93.69
310.03	85.69
310.26	94.69
310.49	85.69
310.72	80.69
310.949	73.69
311.179	78.69
311.409	86.69
311.639	76.69
311.868	82.69
312.098	71.69
312.328	105.69
312.557	89.69
312.787	79.69
313.017	89.69
313.246	82.69
313.476	77.69
313.706	73.69
313.935	79.69
314.165	83.69
314.394	82.69
314.624	86.69
314.853	81.69
315.083	87.69
315.312	79.69
315.542	79.69
315.771	91.69
316.001	81.69
316.23	68.69
316.46	90.69
316.689	84.69
316.919	91.69
317.148	103.69
317.377	83.69
317.607	84.69
317.836	82.69
318.065	86.69
318.295	84.69
318.524	81.69
318.753	85.69
318.983	81.69
319.212	87.69
319.441	83.69
319.67	71.69
319.9	93.69
320.129	86.69
320.358	75.69
320.587	85.69
320.816	92.69
321.046	83.69
321.275	82.69
321.504	83.69
321.733	76.69
321.962	80.69
322.191	74.69
322.42	85.69
322.649	76.69
322.878	90.69
323.108	75.69
323.337	88.69
323.566	82.69
323.795	90.69
324.024	96.69
324.253	86.69
324.482	86.69
324.71	85.69
324.939	66.69
325.168	87.69
325.397	85.69
325.626	80.69
325.855	89.69
326.084	92.69
326.313	75.69
326.542	81.69
326.77	75.69
326.999	90.69
327.228	76.69
327.457	77.69
327.686	85.69
327.914	81.69
328.143	86.69
328.372	80.69
328.6	73.69
328.829	77.69
329.058	71.69
329.287	77.69
329.515	77.69
329.744	73.69
329.972	81.69
330.201	72.69
330.43	75.69
330.658	97.69
330.887	78.69
331.115	79.69
331.344	72.69
331.572	91.69
331.801	87.69
332.03	78.69
332.258	90.69
332.486	81.69
332.715	75.69
332.943	83.69
333.172	85.69
333.4	65.69
333.629	77.69
333.857	80.69
334.085	73.69
334.314	87.69
334.542	87.69
334.771	72.69
334.999	80.69
335.227	67.69
335.455	85.69
335.684	97.69
335.912	92.69
336.14	70.69
336.369	67.69
336.597	82.69
336.825	88.69
337.053	81.69
337.281	74.69
337.51	87.69
337.738	62.69
337.966	87.69
338.194	69.69
338.422	75.69
338.65	70.69
338.878	85.69
339.106	87.69
339.334	66.69
339.562	79.69
339.79	94.69
340.018	86.69
340.246	90.69
340.474	79.69
340.702	89.69
340.93	92.69
341.158	81.69
341.386	85.69
341.614	92.69
341.842	90.69
342.07	85.69
342.298	63.69
342.526	82.69
342.754	90.69
342.981	86.69
343.209	91.69
343.437	86.69
343.665	89.69
343.893	91.69
344.12	76.69
344.348	78.69
344.576	68.69
344.804	71.69
345.031	85.69
345.259	80.69
345.487	83.69
345.714	72.69
345.942	66.69
346.17	76.69
346.397	81.69
346.625	82.69
346.853	81.69
347.08	82.69
347.308	89.69
347.535	78.69
347.763	77.69
347.99	80.69
348.218	79.69
348.445	75.69
348.673	75.69
348.9	84.69
349.128	94.69
349.355	87.69
349.583	87.69
349.81	86.69
350.037	87.69
350.265	76.69
350.492	98.69
350.72	82.69
350.947	89.69
351.174	78.69
351.402	97.69
351.629	99.69
351.856	78.69
352.083	79.69
352.311	74.69
352.538	79.69
352.765	83.69
352.992	83.69
353.22	81.69
353.447	73.69
353.674	73.69
353.901	83.69
354.128	80.69
354.355	76.69
354.583	78.69
354.81	86.69
355.037	90.69
355.264	88.69
355.491	83.69
355.718	99.69
355.945	88.69
356.172	80.69
356.399	84.69
356.626	76.69
356.853	93.69
357.08	86.69
357.307	83.69
357.534	98.69
357.761	82.69
357.988	77.69
358.215	87.69
358.441	90.69
358.668	79.69
358.895	67.69
359.122	87.69
359.349	84.69
359.576	82.69
359.802	81.69
360.029	81.69
360.256	72.69
360.483	73.69
360.709	73.69
360.936	93.69
361.163	85.69
361.39	84.69
361.616	82.69
361.843	78.69
362.07	86.69
362.296	70.69
362.523	83.69
362.749	67.69
362.976	89.69
363.203	86.69
363.429	92.69
363.656	87.69
363.882	77.69
364.109	77.69
364.335	76.69
364.562	73.69
364.788	74.69
365.015	74.69
365.241	79.69
365.468	85.69
365.694	80.69
365.92	81.69
366.147	68.69
366.373	79.69
366.599	71.69
366.826	74.69
367.052	86.69
367.278	86.69
367.505	94.69
367.731	73.69
367.957	79.69
368.184	89.69
368.41	88.69
368.636	83.69
368.862	98.69
369.089	81.69
369.315	86.69
369.541	81.69
369.767	80.69
369.993	61.69
370.219	73.69
370.445	73.69
370.672	83.69
370.898	75.69
371.124	87.69
371.35	79.69
371.576	74.69
371.802	87.69
372.028	87.69
372.254	75.69
372.48	90.69
372.706	74.69
372.932	65.69
373.158	71.69
373.384	72.69
373.61	86.69
373.835	85.69
374.061	84.69
374.287	85.69
374.513	77.69
374.739	77.69
374.965	73.69
375.191	75.69
375.416	79.69
375.642	88.69
375.868	90.69
376.094	86.69
376.319	82.69
376.545	79.69
376.771	74.69
376.997	85.69
377.222	73.69
377.448	81.69
377.674	87.69
377.899	73.69
378.125	81.69
378.35	88.69
378.576	76.69
378.802	67.69
379.027	77.69
379.253	82.69
379.478	80.69
379.704	82.69
379.929	73.69
380.155	86.69
380.38	85.69
380.606	76.69
380.831	83.69
381.057	87.69
381.282	73.69
381.507	82.69
381.733	81.69
381.958	79.69
382.184	68.69
382.409	79.69
382.634	72.69
382.86	87.69
383.085	90.69
383.31	74.69
383.535	85.69
383.761	72.69
383.986	96.69
384.211	75.69
384.436	75.69
384.662	78.69
384.887	77.69
385.112	82.69
385.337	79.69
385.562	91.69
385.787	78.69
386.013	75.69
386.238	80.69
386.463	71.69
386.688	88.69
386.913	66.69
387.138	59.69
387.363	73.69
387.588	64.69
387.813	71.69
388.038	91.69
388.263	72.69
388.488	72.69
388.713	73.69
388.938	78.69
389.163	85.69
389.387	80.69
389.612	89.69
389.837	77.69
390.062	74.69
390.287	79.69
390.512	94.69
390.736	85.69
390.961	61.69
391.186	73.69
391.411	85.69
391.636	90.69
391.86	82.69
392.085	64.69
392.31	74.69
392.534	79.69
392.759	90.69
392.984	84.69
393.208	82.69
393.433	65.69
393.658	76.69
393.882	82.69
394.107	78.69
394.331	73.69
394.556	69.69
394.78	74.69
395.005	82.69
395.229	76.69
395.454	75.69
395.678	70.69
395.903	73.69
396.127	70.69
396.352	87.69
396.576	73.69
396.801	65.69
397.025	73.69
397.249	63.69
397.474	87.69
397.698	94.69
397.922	74.69
398.147	74.69
398.371	68.69
398.595	66.69
398.82	79.69
399.044	77.69
399.268	73.69
399.492	73.69
399.717	80.69
399.941	79.69
400.165	75.69
400.389	79.69
400.613	57.69
400.837	73.69
401.062	73.69
401.286	71.69
401.51	76.69
401.734	76.69
401.958	83.69
402.182	75.69
402.406	73.69
402.63	70.69
402.854	73.69
403.078	63.69
403.302	91.69
403.526	76.69
403.75	78.69
403.974	94.69
404.198	87.69
404.422	61.69
404.645	77.69
404.869	58.69
405.093	79.69
405.317	84.69
405.541	83.69
405.765	77.69
405.988	85.69
406.212	93.69
406.436	90.69
406.66	65.69
406.883	72.69
407.107	77.69
407.331	75.69
407.555	66.69
407.778	73.69
408.002	76.69
408.226	98.69
408.449	73.69
408.673	65.69
408.896	68.69
409.12	81.69
409.344	72.69
409.567	72.69
409.791	72.69
410.014	85.69
410.238	87.69
410.461	74.69
410.685	83.69
410.908	82.69
411.132	78.69
411.355	66.69
411.578	75.69
411.802	79.69
412.025	72.69
412.249	75.69
412.472	75.69
412.695	74.69
412.919	78.69
413.142	66.69
413.365	84.69
413.589	75.69
413.812	81.69
414.035	90.69
414.258	82.69
414.482	75.69
414.705	71.69
414.928	81.69
415.151	87.69
415.374	83.69
415.597	79.69
415.821	86.69
416.044	93.69
416.267	84.69
416.49	79.69
416.713	70.69
416.936	88.69
417.159	85.69
417.382	86.69
417.605	82.69
417.828	80.69
418.051	81.69
418.274	75.69
418.497	74.69
418.72	90.69
418.943	53.69
419.166	73.69
419.389	75.69
419.611	86.69
419.834	76.69
420.057	62.69
420.28	83.69
420.503	72.69
420.726	75.69
420.948	78.69
421.171	91.69
421.394	94.69
421.617	87.69
421.839	81.69
422.062	77.69
422.285	72.69
422.507	59.69
422.73	71.69
422.953	69.69
423.175	66.69
423.398	73.69
423.621	87.69
423.843	79.69
424.066	80.69
424.288	76.69
424.511	82.69
424.733	67.69
424.956	79.69
425.178	91.69
425.401	76.69
425.623	75.69
425.846	76.69
426.068	81.69
426.291	71.69
426.513	57.69
426.735	70.69
426.958	68.69
427.18	73.69
427.402	89.69
427.625	94.69
427.847	81.69
428.069	63.69
428.292	77.69
428.514	78.69
428.736	83.69
428.958	80.69
429.181	74.69
429.403	81.69
429.625	88.69
429.847	89.69
430.069	77.69
430.292	79.69
430.514	66.69
430.736	77.69
430.958	65.69
431.18	79.69
431.402	79.69
431.624	67.69
431.846	86.69
432.068	76.69
432.29	73.69
432.512	79.69
432.734	82.69
432.956	82.69
433.178	88.69
433.4	80.69
433.622	70.69
433.844	90.69
434.066	87.69
434.287	75.69
434.509	75.69
434.731	81.69
434.953	75.69
435.175	77.69
435.397	76.69
435.618	90.69
435.84	76.69
436.062	81.69
436.284	73.69
436.505	81.69
436.727	76.69
436.949	99.69
437.17	71.69
437.392	75.69
437.614	80.69
437.835	75.69
438.057	71.69
438.278	77.69
438.5	69.69
438.721	83.69
438.943	69.69
439.165	77.69
439.386	82.69
439.608	76.69
439.829	80.69
440.05	86.69
440.272	86.69
440.493	76.69
440.715	79.69
440.936	70.69
441.158	71.69
441.379	85.69
441.6	70.69
441.822	82.69
442.043	85.69
442.264	86.69
442.486	81.69
442.707	76.69
442.928	85.69
443.149	89.69
443.371	75.69
443.592	65.69
443.813	80.69
444.034	85.69
444.255	72.69
444.476	86.69
444.698	89.69
444.919	90.69
445.14	157.69
445.361	111.69
445.582	82.69
445.803	77.69
446.024	80.69
446.245	84.69
446.466	72.69
446.687	77.69
446.908	68.69
447.129	77.69
447.35	80.69
447.571	79.69
447.792	85.69
448.013	74.69
448.234	98.69
448.455	74.69
448.675	70.69
448.896	74.69
449.117	78.69
449.338	77.69
449.559	80.69
449.779	89.69
450	73.69
450.221	70.69
450.442	83.69
450.662	72.69
450.883	70.69
451.104	84.69
451.324	83.69
451.545	80.69
451.766	85.69
451.986	79.69
452.207	72.69
452.428	76.69
452.648	78.69
452.869	83.69
453.089	78.69
453.31	83.69
453.53	88.69
453.751	83.69
453.971	69.69
454.192	67.69
454.412	74.69
454.633	102.69
454.853	85.69
455.073	67.69
455.294	77.69
455.514	90.69
455.734	74.69
455.955	81.69
456.175	70.69
456.395	78.69
456.616	91.69
456.836	88.69
457.056	73.69
457.276	82.69
457.497	86.69
457.717	71.69
457.937	78.69
458.157	89.69
458.377	77.69
458.598	67.69
458.818	71.69
459.038	71.69
459.258	81.69
459.478	91.69
459.698	78.69
459.918	89.69
460.138	67.69
460.358	77.69
460.578	82.69
460.798	87.69
461.018	87.69
461.238	69.69
461.458	84.69
461.678	73.69
461.898	71.69
462.118	69.69
462.338	84.69
462.558	77.69
462.777	92.69
462.997	81.69
463.217	90.69
463.437	79.69
463.657	76.69
463.876	82.69
464.096	73.69
464.316	63.69
464.536	68.69
464.755	77.69
464.975	80.69
465.195	82.69
465.414	81.69
465.634	86.69
465.854	75.69
466.073	72.69
466.293	76.69
466.512	73.69
466.732	68.69
466.951	89.69
467.171	86.69
467.391	99.69
467.61	85.69
467.829	80.69
468.049	75.69
468.268	90.69
468.488	86.69
468.707	90.69
468.927	71.69
469.146	77.69
469.365	87.69
469.585	82.69
469.804	71.69
470.023	70.69
470.243	62.69
470.462	77.69
470.681	77.69
470.901	74.69
471.12	79.69
471.339	82.69
471.558	81.69
471.777	76.69
471.997	66.69
472.216	78.69
472.435	93.69
472.654	73.69
472.873	101.69
473.092	85.69
473.311	73.69
473.53	89.69
473.749	67.69
473.968	80.69
474.187	78.69
474.406	85.69
474.625	72.69
474.844	88.69
475.063	89.69
475.282	74.69
475.501	80.69
475.72	83.69
475.939	75.69
476.158	89.69
476.377	83.69
476.596	77.69
476.814	74.69
477.033	87.69
477.252	87.69
477.471	96.69
477.69	78.69
477.908	76.69
478.127	82.69
478.346	72.69
478.564	72.69
478.783	87.69
479.002	71.69
479.22	77.69
479.439	91.69
479.658	75.69
479.876	74.69
480.095	66.69
480.313	91.69
480.532	77.69
480.751	74.69
480.969	73.69
481.188	97.69
481.406	75.69
481.624	59.69
481.843	70.69
482.061	69.69
482.28	89.69
482.498	76.69
482.717	73.69
482.935	89.69
483.153	66.69
483.372	89.69
483.59	69.69
483.808	77.69
484.027	69.69
484.245	77.69
484.463	75.69
484.681	83.69
484.9	64.69
485.118	94.69
485.336	75.69
485.554	72.69
485.772	81.69
485.99	78.69
486.209	71.69
486.427	74.69
486.645	85.69
486.863	81.69
487.081	77.69
487.299	68.69
487.517	76.69
487.735	82.69
487.953	86.69
488.171	81.69
488.389	83.69
488.607	81.69
488.825	75.69
489.043	77.69
489.261	74.69
489.479	79.69
489.696	84.69
489.914	77.69
490.132	78.69
490.35	83.69
490.568	83.69
490.786	74.69
491.003	74.69
491.221	88.69
491.439	74.69
491.657	77.69
491.874	75.69
492.092	82.69
492.31	81.69
492.527	89.69
492.745	91.69
492.963	77.69
493.18	81.69
493.398	73.69
493.615	85.69
493.833	86.69
494.05	86.69
494.268	77.69
494.485	85.69
494.703	69.69
494.92	64.69
495.138	86.69
495.355	85.69
495.573	74.69
495.79	96.69
496.008	71.69
496.225	77.69
496.442	80.69
496.66	83.69
496.877	81.69
497.094	74.69
497.312	63.69
497.529	79.69
497.746	87.69
497.963	86.69
498.181	76.69
498.398	85.69
498.615	95.69
498.832	73.69
499.049	96.69
499.267	74.69
499.484	71.69
499.701	82.69
499.918	99.69
500.135	83.69
500.352	82.69
500.569	97.69
500.786	78.69
501.003	68.69
501.22	70.69
501.437	87.69
501.654	85.69
501.871	76.69
502.088	75.69
502.305	81.69
502.522	74.69
502.739	77.69
502.956	83.69
503.172	72.69
503.389	79.69
503.606	85.69
503.823	81.69
504.04	86.69
504.256	79.69
504.473	85.69
504.69	65.69
504.907	85.69
505.123	84.69
505.34	73.69
505.557	66.69
505.773	85.69
505.99	81.69
506.207	80.69
506.423	79.69
506.64	89.69
506.856	77.69
507.073	83.69
507.289	88.69
507.506	94.69
507.722	68.69
507.939	79.69
508.155	79.69
508.372	66.69
508.588	80.69
508.805	82.69
509.021	86.69
509.238	71.69
509.454	64.69
509.67	77.69
509.887	82.69
510.103	73.69
510.319	85.69
510.536	73.69
510.752	77.69
510.968	85.69
511.184	78.69
511.401	84.69
511.617	82.69
511.833	77.69
512.049	80.69
512.265	75.69
512.481	75.69
512.698	83.69
512.914	94.69
513.13	86.69
513.346	86.69
513.562	99.69
513.778	88.69
513.994	98.69
514.21	86.69
514.426	76.69
514.642	75.69
514.858	74.69
515.074	94.69
515.29	96.69
515.506	83.69
515.721	94.69
515.937	90.69
516.153	96.69
516.369	66.69
516.585	72.69
516.801	80.69
517.016	74.69
517.232	87.69
517.448	82.69
517.664	76.69
517.879	91.69
518.095	86.69
518.311	79.69
518.527	81.69
518.742	66.69
518.958	84.69
519.173	81.69
519.389	87.69
519.605	83.69
519.82	71.69
520.036	80.69
520.251	83.69
