Data from BG_HRD10591_058.txt Node
Date: Fri May 16 15:33:36 EDT 2025
User: Yrep
Spectrometer: HR+D1059
Trigger mode: 1
Integration Time (sec): 1.000000E-1
Scans to average: 1
Electric dark correction enabled: true
Nonlinearity correction enabled: false
Boxcar width: 0
XAxis mode: Wavelengths
Number of Pixels in Spectrum: 2048
>>>>>Begin Spectral Data<<<<<
223.165	-26.69
223.4	-26.69
223.635	-26.69
223.869	-14.69
224.104	-24.69
224.338	-19.69
224.573	-12.69
224.808	-29.69
225.042	-0.69
225.277	-10.69
225.511	-15.69
225.746	3.31
225.98	8.31
226.215	16.31
226.449	15.31
226.683	26.31
226.918	37.31
227.152	48.31
227.387	32.31
227.621	31.31
227.856	37.31
228.09	49.31
228.324	58.31
228.559	62.31
228.793	67.31
229.027	49.31
229.262	74.31
229.496	77.31
229.73	66.31
229.964	80.31
230.199	71.31
230.433	71.31
230.667	77.31
230.901	71.31
231.136	81.31
231.37	84.31
231.604	81.31
231.838	84.31
232.072	84.31
232.306	101.31
232.541	93.31
232.775	77.31
233.009	94.31
233.243	74.31
233.477	81.31
233.711	83.31
233.945	81.31
234.179	72.31
234.413	73.31
234.647	75.31
234.881	81.31
235.115	92.31
235.349	81.31
235.583	95.31
235.817	79.31
236.051	83.31
236.285	75.31
236.519	74.31
236.753	85.31
236.987	82.31
237.221	69.31
237.455	82.31
237.689	77.31
237.922	90.31
238.156	78.31
238.39	74.31
238.624	69.31
238.858	78.31
239.091	79.31
239.325	66.31
239.559	71.31
239.793	82.31
240.027	72.31
240.26	68.31
240.494	79.31
240.728	91.31
240.961	81.31
241.195	77.31
241.429	78.31
241.662	65.31
241.896	71.31
242.13	79.31
242.363	80.31
242.597	86.31
242.83	79.31
243.064	81.31
243.298	80.31
243.531	76.31
243.765	80.31
243.998	79.31
244.232	82.31
244.465	75.31
244.699	92.31
244.932	71.31
245.166	85.31
245.399	90.31
245.633	91.31
245.866	91.31
246.099	82.31
246.333	77.31
246.566	70.31
246.8	89.31
247.033	81.31
247.266	84.31
247.5	73.31
247.733	76.31
247.966	80.31
248.2	75.31
248.433	89.31
248.666	84.31
248.899	75.31
249.133	70.31
249.366	93.31
249.599	79.31
249.832	69.31
250.066	97.31
250.299	82.31
250.532	81.31
250.765	70.31
250.998	88.31
251.231	67.31
251.465	81.31
251.698	73.31
251.931	91.31
252.164	88.31
252.397	85.31
252.63	83.31
252.863	81.31
253.096	90.31
253.329	83.31
253.562	90.31
253.795	84.31
254.028	82.31
254.261	93.31
254.494	74.31
254.727	74.31
254.96	80.31
255.193	66.31
255.426	99.31
255.659	74.31
255.892	79.31
256.124	92.31
256.357	78.31
256.59	87.31
256.823	78.31
257.056	90.31
257.289	73.31
257.521	97.31
257.754	87.31
257.987	79.31
258.22	84.31
258.452	69.31
258.685	60.31
258.918	85.31
259.151	91.31
259.383	87.31
259.616	87.31
259.849	81.31
260.081	75.31
260.314	77.31
260.547	77.31
260.779	82.31
261.012	88.31
261.244	94.31
261.477	93.31
261.71	75.31
261.942	93.31
262.175	91.31
262.407	83.31
262.64	74.31
262.872	100.31
263.105	103.31
263.337	90.31
263.57	94.31
263.802	95.31
264.035	92.31
264.267	97.31
264.499	93.31
264.732	84.31
264.964	80.31
265.197	91.31
265.429	92.31
265.661	75.31
265.894	92.31
266.126	103.31
266.358	88.31
266.591	83.31
266.823	91.31
267.055	100.31
267.287	98.31
267.52	76.31
267.752	80.31
267.984	81.31
268.216	76.31
268.448	89.31
268.681	76.31
268.913	83.31
269.145	84.31
269.377	78.31
269.609	94.31
269.841	80.31
270.073	105.31
270.306	75.31
270.538	89.31
270.77	76.31
271.002	84.31
271.234	89.31
271.466	92.31
271.698	89.31
271.93	84.31
272.162	90.31
272.394	99.31
272.626	85.31
272.858	84.31
273.09	89.31
273.322	84.31
273.553	76.31
273.785	82.31
274.017	82.31
274.249	92.31
274.481	94.31
274.713	84.31
274.945	82.31
275.176	88.31
275.408	114.31
275.64	70.31
275.872	80.31
276.104	88.31
276.335	88.31
276.567	101.31
276.799	89.31
277.031	97.31
277.262	85.31
277.494	75.31
277.726	87.31
277.957	84.31
278.189	92.31
278.421	82.31
278.652	95.31
278.884	83.31
279.115	84.31
279.347	90.31
279.579	90.31
279.81	95.31
280.042	89.31
280.273	106.31
280.505	79.31
280.736	79.31
280.968	76.31
281.199	71.31
281.431	91.31
281.662	93.31
281.894	109.31
282.125	85.31
282.356	98.31
282.588	93.31
282.819	92.31
283.051	89.31
283.282	79.31
283.513	87.31
283.745	88.31
283.976	96.31
284.207	73.31
284.439	81.31
284.67	98.31
284.901	82.31
285.132	79.31
285.364	83.31
285.595	89.31
285.826	100.31
286.057	79.31
286.288	88.31
286.52	95.31
286.751	91.31
286.982	94.31
287.213	91.31
287.444	92.31
287.675	102.31
287.906	79.31
288.138	95.31
288.369	88.31
288.6	92.31
288.831	96.31
289.062	96.31
289.293	92.31
289.524	96.31
289.755	69.31
289.986	75.31
290.217	96.31
290.448	89.31
290.679	89.31
290.91	92.31
291.141	90.31
291.371	74.31
291.602	82.31
291.833	101.31
292.064	106.31
292.295	95.31
292.526	95.31
292.757	107.31
292.987	87.31
293.218	93.31
293.449	76.31
293.68	90.31
293.91	91.31
294.141	97.31
294.372	85.31
294.603	105.31
294.833	81.31
295.064	81.31
295.295	92.31
295.525	84.31
295.756	84.31
295.987	93.31
296.217	103.31
296.448	93.31
296.679	92.31
296.909	104.31
297.14	101.31
297.37	87.31
297.601	95.31
297.831	83.31
298.062	94.31
298.292	107.31
298.523	84.31
298.753	93.31
298.984	95.31
299.214	92.31
299.445	97.31
299.675	89.31
299.905	93.31
300.136	98.31
300.366	83.31
300.597	83.31
300.827	95.31
301.057	91.31
301.288	87.31
301.518	106.31
301.748	82.31
301.979	100.31
302.209	81.31
302.439	85.31
302.669	93.31
302.9	93.31
303.13	85.31
303.36	98.31
303.59	92.31
303.82	77.31
304.051	91.31
304.281	93.31
304.511	99.31
304.741	89.31
304.971	98.31
305.201	85.31
305.431	90.31
305.661	87.31
305.891	91.31
306.121	100.31
306.352	95.31
306.582	81.31
306.812	93.31
307.042	90.31
307.272	89.31
307.502	90.31
307.731	101.31
307.961	87.31
308.191	79.31
308.421	92.31
308.651	96.31
308.881	86.31
309.111	90.31
309.341	97.31
309.571	87.31
309.8	83.31
310.03	88.31
310.26	91.31
310.49	96.31
310.72	80.31
310.949	88.31
311.179	99.31
311.409	84.31
311.639	76.31
311.868	83.31
312.098	74.31
312.328	77.31
312.557	93.31
312.787	90.31
313.017	90.31
313.246	98.31
313.476	82.31
313.706	93.31
313.935	85.31
314.165	89.31
314.394	95.31
314.624	97.31
314.853	83.31
315.083	103.31
315.312	94.31
315.542	77.31
315.771	82.31
316.001	71.31
316.23	82.31
316.46	93.31
316.689	73.31
316.919	92.31
317.148	99.31
317.377	92.31
317.607	95.31
317.836	97.31
318.065	85.31
318.295	87.31
318.524	86.31
318.753	93.31
318.983	91.31
319.212	87.31
319.441	85.31
319.67	91.31
319.9	91.31
320.129	90.31
320.358	77.31
320.587	88.31
320.816	85.31
321.046	92.31
321.275	111.31
321.504	83.31
321.733	96.31
321.962	99.31
322.191	84.31
322.42	91.31
322.649	105.31
322.878	97.31
323.108	91.31
323.337	92.31
323.566	87.31
323.795	96.31
324.024	89.31
324.253	84.31
324.482	89.31
324.71	92.31
324.939	99.31
325.168	111.31
325.397	87.31
325.626	92.31
325.855	97.31
326.084	93.31
326.313	92.31
326.542	97.31
326.77	101.31
326.999	93.31
327.228	90.31
327.457	101.31
327.686	89.31
327.914	92.31
328.143	89.31
328.372	93.31
328.6	75.31
328.829	84.31
329.058	95.31
329.287	91.31
329.515	90.31
329.744	87.31
329.972	85.31
330.201	97.31
330.43	88.31
330.658	78.31
330.887	83.31
331.115	115.31
331.344	92.31
331.572	89.31
331.801	99.31
332.03	95.31
332.258	65.31
332.486	95.31
332.715	86.31
332.943	87.31
333.172	103.31
333.4	88.31
333.629	94.31
333.857	83.31
334.085	78.31
334.314	101.31
334.542	90.31
334.771	99.31
334.999	96.31
335.227	71.31
335.455	81.31
335.684	98.31
335.912	91.31
336.14	95.31
336.369	87.31
336.597	88.31
336.825	79.31
337.053	86.31
337.281	94.31
337.51	86.31
337.738	93.31
337.966	89.31
338.194	88.31
338.422	81.31
338.65	96.31
338.878	83.31
339.106	83.31
339.334	100.31
339.562	93.31
339.79	82.31
340.018	91.31
340.246	91.31
340.474	88.31
340.702	100.31
340.93	82.31
341.158	85.31
341.386	88.31
341.614	89.31
341.842	89.31
342.07	94.31
342.298	100.31
342.526	99.31
342.754	85.31
342.981	95.31
343.209	86.31
343.437	93.31
343.665	96.31
343.893	103.31
344.12	92.31
344.348	99.31
344.576	101.31
344.804	98.31
345.031	99.31
345.259	73.31
345.487	90.31
345.714	98.31
345.942	81.31
346.17	92.31
346.397	89.31
346.625	84.31
346.853	98.31
347.08	98.31
347.308	104.31
347.535	83.31
347.763	93.31
347.99	91.31
348.218	89.31
348.445	81.31
348.673	86.31
348.9	94.31
349.128	94.31
349.355	96.31
349.583	84.31
349.81	86.31
350.037	88.31
350.265	87.31
350.492	84.31
350.72	92.31
350.947	90.31
351.174	89.31
351.402	85.31
351.629	82.31
351.856	105.31
352.083	88.31
352.311	85.31
352.538	88.31
352.765	77.31
352.992	100.31
353.22	99.31
353.447	88.31
353.674	101.31
353.901	103.31
354.128	89.31
354.355	73.31
354.583	94.31
354.81	82.31
355.037	85.31
355.264	104.31
355.491	89.31
355.718	81.31
355.945	90.31
356.172	84.31
356.399	91.31
356.626	92.31
356.853	81.31
357.08	83.31
357.307	82.31
357.534	100.31
357.761	92.31
357.988	90.31
358.215	97.31
358.441	96.31
358.668	93.31
358.895	92.31
359.122	90.31
359.349	96.31
359.576	91.31
359.802	87.31
360.029	85.31
360.256	95.31
360.483	76.31
360.709	91.31
360.936	98.31
361.163	93.31
361.39	89.31
361.616	93.31
361.843	104.31
362.07	99.31
362.296	89.31
362.523	98.31
362.749	92.31
362.976	88.31
363.203	78.31
363.429	88.31
363.656	96.31
363.882	96.31
364.109	92.31
364.335	82.31
364.562	80.31
364.788	86.31
365.015	92.31
365.241	99.31
365.468	97.31
365.694	82.31
365.92	92.31
366.147	79.31
366.373	91.31
366.599	95.31
366.826	84.31
367.052	88.31
367.278	85.31
367.505	100.31
367.731	90.31
367.957	78.31
368.184	92.31
368.41	78.31
368.636	69.31
368.862	90.31
369.089	80.31
369.315	79.31
369.541	78.31
369.767	99.31
369.993	98.31
370.219	85.31
370.445	96.31
370.672	87.31
370.898	84.31
371.124	93.31
371.35	92.31
371.576	78.31
371.802	79.31
372.028	85.31
372.254	79.31
372.48	92.31
372.706	91.31
372.932	90.31
373.158	95.31
373.384	86.31
373.61	93.31
373.835	99.31
374.061	95.31
374.287	80.31
374.513	91.31
374.739	80.31
374.965	90.31
375.191	90.31
375.416	77.31
375.642	96.31
375.868	93.31
376.094	90.31
376.319	93.31
376.545	89.31
376.771	81.31
376.997	105.31
377.222	91.31
377.448	89.31
377.674	89.31
377.899	96.31
378.125	106.31
378.35	85.31
378.576	91.31
378.802	73.31
379.027	89.31
379.253	91.31
379.478	93.31
379.704	97.31
379.929	91.31
380.155	94.31
380.38	100.31
380.606	88.31
380.831	85.31
381.057	106.31
381.282	92.31
381.507	83.31
381.733	88.31
381.958	93.31
382.184	86.31
382.409	79.31
382.634	93.31
382.86	69.31
383.085	88.31
383.31	100.31
383.535	96.31
383.761	85.31
383.986	87.31
384.211	77.31
384.436	96.31
384.662	92.31
384.887	86.31
385.112	96.31
385.337	87.31
385.562	89.31
385.787	93.31
386.013	84.31
386.238	97.31
386.463	85.31
386.688	99.31
386.913	73.31
387.138	82.31
387.363	89.31
387.588	90.31
387.813	84.31
388.038	100.31
388.263	98.31
388.488	105.31
388.713	91.31
388.938	89.31
389.163	85.31
389.387	87.31
389.612	88.31
389.837	81.31
390.062	88.31
390.287	93.31
390.512	87.31
390.736	95.31
390.961	75.31
391.186	80.31
391.411	97.31
391.636	88.31
391.86	82.31
392.085	87.31
392.31	91.31
392.534	82.31
392.759	84.31
392.984	101.31
393.208	79.31
393.433	81.31
393.658	87.31
393.882	99.31
394.107	80.31
394.331	103.31
394.556	97.31
394.78	92.31
395.005	78.31
395.229	83.31
395.454	99.31
395.678	88.31
395.903	95.31
396.127	94.31
396.352	85.31
396.576	92.31
396.801	81.31
397.025	75.31
397.249	91.31
397.474	88.31
397.698	85.31
397.922	98.31
398.147	89.31
398.371	94.31
398.595	95.31
398.82	80.31
399.044	91.31
399.268	85.31
399.492	88.31
399.717	92.31
399.941	92.31
400.165	93.31
400.389	68.31
400.613	93.31
400.837	107.31
401.062	95.31
401.286	92.31
401.51	93.31
401.734	93.31
401.958	87.31
402.182	92.31
402.406	96.31
402.63	86.31
402.854	81.31
403.078	88.31
403.302	88.31
403.526	83.31
403.75	96.31
403.974	98.31
404.198	99.31
404.422	90.31
404.645	90.31
404.869	86.31
405.093	84.31
405.317	88.31
405.541	81.31
405.765	85.31
405.988	83.31
406.212	81.31
406.436	95.31
406.66	98.31
406.883	96.31
407.107	94.31
407.331	85.31
407.555	101.31
407.778	98.31
408.002	105.31
408.226	95.31
408.449	101.31
408.673	97.31
408.896	69.31
409.12	83.31
409.344	89.31
409.567	89.31
409.791	94.31
410.014	91.31
410.238	87.31
410.461	88.31
410.685	93.31
410.908	91.31
411.132	87.31
411.355	75.31
411.578	77.31
411.802	84.31
412.025	94.31
412.249	79.31
412.472	76.31
412.695	95.31
412.919	81.31
413.142	85.31
413.365	87.31
413.589	82.31
413.812	97.31
414.035	92.31
414.258	98.31
414.482	94.31
414.705	82.31
414.928	89.31
415.151	83.31
415.374	85.31
415.597	94.31
415.821	100.31
416.044	91.31
416.267	98.31
416.49	106.31
416.713	75.31
416.936	75.31
417.159	91.31
417.382	84.31
417.605	74.31
417.828	104.31
418.051	85.31
418.274	91.31
418.497	90.31
418.72	87.31
418.943	87.31
419.166	85.31
419.389	97.31
419.611	75.31
419.834	83.31
420.057	95.31
420.28	107.31
420.503	90.31
420.726	79.31
420.948	98.31
421.171	90.31
421.394	84.31
421.617	105.31
421.839	75.31
422.062	93.31
422.285	92.31
422.507	83.31
422.73	89.31
422.953	92.31
423.175	76.31
423.398	81.31
423.621	95.31
423.843	98.31
424.066	78.31
424.288	96.31
424.511	87.31
424.733	78.31
424.956	93.31
425.178	88.31
425.401	79.31
425.623	100.31
425.846	88.31
426.068	98.31
426.291	76.31
426.513	103.31
426.735	87.31
426.958	87.31
427.18	93.31
427.402	84.31
427.625	92.31
427.847	98.31
428.069	93.31
428.292	81.31
428.514	90.31
428.736	88.31
428.958	93.31
429.181	87.31
429.403	91.31
429.625	91.31
429.847	76.31
430.069	94.31
430.292	93.31
430.514	87.31
430.736	82.31
430.958	85.31
431.18	91.31
431.402	93.31
431.624	65.31
431.846	93.31
432.068	100.31
432.29	85.31
432.512	93.31
432.734	69.31
432.956	107.31
433.178	87.31
433.4	95.31
433.622	82.31
433.844	95.31
434.066	90.31
434.287	85.31
434.509	69.31
434.731	87.31
434.953	76.31
435.175	83.31
435.397	87.31
435.618	79.31
435.84	71.31
436.062	98.31
436.284	87.31
436.505	90.31
436.727	80.31
436.949	80.31
437.17	92.31
437.392	81.31
437.614	85.31
437.835	89.31
438.057	96.31
438.278	100.31
438.5	86.31
438.721	87.31
438.943	91.31
439.165	104.31
439.386	81.31
439.608	85.31
439.829	105.31
440.05	90.31
440.272	97.31
440.493	89.31
440.715	81.31
440.936	85.31
441.158	86.31
441.379	95.31
441.6	99.31
441.822	100.31
442.043	94.31
442.264	84.31
442.486	86.31
442.707	87.31
442.928	84.31
443.149	77.31
443.371	81.31
443.592	93.31
443.813	85.31
444.034	107.31
444.255	99.31
444.476	83.31
444.698	93.31
444.919	79.31
445.14	159.31
445.361	129.31
445.582	90.31
445.803	91.31
446.024	92.31
446.245	91.31
446.466	76.31
446.687	92.31
446.908	88.31
447.129	108.31
447.35	96.31
447.571	82.31
447.792	84.31
448.013	93.31
448.234	94.31
448.455	97.31
448.675	90.31
448.896	85.31
449.117	97.31
449.338	93.31
449.559	83.31
449.779	78.31
450	85.31
450.221	98.31
450.442	84.31
450.662	97.31
450.883	79.31
451.104	91.31
451.324	88.31
451.545	97.31
451.766	87.31
451.986	85.31
452.207	71.31
452.428	93.31
452.648	79.31
452.869	92.31
453.089	87.31
453.31	80.31
453.53	78.31
453.751	98.31
453.971	92.31
454.192	82.31
454.412	83.31
454.633	85.31
454.853	78.31
455.073	104.31
455.294	79.31
455.514	83.31
455.734	95.31
455.955	75.31
456.175	73.31
456.395	88.31
456.616	93.31
456.836	84.31
457.056	73.31
457.276	93.31
457.497	94.31
457.717	91.31
457.937	81.31
458.157	80.31
458.377	95.31
458.598	74.31
458.818	91.31
459.038	87.31
459.258	101.31
459.478	89.31
459.698	109.31
459.918	94.31
460.138	75.31
460.358	97.31
460.578	85.31
460.798	82.31
461.018	73.31
461.238	90.31
461.458	96.31
461.678	105.31
461.898	103.31
462.118	89.31
462.338	81.31
462.558	97.31
462.777	85.31
462.997	106.31
463.217	108.31
463.437	97.31
463.657	99.31
463.876	92.31
464.096	96.31
464.316	88.31
464.536	95.31
464.755	87.31
464.975	78.31
465.195	85.31
465.414	103.31
465.634	105.31
465.854	95.31
466.073	90.31
466.293	88.31
466.512	84.31
466.732	92.31
466.951	78.31
467.171	80.31
467.391	91.31
467.61	100.31
467.829	105.31
468.049	91.31
468.268	105.31
468.488	98.31
468.707	105.31
468.927	110.31
469.146	85.31
469.365	89.31
469.585	73.31
469.804	74.31
470.023	92.31
470.243	99.31
470.462	87.31
470.681	86.31
470.901	94.31
471.12	117.31
471.339	98.31
471.558	82.31
471.777	100.31
471.997	104.31
472.216	88.31
472.435	78.31
472.654	89.31
472.873	87.31
473.092	85.31
473.311	93.31
473.53	94.31
473.749	85.31
473.968	89.31
474.187	89.31
474.406	94.31
474.625	81.31
474.844	96.31
475.063	83.31
475.282	85.31
475.501	100.31
475.72	95.31
475.939	86.31
476.158	87.31
476.377	94.31
476.596	75.31
476.814	84.31
477.033	99.31
477.252	94.31
477.471	94.31
477.69	87.31
477.908	67.31
478.127	98.31
478.346	84.31
478.564	87.31
478.783	95.31
479.002	92.31
479.22	99.31
479.439	101.31
479.658	87.31
479.876	96.31
480.095	93.31
480.313	101.31
480.532	92.31
480.751	99.31
480.969	92.31
481.188	87.31
481.406	83.31
481.624	92.31
481.843	65.31
482.061	96.31
482.28	92.31
482.498	94.31
482.717	84.31
482.935	88.31
483.153	91.31
483.372	94.31
483.59	93.31
483.808	80.31
484.027	96.31
484.245	97.31
484.463	83.31
484.681	95.31
484.9	98.31
485.118	86.31
485.336	91.31
485.554	94.31
485.772	83.31
485.99	76.31
486.209	83.31
486.427	92.31
486.645	99.31
486.863	91.31
487.081	84.31
487.299	90.31
487.517	92.31
487.735	104.31
487.953	93.31
488.171	103.31
488.389	86.31
488.607	98.31
488.825	86.31
489.043	94.31
489.261	92.31
489.479	88.31
489.696	90.31
489.914	93.31
490.132	91.31
490.35	111.31
490.568	95.31
490.786	103.31
491.003	108.31
491.221	96.31
491.439	92.31
491.657	75.31
491.874	97.31
492.092	99.31
492.31	88.31
492.527	84.31
492.745	101.31
492.963	81.31
493.18	100.31
493.398	94.31
493.615	81.31
493.833	98.31
494.05	90.31
494.268	91.31
494.485	95.31
494.703	91.31
494.92	90.31
495.138	105.31
495.355	86.31
495.573	82.31
495.79	84.31
496.008	90.31
496.225	83.31
496.442	95.31
496.66	105.31
496.877	101.31
497.094	88.31
497.312	87.31
497.529	90.31
497.746	91.31
497.963	88.31
498.181	85.31
498.398	90.31
498.615	104.31
498.832	93.31
499.049	99.31
499.267	88.31
499.484	89.31
499.701	95.31
499.918	109.31
500.135	115.31
500.352	105.31
500.569	117.31
500.786	111.31
501.003	106.31
501.22	99.31
501.437	90.31
501.654	102.31
501.871	102.31
502.088	101.31
502.305	105.31
502.522	107.31
502.739	92.31
502.956	96.31
503.172	93.31
503.389	95.31
503.606	85.31
503.823	88.31
504.04	97.31
504.256	84.31
504.473	97.31
504.69	85.31
504.907	105.31
505.123	89.31
505.34	88.31
505.557	85.31
505.773	90.31
505.99	109.31
506.207	91.31
506.423	85.31
506.64	75.31
506.856	75.31
507.073	87.31
507.289	84.31
507.506	89.31
507.722	95.31
507.939	97.31
508.155	104.31
508.372	89.31
508.588	89.31
508.805	92.31
509.021	94.31
509.238	108.31
509.454	84.31
509.67	85.31
509.887	85.31
510.103	69.31
510.319	94.31
510.536	79.31
510.752	81.31
510.968	78.31
511.184	96.31
511.401	83.31
511.617	91.31
511.833	88.31
512.049	77.31
512.265	94.31
512.481	93.31
512.698	107.31
512.914	95.31
513.13	86.31
513.346	81.31
513.562	87.31
513.778	91.31
513.994	74.31
514.21	81.31
514.426	81.31
514.642	85.31
514.858	83.31
515.074	89.31
515.29	100.31
515.506	86.31
515.721	84.31
515.937	91.31
516.153	86.31
516.369	83.31
516.585	92.31
516.801	79.31
517.016	88.31
517.232	100.31
517.448	100.31
517.664	98.31
517.879	88.31
518.095	83.31
518.311	85.31
518.527	92.31
