Data from BG_HRD10591_015.txt Node
Date: Fri May 16 15:33:14 EDT 2025
User: Yrep
Spectrometer: HR+D1059
Trigger mode: 1
Integration Time (sec): 1.000000E-1
Scans to average: 1
Electric dark correction enabled: true
Nonlinearity correction enabled: false
Boxcar width: 0
XAxis mode: Wavelengths
Number of Pixels in Spectrum: 2048
>>>>>Begin Spectral Data<<<<<
223.165	-12.06
223.4	-12.06
223.635	-12.06
223.869	-18.06
224.104	-13.06
224.338	-21.06
224.573	-15.06
224.808	-10.06
225.042	-10.06
225.277	-10.06
225.511	-7.06
225.746	-10.06
225.98	1.94
226.215	23.94
226.449	13.94
226.683	26.94
226.918	17.94
227.152	41.94
227.387	40.94
227.621	36.94
227.856	44.94
228.09	62.94
228.324	61.94
228.559	51.94
228.793	54.94
229.027	60.94
229.262	76.94
229.496	53.94
229.73	58.94
229.964	70.94
230.199	75.94
230.433	67.94
230.667	74.94
230.901	73.94
231.136	67.94
231.37	84.94
231.604	70.94
231.838	80.94
232.072	66.94
232.306	73.94
232.541	92.94
232.775	86.94
233.009	79.94
233.243	90.94
233.477	85.94
233.711	82.94
233.945	92.94
234.179	61.94
234.413	82.94
234.647	70.94
234.881	86.94
235.115	74.94
235.349	65.94
235.583	87.94
235.817	78.94
236.051	71.94
236.285	76.94
236.519	63.94
236.753	72.94
236.987	77.94
237.221	79.94
237.455	78.94
237.689	82.94
237.922	74.94
238.156	66.94
238.39	70.94
238.624	74.94
238.858	88.94
239.091	73.94
239.325	73.94
239.559	82.94
239.793	72.94
240.027	80.94
240.26	85.94
240.494	69.94
240.728	67.94
240.961	77.94
241.195	78.94
241.429	72.94
241.662	68.94
241.896	71.94
242.13	74.94
242.363	79.94
242.597	74.94
242.83	76.94
243.064	81.94
243.298	74.94
243.531	69.94
243.765	77.94
243.998	77.94
244.232	65.94
244.465	89.94
244.699	88.94
244.932	81.94
245.166	79.94
245.399	81.94
245.633	78.94
245.866	70.94
246.099	81.94
246.333	73.94
246.566	71.94
246.8	80.94
247.033	89.94
247.266	89.94
247.5	89.94
247.733	79.94
247.966	76.94
248.2	67.94
248.433	78.94
248.666	85.94
248.899	83.94
249.133	74.94
249.366	80.94
249.599	61.94
249.832	62.94
250.066	92.94
250.299	79.94
250.532	84.94
250.765	77.94
250.998	66.94
251.231	98.94
251.465	80.94
251.698	72.94
251.931	71.94
252.164	65.94
252.397	72.94
252.63	85.94
252.863	88.94
253.096	71.94
253.329	64.94
253.562	82.94
253.795	91.94
254.028	82.94
254.261	77.94
254.494	62.94
254.727	79.94
254.96	79.94
255.193	76.94
255.426	75.94
255.659	77.94
255.892	74.94
256.124	64.94
256.357	79.94
256.59	77.94
256.823	77.94
257.056	77.94
257.289	85.94
257.521	85.94
257.754	79.94
257.987	80.94
258.22	72.94
258.452	80.94
258.685	68.94
258.918	88.94
259.151	78.94
259.383	81.94
259.616	81.94
259.849	100.94
260.081	73.94
260.314	64.94
260.547	62.94
260.779	86.94
261.012	79.94
261.244	84.94
261.477	83.94
261.71	72.94
261.942	87.94
262.175	88.94
262.407	73.94
262.64	82.94
262.872	82.94
263.105	90.94
263.337	82.94
263.57	92.94
263.802	87.94
264.035	80.94
264.267	87.94
264.499	85.94
264.732	67.94
264.964	84.94
265.197	84.94
265.429	73.94
265.661	86.94
265.894	87.94
266.126	78.94
266.358	88.94
266.591	83.94
266.823	77.94
267.055	77.94
267.287	84.94
267.52	79.94
267.752	75.94
267.984	84.94
268.216	83.94
268.448	90.94
268.681	75.94
268.913	72.94
269.145	82.94
269.377	78.94
269.609	78.94
269.841	87.94
270.073	80.94
270.306	80.94
270.538	67.94
270.77	64.94
271.002	84.94
271.234	81.94
271.466	84.94
271.698	85.94
271.93	93.94
272.162	100.94
272.394	88.94
272.626	86.94
272.858	92.94
273.09	86.94
273.322	77.94
273.553	98.94
273.785	94.94
274.017	84.94
274.249	74.94
274.481	86.94
274.713	78.94
274.945	79.94
275.176	79.94
275.408	81.94
275.64	93.94
275.872	88.94
276.104	73.94
276.335	82.94
276.567	53.94
276.799	66.94
277.031	78.94
277.262	86.94
277.494	100.94
277.726	78.94
277.957	87.94
278.189	86.94
278.421	85.94
278.652	76.94
278.884	84.94
279.115	65.94
279.347	81.94
279.579	81.94
279.81	87.94
280.042	73.94
280.273	89.94
280.505	85.94
280.736	86.94
280.968	70.94
281.199	79.94
281.431	81.94
281.662	73.94
281.894	84.94
282.125	77.94
282.356	84.94
282.588	73.94
282.819	81.94
283.051	89.94
283.282	77.94
283.513	85.94
283.745	94.94
283.976	89.94
284.207	78.94
284.439	91.94
284.67	77.94
284.901	78.94
285.132	85.94
285.364	76.94
285.595	90.94
285.826	89.94
286.057	92.94
286.288	82.94
286.52	94.94
286.751	77.94
286.982	80.94
287.213	82.94
287.444	79.94
287.675	86.94
287.906	78.94
288.138	82.94
288.369	74.94
288.6	82.94
288.831	89.94
289.062	81.94
289.293	73.94
289.524	75.94
289.755	75.94
289.986	85.94
290.217	91.94
290.448	72.94
290.679	92.94
290.91	84.94
291.141	89.94
291.371	96.94
291.602	84.94
291.833	85.94
292.064	88.94
292.295	89.94
292.526	96.94
292.757	65.94
292.987	84.94
293.218	94.94
293.449	89.94
293.68	85.94
293.91	89.94
294.141	80.94
294.372	90.94
294.603	95.94
294.833	78.94
295.064	82.94
295.295	77.94
295.525	81.94
295.756	78.94
295.987	89.94
296.217	87.94
296.448	84.94
296.679	80.94
296.909	76.94
297.14	89.94
297.37	83.94
297.601	80.94
297.831	86.94
298.062	87.94
298.292	73.94
298.523	97.94
298.753	82.94
298.984	91.94
299.214	70.94
299.445	76.94
299.675	89.94
299.905	100.94
300.136	94.94
300.366	88.94
300.597	87.94
300.827	93.94
301.057	77.94
301.288	73.94
301.518	83.94
301.748	95.94
301.979	98.94
302.209	81.94
302.439	84.94
302.669	96.94
302.9	75.94
303.13	79.94
303.36	86.94
303.59	72.94
303.82	79.94
304.051	88.94
304.281	80.94
304.511	93.94
304.741	83.94
304.971	95.94
305.201	97.94
305.431	92.94
305.661	68.94
305.891	90.94
306.121	74.94
306.352	84.94
306.582	95.94
306.812	91.94
307.042	81.94
307.272	94.94
307.502	95.94
307.731	75.94
307.961	97.94
308.191	74.94
308.421	91.94
308.651	89.94
308.881	80.94
309.111	78.94
309.341	96.94
309.571	84.94
309.8	87.94
310.03	80.94
310.26	78.94
310.49	84.94
310.72	91.94
310.949	77.94
311.179	77.94
311.409	87.94
311.639	89.94
311.868	81.94
312.098	83.94
312.328	79.94
312.557	77.94
312.787	71.94
313.017	93.94
313.246	70.94
313.476	86.94
313.706	95.94
313.935	73.94
314.165	91.94
314.394	100.94
314.624	80.94
314.853	94.94
315.083	97.94
315.312	104.94
315.542	90.94
315.771	86.94
316.001	81.94
316.23	95.94
316.46	72.94
316.689	87.94
316.919	74.94
317.148	88.94
317.377	94.94
317.607	92.94
317.836	87.94
318.065	85.94
318.295	81.94
318.524	75.94
318.753	89.94
318.983	86.94
319.212	73.94
319.441	92.94
319.67	76.94
319.9	84.94
320.129	81.94
320.358	80.94
320.587	94.94
320.816	96.94
321.046	86.94
321.275	91.94
321.504	79.94
321.733	89.94
321.962	87.94
322.191	74.94
322.42	87.94
322.649	77.94
322.878	83.94
323.108	81.94
323.337	83.94
323.566	87.94
323.795	75.94
324.024	87.94
324.253	74.94
324.482	74.94
324.71	94.94
324.939	84.94
325.168	96.94
325.397	104.94
325.626	78.94
325.855	96.94
326.084	84.94
326.313	76.94
326.542	83.94
326.77	88.94
326.999	85.94
327.228	75.94
327.457	101.94
327.686	81.94
327.914	77.94
328.143	74.94
328.372	72.94
328.6	86.94
328.829	89.94
329.058	92.94
329.287	87.94
329.515	82.94
329.744	83.94
329.972	70.94
330.201	86.94
330.43	90.94
330.658	85.94
330.887	85.94
331.115	89.94
331.344	92.94
331.572	76.94
331.801	80.94
332.03	75.94
332.258	77.94
332.486	84.94
332.715	84.94
332.943	81.94
333.172	86.94
333.4	84.94
333.629	81.94
333.857	80.94
334.085	84.94
334.314	86.94
334.542	85.94
334.771	84.94
334.999	72.94
335.227	78.94
335.455	89.94
335.684	92.94
335.912	98.94
336.14	105.94
336.369	95.94
336.597	80.94
336.825	88.94
337.053	99.94
337.281	86.94
337.51	94.94
337.738	83.94
337.966	78.94
338.194	69.94
338.422	81.94
338.65	78.94
338.878	82.94
339.106	76.94
339.334	83.94
339.562	78.94
339.79	89.94
340.018	80.94
340.246	87.94
340.474	90.94
340.702	84.94
340.93	94.94
341.158	82.94
341.386	96.94
341.614	85.94
341.842	89.94
342.07	88.94
342.298	86.94
342.526	79.94
342.754	74.94
342.981	84.94
343.209	89.94
343.437	93.94
343.665	89.94
343.893	79.94
344.12	94.94
344.348	90.94
344.576	86.94
344.804	81.94
345.031	81.94
345.259	87.94
345.487	84.94
345.714	85.94
345.942	89.94
346.17	76.94
346.397	80.94
346.625	88.94
346.853	73.94
347.08	73.94
347.308	92.94
347.535	80.94
347.763	94.94
347.99	102.94
348.218	106.94
348.445	86.94
348.673	89.94
348.9	85.94
349.128	104.94
349.355	85.94
349.583	87.94
349.81	83.94
350.037	93.94
350.265	83.94
350.492	85.94
350.72	86.94
350.947	92.94
351.174	92.94
351.402	92.94
351.629	88.94
351.856	79.94
352.083	86.94
352.311	84.94
352.538	78.94
352.765	91.94
352.992	84.94
353.22	79.94
353.447	95.94
353.674	82.94
353.901	76.94
354.128	97.94
354.355	86.94
354.583	89.94
354.81	87.94
355.037	77.94
355.264	93.94
355.491	89.94
355.718	98.94
355.945	82.94
356.172	80.94
356.399	88.94
356.626	77.94
356.853	75.94
357.08	100.94
357.307	93.94
357.534	88.94
357.761	80.94
357.988	86.94
358.215	73.94
358.441	90.94
358.668	76.94
358.895	81.94
359.122	76.94
359.349	91.94
359.576	82.94
359.802	74.94
360.029	85.94
360.256	88.94
360.483	80.94
360.709	92.94
360.936	91.94
361.163	88.94
361.39	73.94
361.616	88.94
361.843	78.94
362.07	75.94
362.296	90.94
362.523	80.94
362.749	74.94
362.976	71.94
363.203	101.94
363.429	84.94
363.656	97.94
363.882	92.94
364.109	83.94
364.335	83.94
364.562	78.94
364.788	84.94
365.015	94.94
365.241	81.94
365.468	84.94
365.694	79.94
365.92	90.94
366.147	64.94
366.373	79.94
366.599	79.94
366.826	64.94
367.052	80.94
367.278	78.94
367.505	93.94
367.731	84.94
367.957	88.94
368.184	78.94
368.41	89.94
368.636	83.94
368.862	86.94
369.089	97.94
369.315	87.94
369.541	90.94
369.767	82.94
369.993	89.94
370.219	86.94
370.445	89.94
370.672	87.94
370.898	64.94
371.124	81.94
371.35	79.94
371.576	81.94
371.802	95.94
372.028	97.94
372.254	68.94
372.48	90.94
372.706	90.94
372.932	79.94
373.158	86.94
373.384	82.94
373.61	76.94
373.835	87.94
374.061	88.94
374.287	87.94
374.513	81.94
374.739	90.94
374.965	75.94
375.191	88.94
375.416	88.94
375.642	73.94
375.868	75.94
376.094	89.94
376.319	85.94
376.545	79.94
376.771	84.94
376.997	90.94
377.222	77.94
377.448	86.94
377.674	95.94
377.899	79.94
378.125	81.94
378.35	86.94
378.576	85.94
378.802	84.94
379.027	86.94
379.253	77.94
379.478	77.94
379.704	82.94
379.929	86.94
380.155	94.94
380.38	86.94
380.606	75.94
380.831	95.94
381.057	78.94
381.282	80.94
381.507	91.94
381.733	80.94
381.958	79.94
382.184	80.94
382.409	86.94
382.634	89.94
382.86	82.94
383.085	75.94
383.31	87.94
383.535	94.94
383.761	75.94
383.986	80.94
384.211	94.94
384.436	76.94
384.662	92.94
384.887	81.94
385.112	81.94
385.337	88.94
385.562	88.94
385.787	81.94
386.013	81.94
386.238	89.94
386.463	81.94
386.688	81.94
386.913	83.94
387.138	77.94
387.363	81.94
387.588	96.94
387.813	89.94
388.038	82.94
388.263	83.94
388.488	90.94
388.713	85.94
388.938	84.94
389.163	84.94
389.387	63.94
389.612	95.94
389.837	82.94
390.062	90.94
390.287	82.94
390.512	81.94
390.736	81.94
390.961	80.94
391.186	84.94
391.411	91.94
391.636	98.94
391.86	102.94
392.085	86.94
392.31	96.94
392.534	76.94
392.759	95.94
392.984	75.94
393.208	80.94
393.433	93.94
393.658	79.94
393.882	77.94
394.107	75.94
394.331	79.94
394.556	98.94
394.78	100.94
395.005	94.94
395.229	77.94
395.454	85.94
395.678	81.94
395.903	85.94
396.127	96.94
396.352	94.94
396.576	83.94
396.801	88.94
397.025	82.94
397.249	87.94
397.474	92.94
397.698	88.94
397.922	72.94
398.147	79.94
398.371	77.94
398.595	89.94
398.82	76.94
399.044	78.94
399.268	92.94
399.492	92.94
399.717	107.94
399.941	83.94
400.165	77.94
400.389	111.94
400.613	86.94
400.837	89.94
401.062	80.94
401.286	76.94
401.51	100.94
401.734	75.94
401.958	88.94
402.182	88.94
402.406	82.94
402.63	88.94
402.854	86.94
403.078	70.94
403.302	89.94
403.526	80.94
403.75	100.94
403.974	87.94
404.198	101.94
404.422	87.94
404.645	79.94
404.869	64.94
405.093	96.94
405.317	85.94
405.541	88.94
405.765	84.94
405.988	87.94
406.212	79.94
406.436	63.94
406.66	96.94
406.883	83.94
407.107	85.94
407.331	85.94
407.555	90.94
407.778	93.94
408.002	109.94
408.226	90.94
408.449	97.94
408.673	82.94
408.896	88.94
409.12	78.94
409.344	78.94
409.567	81.94
409.791	92.94
410.014	88.94
410.238	88.94
410.461	85.94
410.685	83.94
410.908	84.94
411.132	92.94
411.355	89.94
411.578	74.94
411.802	96.94
412.025	86.94
412.249	82.94
412.472	80.94
412.695	91.94
412.919	72.94
413.142	88.94
413.365	90.94
413.589	106.94
413.812	103.94
414.035	92.94
414.258	84.94
414.482	81.94
414.705	84.94
414.928	80.94
415.151	77.94
415.374	80.94
415.597	86.94
415.821	86.94
416.044	84.94
416.267	94.94
416.49	68.94
416.713	88.94
416.936	78.94
417.159	78.94
417.382	82.94
417.605	93.94
417.828	85.94
418.051	87.94
418.274	86.94
418.497	85.94
418.72	86.94
418.943	84.94
419.166	67.94
419.389	93.94
419.611	75.94
419.834	92.94
420.057	92.94
420.28	82.94
420.503	77.94
420.726	97.94
420.948	81.94
421.171	101.94
421.394	91.94
421.617	79.94
421.839	96.94
422.062	89.94
422.285	90.94
422.507	92.94
422.73	78.94
422.953	74.94
423.175	87.94
423.398	76.94
423.621	86.94
423.843	76.94
424.066	94.94
424.288	72.94
424.511	72.94
424.733	85.94
424.956	80.94
425.178	95.94
425.401	84.94
425.623	79.94
425.846	76.94
426.068	80.94
426.291	78.94
426.513	87.94
426.735	95.94
426.958	81.94
427.18	87.94
427.402	89.94
427.625	85.94
427.847	105.94
428.069	94.94
428.292	78.94
428.514	78.94
428.736	88.94
428.958	87.94
429.181	92.94
429.403	87.94
429.625	88.94
429.847	90.94
430.069	97.94
430.292	95.94
430.514	89.94
430.736	80.94
430.958	87.94
431.18	88.94
431.402	83.94
431.624	85.94
431.846	86.94
432.068	93.94
432.29	88.94
432.512	107.94
432.734	78.94
432.956	94.94
433.178	80.94
433.4	85.94
433.622	88.94
433.844	94.94
434.066	104.94
434.287	90.94
434.509	79.94
434.731	77.94
434.953	89.94
435.175	71.94
435.397	101.94
435.618	82.94
435.84	89.94
436.062	90.94
436.284	84.94
436.505	84.94
436.727	89.94
436.949	77.94
437.17	86.94
437.392	86.94
437.614	91.94
437.835	87.94
438.057	87.94
438.278	84.94
438.5	89.94
438.721	91.94
438.943	93.94
439.165	79.94
439.386	96.94
439.608	70.94
439.829	97.94
440.05	87.94
440.272	87.94
440.493	94.94
440.715	76.94
440.936	87.94
441.158	88.94
441.379	83.94
441.6	94.94
441.822	79.94
442.043	95.94
442.264	89.94
442.486	84.94
442.707	98.94
442.928	73.94
443.149	89.94
443.371	93.94
443.592	81.94
443.813	87.94
444.034	84.94
444.255	85.94
444.476	82.94
444.698	80.94
444.919	78.94
445.14	173.94
445.361	128.94
445.582	93.94
445.803	92.94
446.024	82.94
446.245	86.94
446.466	87.94
446.687	72.94
446.908	84.94
447.129	80.94
447.35	78.94
447.571	81.94
447.792	101.94
448.013	72.94
448.234	80.94
448.455	95.94
448.675	80.94
448.896	81.94
449.117	88.94
449.338	88.94
449.559	100.94
449.779	88.94
450	81.94
450.221	89.94
450.442	87.94
450.662	82.94
450.883	78.94
451.104	97.94
451.324	77.94
451.545	51.94
451.766	81.94
451.986	86.94
452.207	90.94
452.428	80.94
452.648	93.94
452.869	80.94
453.089	88.94
453.31	96.94
453.53	88.94
453.751	68.94
453.971	79.94
454.192	85.94
454.412	92.94
454.633	83.94
454.853	76.94
455.073	72.94
455.294	87.94
455.514	92.94
455.734	86.94
455.955	91.94
456.175	76.94
456.395	70.94
456.616	81.94
456.836	95.94
457.056	73.94
457.276	72.94
457.497	84.94
457.717	78.94
457.937	100.94
458.157	93.94
458.377	58.94
458.598	76.94
458.818	72.94
459.038	80.94
459.258	87.94
459.478	91.94
459.698	79.94
459.918	85.94
460.138	93.94
460.358	95.94
460.578	84.94
460.798	95.94
461.018	97.94
461.238	89.94
461.458	74.94
461.678	82.94
461.898	76.94
462.118	84.94
462.338	73.94
462.558	94.94
462.777	77.94
462.997	88.94
463.217	81.94
463.437	94.94
463.657	92.94
463.876	92.94
464.096	85.94
464.316	96.94
464.536	104.94
464.755	92.94
464.975	75.94
465.195	100.94
465.414	81.94
465.634	85.94
465.854	79.94
466.073	91.94
466.293	76.94
466.512	75.94
466.732	81.94
466.951	90.94
467.171	79.94
467.391	71.94
467.61	77.94
467.829	91.94
468.049	76.94
468.268	84.94
468.488	89.94
468.707	90.94
468.927	95.94
469.146	82.94
469.365	87.94
469.585	77.94
469.804	95.94
470.023	73.94
470.243	87.94
470.462	94.94
470.681	74.94
470.901	87.94
471.12	77.94
471.339	80.94
471.558	86.94
471.777	81.94
471.997	86.94
472.216	84.94
472.435	78.94
472.654	90.94
472.873	86.94
473.092	84.94
473.311	83.94
473.53	79.94
473.749	82.94
473.968	89.94
474.187	95.94
474.406	94.94
474.625	92.94
474.844	94.94
475.063	96.94
475.282	97.94
475.501	87.94
475.72	78.94
475.939	65.94
476.158	74.94
476.377	82.94
476.596	80.94
476.814	72.94
477.033	84.94
477.252	79.94
477.471	76.94
477.69	76.94
477.908	71.94
478.127	86.94
478.346	93.94
478.564	95.94
478.783	79.94
479.002	77.94
479.22	81.94
479.439	96.94
479.658	88.94
479.876	86.94
480.095	80.94
480.313	79.94
480.532	88.94
480.751	93.94
480.969	88.94
481.188	84.94
481.406	97.94
481.624	78.94
481.843	94.94
482.061	79.94
482.28	93.94
482.498	76.94
482.717	88.94
482.935	100.94
483.153	80.94
483.372	79.94
483.59	83.94
483.808	84.94
484.027	67.94
484.245	88.94
484.463	82.94
484.681	81.94
484.9	87.94
485.118	87.94
485.336	89.94
485.554	85.94
485.772	90.94
485.99	83.94
486.209	91.94
486.427	77.94
486.645	90.94
486.863	90.94
487.081	103.94
487.299	91.94
487.517	80.94
487.735	90.94
487.953	95.94
488.171	92.94
488.389	100.94
488.607	88.94
488.825	90.94
489.043	104.94
489.261	81.94
489.479	84.94
489.696	92.94
489.914	93.94
490.132	92.94
490.35	84.94
490.568	93.94
490.786	81.94
491.003	89.94
491.221	84.94
491.439	99.94
491.657	95.94
491.874	100.94
492.092	79.94
492.31	94.94
492.527	64.94
492.745	89.94
492.963	82.94
493.18	86.94
493.398	92.94
493.615	82.94
493.833	99.94
494.05	92.94
494.268	91.94
494.485	82.94
494.703	96.94
494.92	86.94
495.138	85.94
495.355	85.94
495.573	103.94
495.79	88.94
496.008	100.94
496.225	87.94
496.442	94.94
496.66	87.94
496.877	83.94
497.094	86.94
497.312	101.94
497.529	92.94
497.746	90.94
497.963	101.94
498.181	86.94
498.398	77.94
498.615	86.94
498.832	101.94
499.049	101.94
499.267	94.94
499.484	101.94
499.701	94.94
499.918	94.94
500.135	95.94
500.352	110.94
500.569	114.94
500.786	110.94
501.003	104.94
501.22	106.94
501.437	96.94
501.654	98.94
501.871	80.94
502.088	103.94
502.305	93.94
502.522	86.94
502.739	93.94
502.956	89.94
503.172	92.94
503.389	100.94
503.606	94.94
503.823	110.94
504.04	94.94
504.256	96.94
504.473	84.94
504.69	98.94
504.907	101.94
505.123	87.94
505.34	85.94
505.557	84.94
505.773	86.94
505.99	87.94
506.207	93.94
506.423	85.94
506.64	104.94
506.856	100.94
507.073	87.94
507.289	89.94
507.506	97.94
507.722	80.94
507.939	85.94
508.155	96.94
508.372	80.94
508.588	74.94
508.805	84.94
509.021	84.94
509.238	78.94
509.454	78.94
509.67	87.94
509.887	84.94
510.103	96.94
510.319	84.94
510.536	85.94
510.752	81.94
510.968	89.94
511.184	78.94
511.401	88.94
511.617	98.94
511.833	88.94
512.049	98.94
512.265	89.94
512.481	79.94
512.698	88.94
512.914	76.94
513.13	92.94
513.346	83.94
513.562	72.94
513.778	80.94
513.994	92.94
514.21	86.94
514.426	85.94
514.642	85.94
514.858	97.94
515.074	98.94
515.29	94.94
515.506	86.94
515.721	79.94
515.937	100.94
516.153	82.94
516.369	82.94
516.585	91.94
516.801	81.94
517.016	86.94
517.232	104.94
517.448	94.94
517.664	85.94
517.879	92.94
518.095	88.94
518.311	88.94
518.527	88.94
518.742	76.94
518.958	84.94
519.173	90.94
519.389	93.94
