Data from BG_HRD10591_020.txt Node
Date: Fri May 16 15:33:17 EDT 2025
User: Yrep
Spectrometer: HR+D1059
Trigger mode: 1
Integration Time (sec): 1.000000E-1
Scans to average: 1
Electric dark correction enabled: true
Nonlinearity correction enabled: false
Boxcar width: 0
XAxis mode: Wavelengths
Number of Pixels in Spectrum: 2048
>>>>>Begin Spectral Data<<<<<
223.165	-11.44
223.4	-11.44
223.635	-11.44
223.869	-17.44
224.104	-17.44
224.338	-21.44
224.573	-22.44
224.808	-19.44
225.042	-16.44
225.277	-4.44
225.511	6.56
225.746	8.56
225.98	14.56
226.215	14.56
226.449	15.56
226.683	22.56
226.918	20.56
227.152	27.56
227.387	39.56
227.621	27.56
227.856	47.56
228.09	41.56
228.324	62.56
228.559	57.56
228.793	63.56
229.027	61.56
229.262	68.56
229.496	78.56
229.73	77.56
229.964	58.56
230.199	70.56
230.433	74.56
230.667	85.56
230.901	86.56
231.136	87.56
231.37	82.56
231.604	72.56
231.838	90.56
232.072	77.56
232.306	74.56
232.541	86.56
232.775	82.56
233.009	90.56
233.243	85.56
233.477	71.56
233.711	86.56
233.945	96.56
234.179	72.56
234.413	80.56
234.647	73.56
234.881	84.56
235.115	68.56
235.349	73.56
235.583	87.56
235.817	78.56
236.051	66.56
236.285	74.56
236.519	67.56
236.753	78.56
236.987	82.56
237.221	81.56
237.455	57.56
237.689	79.56
237.922	66.56
238.156	62.56
238.39	72.56
238.624	64.56
238.858	78.56
239.091	71.56
239.325	77.56
239.559	77.56
239.793	74.56
240.027	82.56
240.26	68.56
240.494	83.56
240.728	69.56
240.961	63.56
241.195	76.56
241.429	70.56
241.662	64.56
241.896	67.56
242.13	75.56
242.363	84.56
242.597	68.56
242.83	71.56
243.064	58.56
243.298	75.56
243.531	95.56
243.765	71.56
243.998	82.56
244.232	79.56
244.465	72.56
244.699	84.56
244.932	69.56
245.166	66.56
245.399	78.56
245.633	89.56
245.866	84.56
246.099	80.56
246.333	80.56
246.566	88.56
246.8	87.56
247.033	84.56
247.266	78.56
247.5	80.56
247.733	80.56
247.966	81.56
248.2	80.56
248.433	83.56
248.666	93.56
248.899	85.56
249.133	68.56
249.366	80.56
249.599	82.56
249.832	75.56
250.066	82.56
250.299	82.56
250.532	79.56
250.765	63.56
250.998	75.56
251.231	73.56
251.465	76.56
251.698	79.56
251.931	73.56
252.164	88.56
252.397	92.56
252.63	85.56
252.863	93.56
253.096	75.56
253.329	83.56
253.562	69.56
253.795	74.56
254.028	74.56
254.261	76.56
254.494	84.56
254.727	66.56
254.96	84.56
255.193	86.56
255.426	94.56
255.659	74.56
255.892	90.56
256.124	96.56
256.357	80.56
256.59	95.56
256.823	86.56
257.056	74.56
257.289	78.56
257.521	79.56
257.754	76.56
257.987	84.56
258.22	83.56
258.452	80.56
258.685	74.56
258.918	96.56
259.151	90.56
259.383	80.56
259.616	76.56
259.849	87.56
260.081	81.56
260.314	96.56
260.547	89.56
260.779	83.56
261.012	75.56
261.244	72.56
261.477	86.56
261.71	84.56
261.942	86.56
262.175	82.56
262.407	73.56
262.64	84.56
262.872	86.56
263.105	82.56
263.337	94.56
263.57	65.56
263.802	82.56
264.035	83.56
264.267	91.56
264.499	90.56
264.732	83.56
264.964	88.56
265.197	89.56
265.429	78.56
265.661	74.56
265.894	74.56
266.126	72.56
266.358	92.56
266.591	94.56
266.823	73.56
267.055	64.56
267.287	80.56
267.52	93.56
267.752	89.56
267.984	90.56
268.216	98.56
268.448	104.56
268.681	86.56
268.913	84.56
269.145	86.56
269.377	65.56
269.609	90.56
269.841	82.56
270.073	89.56
270.306	86.56
270.538	99.56
270.77	80.56
271.002	94.56
271.234	89.56
271.466	74.56
271.698	86.56
271.93	88.56
272.162	90.56
272.394	82.56
272.626	87.56
272.858	80.56
273.09	87.56
273.322	79.56
273.553	87.56
273.785	85.56
274.017	77.56
274.249	79.56
274.481	80.56
274.713	87.56
274.945	87.56
275.176	97.56
275.408	91.56
275.64	82.56
275.872	88.56
276.104	94.56
276.335	85.56
276.567	79.56
276.799	59.56
277.031	88.56
277.262	92.56
277.494	95.56
277.726	92.56
277.957	81.56
278.189	87.56
278.421	79.56
278.652	83.56
278.884	90.56
279.115	90.56
279.347	94.56
279.579	95.56
279.81	86.56
280.042	89.56
280.273	91.56
280.505	103.56
280.736	77.56
280.968	70.56
281.199	92.56
281.431	93.56
281.662	74.56
281.894	88.56
282.125	69.56
282.356	68.56
282.588	82.56
282.819	84.56
283.051	85.56
283.282	80.56
283.513	102.56
283.745	78.56
283.976	73.56
284.207	73.56
284.439	92.56
284.67	91.56
284.901	74.56
285.132	70.56
285.364	98.56
285.595	79.56
285.826	97.56
286.057	88.56
286.288	92.56
286.52	81.56
286.751	82.56
286.982	74.56
287.213	87.56
287.444	78.56
287.675	82.56
287.906	92.56
288.138	87.56
288.369	82.56
288.6	90.56
288.831	95.56
289.062	81.56
289.293	88.56
289.524	86.56
289.755	75.56
289.986	88.56
290.217	85.56
290.448	80.56
290.679	94.56
290.91	94.56
291.141	89.56
291.371	84.56
291.602	89.56
291.833	83.56
292.064	90.56
292.295	92.56
292.526	82.56
292.757	87.56
292.987	104.56
293.218	88.56
293.449	75.56
293.68	81.56
293.91	102.56
294.141	94.56
294.372	84.56
294.603	72.56
294.833	84.56
295.064	108.56
295.295	88.56
295.525	84.56
295.756	83.56
295.987	87.56
296.217	90.56
296.448	92.56
296.679	87.56
296.909	94.56
297.14	88.56
297.37	83.56
297.601	86.56
297.831	68.56
298.062	98.56
298.292	95.56
298.523	76.56
298.753	76.56
298.984	87.56
299.214	95.56
299.445	97.56
299.675	87.56
299.905	78.56
300.136	85.56
300.366	92.56
300.597	90.56
300.827	76.56
301.057	76.56
301.288	93.56
301.518	94.56
301.748	96.56
301.979	92.56
302.209	97.56
302.439	86.56
302.669	75.56
302.9	86.56
303.13	83.56
303.36	102.56
303.59	76.56
303.82	83.56
304.051	94.56
304.281	79.56
304.511	82.56
304.741	91.56
304.971	95.56
305.201	84.56
305.431	82.56
305.661	95.56
305.891	89.56
306.121	91.56
306.352	100.56
306.582	88.56
306.812	99.56
307.042	82.56
307.272	83.56
307.502	99.56
307.731	83.56
307.961	76.56
308.191	83.56
308.421	79.56
308.651	76.56
308.881	108.56
309.111	79.56
309.341	90.56
309.571	76.56
309.8	82.56
310.03	86.56
310.26	92.56
310.49	104.56
310.72	93.56
310.949	82.56
311.179	88.56
311.409	86.56
311.639	81.56
311.868	71.56
312.098	97.56
312.328	95.56
312.557	96.56
312.787	80.56
313.017	87.56
313.246	90.56
313.476	93.56
313.706	84.56
313.935	85.56
314.165	82.56
314.394	75.56
314.624	86.56
314.853	79.56
315.083	80.56
315.312	72.56
315.542	73.56
315.771	89.56
316.001	93.56
316.23	103.56
316.46	80.56
316.689	89.56
316.919	86.56
317.148	97.56
317.377	85.56
317.607	82.56
317.836	89.56
318.065	91.56
318.295	91.56
318.524	84.56
318.753	95.56
318.983	85.56
319.212	95.56
319.441	86.56
319.67	72.56
319.9	82.56
320.129	98.56
320.358	86.56
320.587	79.56
320.816	89.56
321.046	92.56
321.275	107.56
321.504	94.56
321.733	93.56
321.962	84.56
322.191	91.56
322.42	91.56
322.649	87.56
322.878	78.56
323.108	92.56
323.337	102.56
323.566	97.56
323.795	83.56
324.024	88.56
324.253	98.56
324.482	87.56
324.71	90.56
324.939	90.56
325.168	90.56
325.397	91.56
325.626	93.56
325.855	98.56
326.084	94.56
326.313	90.56
326.542	79.56
326.77	83.56
326.999	87.56
327.228	93.56
327.457	79.56
327.686	88.56
327.914	96.56
328.143	78.56
328.372	84.56
328.6	93.56
328.829	94.56
329.058	83.56
329.287	85.56
329.515	92.56
329.744	84.56
329.972	79.56
330.201	99.56
330.43	95.56
330.658	91.56
330.887	90.56
331.115	90.56
331.344	90.56
331.572	87.56
331.801	84.56
332.03	87.56
332.258	91.56
332.486	92.56
332.715	91.56
332.943	95.56
333.172	90.56
333.4	88.56
333.629	71.56
333.857	91.56
334.085	76.56
334.314	111.56
334.542	94.56
334.771	88.56
334.999	65.56
335.227	88.56
335.455	95.56
335.684	89.56
335.912	83.56
336.14	79.56
336.369	90.56
336.597	84.56
336.825	89.56
337.053	81.56
337.281	95.56
337.51	97.56
337.738	90.56
337.966	82.56
338.194	94.56
338.422	98.56
338.65	89.56
338.878	102.56
339.106	77.56
339.334	92.56
339.562	90.56
339.79	89.56
340.018	79.56
340.246	84.56
340.474	90.56
340.702	87.56
340.93	74.56
341.158	84.56
341.386	79.56
341.614	78.56
341.842	92.56
342.07	94.56
342.298	83.56
342.526	84.56
342.754	74.56
342.981	90.56
343.209	82.56
343.437	96.56
343.665	94.56
343.893	95.56
344.12	87.56
344.348	84.56
344.576	91.56
344.804	72.56
345.031	95.56
345.259	87.56
345.487	100.56
345.714	75.56
345.942	88.56
346.17	80.56
346.397	75.56
346.625	106.56
346.853	86.56
347.08	86.56
347.308	77.56
347.535	92.56
347.763	91.56
347.99	92.56
348.218	94.56
348.445	90.56
348.673	95.56
348.9	100.56
349.128	79.56
349.355	84.56
349.583	92.56
349.81	82.56
350.037	79.56
350.265	90.56
350.492	95.56
350.72	89.56
350.947	89.56
351.174	83.56
351.402	76.56
351.629	91.56
351.856	95.56
352.083	84.56
352.311	91.56
352.538	77.56
352.765	77.56
352.992	83.56
353.22	88.56
353.447	91.56
353.674	89.56
353.901	97.56
354.128	92.56
354.355	86.56
354.583	100.56
354.81	77.56
355.037	99.56
355.264	97.56
355.491	89.56
355.718	100.56
355.945	83.56
356.172	85.56
356.399	78.56
356.626	81.56
356.853	75.56
357.08	87.56
357.307	86.56
357.534	89.56
357.761	95.56
357.988	87.56
358.215	84.56
358.441	83.56
358.668	73.56
358.895	90.56
359.122	85.56
359.349	90.56
359.576	83.56
359.802	88.56
360.029	84.56
360.256	85.56
360.483	80.56
360.709	88.56
360.936	79.56
361.163	91.56
361.39	97.56
361.616	81.56
361.843	82.56
362.07	92.56
362.296	95.56
362.523	88.56
362.749	90.56
362.976	80.56
363.203	83.56
363.429	93.56
363.656	91.56
363.882	74.56
364.109	76.56
364.335	86.56
364.562	83.56
364.788	75.56
365.015	75.56
365.241	91.56
365.468	93.56
365.694	98.56
365.92	101.56
366.147	98.56
366.373	80.56
366.599	91.56
366.826	93.56
367.052	92.56
367.278	91.56
367.505	82.56
367.731	83.56
367.957	89.56
368.184	83.56
368.41	80.56
368.636	82.56
368.862	90.56
369.089	101.56
369.315	84.56
369.541	78.56
369.767	93.56
369.993	88.56
370.219	84.56
370.445	90.56
370.672	96.56
370.898	88.56
371.124	89.56
371.35	87.56
371.576	86.56
371.802	74.56
372.028	86.56
372.254	89.56
372.48	95.56
372.706	98.56
372.932	82.56
373.158	80.56
373.384	84.56
373.61	79.56
373.835	82.56
374.061	70.56
374.287	73.56
374.513	73.56
374.739	94.56
374.965	79.56
375.191	89.56
375.416	95.56
375.642	84.56
375.868	87.56
376.094	88.56
376.319	90.56
376.545	78.56
376.771	72.56
376.997	88.56
377.222	83.56
377.448	92.56
377.674	90.56
377.899	77.56
378.125	85.56
378.35	74.56
378.576	92.56
378.802	94.56
379.027	99.56
379.253	97.56
379.478	81.56
379.704	88.56
379.929	76.56
380.155	93.56
380.38	90.56
380.606	90.56
380.831	87.56
381.057	94.56
381.282	99.56
381.507	83.56
381.733	91.56
381.958	72.56
382.184	95.56
382.409	77.56
382.634	96.56
382.86	81.56
383.085	99.56
383.31	93.56
383.535	93.56
383.761	75.56
383.986	93.56
384.211	83.56
384.436	92.56
384.662	93.56
384.887	88.56
385.112	88.56
385.337	90.56
385.562	94.56
385.787	84.56
386.013	89.56
386.238	76.56
386.463	84.56
386.688	96.56
386.913	92.56
387.138	87.56
387.363	84.56
387.588	80.56
387.813	71.56
388.038	77.56
388.263	89.56
388.488	82.56
388.713	91.56
388.938	94.56
389.163	88.56
389.387	87.56
389.612	86.56
389.837	95.56
390.062	83.56
390.287	92.56
390.512	101.56
390.736	91.56
390.961	106.56
391.186	98.56
391.411	76.56
391.636	94.56
391.86	96.56
392.085	90.56
392.31	86.56
392.534	82.56
392.759	92.56
392.984	86.56
393.208	83.56
393.433	93.56
393.658	83.56
393.882	80.56
394.107	76.56
394.331	97.56
394.556	94.56
394.78	99.56
395.005	90.56
395.229	85.56
395.454	73.56
395.678	74.56
395.903	91.56
396.127	85.56
396.352	87.56
396.576	82.56
396.801	91.56
397.025	90.56
397.249	86.56
397.474	94.56
397.698	88.56
397.922	100.56
398.147	87.56
398.371	90.56
398.595	85.56
398.82	82.56
399.044	86.56
399.268	95.56
399.492	107.56
399.717	104.56
399.941	102.56
400.165	94.56
400.389	82.56
400.613	90.56
400.837	97.56
401.062	91.56
401.286	87.56
401.51	97.56
401.734	82.56
401.958	76.56
402.182	102.56
402.406	91.56
402.63	104.56
402.854	98.56
403.078	89.56
403.302	99.56
403.526	97.56
403.75	86.56
403.974	92.56
404.198	79.56
404.422	96.56
404.645	89.56
404.869	96.56
405.093	107.56
405.317	102.56
405.541	94.56
405.765	89.56
405.988	80.56
406.212	84.56
406.436	69.56
406.66	105.56
406.883	86.56
407.107	86.56
407.331	91.56
407.555	102.56
407.778	90.56
408.002	97.56
408.226	85.56
408.449	103.56
408.673	84.56
408.896	71.56
409.12	85.56
409.344	94.56
409.567	99.56
409.791	82.56
410.014	90.56
410.238	87.56
410.461	88.56
410.685	88.56
410.908	90.56
411.132	84.56
411.355	91.56
411.578	80.56
411.802	86.56
412.025	82.56
412.249	94.56
412.472	85.56
412.695	94.56
412.919	87.56
413.142	67.56
413.365	96.56
413.589	84.56
413.812	71.56
414.035	89.56
414.258	80.56
414.482	82.56
414.705	93.56
414.928	94.56
415.151	78.56
415.374	88.56
415.597	101.56
415.821	80.56
416.044	87.56
416.267	88.56
416.49	75.56
416.713	87.56
416.936	90.56
417.159	95.56
417.382	88.56
417.605	91.56
417.828	92.56
418.051	78.56
418.274	106.56
418.497	106.56
418.72	79.56
418.943	88.56
419.166	88.56
419.389	99.56
419.611	81.56
419.834	83.56
420.057	78.56
420.28	84.56
420.503	90.56
420.726	92.56
420.948	98.56
421.171	82.56
421.394	95.56
421.617	93.56
421.839	66.56
422.062	88.56
422.285	84.56
422.507	93.56
422.73	102.56
422.953	90.56
423.175	93.56
423.398	102.56
423.621	85.56
423.843	80.56
424.066	78.56
424.288	106.56
424.511	83.56
424.733	85.56
424.956	93.56
425.178	86.56
425.401	88.56
425.623	86.56
425.846	78.56
426.068	80.56
426.291	88.56
426.513	76.56
426.735	72.56
426.958	95.56
427.18	77.56
427.402	78.56
427.625	85.56
427.847	79.56
428.069	102.56
428.292	80.56
428.514	97.56
428.736	86.56
428.958	64.56
429.181	96.56
429.403	87.56
429.625	80.56
429.847	85.56
430.069	81.56
430.292	100.56
430.514	85.56
430.736	90.56
430.958	88.56
431.18	79.56
431.402	72.56
431.624	100.56
431.846	79.56
432.068	89.56
432.29	89.56
432.512	99.56
432.734	80.56
432.956	103.56
433.178	84.56
433.4	85.56
433.622	80.56
433.844	87.56
434.066	76.56
434.287	70.56
434.509	86.56
434.731	81.56
434.953	88.56
435.175	74.56
435.397	113.56
435.618	94.56
435.84	94.56
436.062	90.56
436.284	90.56
436.505	92.56
436.727	86.56
436.949	68.56
437.17	97.56
437.392	104.56
437.614	89.56
437.835	87.56
438.057	94.56
438.278	89.56
438.5	80.56
438.721	82.56
438.943	94.56
439.165	90.56
439.386	92.56
439.608	86.56
439.829	106.56
440.05	80.56
440.272	89.56
440.493	92.56
440.715	68.56
440.936	83.56
441.158	95.56
441.379	97.56
441.6	97.56
441.822	88.56
442.043	92.56
442.264	88.56
442.486	98.56
442.707	77.56
442.928	71.56
443.149	88.56
443.371	85.56
443.592	88.56
443.813	91.56
444.034	98.56
444.255	104.56
444.476	98.56
444.698	83.56
444.919	99.56
445.14	170.56
445.361	117.56
445.582	88.56
445.803	90.56
446.024	101.56
446.245	90.56
446.466	94.56
446.687	68.56
446.908	96.56
447.129	75.56
447.35	82.56
447.571	99.56
447.792	83.56
448.013	88.56
448.234	89.56
448.455	86.56
448.675	82.56
448.896	84.56
449.117	80.56
449.338	90.56
449.559	85.56
449.779	78.56
450	93.56
450.221	74.56
450.442	94.56
450.662	76.56
450.883	88.56
451.104	103.56
451.324	82.56
451.545	80.56
451.766	89.56
451.986	96.56
452.207	96.56
452.428	82.56
452.648	75.56
452.869	94.56
453.089	96.56
453.31	86.56
453.53	95.56
453.751	77.56
453.971	84.56
454.192	84.56
454.412	102.56
454.633	95.56
454.853	109.56
455.073	94.56
455.294	94.56
455.514	88.56
455.734	75.56
455.955	86.56
456.175	87.56
456.395	82.56
456.616	94.56
456.836	86.56
457.056	85.56
457.276	89.56
457.497	84.56
457.717	82.56
457.937	86.56
458.157	89.56
458.377	82.56
458.598	75.56
458.818	91.56
459.038	77.56
459.258	95.56
459.478	88.56
459.698	82.56
459.918	95.56
460.138	86.56
460.358	91.56
460.578	86.56
460.798	88.56
461.018	87.56
461.238	85.56
461.458	89.56
461.678	82.56
461.898	91.56
462.118	96.56
462.338	92.56
462.558	93.56
462.777	90.56
462.997	79.56
463.217	87.56
463.437	97.56
463.657	89.56
463.876	99.56
464.096	110.56
464.316	81.56
464.536	81.56
464.755	88.56
464.975	90.56
465.195	90.56
465.414	102.56
465.634	97.56
465.854	83.56
466.073	88.56
466.293	83.56
466.512	82.56
466.732	84.56
466.951	84.56
467.171	82.56
467.391	91.56
467.61	81.56
467.829	93.56
468.049	94.56
468.268	83.56
468.488	75.56
468.707	97.56
468.927	87.56
469.146	99.56
469.365	85.56
469.585	84.56
469.804	93.56
470.023	95.56
470.243	85.56
470.462	92.56
470.681	98.56
470.901	80.56
471.12	98.56
471.339	87.56
471.558	94.56
471.777	87.56
471.997	98.56
472.216	96.56
472.435	82.56
472.654	93.56
472.873	88.56
473.092	91.56
473.311	102.56
473.53	94.56
473.749	92.56
473.968	99.56
474.187	95.56
474.406	95.56
474.625	85.56
474.844	74.56
475.063	79.56
475.282	86.56
475.501	93.56
475.72	82.56
475.939	85.56
476.158	87.56
476.377	78.56
476.596	90.56
476.814	82.56
477.033	91.56
477.252	91.56
477.471	84.56
477.69	93.56
477.908	78.56
478.127	99.56
478.346	103.56
478.564	93.56
478.783	79.56
479.002	75.56
479.22	93.56
479.439	90.56
479.658	87.56
479.876	76.56
480.095	86.56
480.313	86.56
480.532	98.56
480.751	95.56
480.969	81.56
481.188	78.56
481.406	97.56
481.624	88.56
481.843	91.56
482.061	104.56
482.28	98.56
482.498	89.56
482.717	80.56
482.935	92.56
483.153	91.56
483.372	83.56
483.59	103.56
483.808	99.56
484.027	96.56
484.245	91.56
484.463	93.56
484.681	96.56
484.9	83.56
485.118	94.56
485.336	80.56
485.554	69.56
485.772	77.56
485.99	94.56
486.209	96.56
486.427	88.56
486.645	90.56
486.863	85.56
487.081	82.56
487.299	83.56
487.517	88.56
487.735	86.56
487.953	100.56
488.171	95.56
488.389	100.56
488.607	100.56
488.825	93.56
489.043	99.56
489.261	96.56
489.479	103.56
489.696	96.56
489.914	71.56
490.132	94.56
490.35	91.56
490.568	89.56
490.786	83.56
491.003	90.56
491.221	84.56
491.439	88.56
491.657	86.56
491.874	100.56
492.092	90.56
492.31	89.56
492.527	85.56
492.745	79.56
492.963	87.56
493.18	87.56
493.398	79.56
493.615	80.56
493.833	88.56
494.05	89.56
494.268	86.56
494.485	83.56
494.703	86.56
494.92	84.56
495.138	86.56
495.355	92.56
495.573	94.56
495.79	95.56
496.008	95.56
496.225	95.56
496.442	83.56
496.66	94.56
496.877	84.56
497.094	103.56
497.312	95.56
497.529	83.56
497.746	73.56
497.963	92.56
498.181	90.56
498.398	97.56
498.615	98.56
498.832	83.56
499.049	90.56
499.267	89.56
499.484	87.56
499.701	109.56
499.918	93.56
500.135	107.56
500.352	114.56
500.569	120.56
500.786	100.56
501.003	96.56
501.22	100.56
501.437	114.56
501.654	97.56
501.871	78.56
502.088	102.56
502.305	90.56
502.522	80.56
502.739	92.56
502.956	106.56
503.172	91.56
503.389	83.56
503.606	95.56
503.823	96.56
504.04	95.56
504.256	88.56
504.473	83.56
504.69	92.56
504.907	106.56
505.123	89.56
505.34	92.56
505.557	91.56
505.773	98.56
505.99	78.56
506.207	89.56
506.423	76.56
506.64	107.56
506.856	106.56
507.073	90.56
507.289	81.56
507.506	111.56
507.722	83.56
507.939	78.56
508.155	91.56
508.372	85.56
508.588	103.56
508.805	91.56
509.021	90.56
509.238	100.56
509.454	80.56
509.67	86.56
509.887	88.56
510.103	79.56
510.319	86.56
510.536	88.56
510.752	86.56
510.968	94.56
511.184	88.56
511.401	94.56
511.617	85.56
511.833	83.56
512.049	78.56
512.265	83.56
512.481	92.56
512.698	97.56
512.914	97.56
513.13	87.56
513.346	98.56
513.562	82.56
513.778	91.56
513.994	88.56
514.21	79.56
514.426	91.56
514.642	92.56
514.858	92.56
515.074	88.56
515.29	83.56
515.506	79.56
515.721	83.56
515.937	79.56
516.153	98.56
516.369	98.56
516.585	91.56
516.801	103.56
517.016	86.56
517.232	89.56
517.448	97.56
517.664	81.56
517.879	86.56
518.095	96.56
518.311	93.56
518.527	92.56
518.742	88.56
518.958	76.56
519.173	79.56
