Data from BG_HRD10591_040.txt Node
Date: Fri May 16 15:33:27 EDT 2025
User: Yrep
Spectrometer: HR+D1059
Trigger mode: 1
Integration Time (sec): 1.000000E-1
Scans to average: 1
Electric dark correction enabled: true
Nonlinearity correction enabled: false
Boxcar width: 0
XAxis mode: Wavelengths
Number of Pixels in Spectrum: 2048
>>>>>Begin Spectral Data<<<<<
223.165	-5.62
223.4	-5.62
223.635	-5.62
223.869	-19.62
224.104	-26.62
224.338	-14.62
224.573	-15.62
224.808	-12.62
225.042	-14.62
225.277	-3.62
225.511	0.38
225.746	18.38
225.98	-4.62
226.215	-0.62
226.449	14.38
226.683	19.38
226.918	21.38
227.152	44.38
227.387	44.38
227.621	14.38
227.856	27.38
228.09	58.38
228.324	41.38
228.559	59.38
228.793	53.38
229.027	57.38
229.262	62.38
229.496	66.38
229.73	63.38
229.964	72.38
230.199	59.38
230.433	76.38
230.667	71.38
230.901	64.38
231.136	77.38
231.37	71.38
231.604	79.38
231.838	75.38
232.072	87.38
232.306	76.38
232.541	77.38
232.775	75.38
233.009	73.38
233.243	75.38
233.477	89.38
233.711	81.38
233.945	79.38
234.179	75.38
234.413	83.38
234.647	85.38
234.881	93.38
235.115	79.38
235.349	61.38
235.583	78.38
235.817	74.38
236.051	65.38
236.285	73.38
236.519	76.38
236.753	72.38
236.987	80.38
237.221	76.38
237.455	56.38
237.689	80.38
237.922	59.38
238.156	69.38
238.39	68.38
238.624	60.38
238.858	62.38
239.091	82.38
239.325	75.38
239.559	83.38
239.793	70.38
240.027	80.38
240.26	72.38
240.494	61.38
240.728	55.38
240.961	74.38
241.195	78.38
241.429	60.38
241.662	69.38
241.896	67.38
242.13	66.38
242.363	73.38
242.597	71.38
242.83	69.38
243.064	73.38
243.298	85.38
243.531	72.38
243.765	79.38
243.998	74.38
244.232	70.38
244.465	66.38
244.699	72.38
244.932	63.38
245.166	73.38
245.399	75.38
245.633	72.38
245.866	79.38
246.099	89.38
246.333	72.38
246.566	60.38
246.8	68.38
247.033	73.38
247.266	85.38
247.5	64.38
247.733	75.38
247.966	88.38
248.2	79.38
248.433	75.38
248.666	95.38
248.899	70.38
249.133	67.38
249.366	72.38
249.599	94.38
249.832	76.38
250.066	81.38
250.299	79.38
250.532	93.38
250.765	78.38
250.998	69.38
251.231	84.38
251.465	89.38
251.698	71.38
251.931	79.38
252.164	64.38
252.397	76.38
252.63	65.38
252.863	81.38
253.096	73.38
253.329	75.38
253.562	65.38
253.795	93.38
254.028	78.38
254.261	72.38
254.494	84.38
254.727	77.38
254.96	72.38
255.193	89.38
255.426	77.38
255.659	73.38
255.892	93.38
256.124	77.38
256.357	68.38
256.59	87.38
256.823	69.38
257.056	88.38
257.289	81.38
257.521	87.38
257.754	69.38
257.987	71.38
258.22	87.38
258.452	74.38
258.685	73.38
258.918	68.38
259.151	80.38
259.383	83.38
259.616	64.38
259.849	75.38
260.081	81.38
260.314	81.38
260.547	90.38
260.779	85.38
261.012	72.38
261.244	85.38
261.477	82.38
261.71	84.38
261.942	80.38
262.175	76.38
262.407	80.38
262.64	77.38
262.872	85.38
263.105	81.38
263.337	70.38
263.57	79.38
263.802	72.38
264.035	71.38
264.267	73.38
264.499	80.38
264.732	83.38
264.964	88.38
265.197	87.38
265.429	72.38
265.661	52.38
265.894	76.38
266.126	78.38
266.358	89.38
266.591	83.38
266.823	66.38
267.055	72.38
267.287	86.38
267.52	76.38
267.752	88.38
267.984	72.38
268.216	75.38
268.448	78.38
268.681	94.38
268.913	72.38
269.145	89.38
269.377	66.38
269.609	58.38
269.841	77.38
270.073	77.38
270.306	88.38
270.538	84.38
270.77	77.38
271.002	64.38
271.234	89.38
271.466	83.38
271.698	81.38
271.93	79.38
272.162	81.38
272.394	100.38
272.626	89.38
272.858	79.38
273.09	85.38
273.322	69.38
273.553	78.38
273.785	59.38
274.017	84.38
274.249	85.38
274.481	88.38
274.713	85.38
274.945	87.38
275.176	68.38
275.408	87.38
275.64	81.38
275.872	75.38
276.104	90.38
276.335	89.38
276.567	86.38
276.799	83.38
277.031	72.38
277.262	76.38
277.494	84.38
277.726	88.38
277.957	88.38
278.189	76.38
278.421	67.38
278.652	79.38
278.884	77.38
279.115	86.38
279.347	73.38
279.579	73.38
279.81	90.38
280.042	76.38
280.273	80.38
280.505	88.38
280.736	85.38
280.968	89.38
281.199	88.38
281.431	84.38
281.662	86.38
281.894	80.38
282.125	83.38
282.356	79.38
282.588	77.38
282.819	82.38
283.051	85.38
283.282	71.38
283.513	86.38
283.745	76.38
283.976	68.38
284.207	76.38
284.439	76.38
284.67	91.38
284.901	80.38
285.132	77.38
285.364	90.38
285.595	91.38
285.826	64.38
286.057	82.38
286.288	93.38
286.52	103.38
286.751	89.38
286.982	83.38
287.213	79.38
287.444	74.38
287.675	74.38
287.906	72.38
288.138	80.38
288.369	92.38
288.6	76.38
288.831	77.38
289.062	83.38
289.293	83.38
289.524	70.38
289.755	68.38
289.986	83.38
290.217	90.38
290.448	76.38
290.679	88.38
290.91	65.38
291.141	92.38
291.371	89.38
291.602	79.38
291.833	74.38
292.064	85.38
292.295	85.38
292.526	79.38
292.757	75.38
292.987	79.38
293.218	88.38
293.449	97.38
293.68	91.38
293.91	84.38
294.141	84.38
294.372	81.38
294.603	73.38
294.833	74.38
295.064	93.38
295.295	93.38
295.525	74.38
295.756	85.38
295.987	88.38
296.217	87.38
296.448	73.38
296.679	72.38
296.909	85.38
297.14	80.38
297.37	91.38
297.601	86.38
297.831	77.38
298.062	75.38
298.292	80.38
298.523	81.38
298.753	78.38
298.984	83.38
299.214	78.38
299.445	87.38
299.675	91.38
299.905	91.38
300.136	75.38
300.366	77.38
300.597	83.38
300.827	84.38
301.057	79.38
301.288	71.38
301.518	87.38
301.748	86.38
301.979	97.38
302.209	94.38
302.439	82.38
302.669	93.38
302.9	85.38
303.13	80.38
303.36	77.38
303.59	91.38
303.82	88.38
304.051	93.38
304.281	68.38
304.511	97.38
304.741	75.38
304.971	84.38
305.201	77.38
305.431	85.38
305.661	83.38
305.891	71.38
306.121	83.38
306.352	91.38
306.582	86.38
306.812	75.38
307.042	83.38
307.272	68.38
307.502	82.38
307.731	91.38
307.961	91.38
308.191	94.38
308.421	77.38
308.651	79.38
308.881	87.38
309.111	83.38
309.341	76.38
309.571	78.38
309.8	85.38
310.03	76.38
310.26	89.38
310.49	77.38
310.72	88.38
310.949	91.38
311.179	86.38
311.409	84.38
311.639	95.38
311.868	81.38
312.098	83.38
312.328	87.38
312.557	80.38
312.787	91.38
313.017	89.38
313.246	75.38
313.476	90.38
313.706	89.38
313.935	81.38
314.165	86.38
314.394	88.38
314.624	87.38
314.853	90.38
315.083	95.38
315.312	89.38
315.542	84.38
315.771	92.38
316.001	78.38
316.23	95.38
316.46	88.38
316.689	70.38
316.919	69.38
317.148	74.38
317.377	90.38
317.607	82.38
317.836	84.38
318.065	69.38
318.295	83.38
318.524	88.38
318.753	75.38
318.983	76.38
319.212	88.38
319.441	77.38
319.67	64.38
319.9	81.38
320.129	90.38
320.358	81.38
320.587	77.38
320.816	84.38
321.046	65.38
321.275	77.38
321.504	71.38
321.733	91.38
321.962	85.38
322.191	88.38
322.42	80.38
322.649	92.38
322.878	100.38
323.108	81.38
323.337	76.38
323.566	76.38
323.795	80.38
324.024	89.38
324.253	76.38
324.482	90.38
324.71	78.38
324.939	87.38
325.168	71.38
325.397	95.38
325.626	99.38
325.855	87.38
326.084	75.38
326.313	89.38
326.542	71.38
326.77	86.38
326.999	86.38
327.228	76.38
327.457	75.38
327.686	78.38
327.914	80.38
328.143	78.38
328.372	91.38
328.6	73.38
328.829	87.38
329.058	75.38
329.287	70.38
329.515	102.38
329.744	83.38
329.972	90.38
330.201	79.38
330.43	90.38
330.658	92.38
330.887	71.38
331.115	83.38
331.344	68.38
331.572	85.38
331.801	84.38
332.03	83.38
332.258	69.38
332.486	71.38
332.715	88.38
332.943	78.38
333.172	83.38
333.4	84.38
333.629	93.38
333.857	65.38
334.085	73.38
334.314	92.38
334.542	72.38
334.771	83.38
334.999	81.38
335.227	77.38
335.455	77.38
335.684	81.38
335.912	68.38
336.14	63.38
336.369	68.38
336.597	75.38
336.825	78.38
337.053	94.38
337.281	80.38
337.51	76.38
337.738	80.38
337.966	82.38
338.194	75.38
338.422	79.38
338.65	80.38
338.878	57.38
339.106	79.38
339.334	85.38
339.562	73.38
339.79	77.38
340.018	91.38
340.246	94.38
340.474	77.38
340.702	79.38
340.93	91.38
341.158	86.38
341.386	85.38
341.614	86.38
341.842	79.38
342.07	77.38
342.298	93.38
342.526	77.38
342.754	84.38
342.981	84.38
343.209	79.38
343.437	93.38
343.665	69.38
343.893	77.38
344.12	76.38
344.348	85.38
344.576	81.38
344.804	79.38
345.031	90.38
345.259	71.38
345.487	75.38
345.714	59.38
345.942	73.38
346.17	84.38
346.397	80.38
346.625	73.38
346.853	78.38
347.08	83.38
347.308	79.38
347.535	92.38
347.763	72.38
347.99	83.38
348.218	88.38
348.445	81.38
348.673	93.38
348.9	89.38
349.128	88.38
349.355	90.38
349.583	95.38
349.81	88.38
350.037	86.38
350.265	77.38
350.492	82.38
350.72	77.38
350.947	79.38
351.174	91.38
351.402	83.38
351.629	88.38
351.856	82.38
352.083	68.38
352.311	83.38
352.538	78.38
352.765	77.38
352.992	80.38
353.22	77.38
353.447	86.38
353.674	77.38
353.901	79.38
354.128	83.38
354.355	79.38
354.583	72.38
354.81	65.38
355.037	88.38
355.264	82.38
355.491	84.38
355.718	73.38
355.945	84.38
356.172	91.38
356.399	86.38
356.626	103.38
356.853	70.38
357.08	81.38
357.307	85.38
357.534	83.38
357.761	77.38
357.988	75.38
358.215	68.38
358.441	88.38
358.668	91.38
358.895	76.38
359.122	88.38
359.349	81.38
359.576	86.38
359.802	80.38
360.029	82.38
360.256	85.38
360.483	85.38
360.709	77.38
360.936	85.38
361.163	75.38
361.39	84.38
361.616	90.38
361.843	90.38
362.07	84.38
362.296	82.38
362.523	78.38
362.749	83.38
362.976	69.38
363.203	91.38
363.429	85.38
363.656	79.38
363.882	73.38
364.109	71.38
364.335	72.38
364.562	84.38
364.788	80.38
365.015	69.38
365.241	65.38
365.468	74.38
365.694	81.38
365.92	71.38
366.147	87.38
366.373	91.38
366.599	81.38
366.826	64.38
367.052	86.38
367.278	77.38
367.505	76.38
367.731	81.38
367.957	84.38
368.184	74.38
368.41	80.38
368.636	95.38
368.862	81.38
369.089	66.38
369.315	84.38
369.541	86.38
369.767	83.38
369.993	81.38
370.219	93.38
370.445	82.38
370.672	83.38
370.898	75.38
371.124	83.38
371.35	83.38
371.576	87.38
371.802	59.38
372.028	69.38
372.254	75.38
372.48	90.38
372.706	95.38
372.932	75.38
373.158	78.38
373.384	82.38
373.61	79.38
373.835	79.38
374.061	65.38
374.287	83.38
374.513	78.38
374.739	73.38
374.965	77.38
375.191	86.38
375.416	77.38
375.642	87.38
375.868	82.38
376.094	68.38
376.319	65.38
376.545	75.38
376.771	85.38
376.997	79.38
377.222	65.38
377.448	88.38
377.674	77.38
377.899	75.38
378.125	74.38
378.35	80.38
378.576	84.38
378.802	80.38
379.027	81.38
379.253	77.38
379.478	77.38
379.704	80.38
379.929	72.38
380.155	74.38
380.38	78.38
380.606	71.38
380.831	91.38
381.057	73.38
381.282	61.38
381.507	81.38
381.733	74.38
381.958	81.38
382.184	79.38
382.409	84.38
382.634	73.38
382.86	73.38
383.085	94.38
383.31	76.38
383.535	77.38
383.761	85.38
383.986	74.38
384.211	76.38
384.436	78.38
384.662	83.38
384.887	72.38
385.112	73.38
385.337	81.38
385.562	69.38
385.787	74.38
386.013	73.38
386.238	74.38
386.463	99.38
386.688	87.38
386.913	83.38
387.138	68.38
387.363	72.38
387.588	72.38
387.813	85.38
388.038	68.38
388.263	78.38
388.488	83.38
388.713	63.38
388.938	75.38
389.163	80.38
389.387	79.38
389.612	85.38
389.837	75.38
390.062	66.38
390.287	80.38
390.512	83.38
390.736	77.38
390.961	78.38
391.186	83.38
391.411	69.38
391.636	74.38
391.86	84.38
392.085	77.38
392.31	63.38
392.534	69.38
392.759	72.38
392.984	85.38
393.208	79.38
393.433	77.38
393.658	79.38
393.882	71.38
394.107	71.38
394.331	90.38
394.556	71.38
394.78	74.38
395.005	83.38
395.229	79.38
395.454	76.38
395.678	68.38
395.903	79.38
396.127	75.38
396.352	63.38
396.576	78.38
396.801	78.38
397.025	74.38
397.249	101.38
397.474	75.38
397.698	67.38
397.922	80.38
398.147	85.38
398.371	71.38
398.595	79.38
398.82	71.38
399.044	73.38
399.268	71.38
399.492	99.38
399.717	78.38
399.941	82.38
400.165	95.38
400.389	77.38
400.613	91.38
400.837	79.38
401.062	60.38
401.286	87.38
401.51	64.38
401.734	76.38
401.958	99.38
402.182	92.38
402.406	85.38
402.63	79.38
402.854	78.38
403.078	84.38
403.302	93.38
403.526	83.38
403.75	65.38
403.974	82.38
404.198	75.38
404.422	66.38
404.645	87.38
404.869	81.38
405.093	74.38
405.317	75.38
405.541	74.38
405.765	70.38
405.988	79.38
406.212	79.38
406.436	71.38
406.66	76.38
406.883	88.38
407.107	79.38
407.331	85.38
407.555	83.38
407.778	88.38
408.002	86.38
408.226	79.38
408.449	77.38
408.673	72.38
408.896	97.38
409.12	75.38
409.344	74.38
409.567	88.38
409.791	71.38
410.014	67.38
410.238	83.38
410.461	96.38
410.685	90.38
410.908	80.38
411.132	70.38
411.355	78.38
411.578	82.38
411.802	97.38
412.025	80.38
412.249	62.38
412.472	75.38
412.695	65.38
412.919	74.38
413.142	73.38
413.365	75.38
413.589	81.38
413.812	90.38
414.035	84.38
414.258	70.38
414.482	90.38
414.705	101.38
414.928	73.38
415.151	73.38
415.374	80.38
415.597	62.38
415.821	81.38
416.044	77.38
416.267	80.38
416.49	75.38
416.713	92.38
416.936	79.38
417.159	84.38
417.382	88.38
417.605	80.38
417.828	89.38
418.051	91.38
418.274	69.38
418.497	65.38
418.72	66.38
418.943	79.38
419.166	81.38
419.389	90.38
419.611	83.38
419.834	73.38
420.057	93.38
420.28	94.38
420.503	75.38
420.726	84.38
420.948	73.38
421.171	65.38
421.394	78.38
421.617	80.38
421.839	74.38
422.062	59.38
422.285	76.38
422.507	71.38
422.73	77.38
422.953	79.38
423.175	73.38
423.398	77.38
423.621	88.38
423.843	83.38
424.066	86.38
424.288	79.38
424.511	72.38
424.733	76.38
424.956	77.38
425.178	79.38
425.401	69.38
425.623	88.38
425.846	81.38
426.068	73.38
426.291	65.38
426.513	76.38
426.735	83.38
426.958	69.38
427.18	82.38
427.402	63.38
427.625	81.38
427.847	73.38
428.069	76.38
428.292	79.38
428.514	77.38
428.736	78.38
428.958	79.38
429.181	78.38
429.403	78.38
429.625	79.38
429.847	84.38
430.069	81.38
430.292	63.38
430.514	83.38
430.736	70.38
430.958	84.38
431.18	84.38
431.402	80.38
431.624	75.38
431.846	73.38
432.068	69.38
432.29	72.38
432.512	79.38
432.734	67.38
432.956	81.38
433.178	93.38
433.4	84.38
433.622	93.38
433.844	78.38
434.066	78.38
434.287	65.38
434.509	63.38
434.731	69.38
434.953	81.38
435.175	73.38
435.397	76.38
435.618	83.38
435.84	80.38
436.062	71.38
436.284	85.38
436.505	74.38
436.727	74.38
436.949	70.38
437.17	75.38
437.392	94.38
437.614	86.38
437.835	85.38
438.057	83.38
438.278	80.38
438.5	75.38
438.721	93.38
438.943	75.38
439.165	93.38
439.386	74.38
439.608	68.38
439.829	66.38
440.05	76.38
440.272	69.38
440.493	56.38
440.715	67.38
440.936	90.38
441.158	84.38
441.379	73.38
441.6	77.38
441.822	67.38
442.043	82.38
442.264	79.38
442.486	81.38
442.707	57.38
442.928	97.38
443.149	79.38
443.371	71.38
443.592	77.38
443.813	73.38
444.034	73.38
444.255	75.38
444.476	76.38
444.698	72.38
444.919	77.38
445.14	125.38
445.361	104.38
445.582	77.38
445.803	69.38
446.024	85.38
446.245	84.38
446.466	77.38
446.687	86.38
446.908	70.38
447.129	73.38
447.35	78.38
447.571	74.38
447.792	83.38
448.013	84.38
448.234	83.38
448.455	72.38
448.675	81.38
448.896	84.38
449.117	88.38
449.338	73.38
449.559	75.38
449.779	65.38
450	74.38
450.221	79.38
450.442	69.38
450.662	68.38
450.883	69.38
451.104	81.38
451.324	63.38
451.545	74.38
451.766	81.38
451.986	73.38
452.207	68.38
452.428	73.38
452.648	85.38
452.869	92.38
453.089	78.38
453.31	78.38
453.53	72.38
453.751	82.38
453.971	84.38
454.192	76.38
454.412	83.38
454.633	83.38
454.853	73.38
455.073	79.38
455.294	72.38
455.514	78.38
455.734	84.38
455.955	79.38
456.175	78.38
456.395	74.38
456.616	74.38
456.836	91.38
457.056	73.38
457.276	71.38
457.497	74.38
457.717	87.38
457.937	59.38
458.157	68.38
458.377	87.38
458.598	85.38
458.818	73.38
459.038	70.38
459.258	85.38
459.478	75.38
459.698	74.38
459.918	84.38
460.138	74.38
460.358	76.38
460.578	77.38
460.798	81.38
461.018	69.38
461.238	79.38
461.458	84.38
461.678	77.38
461.898	84.38
462.118	83.38
462.338	87.38
462.558	79.38
462.777	71.38
462.997	72.38
463.217	76.38
463.437	80.38
463.657	69.38
463.876	83.38
464.096	83.38
464.316	84.38
464.536	68.38
464.755	85.38
464.975	77.38
465.195	78.38
465.414	87.38
465.634	79.38
465.854	66.38
466.073	67.38
466.293	77.38
466.512	85.38
466.732	74.38
466.951	83.38
467.171	67.38
467.391	86.38
467.61	67.38
467.829	87.38
468.049	73.38
468.268	67.38
468.488	78.38
468.707	71.38
468.927	70.38
469.146	67.38
469.365	77.38
469.585	90.38
469.804	82.38
470.023	76.38
470.243	79.38
470.462	81.38
470.681	78.38
470.901	86.38
471.12	63.38
471.339	91.38
471.558	73.38
471.777	56.38
471.997	71.38
472.216	85.38
472.435	75.38
472.654	99.38
472.873	73.38
473.092	77.38
473.311	93.38
473.53	71.38
473.749	85.38
473.968	97.38
474.187	87.38
474.406	87.38
474.625	76.38
474.844	77.38
475.063	75.38
475.282	73.38
475.501	75.38
475.72	85.38
475.939	76.38
476.158	83.38
476.377	77.38
476.596	78.38
476.814	71.38
477.033	67.38
477.252	83.38
477.471	79.38
477.69	87.38
477.908	75.38
478.127	74.38
478.346	75.38
478.564	73.38
478.783	77.38
479.002	80.38
479.22	69.38
479.439	88.38
479.658	69.38
479.876	60.38
480.095	81.38
480.313	75.38
480.532	75.38
480.751	87.38
480.969	65.38
481.188	75.38
481.406	74.38
481.624	86.38
481.843	74.38
482.061	68.38
482.28	83.38
482.498	83.38
482.717	88.38
482.935	71.38
483.153	75.38
483.372	74.38
483.59	66.38
483.808	80.38
484.027	72.38
484.245	70.38
484.463	87.38
484.681	81.38
484.9	69.38
485.118	79.38
485.336	87.38
485.554	75.38
485.772	65.38
485.99	95.38
486.209	74.38
486.427	80.38
486.645	81.38
486.863	79.38
487.081	76.38
487.299	84.38
487.517	77.38
487.735	79.38
487.953	80.38
488.171	79.38
488.389	70.38
488.607	76.38
488.825	55.38
489.043	61.38
489.261	78.38
489.479	70.38
489.696	90.38
489.914	77.38
490.132	76.38
490.35	82.38
490.568	79.38
490.786	69.38
491.003	73.38
491.221	78.38
491.439	75.38
491.657	81.38
491.874	81.38
492.092	78.38
492.31	84.38
492.527	75.38
492.745	80.38
492.963	80.38
493.18	75.38
493.398	63.38
493.615	75.38
493.833	76.38
494.05	91.38
494.268	80.38
494.485	83.38
494.703	70.38
494.92	76.38
495.138	80.38
495.355	97.38
495.573	97.38
495.79	89.38
496.008	75.38
496.225	81.38
496.442	83.38
496.66	80.38
496.877	87.38
497.094	99.38
497.312	79.38
497.529	85.38
497.746	79.38
497.963	80.38
498.181	76.38
498.398	89.38
498.615	77.38
498.832	75.38
499.049	88.38
499.267	87.38
499.484	94.38
499.701	90.38
499.918	74.38
500.135	63.38
500.352	81.38
500.569	82.38
500.786	86.38
501.003	91.38
501.22	72.38
501.437	73.38
501.654	81.38
501.871	82.38
502.088	79.38
502.305	85.38
502.522	84.38
502.739	89.38
502.956	76.38
503.172	72.38
503.389	91.38
503.606	80.38
503.823	80.38
504.04	70.38
504.256	76.38
504.473	85.38
504.69	75.38
504.907	83.38
505.123	74.38
505.34	84.38
505.557	92.38
505.773	88.38
505.99	83.38
506.207	88.38
506.423	87.38
506.64	79.38
506.856	80.38
507.073	83.38
507.289	74.38
507.506	76.38
507.722	87.38
507.939	81.38
508.155	80.38
508.372	84.38
508.588	78.38
508.805	85.38
509.021	73.38
509.238	55.38
509.454	80.38
509.67	85.38
509.887	73.38
510.103	73.38
510.319	92.38
510.536	93.38
510.752	78.38
510.968	75.38
511.184	89.38
511.401	89.38
511.617	89.38
511.833	70.38
512.049	92.38
512.265	83.38
512.481	100.38
512.698	78.38
512.914	85.38
513.13	75.38
513.346	79.38
513.562	79.38
513.778	78.38
513.994	60.38
514.21	76.38
514.426	76.38
514.642	72.38
514.858	79.38
515.074	94.38
515.29	82.38
515.506	75.38
515.721	76.38
515.937	76.38
516.153	84.38
516.369	82.38
516.585	83.38
516.801	91.38
517.016	80.38
517.232	76.38
517.448	81.38
517.664	70.38
517.879	77.38
518.095	67.38
518.311	70.38
518.527	78.38
518.742	83.38
518.958	72.38
519.173	85.38
519.389	73.38
519.605	91.38
519.82	80.38
520.036	84.38
520.251	75.38
