Data from BG_HRD10591_054.txt Node
Date: Fri May 16 15:33:34 EDT 2025
User: Yrep
Spectrometer: HR+D1059
Trigger mode: 1
Integration Time (sec): 1.000000E-1
Scans to average: 1
Electric dark correction enabled: true
Nonlinearity correction enabled: false
Boxcar width: 0
XAxis mode: Wavelengths
Number of Pixels in Spectrum: 2048
>>>>>Begin Spectral Data<<<<<
223.165	-10.69
223.4	-10.69
223.635	-10.69
223.869	-24.69
224.104	-17.69
224.338	-0.69
224.573	-22.69
224.808	-22.69
225.042	-8.69
225.277	7.31
225.511	3.31
225.746	-6.69
225.98	12.31
226.215	-5.69
226.449	14.31
226.683	21.31
226.918	21.31
227.152	40.31
227.387	36.31
227.621	38.31
227.856	39.31
228.09	51.31
228.324	42.31
228.559	53.31
228.793	50.31
229.027	65.31
229.262	62.31
229.496	61.31
229.73	59.31
229.964	64.31
230.199	55.31
230.433	58.31
230.667	83.31
230.901	79.31
231.136	73.31
231.37	75.31
231.604	67.31
231.838	71.31
232.072	74.31
232.306	78.31
232.541	82.31
232.775	82.31
233.009	78.31
233.243	78.31
233.477	74.31
233.711	81.31
233.945	80.31
234.179	81.31
234.413	71.31
234.647	80.31
234.881	85.31
235.115	68.31
235.349	75.31
235.583	77.31
235.817	72.31
236.051	80.31
236.285	76.31
236.519	76.31
236.753	74.31
236.987	77.31
237.221	73.31
237.455	70.31
237.689	70.31
237.922	79.31
238.156	83.31
238.39	69.31
238.624	72.31
238.858	76.31
239.091	63.31
239.325	84.31
239.559	70.31
239.793	87.31
240.027	75.31
240.26	65.31
240.494	74.31
240.728	55.31
240.961	69.31
241.195	76.31
241.429	69.31
241.662	78.31
241.896	76.31
242.13	71.31
242.363	76.31
242.597	66.31
242.83	64.31
243.064	74.31
243.298	74.31
243.531	82.31
243.765	79.31
243.998	81.31
244.232	68.31
244.465	73.31
244.699	68.31
244.932	71.31
245.166	70.31
245.399	73.31
245.633	73.31
245.866	83.31
246.099	74.31
246.333	91.31
246.566	66.31
246.8	67.31
247.033	86.31
247.266	89.31
247.5	66.31
247.733	81.31
247.966	77.31
248.2	75.31
248.433	74.31
248.666	82.31
248.899	83.31
249.133	73.31
249.366	66.31
249.599	71.31
249.832	66.31
250.066	75.31
250.299	73.31
250.532	64.31
250.765	72.31
250.998	77.31
251.231	74.31
251.465	76.31
251.698	72.31
251.931	82.31
252.164	69.31
252.397	78.31
252.63	67.31
252.863	78.31
253.096	75.31
253.329	71.31
253.562	61.31
253.795	77.31
254.028	70.31
254.261	79.31
254.494	75.31
254.727	83.31
254.96	83.31
255.193	76.31
255.426	68.31
255.659	73.31
255.892	94.31
256.124	86.31
256.357	85.31
256.59	70.31
256.823	66.31
257.056	68.31
257.289	62.31
257.521	75.31
257.754	74.31
257.987	79.31
258.22	77.31
258.452	71.31
258.685	74.31
258.918	77.31
259.151	63.31
259.383	85.31
259.616	77.31
259.849	94.31
260.081	73.31
260.314	92.31
260.547	77.31
260.779	88.31
261.012	82.31
261.244	83.31
261.477	78.31
261.71	67.31
261.942	77.31
262.175	85.31
262.407	75.31
262.64	78.31
262.872	72.31
263.105	77.31
263.337	81.31
263.57	79.31
263.802	65.31
264.035	79.31
264.267	81.31
264.499	82.31
264.732	75.31
264.964	82.31
265.197	74.31
265.429	69.31
265.661	85.31
265.894	93.31
266.126	87.31
266.358	93.31
266.591	73.31
266.823	73.31
267.055	74.31
267.287	78.31
267.52	75.31
267.752	72.31
267.984	83.31
268.216	86.31
268.448	89.31
268.681	83.31
268.913	60.31
269.145	79.31
269.377	87.31
269.609	80.31
269.841	74.31
270.073	83.31
270.306	77.31
270.538	73.31
270.77	72.31
271.002	89.31
271.234	82.31
271.466	86.31
271.698	83.31
271.93	73.31
272.162	87.31
272.394	86.31
272.626	78.31
272.858	93.31
273.09	71.31
273.322	80.31
273.553	89.31
273.785	93.31
274.017	74.31
274.249	88.31
274.481	73.31
274.713	91.31
274.945	78.31
275.176	78.31
275.408	84.31
275.64	94.31
275.872	75.31
276.104	85.31
276.335	76.31
276.567	77.31
276.799	69.31
277.031	85.31
277.262	76.31
277.494	84.31
277.726	77.31
277.957	75.31
278.189	89.31
278.421	70.31
278.652	77.31
278.884	75.31
279.115	68.31
279.347	75.31
279.579	75.31
279.81	84.31
280.042	72.31
280.273	87.31
280.505	83.31
280.736	75.31
280.968	81.31
281.199	88.31
281.431	78.31
281.662	85.31
281.894	86.31
282.125	68.31
282.356	74.31
282.588	85.31
282.819	71.31
283.051	82.31
283.282	74.31
283.513	83.31
283.745	90.31
283.976	79.31
284.207	79.31
284.439	56.31
284.67	85.31
284.901	80.31
285.132	77.31
285.364	87.31
285.595	81.31
285.826	84.31
286.057	84.31
286.288	79.31
286.52	79.31
286.751	77.31
286.982	76.31
287.213	82.31
287.444	95.31
287.675	78.31
287.906	86.31
288.138	73.31
288.369	79.31
288.6	83.31
288.831	92.31
289.062	84.31
289.293	100.31
289.524	91.31
289.755	88.31
289.986	90.31
290.217	92.31
290.448	76.31
290.679	80.31
290.91	77.31
291.141	86.31
291.371	76.31
291.602	102.31
291.833	83.31
292.064	65.31
292.295	81.31
292.526	86.31
292.757	80.31
292.987	81.31
293.218	76.31
293.449	87.31
293.68	92.31
293.91	83.31
294.141	81.31
294.372	84.31
294.603	88.31
294.833	82.31
295.064	74.31
295.295	80.31
295.525	74.31
295.756	78.31
295.987	84.31
296.217	80.31
296.448	83.31
296.679	85.31
296.909	85.31
297.14	82.31
297.37	73.31
297.601	85.31
297.831	91.31
298.062	81.31
298.292	81.31
298.523	91.31
298.753	81.31
298.984	83.31
299.214	78.31
299.445	70.31
299.675	80.31
299.905	86.31
300.136	86.31
300.366	74.31
300.597	71.31
300.827	94.31
301.057	86.31
301.288	75.31
301.518	84.31
301.748	75.31
301.979	85.31
302.209	94.31
302.439	80.31
302.669	80.31
302.9	88.31
303.13	85.31
303.36	85.31
303.59	91.31
303.82	78.31
304.051	90.31
304.281	84.31
304.511	86.31
304.741	89.31
304.971	87.31
305.201	85.31
305.431	78.31
305.661	87.31
305.891	89.31
306.121	82.31
306.352	81.31
306.582	84.31
306.812	85.31
307.042	90.31
307.272	80.31
307.502	90.31
307.731	85.31
307.961	95.31
308.191	80.31
308.421	84.31
308.651	86.31
308.881	86.31
309.111	77.31
309.341	77.31
309.571	76.31
309.8	80.31
310.03	94.31
310.26	93.31
310.49	83.31
310.72	83.31
310.949	86.31
311.179	84.31
311.409	78.31
311.639	88.31
311.868	83.31
312.098	77.31
312.328	81.31
312.557	73.31
312.787	75.31
313.017	78.31
313.246	81.31
313.476	83.31
313.706	86.31
313.935	79.31
314.165	99.31
314.394	91.31
314.624	81.31
314.853	80.31
315.083	85.31
315.312	78.31
315.542	91.31
315.771	86.31
316.001	74.31
316.23	81.31
316.46	79.31
316.689	67.31
316.919	87.31
317.148	82.31
317.377	89.31
317.607	87.31
317.836	78.31
318.065	87.31
318.295	83.31
318.524	84.31
318.753	77.31
318.983	78.31
319.212	66.31
319.441	83.31
319.67	77.31
319.9	73.31
320.129	98.31
320.358	86.31
320.587	84.31
320.816	82.31
321.046	86.31
321.275	76.31
321.504	79.31
321.733	91.31
321.962	91.31
322.191	65.31
322.42	82.31
322.649	81.31
322.878	71.31
323.108	78.31
323.337	97.31
323.566	64.31
323.795	73.31
324.024	81.31
324.253	77.31
324.482	83.31
324.71	89.31
324.939	87.31
325.168	83.31
325.397	90.31
325.626	70.31
325.855	90.31
326.084	78.31
326.313	75.31
326.542	81.31
326.77	77.31
326.999	81.31
327.228	89.31
327.457	81.31
327.686	86.31
327.914	75.31
328.143	73.31
328.372	73.31
328.6	76.31
328.829	77.31
329.058	85.31
329.287	81.31
329.515	86.31
329.744	86.31
329.972	78.31
330.201	86.31
330.43	82.31
330.658	83.31
330.887	75.31
331.115	81.31
331.344	83.31
331.572	76.31
331.801	67.31
332.03	83.31
332.258	78.31
332.486	72.31
332.715	85.31
332.943	81.31
333.172	83.31
333.4	75.31
333.629	83.31
333.857	75.31
334.085	82.31
334.314	78.31
334.542	81.31
334.771	66.31
334.999	92.31
335.227	91.31
335.455	86.31
335.684	80.31
335.912	99.31
336.14	81.31
336.369	94.31
336.597	84.31
336.825	82.31
337.053	83.31
337.281	81.31
337.51	65.31
337.738	85.31
337.966	80.31
338.194	79.31
338.422	73.31
338.65	84.31
338.878	80.31
339.106	75.31
339.334	73.31
339.562	71.31
339.79	84.31
340.018	86.31
340.246	86.31
340.474	85.31
340.702	86.31
340.93	85.31
341.158	90.31
341.386	79.31
341.614	68.31
341.842	73.31
342.07	84.31
342.298	99.31
342.526	83.31
342.754	79.31
342.981	80.31
343.209	81.31
343.437	77.31
343.665	85.31
343.893	103.31
344.12	86.31
344.348	69.31
344.576	100.31
344.804	91.31
345.031	75.31
345.259	76.31
345.487	70.31
345.714	75.31
345.942	96.31
346.17	79.31
346.397	84.31
346.625	87.31
346.853	84.31
347.08	83.31
347.308	76.31
347.535	78.31
347.763	76.31
347.99	91.31
348.218	82.31
348.445	75.31
348.673	87.31
348.9	90.31
349.128	89.31
349.355	90.31
349.583	84.31
349.81	87.31
350.037	87.31
350.265	91.31
350.492	76.31
350.72	74.31
350.947	87.31
351.174	91.31
351.402	83.31
351.629	81.31
351.856	94.31
352.083	78.31
352.311	75.31
352.538	95.31
352.765	77.31
352.992	99.31
353.22	94.31
353.447	93.31
353.674	80.31
353.901	83.31
354.128	88.31
354.355	81.31
354.583	80.31
354.81	69.31
355.037	82.31
355.264	75.31
355.491	86.31
355.718	61.31
355.945	94.31
356.172	84.31
356.399	79.31
356.626	75.31
356.853	93.31
357.08	79.31
357.307	87.31
357.534	78.31
357.761	85.31
357.988	85.31
358.215	106.31
358.441	77.31
358.668	91.31
358.895	83.31
359.122	84.31
359.349	77.31
359.576	91.31
359.802	78.31
360.029	81.31
360.256	67.31
360.483	85.31
360.709	73.31
360.936	92.31
361.163	89.31
361.39	85.31
361.616	83.31
361.843	95.31
362.07	89.31
362.296	93.31
362.523	89.31
362.749	66.31
362.976	79.31
363.203	89.31
363.429	67.31
363.656	102.31
363.882	69.31
364.109	81.31
364.335	78.31
364.562	77.31
364.788	78.31
365.015	90.31
365.241	82.31
365.468	78.31
365.694	79.31
365.92	85.31
366.147	91.31
366.373	79.31
366.599	76.31
366.826	101.31
367.052	62.31
367.278	83.31
367.505	67.31
367.731	99.31
367.957	79.31
368.184	78.31
368.41	82.31
368.636	78.31
368.862	81.31
369.089	69.31
369.315	89.31
369.541	78.31
369.767	81.31
369.993	76.31
370.219	81.31
370.445	78.31
370.672	87.31
370.898	69.31
371.124	78.31
371.35	88.31
371.576	78.31
371.802	63.31
372.028	78.31
372.254	100.31
372.48	91.31
372.706	76.31
372.932	81.31
373.158	91.31
373.384	90.31
373.61	89.31
373.835	81.31
374.061	88.31
374.287	82.31
374.513	73.31
374.739	83.31
374.965	92.31
375.191	80.31
375.416	81.31
375.642	78.31
375.868	76.31
376.094	68.31
376.319	75.31
376.545	98.31
376.771	87.31
376.997	74.31
377.222	84.31
377.448	92.31
377.674	76.31
377.899	75.31
378.125	79.31
378.35	81.31
378.576	88.31
378.802	68.31
379.027	78.31
379.253	83.31
379.478	92.31
379.704	71.31
379.929	71.31
380.155	75.31
380.38	74.31
380.606	74.31
380.831	89.31
381.057	85.31
381.282	80.31
381.507	94.31
381.733	76.31
381.958	68.31
382.184	63.31
382.409	78.31
382.634	62.31
382.86	99.31
383.085	78.31
383.31	84.31
383.535	91.31
383.761	79.31
383.986	83.31
384.211	78.31
384.436	69.31
384.662	89.31
384.887	73.31
385.112	83.31
385.337	74.31
385.562	73.31
385.787	70.31
386.013	83.31
386.238	93.31
386.463	73.31
386.688	81.31
386.913	78.31
387.138	77.31
387.363	84.31
387.588	85.31
387.813	67.31
388.038	83.31
388.263	77.31
388.488	83.31
388.713	103.31
388.938	87.31
389.163	75.31
389.387	80.31
389.612	65.31
389.837	87.31
390.062	84.31
390.287	89.31
390.512	86.31
390.736	85.31
390.961	72.31
391.186	82.31
391.411	83.31
391.636	75.31
391.86	79.31
392.085	79.31
392.31	78.31
392.534	76.31
392.759	86.31
392.984	73.31
393.208	87.31
393.433	75.31
393.658	77.31
393.882	79.31
394.107	68.31
394.331	93.31
394.556	87.31
394.78	83.31
395.005	85.31
395.229	85.31
395.454	84.31
395.678	95.31
395.903	79.31
396.127	79.31
396.352	72.31
396.576	97.31
396.801	76.31
397.025	87.31
397.249	90.31
397.474	71.31
397.698	81.31
397.922	75.31
398.147	82.31
398.371	76.31
398.595	82.31
398.82	90.31
399.044	81.31
399.268	83.31
399.492	81.31
399.717	84.31
399.941	82.31
400.165	80.31
400.389	97.31
400.613	89.31
400.837	83.31
401.062	85.31
401.286	78.31
401.51	75.31
401.734	81.31
401.958	91.31
402.182	82.31
402.406	90.31
402.63	97.31
402.854	78.31
403.078	83.31
403.302	86.31
403.526	77.31
403.75	98.31
403.974	82.31
404.198	73.31
404.422	99.31
404.645	82.31
404.869	86.31
405.093	77.31
405.317	75.31
405.541	66.31
405.765	73.31
405.988	76.31
406.212	98.31
406.436	78.31
406.66	92.31
406.883	87.31
407.107	92.31
407.331	75.31
407.555	91.31
407.778	88.31
408.002	76.31
408.226	102.31
408.449	102.31
408.673	78.31
408.896	80.31
409.12	85.31
409.344	71.31
409.567	73.31
409.791	91.31
410.014	94.31
410.238	73.31
410.461	98.31
410.685	87.31
410.908	78.31
411.132	87.31
411.355	80.31
411.578	88.31
411.802	85.31
412.025	90.31
412.249	87.31
412.472	90.31
412.695	91.31
412.919	92.31
413.142	84.31
413.365	87.31
413.589	76.31
413.812	78.31
414.035	82.31
414.258	85.31
414.482	77.31
414.705	87.31
414.928	79.31
415.151	91.31
415.374	75.31
415.597	82.31
415.821	82.31
416.044	90.31
416.267	88.31
416.49	84.31
416.713	73.31
416.936	78.31
417.159	85.31
417.382	76.31
417.605	82.31
417.828	83.31
418.051	75.31
418.274	94.31
418.497	85.31
418.72	93.31
418.943	85.31
419.166	91.31
419.389	86.31
419.611	89.31
419.834	82.31
420.057	87.31
420.28	84.31
420.503	92.31
420.726	81.31
420.948	87.31
421.171	101.31
421.394	93.31
421.617	71.31
421.839	78.31
422.062	74.31
422.285	69.31
422.507	85.31
422.73	85.31
422.953	83.31
423.175	83.31
423.398	89.31
423.621	73.31
423.843	82.31
424.066	89.31
424.288	68.31
424.511	78.31
424.733	86.31
424.956	82.31
425.178	76.31
425.401	85.31
425.623	76.31
425.846	69.31
426.068	81.31
426.291	86.31
426.513	92.31
426.735	86.31
426.958	69.31
427.18	84.31
427.402	89.31
427.625	87.31
427.847	79.31
428.069	87.31
428.292	94.31
428.514	81.31
428.736	89.31
428.958	82.31
429.181	79.31
429.403	77.31
429.625	92.31
429.847	79.31
430.069	80.31
430.292	80.31
430.514	83.31
430.736	90.31
430.958	82.31
431.18	85.31
431.402	73.31
431.624	66.31
431.846	83.31
432.068	79.31
432.29	81.31
432.512	83.31
432.734	78.31
432.956	92.31
433.178	81.31
433.4	93.31
433.622	81.31
433.844	84.31
434.066	80.31
434.287	73.31
434.509	84.31
434.731	87.31
434.953	94.31
435.175	75.31
435.397	76.31
435.618	80.31
435.84	84.31
436.062	79.31
436.284	79.31
436.505	82.31
436.727	86.31
436.949	82.31
437.17	81.31
437.392	83.31
437.614	78.31
437.835	90.31
438.057	89.31
438.278	79.31
438.5	92.31
438.721	86.31
438.943	73.31
439.165	86.31
439.386	84.31
439.608	76.31
439.829	88.31
440.05	83.31
440.272	79.31
440.493	83.31
440.715	71.31
440.936	87.31
441.158	95.31
441.379	77.31
441.6	88.31
441.822	86.31
442.043	85.31
442.264	84.31
442.486	94.31
442.707	92.31
442.928	79.31
443.149	91.31
443.371	86.31
443.592	93.31
443.813	86.31
444.034	83.31
444.255	92.31
444.476	85.31
444.698	75.31
444.919	90.31
445.14	159.31
445.361	122.31
445.582	102.31
445.803	79.31
446.024	73.31
446.245	77.31
446.466	79.31
446.687	86.31
446.908	74.31
447.129	90.31
447.35	85.31
447.571	83.31
447.792	85.31
448.013	73.31
448.234	83.31
448.455	85.31
448.675	71.31
448.896	75.31
449.117	71.31
449.338	71.31
449.559	69.31
449.779	97.31
450	93.31
450.221	91.31
450.442	81.31
450.662	95.31
450.883	83.31
451.104	85.31
451.324	89.31
451.545	99.31
451.766	85.31
451.986	83.31
452.207	88.31
452.428	75.31
452.648	78.31
452.869	78.31
453.089	78.31
453.31	76.31
453.53	79.31
453.751	96.31
453.971	103.31
454.192	94.31
454.412	65.31
454.633	89.31
454.853	81.31
455.073	85.31
455.294	70.31
455.514	83.31
455.734	92.31
455.955	96.31
456.175	87.31
456.395	89.31
456.616	65.31
456.836	87.31
457.056	91.31
457.276	89.31
457.497	77.31
457.717	89.31
457.937	86.31
458.157	89.31
458.377	83.31
458.598	80.31
458.818	86.31
459.038	82.31
459.258	92.31
459.478	70.31
459.698	77.31
459.918	100.31
460.138	86.31
460.358	85.31
460.578	77.31
460.798	82.31
461.018	89.31
461.238	85.31
461.458	94.31
461.678	84.31
461.898	100.31
462.118	99.31
462.338	95.31
462.558	90.31
462.777	79.31
462.997	72.31
463.217	94.31
463.437	85.31
463.657	91.31
463.876	85.31
464.096	89.31
464.316	89.31
464.536	79.31
464.755	89.31
464.975	85.31
465.195	98.31
465.414	67.31
465.634	81.31
465.854	81.31
466.073	88.31
466.293	79.31
466.512	95.31
466.732	74.31
466.951	62.31
467.171	79.31
467.391	90.31
467.61	85.31
467.829	86.31
468.049	99.31
468.268	93.31
468.488	99.31
468.707	89.31
468.927	77.31
469.146	79.31
469.365	82.31
469.585	77.31
469.804	86.31
470.023	89.31
470.243	82.31
470.462	81.31
470.681	83.31
470.901	65.31
471.12	83.31
471.339	89.31
471.558	74.31
471.777	79.31
471.997	83.31
472.216	77.31
472.435	86.31
472.654	83.31
472.873	75.31
473.092	76.31
473.311	81.31
473.53	87.31
473.749	77.31
473.968	92.31
474.187	74.31
474.406	84.31
474.625	91.31
474.844	66.31
475.063	75.31
475.282	82.31
475.501	81.31
475.72	85.31
475.939	93.31
476.158	68.31
476.377	74.31
476.596	98.31
476.814	76.31
477.033	82.31
477.252	77.31
477.471	84.31
477.69	85.31
477.908	94.31
478.127	83.31
478.346	89.31
478.564	79.31
478.783	75.31
479.002	87.31
479.22	85.31
479.439	84.31
479.658	83.31
479.876	91.31
480.095	92.31
480.313	84.31
480.532	108.31
480.751	90.31
480.969	76.31
481.188	81.31
481.406	86.31
481.624	82.31
481.843	79.31
482.061	85.31
482.28	77.31
482.498	84.31
482.717	70.31
482.935	77.31
483.153	77.31
483.372	86.31
483.59	79.31
483.808	76.31
484.027	94.31
484.245	76.31
484.463	89.31
484.681	91.31
484.9	76.31
485.118	77.31
485.336	84.31
485.554	90.31
485.772	86.31
485.99	89.31
486.209	69.31
486.427	102.31
486.645	73.31
486.863	71.31
487.081	79.31
487.299	84.31
487.517	83.31
487.735	85.31
487.953	78.31
488.171	83.31
488.389	99.31
488.607	80.31
488.825	84.31
489.043	87.31
489.261	84.31
489.479	91.31
489.696	97.31
489.914	83.31
490.132	65.31
490.35	79.31
490.568	91.31
490.786	104.31
491.003	88.31
491.221	73.31
491.439	73.31
491.657	97.31
491.874	74.31
492.092	79.31
492.31	98.31
492.527	69.31
492.745	73.31
492.963	71.31
493.18	80.31
493.398	83.31
493.615	98.31
493.833	78.31
494.05	87.31
494.268	97.31
494.485	89.31
494.703	96.31
494.92	99.31
495.138	82.31
495.355	86.31
495.573	95.31
495.79	76.31
496.008	72.31
496.225	88.31
496.442	85.31
496.66	100.31
496.877	87.31
497.094	90.31
497.312	70.31
497.529	91.31
497.746	77.31
497.963	80.31
498.181	90.31
498.398	95.31
498.615	84.31
498.832	89.31
499.049	87.31
499.267	97.31
499.484	90.31
499.701	92.31
499.918	103.31
500.135	112.31
500.352	109.31
500.569	111.31
500.786	116.31
501.003	111.31
501.22	89.31
501.437	89.31
501.654	81.31
501.871	91.31
502.088	102.31
502.305	94.31
502.522	93.31
502.739	101.31
502.956	83.31
503.172	83.31
503.389	82.31
503.606	87.31
503.823	89.31
504.04	87.31
504.256	78.31
504.473	95.31
504.69	88.31
504.907	94.31
505.123	97.31
505.34	97.31
505.557	90.31
505.773	79.31
505.99	76.31
506.207	86.31
506.423	87.31
506.64	75.31
506.856	94.31
507.073	77.31
507.289	85.31
507.506	88.31
507.722	89.31
507.939	82.31
508.155	78.31
508.372	99.31
508.588	80.31
508.805	101.31
509.021	87.31
509.238	87.31
509.454	87.31
509.67	78.31
509.887	77.31
510.103	84.31
510.319	89.31
510.536	85.31
510.752	87.31
510.968	84.31
511.184	83.31
511.401	97.31
511.617	71.31
511.833	93.31
512.049	86.31
512.265	89.31
512.481	87.31
512.698	88.31
512.914	79.31
513.13	77.31
513.346	93.31
513.562	74.31
513.778	103.31
513.994	95.31
514.21	84.31
514.426	89.31
514.642	82.31
514.858	89.31
515.074	78.31
515.29	99.31
515.506	71.31
515.721	74.31
515.937	85.31
516.153	86.31
516.369	73.31
516.585	94.31
516.801	83.31
517.016	90.31
517.232	88.31
517.448	94.31
517.664	90.31
517.879	85.31
518.095	88.31
518.311	81.31
518.527	90.31
518.742	94.31
518.958	85.31
519.173	89.31
519.389	86.31
519.605	95.31
519.82	81.31
520.036	90.31
