Data from BG_HRD10591_004.txt Node
Date: Fri May 16 15:33:09 EDT 2025
User: Yrep
Spectrometer: HR+D1059
Trigger mode: 1
Integration Time (sec): 1.000000E-1
Scans to average: 1
Electric dark correction enabled: true
Nonlinearity correction enabled: false
Boxcar width: 0
XAxis mode: Wavelengths
Number of Pixels in Spectrum: 2048
>>>>>Begin Spectral Data<<<<<
223.165	-16.75
223.4	-16.75
223.635	-16.75
223.869	-26.75
224.104	-23.75
224.338	-29.75
224.573	-23.75
224.808	-19.75
225.042	-5.75
225.277	1.25
225.511	8.25
225.746	-5.75
225.98	20.25
226.215	20.25
226.449	24.25
226.683	23.25
226.918	27.25
227.152	27.25
227.387	24.25
227.621	44.25
227.856	43.25
228.09	52.25
228.324	71.25
228.559	69.25
228.793	53.25
229.027	79.25
229.262	65.25
229.496	68.25
229.73	80.25
229.964	85.25
230.199	79.25
230.433	85.25
230.667	85.25
230.901	58.25
231.136	74.25
231.37	74.25
231.604	77.25
231.838	79.25
232.072	90.25
232.306	88.25
232.541	80.25
232.775	83.25
233.009	88.25
233.243	85.25
233.477	64.25
233.711	78.25
233.945	84.25
234.179	78.25
234.413	84.25
234.647	69.25
234.881	77.25
235.115	80.25
235.349	58.25
235.583	79.25
235.817	84.25
236.051	78.25
236.285	76.25
236.519	81.25
236.753	65.25
236.987	74.25
237.221	69.25
237.455	76.25
237.689	83.25
237.922	89.25
238.156	76.25
238.39	76.25
238.624	74.25
238.858	61.25
239.091	70.25
239.325	64.25
239.559	82.25
239.793	73.25
240.027	82.25
240.26	74.25
240.494	82.25
240.728	76.25
240.961	70.25
241.195	62.25
241.429	73.25
241.662	78.25
241.896	76.25
242.13	88.25
242.363	75.25
242.597	68.25
242.83	82.25
243.064	82.25
243.298	79.25
243.531	74.25
243.765	62.25
243.998	71.25
244.232	82.25
244.465	82.25
244.699	69.25
244.932	65.25
245.166	84.25
245.399	86.25
245.633	65.25
245.866	87.25
246.099	80.25
246.333	89.25
246.566	70.25
246.8	96.25
247.033	83.25
247.266	76.25
247.5	85.25
247.733	84.25
247.966	84.25
248.2	71.25
248.433	81.25
248.666	69.25
248.899	81.25
249.133	92.25
249.366	87.25
249.599	77.25
249.832	72.25
250.066	87.25
250.299	79.25
250.532	93.25
250.765	66.25
250.998	78.25
251.231	77.25
251.465	76.25
251.698	93.25
251.931	71.25
252.164	88.25
252.397	75.25
252.63	80.25
252.863	85.25
253.096	90.25
253.329	95.25
253.562	81.25
253.795	87.25
254.028	101.25
254.261	86.25
254.494	91.25
254.727	84.25
254.96	78.25
255.193	81.25
255.426	76.25
255.659	78.25
255.892	88.25
256.124	70.25
256.357	87.25
256.59	91.25
256.823	93.25
257.056	84.25
257.289	96.25
257.521	84.25
257.754	83.25
257.987	80.25
258.22	69.25
258.452	70.25
258.685	88.25
258.918	85.25
259.151	84.25
259.383	88.25
259.616	80.25
259.849	82.25
260.081	76.25
260.314	90.25
260.547	83.25
260.779	75.25
261.012	91.25
261.244	88.25
261.477	97.25
261.71	80.25
261.942	64.25
262.175	85.25
262.407	104.25
262.64	84.25
262.872	86.25
263.105	78.25
263.337	94.25
263.57	82.25
263.802	73.25
264.035	84.25
264.267	70.25
264.499	76.25
264.732	94.25
264.964	78.25
265.197	80.25
265.429	85.25
265.661	89.25
265.894	82.25
266.126	88.25
266.358	69.25
266.591	79.25
266.823	94.25
267.055	88.25
267.287	76.25
267.52	82.25
267.752	84.25
267.984	77.25
268.216	85.25
268.448	73.25
268.681	78.25
268.913	90.25
269.145	74.25
269.377	84.25
269.609	78.25
269.841	92.25
270.073	88.25
270.306	83.25
270.538	84.25
270.77	80.25
271.002	71.25
271.234	76.25
271.466	85.25
271.698	72.25
271.93	81.25
272.162	71.25
272.394	85.25
272.626	89.25
272.858	77.25
273.09	84.25
273.322	88.25
273.553	80.25
273.785	81.25
274.017	88.25
274.249	68.25
274.481	81.25
274.713	78.25
274.945	73.25
275.176	85.25
275.408	87.25
275.64	92.25
275.872	80.25
276.104	83.25
276.335	84.25
276.567	82.25
276.799	79.25
277.031	77.25
277.262	79.25
277.494	77.25
277.726	89.25
277.957	83.25
278.189	80.25
278.421	90.25
278.652	88.25
278.884	86.25
279.115	80.25
279.347	99.25
279.579	79.25
279.81	79.25
280.042	95.25
280.273	84.25
280.505	80.25
280.736	82.25
280.968	77.25
281.199	90.25
281.431	88.25
281.662	85.25
281.894	92.25
282.125	86.25
282.356	77.25
282.588	88.25
282.819	88.25
283.051	93.25
283.282	84.25
283.513	79.25
283.745	92.25
283.976	87.25
284.207	80.25
284.439	91.25
284.67	85.25
284.901	90.25
285.132	85.25
285.364	89.25
285.595	92.25
285.826	94.25
286.057	78.25
286.288	82.25
286.52	95.25
286.751	95.25
286.982	89.25
287.213	87.25
287.444	89.25
287.675	93.25
287.906	99.25
288.138	97.25
288.369	95.25
288.6	102.25
288.831	78.25
289.062	91.25
289.293	81.25
289.524	81.25
289.755	71.25
289.986	76.25
290.217	81.25
290.448	90.25
290.679	93.25
290.91	83.25
291.141	91.25
291.371	78.25
291.602	92.25
291.833	82.25
292.064	98.25
292.295	95.25
292.526	89.25
292.757	98.25
292.987	84.25
293.218	84.25
293.449	97.25
293.68	96.25
293.91	91.25
294.141	96.25
294.372	99.25
294.603	87.25
294.833	88.25
295.064	73.25
295.295	110.25
295.525	86.25
295.756	103.25
295.987	69.25
296.217	89.25
296.448	91.25
296.679	80.25
296.909	94.25
297.14	101.25
297.37	93.25
297.601	109.25
297.831	89.25
298.062	94.25
298.292	86.25
298.523	89.25
298.753	95.25
298.984	104.25
299.214	86.25
299.445	94.25
299.675	93.25
299.905	87.25
300.136	84.25
300.366	92.25
300.597	68.25
300.827	95.25
301.057	74.25
301.288	92.25
301.518	86.25
301.748	85.25
301.979	98.25
302.209	96.25
302.439	92.25
302.669	74.25
302.9	99.25
303.13	91.25
303.36	100.25
303.59	90.25
303.82	83.25
304.051	86.25
304.281	94.25
304.511	100.25
304.741	79.25
304.971	84.25
305.201	89.25
305.431	83.25
305.661	93.25
305.891	92.25
306.121	91.25
306.352	81.25
306.582	90.25
306.812	84.25
307.042	86.25
307.272	93.25
307.502	95.25
307.731	98.25
307.961	91.25
308.191	91.25
308.421	89.25
308.651	108.25
308.881	94.25
309.111	100.25
309.341	81.25
309.571	70.25
309.8	94.25
310.03	95.25
310.26	86.25
310.49	88.25
310.72	81.25
310.949	98.25
311.179	105.25
311.409	92.25
311.639	97.25
311.868	88.25
312.098	92.25
312.328	88.25
312.557	98.25
312.787	83.25
313.017	78.25
313.246	74.25
313.476	99.25
313.706	80.25
313.935	99.25
314.165	82.25
314.394	80.25
314.624	89.25
314.853	107.25
315.083	79.25
315.312	98.25
315.542	95.25
315.771	98.25
316.001	86.25
316.23	75.25
316.46	92.25
316.689	89.25
316.919	100.25
317.148	94.25
317.377	95.25
317.607	75.25
317.836	80.25
318.065	81.25
318.295	94.25
318.524	95.25
318.753	98.25
318.983	99.25
319.212	95.25
319.441	93.25
319.67	85.25
319.9	94.25
320.129	94.25
320.358	86.25
320.587	97.25
320.816	91.25
321.046	102.25
321.275	87.25
321.504	100.25
321.733	97.25
321.962	66.25
322.191	84.25
322.42	73.25
322.649	97.25
322.878	82.25
323.108	93.25
323.337	88.25
323.566	89.25
323.795	83.25
324.024	89.25
324.253	86.25
324.482	82.25
324.71	98.25
324.939	103.25
325.168	96.25
325.397	86.25
325.626	96.25
325.855	90.25
326.084	85.25
326.313	93.25
326.542	80.25
326.77	98.25
326.999	87.25
327.228	88.25
327.457	89.25
327.686	89.25
327.914	86.25
328.143	99.25
328.372	92.25
328.6	89.25
328.829	100.25
329.058	94.25
329.287	90.25
329.515	86.25
329.744	74.25
329.972	98.25
330.201	93.25
330.43	95.25
330.658	85.25
330.887	83.25
331.115	101.25
331.344	79.25
331.572	78.25
331.801	85.25
332.03	89.25
332.258	90.25
332.486	86.25
332.715	106.25
332.943	98.25
333.172	93.25
333.4	91.25
333.629	96.25
333.857	98.25
334.085	96.25
334.314	86.25
334.542	92.25
334.771	98.25
334.999	91.25
335.227	93.25
335.455	76.25
335.684	81.25
335.912	82.25
336.14	83.25
336.369	98.25
336.597	92.25
336.825	84.25
337.053	79.25
337.281	79.25
337.51	82.25
337.738	94.25
337.966	88.25
338.194	92.25
338.422	92.25
338.65	85.25
338.878	96.25
339.106	90.25
339.334	88.25
339.562	106.25
339.79	98.25
340.018	81.25
340.246	83.25
340.474	74.25
340.702	86.25
340.93	93.25
341.158	91.25
341.386	94.25
341.614	94.25
341.842	89.25
342.07	93.25
342.298	85.25
342.526	91.25
342.754	90.25
342.981	93.25
343.209	97.25
343.437	104.25
343.665	89.25
343.893	79.25
344.12	98.25
344.348	84.25
344.576	84.25
344.804	81.25
345.031	86.25
345.259	96.25
345.487	84.25
345.714	94.25
345.942	78.25
346.17	90.25
346.397	78.25
346.625	76.25
346.853	89.25
347.08	91.25
347.308	105.25
347.535	114.25
347.763	96.25
347.99	90.25
348.218	86.25
348.445	85.25
348.673	77.25
348.9	76.25
349.128	81.25
349.355	93.25
349.583	98.25
349.81	82.25
350.037	77.25
350.265	90.25
350.492	85.25
350.72	87.25
350.947	81.25
351.174	66.25
351.402	97.25
351.629	87.25
351.856	85.25
352.083	77.25
352.311	100.25
352.538	85.25
352.765	85.25
352.992	93.25
353.22	111.25
353.447	96.25
353.674	94.25
353.901	90.25
354.128	90.25
354.355	91.25
354.583	81.25
354.81	85.25
355.037	73.25
355.264	88.25
355.491	90.25
355.718	77.25
355.945	90.25
356.172	88.25
356.399	90.25
356.626	83.25
356.853	90.25
357.08	88.25
357.307	98.25
357.534	93.25
357.761	93.25
357.988	83.25
358.215	90.25
358.441	82.25
358.668	83.25
358.895	86.25
359.122	95.25
359.349	87.25
359.576	88.25
359.802	92.25
360.029	84.25
360.256	99.25
360.483	104.25
360.709	92.25
360.936	101.25
361.163	92.25
361.39	101.25
361.616	96.25
361.843	85.25
362.07	85.25
362.296	100.25
362.523	71.25
362.749	91.25
362.976	78.25
363.203	81.25
363.429	105.25
363.656	109.25
363.882	80.25
364.109	96.25
364.335	100.25
364.562	94.25
364.788	95.25
365.015	85.25
365.241	90.25
365.468	92.25
365.694	86.25
365.92	93.25
366.147	90.25
366.373	80.25
366.599	96.25
366.826	81.25
367.052	96.25
367.278	84.25
367.505	86.25
367.731	100.25
367.957	88.25
368.184	100.25
368.41	91.25
368.636	86.25
368.862	95.25
369.089	96.25
369.315	96.25
369.541	98.25
369.767	89.25
369.993	81.25
370.219	100.25
370.445	80.25
370.672	85.25
370.898	91.25
371.124	86.25
371.35	98.25
371.576	83.25
371.802	94.25
372.028	88.25
372.254	82.25
372.48	111.25
372.706	82.25
372.932	80.25
373.158	83.25
373.384	83.25
373.61	92.25
373.835	86.25
374.061	89.25
374.287	101.25
374.513	94.25
374.739	84.25
374.965	90.25
375.191	76.25
375.416	97.25
375.642	96.25
375.868	88.25
376.094	101.25
376.319	95.25
376.545	94.25
376.771	75.25
376.997	84.25
377.222	87.25
377.448	84.25
377.674	82.25
377.899	79.25
378.125	85.25
378.35	97.25
378.576	101.25
378.802	86.25
379.027	94.25
379.253	85.25
379.478	100.25
379.704	91.25
379.929	81.25
380.155	89.25
380.38	92.25
380.606	73.25
380.831	80.25
381.057	90.25
381.282	77.25
381.507	94.25
381.733	84.25
381.958	88.25
382.184	101.25
382.409	80.25
382.634	90.25
382.86	94.25
383.085	89.25
383.31	78.25
383.535	94.25
383.761	84.25
383.986	88.25
384.211	91.25
384.436	79.25
384.662	86.25
384.887	87.25
385.112	91.25
385.337	89.25
385.562	83.25
385.787	89.25
386.013	83.25
386.238	88.25
386.463	93.25
386.688	97.25
386.913	98.25
387.138	88.25
387.363	88.25
387.588	92.25
387.813	77.25
388.038	90.25
388.263	104.25
388.488	90.25
388.713	103.25
388.938	82.25
389.163	94.25
389.387	87.25
389.612	80.25
389.837	90.25
390.062	89.25
390.287	83.25
390.512	81.25
390.736	95.25
390.961	89.25
391.186	97.25
391.411	85.25
391.636	88.25
391.86	92.25
392.085	100.25
392.31	91.25
392.534	92.25
392.759	99.25
392.984	81.25
393.208	106.25
393.433	88.25
393.658	100.25
393.882	82.25
394.107	101.25
394.331	91.25
394.556	85.25
394.78	93.25
395.005	83.25
395.229	91.25
395.454	98.25
395.678	82.25
395.903	81.25
396.127	88.25
396.352	76.25
396.576	94.25
396.801	88.25
397.025	82.25
397.249	94.25
397.474	90.25
397.698	94.25
397.922	92.25
398.147	80.25
398.371	87.25
398.595	94.25
398.82	90.25
399.044	96.25
399.268	104.25
399.492	94.25
399.717	97.25
399.941	99.25
400.165	83.25
400.389	90.25
400.613	80.25
400.837	83.25
401.062	96.25
401.286	92.25
401.51	81.25
401.734	101.25
401.958	88.25
402.182	90.25
402.406	96.25
402.63	96.25
402.854	88.25
403.078	90.25
403.302	81.25
403.526	82.25
403.75	96.25
403.974	89.25
404.198	86.25
404.422	93.25
404.645	91.25
404.869	90.25
405.093	83.25
405.317	77.25
405.541	80.25
405.765	91.25
405.988	86.25
406.212	112.25
406.436	85.25
406.66	86.25
406.883	96.25
407.107	94.25
407.331	92.25
407.555	92.25
407.778	94.25
408.002	85.25
408.226	94.25
408.449	86.25
408.673	88.25
408.896	86.25
409.12	108.25
409.344	81.25
409.567	87.25
409.791	83.25
410.014	94.25
410.238	101.25
410.461	75.25
410.685	69.25
410.908	81.25
411.132	94.25
411.355	96.25
411.578	104.25
411.802	92.25
412.025	84.25
412.249	84.25
412.472	93.25
412.695	97.25
412.919	104.25
413.142	93.25
413.365	90.25
413.589	93.25
413.812	96.25
414.035	102.25
414.258	95.25
414.482	80.25
414.705	87.25
414.928	105.25
415.151	88.25
415.374	85.25
415.597	78.25
415.821	85.25
416.044	89.25
416.267	91.25
416.49	84.25
416.713	84.25
416.936	96.25
417.159	84.25
417.382	90.25
417.605	105.25
417.828	95.25
418.051	83.25
418.274	98.25
418.497	90.25
418.72	80.25
418.943	80.25
419.166	95.25
419.389	91.25
419.611	90.25
419.834	84.25
420.057	96.25
420.28	83.25
420.503	89.25
420.726	88.25
420.948	96.25
421.171	91.25
421.394	95.25
421.617	105.25
421.839	73.25
422.062	86.25
422.285	94.25
422.507	90.25
422.73	90.25
422.953	84.25
423.175	89.25
423.398	89.25
423.621	98.25
423.843	102.25
424.066	88.25
424.288	96.25
424.511	90.25
424.733	89.25
424.956	94.25
425.178	86.25
425.401	88.25
425.623	102.25
425.846	76.25
426.068	85.25
426.291	86.25
426.513	96.25
426.735	83.25
426.958	90.25
427.18	90.25
427.402	91.25
427.625	100.25
427.847	96.25
428.069	85.25
428.292	91.25
428.514	92.25
428.736	79.25
428.958	91.25
429.181	93.25
429.403	76.25
429.625	76.25
429.847	84.25
430.069	79.25
430.292	86.25
430.514	76.25
430.736	91.25
430.958	83.25
431.18	96.25
431.402	94.25
431.624	99.25
431.846	94.25
432.068	79.25
432.29	96.25
432.512	81.25
432.734	69.25
432.956	92.25
433.178	95.25
433.4	86.25
433.622	84.25
433.844	98.25
434.066	92.25
434.287	88.25
434.509	94.25
434.731	83.25
434.953	82.25
435.175	84.25
435.397	99.25
435.618	93.25
435.84	91.25
436.062	85.25
436.284	90.25
436.505	88.25
436.727	77.25
436.949	86.25
437.17	78.25
437.392	83.25
437.614	88.25
437.835	107.25
438.057	95.25
438.278	90.25
438.5	83.25
438.721	85.25
438.943	88.25
439.165	88.25
439.386	103.25
439.608	88.25
439.829	78.25
440.05	89.25
440.272	77.25
440.493	97.25
440.715	85.25
440.936	95.25
441.158	80.25
441.379	88.25
441.6	86.25
441.822	99.25
442.043	80.25
442.264	89.25
442.486	78.25
442.707	99.25
442.928	91.25
443.149	76.25
443.371	77.25
443.592	80.25
443.813	101.25
444.034	98.25
444.255	71.25
444.476	86.25
444.698	97.25
444.919	90.25
445.14	173.25
445.361	122.25
445.582	99.25
445.803	82.25
446.024	97.25
446.245	89.25
446.466	94.25
446.687	93.25
446.908	91.25
447.129	85.25
447.35	89.25
447.571	81.25
447.792	82.25
448.013	79.25
448.234	76.25
448.455	69.25
448.675	87.25
448.896	86.25
449.117	77.25
449.338	86.25
449.559	78.25
449.779	95.25
450	100.25
450.221	88.25
450.442	73.25
450.662	75.25
450.883	85.25
451.104	91.25
451.324	97.25
451.545	94.25
451.766	91.25
451.986	91.25
452.207	81.25
452.428	80.25
452.648	90.25
452.869	78.25
453.089	88.25
453.31	81.25
453.53	97.25
453.751	95.25
453.971	70.25
454.192	84.25
454.412	75.25
454.633	85.25
454.853	93.25
455.073	90.25
455.294	91.25
455.514	99.25
455.734	103.25
455.955	96.25
456.175	84.25
456.395	85.25
456.616	94.25
456.836	82.25
457.056	69.25
457.276	85.25
457.497	85.25
457.717	94.25
457.937	83.25
458.157	71.25
458.377	75.25
458.598	101.25
458.818	83.25
459.038	95.25
459.258	79.25
459.478	78.25
459.698	92.25
459.918	95.25
460.138	74.25
460.358	92.25
460.578	95.25
460.798	77.25
461.018	88.25
461.238	96.25
461.458	94.25
461.678	98.25
461.898	99.25
462.118	93.25
462.338	87.25
462.558	101.25
462.777	91.25
462.997	104.25
463.217	93.25
463.437	108.25
463.657	85.25
463.876	97.25
464.096	101.25
464.316	97.25
464.536	93.25
464.755	84.25
464.975	95.25
465.195	78.25
465.414	86.25
465.634	95.25
465.854	89.25
466.073	88.25
466.293	92.25
466.512	81.25
466.732	83.25
466.951	99.25
467.171	87.25
467.391	89.25
467.61	86.25
467.829	93.25
468.049	87.25
468.268	84.25
468.488	86.25
468.707	90.25
468.927	89.25
469.146	84.25
469.365	88.25
469.585	89.25
469.804	75.25
470.023	106.25
470.243	93.25
470.462	77.25
470.681	95.25
470.901	91.25
471.12	96.25
471.339	96.25
471.558	78.25
471.777	74.25
471.997	100.25
472.216	95.25
472.435	91.25
472.654	98.25
472.873	109.25
473.092	80.25
473.311	86.25
473.53	78.25
473.749	94.25
473.968	90.25
474.187	82.25
474.406	85.25
474.625	79.25
474.844	88.25
475.063	96.25
475.282	88.25
475.501	85.25
475.72	90.25
475.939	88.25
476.158	89.25
476.377	89.25
476.596	81.25
476.814	86.25
477.033	92.25
477.252	76.25
477.471	89.25
477.69	90.25
477.908	88.25
478.127	92.25
478.346	96.25
478.564	86.25
478.783	90.25
479.002	105.25
479.22	90.25
479.439	92.25
479.658	90.25
479.876	86.25
480.095	88.25
480.313	74.25
480.532	92.25
480.751	97.25
480.969	90.25
481.188	97.25
481.406	88.25
481.624	88.25
481.843	69.25
482.061	84.25
482.28	66.25
482.498	83.25
482.717	90.25
482.935	80.25
483.153	80.25
483.372	99.25
483.59	86.25
483.808	75.25
484.027	91.25
484.245	83.25
484.463	85.25
484.681	93.25
484.9	89.25
485.118	91.25
485.336	87.25
485.554	81.25
485.772	78.25
485.99	75.25
486.209	96.25
486.427	92.25
486.645	89.25
486.863	78.25
487.081	101.25
487.299	88.25
487.517	100.25
487.735	90.25
487.953	90.25
488.171	94.25
488.389	89.25
488.607	100.25
488.825	88.25
489.043	88.25
489.261	95.25
489.479	82.25
489.696	82.25
489.914	83.25
490.132	80.25
490.35	92.25
490.568	84.25
490.786	96.25
491.003	91.25
491.221	105.25
491.439	81.25
491.657	88.25
491.874	93.25
492.092	81.25
492.31	106.25
492.527	95.25
492.745	101.25
492.963	100.25
493.18	93.25
493.398	88.25
493.615	81.25
493.833	90.25
494.05	92.25
494.268	83.25
494.485	84.25
494.703	105.25
494.92	98.25
495.138	112.25
495.355	103.25
495.573	95.25
495.79	91.25
496.008	90.25
496.225	107.25
496.442	97.25
496.66	98.25
496.877	98.25
497.094	88.25
497.312	89.25
497.529	91.25
497.746	95.25
497.963	92.25
498.181	84.25
498.398	94.25
498.615	103.25
498.832	97.25
499.049	91.25
499.267	96.25
499.484	85.25
499.701	97.25
499.918	106.25
500.135	104.25
500.352	113.25
500.569	110.25
500.786	98.25
501.003	107.25
501.22	102.25
501.437	107.25
501.654	96.25
501.871	95.25
502.088	91.25
502.305	91.25
502.522	91.25
502.739	93.25
502.956	96.25
503.172	88.25
503.389	99.25
503.606	89.25
503.823	86.25
504.04	85.25
504.256	82.25
504.473	93.25
504.69	97.25
504.907	94.25
505.123	92.25
505.34	88.25
505.557	85.25
505.773	88.25
505.99	80.25
506.207	90.25
506.423	97.25
506.64	90.25
506.856	87.25
507.073	88.25
507.289	82.25
507.506	90.25
507.722	94.25
507.939	94.25
508.155	90.25
508.372	89.25
508.588	97.25
508.805	93.25
509.021	100.25
509.238	92.25
509.454	89.25
509.67	90.25
509.887	105.25
510.103	86.25
510.319	105.25
510.536	94.25
510.752	96.25
510.968	99.25
511.184	85.25
511.401	98.25
511.617	102.25
511.833	89.25
512.049	80.25
512.265	104.25
512.481	90.25
512.698	64.25
512.914	89.25
513.13	71.25
513.346	82.25
513.562	81.25
513.778	78.25
513.994	96.25
514.21	88.25
514.426	97.25
514.642	74.25
514.858	88.25
515.074	80.25
515.29	81.25
515.506	84.25
515.721	89.25
515.937	99.25
516.153	85.25
516.369	77.25
516.585	83.25
516.801	88.25
517.016	97.25
517.232	89.25
517.448	90.25
517.664	76.25
517.879	89.25
518.095	84.25
518.311	90.25
518.527	81.25
518.742	97.25
518.958	99.25
