Data from BG_HRD10591_043.txt Node
Date: Fri May 16 15:33:28 EDT 2025
User: Yrep
Spectrometer: HR+D1059
Trigger mode: 1
Integration Time (sec): 1.000000E-1
Scans to average: 1
Electric dark correction enabled: true
Nonlinearity correction enabled: false
Boxcar width: 0
XAxis mode: Wavelengths
Number of Pixels in Spectrum: 2048
>>>>>Begin Spectral Data<<<<<
223.165	-18.75
223.4	-18.75
223.635	-18.75
223.869	-16.75
224.104	-20.75
224.338	-14.75
224.573	-35.75
224.808	-15.75
225.042	-21.75
225.277	-1.75
225.511	8.25
225.746	10.25
225.98	18.25
226.215	15.25
226.449	31.25
226.683	13.25
226.918	17.25
227.152	32.25
227.387	26.25
227.621	37.25
227.856	49.25
228.09	49.25
228.324	55.25
228.559	58.25
228.793	53.25
229.027	58.25
229.262	59.25
229.496	71.25
229.73	81.25
229.964	68.25
230.199	66.25
230.433	71.25
230.667	80.25
230.901	77.25
231.136	77.25
231.37	68.25
231.604	64.25
231.838	74.25
232.072	86.25
232.306	81.25
232.541	82.25
232.775	88.25
233.009	66.25
233.243	82.25
233.477	78.25
233.711	80.25
233.945	75.25
234.179	72.25
234.413	75.25
234.647	82.25
234.881	90.25
235.115	70.25
235.349	74.25
235.583	82.25
235.817	72.25
236.051	58.25
236.285	76.25
236.519	71.25
236.753	67.25
236.987	81.25
237.221	57.25
237.455	62.25
237.689	64.25
237.922	80.25
238.156	83.25
238.39	69.25
238.624	66.25
238.858	72.25
239.091	80.25
239.325	74.25
239.559	77.25
239.793	88.25
240.027	87.25
240.26	74.25
240.494	82.25
240.728	66.25
240.961	73.25
241.195	91.25
241.429	76.25
241.662	72.25
241.896	79.25
242.13	63.25
242.363	70.25
242.597	72.25
242.83	68.25
243.064	76.25
243.298	60.25
243.531	66.25
243.765	74.25
243.998	70.25
244.232	74.25
244.465	70.25
244.699	84.25
244.932	84.25
245.166	79.25
245.399	83.25
245.633	68.25
245.866	81.25
246.099	80.25
246.333	93.25
246.566	68.25
246.8	73.25
247.033	78.25
247.266	90.25
247.5	74.25
247.733	79.25
247.966	71.25
248.2	65.25
248.433	74.25
248.666	88.25
248.899	83.25
249.133	81.25
249.366	72.25
249.599	74.25
249.832	82.25
250.066	57.25
250.299	66.25
250.532	85.25
250.765	89.25
250.998	81.25
251.231	89.25
251.465	81.25
251.698	81.25
251.931	60.25
252.164	90.25
252.397	77.25
252.63	82.25
252.863	80.25
253.096	91.25
253.329	91.25
253.562	92.25
253.795	87.25
254.028	71.25
254.261	83.25
254.494	98.25
254.727	86.25
254.96	83.25
255.193	78.25
255.426	75.25
255.659	80.25
255.892	90.25
256.124	84.25
256.357	84.25
256.59	92.25
256.823	79.25
257.056	74.25
257.289	96.25
257.521	86.25
257.754	75.25
257.987	67.25
258.22	91.25
258.452	77.25
258.685	87.25
258.918	75.25
259.151	81.25
259.383	93.25
259.616	90.25
259.849	81.25
260.081	68.25
260.314	81.25
260.547	68.25
260.779	78.25
261.012	80.25
261.244	84.25
261.477	88.25
261.71	82.25
261.942	89.25
262.175	89.25
262.407	82.25
262.64	63.25
262.872	88.25
263.105	81.25
263.337	80.25
263.57	91.25
263.802	83.25
264.035	86.25
264.267	90.25
264.499	66.25
264.732	79.25
264.964	95.25
265.197	81.25
265.429	72.25
265.661	84.25
265.894	82.25
266.126	86.25
266.358	81.25
266.591	81.25
266.823	67.25
267.055	90.25
267.287	91.25
267.52	93.25
267.752	92.25
267.984	70.25
268.216	79.25
268.448	82.25
268.681	84.25
268.913	81.25
269.145	88.25
269.377	78.25
269.609	86.25
269.841	94.25
270.073	91.25
270.306	89.25
270.538	85.25
270.77	84.25
271.002	88.25
271.234	86.25
271.466	94.25
271.698	88.25
271.93	86.25
272.162	79.25
272.394	89.25
272.626	96.25
272.858	94.25
273.09	94.25
273.322	96.25
273.553	90.25
273.785	92.25
274.017	77.25
274.249	84.25
274.481	78.25
274.713	88.25
274.945	104.25
275.176	82.25
275.408	97.25
275.64	87.25
275.872	83.25
276.104	90.25
276.335	90.25
276.567	83.25
276.799	92.25
277.031	79.25
277.262	78.25
277.494	80.25
277.726	91.25
277.957	83.25
278.189	90.25
278.421	81.25
278.652	78.25
278.884	85.25
279.115	74.25
279.347	101.25
279.579	95.25
279.81	88.25
280.042	97.25
280.273	84.25
280.505	72.25
280.736	74.25
280.968	81.25
281.199	86.25
281.431	82.25
281.662	85.25
281.894	96.25
282.125	67.25
282.356	83.25
282.588	86.25
282.819	86.25
283.051	87.25
283.282	111.25
283.513	83.25
283.745	77.25
283.976	89.25
284.207	79.25
284.439	92.25
284.67	87.25
284.901	74.25
285.132	89.25
285.364	76.25
285.595	79.25
285.826	88.25
286.057	94.25
286.288	89.25
286.52	100.25
286.751	84.25
286.982	76.25
287.213	81.25
287.444	98.25
287.675	78.25
287.906	83.25
288.138	94.25
288.369	99.25
288.6	89.25
288.831	77.25
289.062	86.25
289.293	86.25
289.524	90.25
289.755	97.25
289.986	83.25
290.217	87.25
290.448	73.25
290.679	80.25
290.91	80.25
291.141	88.25
291.371	90.25
291.602	83.25
291.833	87.25
292.064	68.25
292.295	99.25
292.526	84.25
292.757	89.25
292.987	76.25
293.218	68.25
293.449	81.25
293.68	86.25
293.91	95.25
294.141	94.25
294.372	88.25
294.603	90.25
294.833	86.25
295.064	90.25
295.295	79.25
295.525	87.25
295.756	109.25
295.987	94.25
296.217	97.25
296.448	92.25
296.679	87.25
296.909	94.25
297.14	86.25
297.37	94.25
297.601	80.25
297.831	88.25
298.062	89.25
298.292	74.25
298.523	83.25
298.753	90.25
298.984	91.25
299.214	98.25
299.445	100.25
299.675	78.25
299.905	92.25
300.136	79.25
300.366	92.25
300.597	86.25
300.827	96.25
301.057	88.25
301.288	88.25
301.518	91.25
301.748	95.25
301.979	96.25
302.209	76.25
302.439	72.25
302.669	78.25
302.9	74.25
303.13	85.25
303.36	88.25
303.59	92.25
303.82	90.25
304.051	92.25
304.281	96.25
304.511	83.25
304.741	72.25
304.971	76.25
305.201	84.25
305.431	99.25
305.661	98.25
305.891	94.25
306.121	89.25
306.352	93.25
306.582	98.25
306.812	96.25
307.042	90.25
307.272	92.25
307.502	78.25
307.731	98.25
307.961	94.25
308.191	91.25
308.421	92.25
308.651	86.25
308.881	90.25
309.111	77.25
309.341	94.25
309.571	92.25
309.8	76.25
310.03	72.25
310.26	93.25
310.49	104.25
310.72	88.25
310.949	91.25
311.179	82.25
311.409	74.25
311.639	93.25
311.868	80.25
312.098	82.25
312.328	91.25
312.557	82.25
312.787	83.25
313.017	76.25
313.246	90.25
313.476	91.25
313.706	98.25
313.935	100.25
314.165	87.25
314.394	79.25
314.624	75.25
314.853	94.25
315.083	86.25
315.312	90.25
315.542	73.25
315.771	94.25
316.001	84.25
316.23	76.25
316.46	99.25
316.689	92.25
316.919	81.25
317.148	84.25
317.377	81.25
317.607	95.25
317.836	86.25
318.065	80.25
318.295	80.25
318.524	90.25
318.753	102.25
318.983	91.25
319.212	88.25
319.441	85.25
319.67	69.25
319.9	79.25
320.129	89.25
320.358	90.25
320.587	102.25
320.816	83.25
321.046	93.25
321.275	97.25
321.504	82.25
321.733	92.25
321.962	87.25
322.191	91.25
322.42	89.25
322.649	89.25
322.878	93.25
323.108	99.25
323.337	92.25
323.566	83.25
323.795	79.25
324.024	87.25
324.253	80.25
324.482	88.25
324.71	87.25
324.939	80.25
325.168	86.25
325.397	83.25
325.626	91.25
325.855	82.25
326.084	86.25
326.313	76.25
326.542	79.25
326.77	104.25
326.999	90.25
327.228	97.25
327.457	104.25
327.686	98.25
327.914	100.25
328.143	96.25
328.372	90.25
328.6	77.25
328.829	98.25
329.058	84.25
329.287	87.25
329.515	91.25
329.744	83.25
329.972	103.25
330.201	83.25
330.43	91.25
330.658	87.25
330.887	92.25
331.115	86.25
331.344	92.25
331.572	76.25
331.801	92.25
332.03	85.25
332.258	63.25
332.486	87.25
332.715	95.25
332.943	108.25
333.172	87.25
333.4	89.25
333.629	88.25
333.857	86.25
334.085	74.25
334.314	84.25
334.542	92.25
334.771	89.25
334.999	90.25
335.227	81.25
335.455	86.25
335.684	83.25
335.912	87.25
336.14	77.25
336.369	78.25
336.597	86.25
336.825	93.25
337.053	83.25
337.281	87.25
337.51	78.25
337.738	86.25
337.966	90.25
338.194	84.25
338.422	90.25
338.65	92.25
338.878	92.25
339.106	84.25
339.334	94.25
339.562	84.25
339.79	99.25
340.018	89.25
340.246	87.25
340.474	92.25
340.702	72.25
340.93	78.25
341.158	88.25
341.386	82.25
341.614	98.25
341.842	94.25
342.07	90.25
342.298	86.25
342.526	97.25
342.754	81.25
342.981	93.25
343.209	93.25
343.437	95.25
343.665	106.25
343.893	83.25
344.12	86.25
344.348	85.25
344.576	87.25
344.804	84.25
345.031	90.25
345.259	110.25
345.487	80.25
345.714	88.25
345.942	83.25
346.17	99.25
346.397	95.25
346.625	82.25
346.853	89.25
347.08	82.25
347.308	71.25
347.535	77.25
347.763	74.25
347.99	88.25
348.218	81.25
348.445	85.25
348.673	90.25
348.9	82.25
349.128	90.25
349.355	86.25
349.583	86.25
349.81	94.25
350.037	84.25
350.265	83.25
350.492	89.25
350.72	94.25
350.947	82.25
351.174	90.25
351.402	71.25
351.629	89.25
351.856	86.25
352.083	87.25
352.311	87.25
352.538	85.25
352.765	89.25
352.992	106.25
353.22	83.25
353.447	77.25
353.674	90.25
353.901	93.25
354.128	88.25
354.355	89.25
354.583	97.25
354.81	93.25
355.037	100.25
355.264	87.25
355.491	82.25
355.718	91.25
355.945	94.25
356.172	79.25
356.399	90.25
356.626	83.25
356.853	78.25
357.08	89.25
357.307	89.25
357.534	82.25
357.761	106.25
357.988	85.25
358.215	96.25
358.441	95.25
358.668	81.25
358.895	69.25
359.122	77.25
359.349	81.25
359.576	83.25
359.802	94.25
360.029	92.25
360.256	99.25
360.483	82.25
360.709	78.25
360.936	85.25
361.163	98.25
361.39	87.25
361.616	97.25
361.843	83.25
362.07	82.25
362.296	93.25
362.523	90.25
362.749	88.25
362.976	79.25
363.203	104.25
363.429	98.25
363.656	92.25
363.882	94.25
364.109	86.25
364.335	80.25
364.562	102.25
364.788	99.25
365.015	98.25
365.241	95.25
365.468	83.25
365.694	88.25
365.92	87.25
366.147	95.25
366.373	81.25
366.599	74.25
366.826	84.25
367.052	92.25
367.278	87.25
367.505	88.25
367.731	91.25
367.957	89.25
368.184	89.25
368.41	98.25
368.636	91.25
368.862	81.25
369.089	86.25
369.315	92.25
369.541	85.25
369.767	86.25
369.993	78.25
370.219	89.25
370.445	79.25
370.672	83.25
370.898	80.25
371.124	80.25
371.35	90.25
371.576	78.25
371.802	82.25
372.028	99.25
372.254	87.25
372.48	82.25
372.706	80.25
372.932	62.25
373.158	80.25
373.384	95.25
373.61	88.25
373.835	78.25
374.061	99.25
374.287	80.25
374.513	88.25
374.739	91.25
374.965	94.25
375.191	94.25
375.416	84.25
375.642	84.25
375.868	87.25
376.094	82.25
376.319	88.25
376.545	75.25
376.771	92.25
376.997	75.25
377.222	79.25
377.448	104.25
377.674	100.25
377.899	87.25
378.125	87.25
378.35	95.25
378.576	76.25
378.802	93.25
379.027	94.25
379.253	75.25
379.478	94.25
379.704	81.25
379.929	71.25
380.155	94.25
380.38	86.25
380.606	83.25
380.831	91.25
381.057	84.25
381.282	103.25
381.507	85.25
381.733	88.25
381.958	73.25
382.184	102.25
382.409	91.25
382.634	95.25
382.86	83.25
383.085	89.25
383.31	84.25
383.535	88.25
383.761	103.25
383.986	84.25
384.211	76.25
384.436	83.25
384.662	92.25
384.887	96.25
385.112	78.25
385.337	92.25
385.562	84.25
385.787	92.25
386.013	83.25
386.238	88.25
386.463	89.25
386.688	82.25
386.913	84.25
387.138	74.25
387.363	76.25
387.588	86.25
387.813	84.25
388.038	90.25
388.263	92.25
388.488	92.25
388.713	92.25
388.938	79.25
389.163	77.25
389.387	88.25
389.612	84.25
389.837	90.25
390.062	72.25
390.287	92.25
390.512	96.25
390.736	90.25
390.961	79.25
391.186	102.25
391.411	98.25
391.636	88.25
391.86	88.25
392.085	87.25
392.31	90.25
392.534	85.25
392.759	79.25
392.984	102.25
393.208	93.25
393.433	105.25
393.658	99.25
393.882	93.25
394.107	83.25
394.331	70.25
394.556	84.25
394.78	81.25
395.005	84.25
395.229	89.25
395.454	90.25
395.678	77.25
395.903	104.25
396.127	97.25
396.352	82.25
396.576	94.25
396.801	74.25
397.025	85.25
397.249	90.25
397.474	100.25
397.698	81.25
397.922	76.25
398.147	92.25
398.371	77.25
398.595	78.25
398.82	82.25
399.044	91.25
399.268	86.25
399.492	95.25
399.717	104.25
399.941	96.25
400.165	116.25
400.389	86.25
400.613	89.25
400.837	82.25
401.062	81.25
401.286	96.25
401.51	76.25
401.734	79.25
401.958	83.25
402.182	84.25
402.406	90.25
402.63	80.25
402.854	88.25
403.078	90.25
403.302	91.25
403.526	76.25
403.75	99.25
403.974	97.25
404.198	93.25
404.422	84.25
404.645	81.25
404.869	93.25
405.093	82.25
405.317	80.25
405.541	88.25
405.765	82.25
405.988	77.25
406.212	106.25
406.436	88.25
406.66	94.25
406.883	74.25
407.107	92.25
407.331	107.25
407.555	78.25
407.778	100.25
408.002	107.25
408.226	98.25
408.449	95.25
408.673	90.25
408.896	81.25
409.12	73.25
409.344	94.25
409.567	84.25
409.791	96.25
410.014	87.25
410.238	87.25
410.461	90.25
410.685	91.25
410.908	86.25
411.132	102.25
411.355	86.25
411.578	95.25
411.802	90.25
412.025	87.25
412.249	89.25
412.472	81.25
412.695	88.25
412.919	91.25
413.142	84.25
413.365	93.25
413.589	77.25
413.812	89.25
414.035	89.25
414.258	86.25
414.482	87.25
414.705	92.25
414.928	84.25
415.151	98.25
415.374	94.25
415.597	88.25
415.821	90.25
416.044	88.25
416.267	82.25
416.49	86.25
416.713	88.25
416.936	84.25
417.159	86.25
417.382	72.25
417.605	94.25
417.828	94.25
418.051	97.25
418.274	100.25
418.497	95.25
418.72	86.25
418.943	102.25
419.166	86.25
419.389	90.25
419.611	94.25
419.834	94.25
420.057	93.25
420.28	73.25
420.503	76.25
420.726	78.25
420.948	91.25
421.171	94.25
421.394	86.25
421.617	91.25
421.839	89.25
422.062	87.25
422.285	90.25
422.507	83.25
422.73	94.25
422.953	81.25
423.175	75.25
423.398	84.25
423.621	92.25
423.843	79.25
424.066	93.25
424.288	94.25
424.511	89.25
424.733	86.25
424.956	90.25
425.178	88.25
425.401	97.25
425.623	93.25
425.846	74.25
426.068	94.25
426.291	82.25
426.513	96.25
426.735	96.25
426.958	95.25
427.18	83.25
427.402	78.25
427.625	88.25
427.847	77.25
428.069	101.25
428.292	85.25
428.514	82.25
428.736	87.25
428.958	83.25
429.181	77.25
429.403	92.25
429.625	89.25
429.847	79.25
430.069	90.25
430.292	81.25
430.514	95.25
430.736	72.25
430.958	82.25
431.18	91.25
431.402	87.25
431.624	80.25
431.846	80.25
432.068	84.25
432.29	108.25
432.512	94.25
432.734	90.25
432.956	89.25
433.178	97.25
433.4	88.25
433.622	92.25
433.844	96.25
434.066	102.25
434.287	78.25
434.509	73.25
434.731	109.25
434.953	87.25
435.175	107.25
435.397	86.25
435.618	88.25
435.84	84.25
436.062	96.25
436.284	99.25
436.505	68.25
436.727	83.25
436.949	74.25
437.17	91.25
437.392	80.25
437.614	87.25
437.835	95.25
438.057	88.25
438.278	98.25
438.5	79.25
438.721	78.25
438.943	85.25
439.165	98.25
439.386	80.25
439.608	92.25
439.829	92.25
440.05	87.25
440.272	86.25
440.493	92.25
440.715	86.25
440.936	78.25
441.158	82.25
441.379	87.25
441.6	97.25
441.822	86.25
442.043	71.25
442.264	94.25
442.486	92.25
442.707	89.25
442.928	90.25
443.149	86.25
443.371	88.25
443.592	97.25
443.813	82.25
444.034	85.25
444.255	83.25
444.476	87.25
444.698	95.25
444.919	84.25
445.14	154.25
445.361	123.25
445.582	86.25
445.803	76.25
446.024	86.25
446.245	90.25
446.466	93.25
446.687	66.25
446.908	99.25
447.129	88.25
447.35	90.25
447.571	86.25
447.792	73.25
448.013	94.25
448.234	99.25
448.455	90.25
448.675	80.25
448.896	91.25
449.117	103.25
449.338	94.25
449.559	89.25
449.779	91.25
450	89.25
450.221	83.25
450.442	90.25
450.662	77.25
450.883	100.25
451.104	103.25
451.324	78.25
451.545	95.25
451.766	93.25
451.986	90.25
452.207	93.25
452.428	82.25
452.648	90.25
452.869	83.25
453.089	88.25
453.31	80.25
453.53	79.25
453.751	96.25
453.971	74.25
454.192	83.25
454.412	93.25
454.633	92.25
454.853	82.25
455.073	77.25
455.294	83.25
455.514	84.25
455.734	90.25
455.955	89.25
456.175	95.25
456.395	79.25
456.616	79.25
456.836	72.25
457.056	88.25
457.276	79.25
457.497	89.25
457.717	95.25
457.937	78.25
458.157	78.25
458.377	98.25
458.598	95.25
458.818	82.25
459.038	67.25
459.258	84.25
459.478	91.25
459.698	75.25
459.918	82.25
460.138	83.25
460.358	85.25
460.578	92.25
460.798	85.25
461.018	90.25
461.238	95.25
461.458	84.25
461.678	104.25
461.898	102.25
462.118	95.25
462.338	99.25
462.558	84.25
462.777	97.25
462.997	91.25
463.217	91.25
463.437	98.25
463.657	85.25
463.876	83.25
464.096	98.25
464.316	100.25
464.536	85.25
464.755	84.25
464.975	84.25
465.195	78.25
465.414	83.25
465.634	81.25
465.854	84.25
466.073	84.25
466.293	85.25
466.512	83.25
466.732	88.25
466.951	95.25
467.171	78.25
467.391	76.25
467.61	83.25
467.829	90.25
468.049	88.25
468.268	90.25
468.488	91.25
468.707	82.25
468.927	82.25
469.146	94.25
469.365	98.25
469.585	74.25
469.804	78.25
470.023	82.25
470.243	71.25
470.462	93.25
470.681	84.25
470.901	87.25
471.12	78.25
471.339	88.25
471.558	95.25
471.777	93.25
471.997	82.25
472.216	84.25
472.435	84.25
472.654	89.25
472.873	88.25
473.092	84.25
473.311	77.25
473.53	75.25
473.749	90.25
473.968	84.25
474.187	102.25
474.406	78.25
474.625	92.25
474.844	88.25
475.063	62.25
475.282	87.25
475.501	76.25
475.72	90.25
475.939	79.25
476.158	75.25
476.377	88.25
476.596	89.25
476.814	96.25
477.033	83.25
477.252	82.25
477.471	83.25
477.69	82.25
477.908	75.25
478.127	84.25
478.346	90.25
478.564	102.25
478.783	76.25
479.002	85.25
479.22	93.25
479.439	95.25
479.658	85.25
479.876	87.25
480.095	86.25
480.313	84.25
480.532	100.25
480.751	94.25
480.969	93.25
481.188	100.25
481.406	90.25
481.624	83.25
481.843	100.25
482.061	84.25
482.28	86.25
482.498	82.25
482.717	88.25
482.935	86.25
483.153	91.25
483.372	91.25
483.59	80.25
483.808	74.25
484.027	89.25
484.245	84.25
484.463	102.25
484.681	97.25
484.9	90.25
485.118	98.25
485.336	87.25
485.554	95.25
485.772	84.25
485.99	79.25
486.209	91.25
486.427	93.25
486.645	92.25
486.863	82.25
487.081	80.25
487.299	96.25
487.517	90.25
487.735	82.25
487.953	95.25
488.171	99.25
488.389	110.25
488.607	80.25
488.825	95.25
489.043	83.25
489.261	82.25
489.479	85.25
489.696	86.25
489.914	88.25
490.132	78.25
490.35	74.25
490.568	87.25
490.786	74.25
491.003	85.25
491.221	86.25
491.439	92.25
491.657	89.25
491.874	88.25
492.092	110.25
492.31	94.25
492.527	96.25
492.745	87.25
492.963	89.25
493.18	76.25
493.398	70.25
493.615	102.25
493.833	66.25
494.05	88.25
494.268	83.25
494.485	82.25
494.703	90.25
494.92	87.25
495.138	98.25
495.355	80.25
495.573	81.25
495.79	91.25
496.008	93.25
496.225	95.25
496.442	90.25
496.66	106.25
496.877	108.25
497.094	91.25
497.312	62.25
497.529	90.25
497.746	89.25
497.963	107.25
498.181	79.25
498.398	90.25
498.615	88.25
498.832	88.25
499.049	86.25
499.267	83.25
499.484	95.25
499.701	111.25
499.918	110.25
500.135	109.25
500.352	112.25
500.569	102.25
500.786	106.25
501.003	102.25
501.22	78.25
501.437	106.25
501.654	98.25
501.871	99.25
502.088	92.25
502.305	93.25
502.522	92.25
502.739	104.25
502.956	92.25
503.172	93.25
503.389	77.25
503.606	80.25
503.823	88.25
504.04	91.25
504.256	109.25
504.473	102.25
504.69	88.25
504.907	99.25
505.123	71.25
505.34	83.25
505.557	98.25
505.773	102.25
505.99	102.25
506.207	99.25
506.423	66.25
506.64	80.25
506.856	81.25
507.073	80.25
507.289	93.25
507.506	90.25
507.722	103.25
507.939	81.25
508.155	102.25
508.372	99.25
508.588	83.25
508.805	89.25
509.021	93.25
509.238	101.25
509.454	75.25
509.67	94.25
509.887	84.25
510.103	95.25
510.319	91.25
510.536	89.25
510.752	79.25
510.968	84.25
511.184	84.25
511.401	87.25
511.617	94.25
511.833	99.25
512.049	92.25
512.265	85.25
512.481	101.25
512.698	89.25
512.914	93.25
513.13	95.25
513.346	96.25
513.562	83.25
513.778	87.25
513.994	97.25
514.21	75.25
514.426	91.25
514.642	86.25
514.858	97.25
515.074	96.25
515.29	92.25
515.506	83.25
515.721	86.25
515.937	90.25
516.153	81.25
516.369	91.25
516.585	82.25
516.801	84.25
517.016	92.25
517.232	80.25
517.448	87.25
517.664	90.25
517.879	98.25
518.095	99.25
518.311	85.25
518.527	90.25
518.742	84.25
518.958	89.25
519.173	95.25
