Data from BG_HRD10591_009.txt Node
Date: Fri May 16 15:33:11 EDT 2025
User: Yrep
Spectrometer: HR+D1059
Trigger mode: 1
Integration Time (sec): 1.000000E-1
Scans to average: 1
Electric dark correction enabled: true
Nonlinearity correction enabled: false
Boxcar width: 0
XAxis mode: Wavelengths
Number of Pixels in Spectrum: 2048
>>>>>Begin Spectral Data<<<<<
223.165	-19.19
223.4	-19.19
223.635	-19.19
223.869	-12.19
224.104	-33.19
224.338	-6.19
224.573	-15.19
224.808	-16.19
225.042	-6.19
225.277	6.81
225.511	-7.19
225.746	-1.19
225.98	3.81
226.215	7.81
226.449	27.81
226.683	16.81
226.918	24.81
227.152	28.81
227.387	28.81
227.621	40.81
227.856	45.81
228.09	51.81
228.324	48.81
228.559	48.81
228.793	69.81
229.027	55.81
229.262	68.81
229.496	76.81
229.73	64.81
229.964	72.81
230.199	86.81
230.433	93.81
230.667	78.81
230.901	77.81
231.136	97.81
231.37	74.81
231.604	88.81
231.838	73.81
232.072	75.81
232.306	99.81
232.541	87.81
232.775	79.81
233.009	73.81
233.243	75.81
233.477	76.81
233.711	73.81
233.945	94.81
234.179	82.81
234.413	91.81
234.647	79.81
234.881	94.81
235.115	75.81
235.349	85.81
235.583	77.81
235.817	80.81
236.051	78.81
236.285	66.81
236.519	81.81
236.753	81.81
236.987	76.81
237.221	68.81
237.455	89.81
237.689	68.81
237.922	83.81
238.156	76.81
238.39	88.81
238.624	71.81
238.858	69.81
239.091	73.81
239.325	85.81
239.559	79.81
239.793	73.81
240.027	75.81
240.26	84.81
240.494	73.81
240.728	74.81
240.961	83.81
241.195	74.81
241.429	74.81
241.662	79.81
241.896	72.81
242.13	74.81
242.363	63.81
242.597	88.81
242.83	86.81
243.064	79.81
243.298	74.81
243.531	87.81
243.765	82.81
243.998	78.81
244.232	76.81
244.465	82.81
244.699	85.81
244.932	90.81
245.166	81.81
245.399	69.81
245.633	68.81
245.866	92.81
246.099	75.81
246.333	87.81
246.566	79.81
246.8	82.81
247.033	82.81
247.266	74.81
247.5	73.81
247.733	72.81
247.966	82.81
248.2	82.81
248.433	89.81
248.666	75.81
248.899	76.81
249.133	87.81
249.366	89.81
249.599	87.81
249.832	92.81
250.066	102.81
250.299	78.81
250.532	69.81
250.765	80.81
250.998	71.81
251.231	74.81
251.465	94.81
251.698	82.81
251.931	83.81
252.164	79.81
252.397	78.81
252.63	80.81
252.863	61.81
253.096	80.81
253.329	60.81
253.562	86.81
253.795	89.81
254.028	82.81
254.261	79.81
254.494	84.81
254.727	83.81
254.96	82.81
255.193	80.81
255.426	70.81
255.659	82.81
255.892	83.81
256.124	75.81
256.357	70.81
256.59	81.81
256.823	71.81
257.056	81.81
257.289	84.81
257.521	80.81
257.754	83.81
257.987	83.81
258.22	77.81
258.452	65.81
258.685	79.81
258.918	71.81
259.151	75.81
259.383	89.81
259.616	76.81
259.849	69.81
260.081	95.81
260.314	85.81
260.547	84.81
260.779	74.81
261.012	72.81
261.244	74.81
261.477	81.81
261.71	78.81
261.942	91.81
262.175	79.81
262.407	71.81
262.64	68.81
262.872	83.81
263.105	72.81
263.337	95.81
263.57	97.81
263.802	76.81
264.035	74.81
264.267	86.81
264.499	91.81
264.732	86.81
264.964	89.81
265.197	92.81
265.429	72.81
265.661	79.81
265.894	58.81
266.126	72.81
266.358	82.81
266.591	81.81
266.823	87.81
267.055	78.81
267.287	86.81
267.52	79.81
267.752	76.81
267.984	79.81
268.216	80.81
268.448	88.81
268.681	87.81
268.913	94.81
269.145	87.81
269.377	96.81
269.609	85.81
269.841	78.81
270.073	91.81
270.306	100.81
270.538	81.81
270.77	90.81
271.002	100.81
271.234	79.81
271.466	82.81
271.698	89.81
271.93	99.81
272.162	90.81
272.394	69.81
272.626	87.81
272.858	81.81
273.09	81.81
273.322	78.81
273.553	85.81
273.785	82.81
274.017	80.81
274.249	79.81
274.481	92.81
274.713	80.81
274.945	73.81
275.176	64.81
275.408	95.81
275.64	79.81
275.872	89.81
276.104	91.81
276.335	84.81
276.567	94.81
276.799	82.81
277.031	85.81
277.262	94.81
277.494	82.81
277.726	85.81
277.957	95.81
278.189	86.81
278.421	85.81
278.652	88.81
278.884	81.81
279.115	79.81
279.347	79.81
279.579	74.81
279.81	89.81
280.042	83.81
280.273	79.81
280.505	72.81
280.736	77.81
280.968	88.81
281.199	104.81
281.431	94.81
281.662	93.81
281.894	87.81
282.125	72.81
282.356	83.81
282.588	88.81
282.819	84.81
283.051	83.81
283.282	90.81
283.513	94.81
283.745	91.81
283.976	74.81
284.207	80.81
284.439	90.81
284.67	95.81
284.901	85.81
285.132	79.81
285.364	98.81
285.595	95.81
285.826	90.81
286.057	78.81
286.288	67.81
286.52	86.81
286.751	77.81
286.982	86.81
287.213	92.81
287.444	89.81
287.675	98.81
287.906	88.81
288.138	72.81
288.369	67.81
288.6	91.81
288.831	92.81
289.062	80.81
289.293	81.81
289.524	74.81
289.755	76.81
289.986	84.81
290.217	88.81
290.448	79.81
290.679	98.81
290.91	90.81
291.141	88.81
291.371	85.81
291.602	94.81
291.833	89.81
292.064	97.81
292.295	66.81
292.526	84.81
292.757	106.81
292.987	86.81
293.218	84.81
293.449	85.81
293.68	98.81
293.91	92.81
294.141	86.81
294.372	70.81
294.603	84.81
294.833	94.81
295.064	87.81
295.295	89.81
295.525	86.81
295.756	83.81
295.987	78.81
296.217	80.81
296.448	81.81
296.679	88.81
296.909	106.81
297.14	74.81
297.37	89.81
297.601	96.81
297.831	88.81
298.062	92.81
298.292	89.81
298.523	81.81
298.753	85.81
298.984	90.81
299.214	85.81
299.445	91.81
299.675	89.81
299.905	77.81
300.136	98.81
300.366	81.81
300.597	87.81
300.827	95.81
301.057	104.81
301.288	86.81
301.518	82.81
301.748	93.81
301.979	87.81
302.209	84.81
302.439	88.81
302.669	74.81
302.9	69.81
303.13	83.81
303.36	85.81
303.59	88.81
303.82	85.81
304.051	83.81
304.281	90.81
304.511	81.81
304.741	78.81
304.971	99.81
305.201	93.81
305.431	94.81
305.661	87.81
305.891	84.81
306.121	91.81
306.352	86.81
306.582	92.81
306.812	82.81
307.042	99.81
307.272	79.81
307.502	89.81
307.731	84.81
307.961	88.81
308.191	83.81
308.421	88.81
308.651	88.81
308.881	78.81
309.111	91.81
309.341	85.81
309.571	91.81
309.8	98.81
310.03	91.81
310.26	94.81
310.49	94.81
310.72	82.81
310.949	84.81
311.179	87.81
311.409	92.81
311.639	88.81
311.868	98.81
312.098	98.81
312.328	103.81
312.557	82.81
312.787	75.81
313.017	78.81
313.246	93.81
313.476	83.81
313.706	95.81
313.935	72.81
314.165	96.81
314.394	88.81
314.624	97.81
314.853	92.81
315.083	75.81
315.312	86.81
315.542	87.81
315.771	79.81
316.001	98.81
316.23	80.81
316.46	80.81
316.689	83.81
316.919	81.81
317.148	95.81
317.377	100.81
317.607	96.81
317.836	91.81
318.065	81.81
318.295	93.81
318.524	104.81
318.753	74.81
318.983	86.81
319.212	84.81
319.441	82.81
319.67	94.81
319.9	82.81
320.129	76.81
320.358	96.81
320.587	87.81
320.816	90.81
321.046	89.81
321.275	82.81
321.504	78.81
321.733	86.81
321.962	79.81
322.191	80.81
322.42	108.81
322.649	99.81
322.878	93.81
323.108	82.81
323.337	86.81
323.566	88.81
323.795	79.81
324.024	92.81
324.253	89.81
324.482	97.81
324.71	86.81
324.939	95.81
325.168	89.81
325.397	96.81
325.626	86.81
325.855	87.81
326.084	84.81
326.313	81.81
326.542	90.81
326.77	87.81
326.999	82.81
327.228	82.81
327.457	95.81
327.686	88.81
327.914	87.81
328.143	94.81
328.372	98.81
328.6	82.81
328.829	90.81
329.058	80.81
329.287	67.81
329.515	79.81
329.744	99.81
329.972	82.81
330.201	84.81
330.43	77.81
330.658	102.81
330.887	96.81
331.115	76.81
331.344	89.81
331.572	91.81
331.801	87.81
332.03	80.81
332.258	90.81
332.486	86.81
332.715	86.81
332.943	90.81
333.172	103.81
333.4	76.81
333.629	101.81
333.857	86.81
334.085	76.81
334.314	88.81
334.542	85.81
334.771	89.81
334.999	92.81
335.227	90.81
335.455	86.81
335.684	90.81
335.912	88.81
336.14	93.81
336.369	84.81
336.597	78.81
336.825	94.81
337.053	71.81
337.281	103.81
337.51	102.81
337.738	74.81
337.966	87.81
338.194	80.81
338.422	74.81
338.65	102.81
338.878	71.81
339.106	76.81
339.334	72.81
339.562	84.81
339.79	101.81
340.018	83.81
340.246	80.81
340.474	96.81
340.702	90.81
340.93	81.81
341.158	95.81
341.386	80.81
341.614	93.81
341.842	72.81
342.07	83.81
342.298	90.81
342.526	72.81
342.754	90.81
342.981	92.81
343.209	89.81
343.437	91.81
343.665	95.81
343.893	79.81
344.12	87.81
344.348	91.81
344.576	89.81
344.804	92.81
345.031	100.81
345.259	80.81
345.487	79.81
345.714	84.81
345.942	87.81
346.17	79.81
346.397	85.81
346.625	86.81
346.853	91.81
347.08	91.81
347.308	88.81
347.535	82.81
347.763	93.81
347.99	87.81
348.218	79.81
348.445	93.81
348.673	87.81
348.9	90.81
349.128	88.81
349.355	95.81
349.583	93.81
349.81	79.81
350.037	97.81
350.265	82.81
350.492	89.81
350.72	84.81
350.947	74.81
351.174	90.81
351.402	78.81
351.629	84.81
351.856	74.81
352.083	82.81
352.311	90.81
352.538	99.81
352.765	86.81
352.992	95.81
353.22	96.81
353.447	87.81
353.674	79.81
353.901	91.81
354.128	93.81
354.355	89.81
354.583	100.81
354.81	78.81
355.037	80.81
355.264	91.81
355.491	81.81
355.718	97.81
355.945	90.81
356.172	87.81
356.399	98.81
356.626	88.81
356.853	83.81
357.08	96.81
357.307	70.81
357.534	92.81
357.761	81.81
357.988	91.81
358.215	65.81
358.441	78.81
358.668	84.81
358.895	83.81
359.122	82.81
359.349	90.81
359.576	84.81
359.802	82.81
360.029	82.81
360.256	83.81
360.483	90.81
360.709	82.81
360.936	90.81
361.163	98.81
361.39	83.81
361.616	77.81
361.843	75.81
362.07	100.81
362.296	69.81
362.523	94.81
362.749	84.81
362.976	80.81
363.203	83.81
363.429	92.81
363.656	91.81
363.882	97.81
364.109	91.81
364.335	80.81
364.562	83.81
364.788	86.81
365.015	95.81
365.241	91.81
365.468	82.81
365.694	77.81
365.92	76.81
366.147	80.81
366.373	81.81
366.599	80.81
366.826	80.81
367.052	103.81
367.278	78.81
367.505	82.81
367.731	86.81
367.957	81.81
368.184	79.81
368.41	79.81
368.636	99.81
368.862	79.81
369.089	86.81
369.315	81.81
369.541	87.81
369.767	86.81
369.993	80.81
370.219	87.81
370.445	86.81
370.672	83.81
370.898	84.81
371.124	92.81
371.35	81.81
371.576	86.81
371.802	86.81
372.028	89.81
372.254	88.81
372.48	90.81
372.706	82.81
372.932	91.81
373.158	97.81
373.384	90.81
373.61	88.81
373.835	95.81
374.061	83.81
374.287	93.81
374.513	91.81
374.739	87.81
374.965	85.81
375.191	90.81
375.416	85.81
375.642	74.81
375.868	90.81
376.094	88.81
376.319	88.81
376.545	89.81
376.771	82.81
376.997	102.81
377.222	78.81
377.448	85.81
377.674	73.81
377.899	91.81
378.125	80.81
378.35	90.81
378.576	86.81
378.802	93.81
379.027	90.81
379.253	84.81
379.478	81.81
379.704	73.81
379.929	87.81
380.155	64.81
380.38	84.81
380.606	81.81
380.831	83.81
381.057	105.81
381.282	82.81
381.507	86.81
381.733	75.81
381.958	104.81
382.184	95.81
382.409	90.81
382.634	84.81
382.86	90.81
383.085	92.81
383.31	84.81
383.535	80.81
383.761	80.81
383.986	79.81
384.211	75.81
384.436	82.81
384.662	81.81
384.887	97.81
385.112	78.81
385.337	74.81
385.562	88.81
385.787	109.81
386.013	102.81
386.238	83.81
386.463	86.81
386.688	77.81
386.913	86.81
387.138	74.81
387.363	83.81
387.588	80.81
387.813	74.81
388.038	102.81
388.263	68.81
388.488	74.81
388.713	90.81
388.938	81.81
389.163	80.81
389.387	111.81
389.612	97.81
389.837	82.81
390.062	92.81
390.287	87.81
390.512	88.81
390.736	98.81
390.961	91.81
391.186	84.81
391.411	89.81
391.636	88.81
391.86	83.81
392.085	90.81
392.31	78.81
392.534	90.81
392.759	86.81
392.984	84.81
393.208	86.81
393.433	77.81
393.658	82.81
393.882	88.81
394.107	94.81
394.331	93.81
394.556	89.81
394.78	91.81
395.005	97.81
395.229	104.81
395.454	91.81
395.678	76.81
395.903	89.81
396.127	93.81
396.352	85.81
396.576	93.81
396.801	88.81
397.025	83.81
397.249	88.81
397.474	101.81
397.698	90.81
397.922	88.81
398.147	107.81
398.371	84.81
398.595	72.81
398.82	92.81
399.044	83.81
399.268	86.81
399.492	96.81
399.717	94.81
399.941	92.81
400.165	88.81
400.389	89.81
400.613	98.81
400.837	81.81
401.062	81.81
401.286	83.81
401.51	96.81
401.734	94.81
401.958	81.81
402.182	69.81
402.406	82.81
402.63	97.81
402.854	101.81
403.078	100.81
403.302	106.81
403.526	81.81
403.75	93.81
403.974	89.81
404.198	85.81
404.422	79.81
404.645	88.81
404.869	86.81
405.093	90.81
405.317	87.81
405.541	79.81
405.765	75.81
405.988	70.81
406.212	92.81
406.436	93.81
406.66	84.81
406.883	83.81
407.107	84.81
407.331	83.81
407.555	87.81
407.778	93.81
408.002	97.81
408.226	95.81
408.449	94.81
408.673	98.81
408.896	87.81
409.12	84.81
409.344	90.81
409.567	81.81
409.791	92.81
410.014	85.81
410.238	83.81
410.461	79.81
410.685	71.81
410.908	85.81
411.132	103.81
411.355	88.81
411.578	101.81
411.802	96.81
412.025	81.81
412.249	89.81
412.472	97.81
412.695	102.81
412.919	98.81
413.142	83.81
413.365	76.81
413.589	94.81
413.812	106.81
414.035	91.81
414.258	91.81
414.482	93.81
414.705	95.81
414.928	95.81
415.151	91.81
415.374	105.81
415.597	84.81
415.821	85.81
416.044	75.81
416.267	80.81
416.49	90.81
416.713	88.81
416.936	86.81
417.159	91.81
417.382	88.81
417.605	78.81
417.828	91.81
418.051	87.81
418.274	84.81
418.497	85.81
418.72	99.81
418.943	89.81
419.166	97.81
419.389	88.81
419.611	80.81
419.834	76.81
420.057	75.81
420.28	92.81
420.503	76.81
420.726	97.81
420.948	96.81
421.171	97.81
421.394	97.81
421.617	95.81
421.839	90.81
422.062	78.81
422.285	82.81
422.507	82.81
422.73	79.81
422.953	75.81
423.175	84.81
423.398	96.81
423.621	92.81
423.843	91.81
424.066	87.81
424.288	89.81
424.511	80.81
424.733	98.81
424.956	93.81
425.178	82.81
425.401	90.81
425.623	96.81
425.846	82.81
426.068	82.81
426.291	97.81
426.513	88.81
426.735	91.81
426.958	81.81
427.18	88.81
427.402	94.81
427.625	90.81
427.847	91.81
428.069	86.81
428.292	98.81
428.514	102.81
428.736	89.81
428.958	82.81
429.181	99.81
429.403	98.81
429.625	93.81
429.847	89.81
430.069	94.81
430.292	76.81
430.514	96.81
430.736	87.81
430.958	86.81
431.18	90.81
431.402	82.81
431.624	88.81
431.846	91.81
432.068	87.81
432.29	94.81
432.512	90.81
432.734	70.81
432.956	78.81
433.178	83.81
433.4	84.81
433.622	89.81
433.844	96.81
434.066	73.81
434.287	88.81
434.509	88.81
434.731	89.81
434.953	94.81
435.175	97.81
435.397	92.81
435.618	87.81
435.84	77.81
436.062	85.81
436.284	92.81
436.505	81.81
436.727	88.81
436.949	82.81
437.17	80.81
437.392	81.81
437.614	90.81
437.835	84.81
438.057	76.81
438.278	77.81
438.5	68.81
438.721	81.81
438.943	84.81
439.165	87.81
439.386	79.81
439.608	88.81
439.829	81.81
440.05	90.81
440.272	88.81
440.493	84.81
440.715	87.81
440.936	97.81
441.158	95.81
441.379	81.81
441.6	92.81
441.822	85.81
442.043	72.81
442.264	87.81
442.486	73.81
442.707	86.81
442.928	90.81
443.149	92.81
443.371	96.81
443.592	85.81
443.813	90.81
444.034	99.81
444.255	100.81
444.476	98.81
444.698	102.81
444.919	97.81
445.14	166.81
445.361	106.81
445.582	74.81
445.803	88.81
446.024	78.81
446.245	85.81
446.466	79.81
446.687	73.81
446.908	100.81
447.129	105.81
447.35	87.81
447.571	89.81
447.792	95.81
448.013	73.81
448.234	86.81
448.455	77.81
448.675	81.81
448.896	82.81
449.117	89.81
449.338	79.81
449.559	91.81
449.779	88.81
450	83.81
450.221	93.81
450.442	86.81
450.662	82.81
450.883	79.81
451.104	71.81
451.324	88.81
451.545	79.81
451.766	82.81
451.986	87.81
452.207	82.81
452.428	80.81
452.648	90.81
452.869	90.81
453.089	80.81
453.31	80.81
453.53	82.81
453.751	85.81
453.971	86.81
454.192	87.81
454.412	78.81
454.633	92.81
454.853	71.81
455.073	83.81
455.294	95.81
455.514	81.81
455.734	88.81
455.955	70.81
456.175	88.81
456.395	90.81
456.616	83.81
456.836	61.81
457.056	78.81
457.276	88.81
457.497	67.81
457.717	88.81
457.937	80.81
458.157	82.81
458.377	88.81
458.598	80.81
458.818	83.81
459.038	89.81
459.258	82.81
459.478	76.81
459.698	92.81
459.918	81.81
460.138	87.81
460.358	92.81
460.578	92.81
460.798	68.81
461.018	100.81
461.238	91.81
461.458	91.81
461.678	100.81
461.898	99.81
462.118	98.81
462.338	80.81
462.558	79.81
462.777	95.81
462.997	98.81
463.217	74.81
463.437	93.81
463.657	80.81
463.876	80.81
464.096	91.81
464.316	83.81
464.536	92.81
464.755	63.81
464.975	82.81
465.195	82.81
465.414	102.81
465.634	75.81
465.854	90.81
466.073	85.81
466.293	77.81
466.512	84.81
466.732	93.81
466.951	84.81
467.171	78.81
467.391	90.81
467.61	77.81
467.829	75.81
468.049	91.81
468.268	88.81
468.488	89.81
468.707	74.81
468.927	80.81
469.146	88.81
469.365	68.81
469.585	83.81
469.804	79.81
470.023	80.81
470.243	88.81
470.462	94.81
470.681	75.81
470.901	86.81
471.12	72.81
471.339	79.81
471.558	82.81
471.777	75.81
471.997	74.81
472.216	82.81
472.435	75.81
472.654	77.81
472.873	96.81
473.092	75.81
473.311	86.81
473.53	97.81
473.749	72.81
473.968	73.81
474.187	82.81
474.406	85.81
474.625	86.81
474.844	78.81
475.063	86.81
475.282	89.81
475.501	74.81
475.72	94.81
475.939	94.81
476.158	81.81
476.377	104.81
476.596	82.81
476.814	82.81
477.033	84.81
477.252	81.81
477.471	75.81
477.69	90.81
477.908	98.81
478.127	93.81
478.346	74.81
478.564	84.81
478.783	94.81
479.002	82.81
479.22	95.81
479.439	88.81
479.658	102.81
479.876	89.81
480.095	102.81
480.313	92.81
480.532	93.81
480.751	87.81
480.969	78.81
481.188	82.81
481.406	78.81
481.624	87.81
481.843	87.81
482.061	79.81
482.28	84.81
482.498	79.81
482.717	85.81
482.935	74.81
483.153	91.81
483.372	97.81
483.59	81.81
483.808	90.81
484.027	95.81
484.245	97.81
484.463	90.81
484.681	86.81
484.9	96.81
485.118	97.81
485.336	87.81
485.554	90.81
485.772	89.81
485.99	87.81
486.209	97.81
486.427	95.81
486.645	87.81
486.863	86.81
487.081	88.81
487.299	81.81
487.517	91.81
487.735	82.81
487.953	89.81
488.171	94.81
488.389	89.81
488.607	96.81
488.825	89.81
489.043	86.81
489.261	97.81
489.479	95.81
489.696	90.81
489.914	98.81
490.132	83.81
490.35	98.81
490.568	79.81
490.786	97.81
491.003	83.81
491.221	90.81
491.439	95.81
491.657	84.81
491.874	94.81
492.092	88.81
492.31	81.81
492.527	88.81
492.745	89.81
492.963	84.81
493.18	81.81
493.398	91.81
493.615	92.81
493.833	88.81
494.05	89.81
494.268	101.81
494.485	105.81
494.703	108.81
494.92	87.81
495.138	82.81
495.355	91.81
495.573	88.81
495.79	96.81
496.008	105.81
496.225	110.81
496.442	81.81
496.66	102.81
496.877	96.81
497.094	101.81
497.312	86.81
497.529	71.81
497.746	88.81
497.963	81.81
498.181	87.81
498.398	83.81
498.615	100.81
498.832	84.81
499.049	87.81
499.267	87.81
499.484	98.81
499.701	99.81
499.918	95.81
500.135	99.81
500.352	98.81
500.569	102.81
500.786	104.81
501.003	112.81
501.22	108.81
501.437	88.81
501.654	95.81
501.871	104.81
502.088	95.81
502.305	90.81
502.522	91.81
502.739	90.81
502.956	102.81
503.172	86.81
503.389	99.81
503.606	100.81
503.823	98.81
504.04	88.81
504.256	95.81
504.473	89.81
504.69	91.81
504.907	107.81
505.123	94.81
505.34	93.81
505.557	90.81
505.773	93.81
505.99	87.81
506.207	95.81
506.423	95.81
506.64	90.81
506.856	82.81
507.073	72.81
507.289	95.81
507.506	77.81
507.722	98.81
507.939	92.81
508.155	93.81
508.372	92.81
508.588	84.81
508.805	102.81
509.021	89.81
509.238	91.81
509.454	86.81
509.67	92.81
509.887	71.81
510.103	81.81
510.319	98.81
510.536	78.81
510.752	91.81
510.968	80.81
511.184	88.81
511.401	74.81
511.617	95.81
511.833	77.81
512.049	91.81
512.265	88.81
512.481	95.81
512.698	84.81
512.914	72.81
513.13	95.81
513.346	70.81
513.562	102.81
513.778	92.81
513.994	85.81
514.21	87.81
514.426	97.81
514.642	93.81
514.858	93.81
515.074	91.81
515.29	96.81
515.506	85.81
515.721	97.81
515.937	102.81
516.153	91.81
516.369	101.81
516.585	89.81
516.801	95.81
517.016	100.81
517.232	96.81
517.448	100.81
517.664	80.81
517.879	88.81
518.095	95.81
518.311	88.81
518.527	90.81
518.742	86.81
518.958	105.81
519.173	86.81
519.389	89.81
