Data from BG_HRD10591_088.txt Node
Date: Fri May 16 15:33:51 EDT 2025
User: Yrep
Spectrometer: HR+D1059
Trigger mode: 1
Integration Time (sec): 1.000000E-1
Scans to average: 1
Electric dark correction enabled: true
Nonlinearity correction enabled: false
Boxcar width: 0
XAxis mode: Wavelengths
Number of Pixels in Spectrum: 2048
>>>>>Begin Spectral Data<<<<<
223.165	-15.12
223.4	-15.12
223.635	-15.12
223.869	-19.12
224.104	-23.12
224.338	-17.12
224.573	-16.12
224.808	-14.12
225.042	-8.12
225.277	-9.12
225.511	-9.12
225.746	9.88
225.98	10.88
226.215	8.88
226.449	18.88
226.683	16.88
226.918	27.88
227.152	37.88
227.387	29.88
227.621	38.88
227.856	44.88
228.09	50.88
228.324	52.88
228.559	64.88
228.793	56.88
229.027	73.88
229.262	69.88
229.496	64.88
229.73	66.88
229.964	67.88
230.199	62.88
230.433	71.88
230.667	76.88
230.901	75.88
231.136	66.88
231.37	83.88
231.604	78.88
231.838	72.88
232.072	87.88
232.306	77.88
232.541	82.88
232.775	77.88
233.009	74.88
233.243	86.88
233.477	79.88
233.711	82.88
233.945	57.88
234.179	78.88
234.413	80.88
234.647	81.88
234.881	69.88
235.115	80.88
235.349	75.88
235.583	73.88
235.817	78.88
236.051	67.88
236.285	74.88
236.519	77.88
236.753	85.88
236.987	88.88
237.221	81.88
237.455	75.88
237.689	84.88
237.922	89.88
238.156	66.88
238.39	82.88
238.624	71.88
238.858	74.88
239.091	85.88
239.325	77.88
239.559	75.88
239.793	78.88
240.027	74.88
240.26	76.88
240.494	84.88
240.728	79.88
240.961	71.88
241.195	74.88
241.429	86.88
241.662	98.88
241.896	90.88
242.13	65.88
242.363	67.88
242.597	75.88
242.83	86.88
243.064	69.88
243.298	77.88
243.531	75.88
243.765	63.88
243.998	72.88
244.232	85.88
244.465	84.88
244.699	83.88
244.932	73.88
245.166	80.88
245.399	82.88
245.633	76.88
245.866	81.88
246.099	79.88
246.333	59.88
246.566	52.88
246.8	71.88
247.033	72.88
247.266	76.88
247.5	80.88
247.733	92.88
247.966	66.88
248.2	84.88
248.433	77.88
248.666	77.88
248.899	83.88
249.133	76.88
249.366	78.88
249.599	74.88
249.832	79.88
250.066	78.88
250.299	77.88
250.532	69.88
250.765	72.88
250.998	90.88
251.231	75.88
251.465	69.88
251.698	82.88
251.931	88.88
252.164	71.88
252.397	79.88
252.63	83.88
252.863	86.88
253.096	72.88
253.329	79.88
253.562	79.88
253.795	82.88
254.028	86.88
254.261	66.88
254.494	72.88
254.727	85.88
254.96	80.88
255.193	81.88
255.426	69.88
255.659	74.88
255.892	82.88
256.124	88.88
256.357	80.88
256.59	88.88
256.823	78.88
257.056	64.88
257.289	76.88
257.521	80.88
257.754	74.88
257.987	86.88
258.22	78.88
258.452	83.88
258.685	70.88
258.918	80.88
259.151	77.88
259.383	74.88
259.616	76.88
259.849	75.88
260.081	77.88
260.314	76.88
260.547	82.88
260.779	75.88
261.012	78.88
261.244	78.88
261.477	79.88
261.71	83.88
261.942	84.88
262.175	93.88
262.407	78.88
262.64	83.88
262.872	76.88
263.105	92.88
263.337	78.88
263.57	86.88
263.802	81.88
264.035	67.88
264.267	78.88
264.499	93.88
264.732	81.88
264.964	87.88
265.197	91.88
265.429	80.88
265.661	84.88
265.894	80.88
266.126	91.88
266.358	86.88
266.591	85.88
266.823	87.88
267.055	87.88
267.287	83.88
267.52	73.88
267.752	84.88
267.984	87.88
268.216	78.88
268.448	86.88
268.681	89.88
268.913	58.88
269.145	76.88
269.377	79.88
269.609	83.88
269.841	81.88
270.073	92.88
270.306	84.88
270.538	80.88
270.77	82.88
271.002	92.88
271.234	86.88
271.466	78.88
271.698	85.88
271.93	75.88
272.162	86.88
272.394	80.88
272.626	77.88
272.858	74.88
273.09	80.88
273.322	89.88
273.553	87.88
273.785	86.88
274.017	88.88
274.249	78.88
274.481	83.88
274.713	84.88
274.945	82.88
275.176	82.88
275.408	69.88
275.64	84.88
275.872	92.88
276.104	81.88
276.335	90.88
276.567	85.88
276.799	83.88
277.031	74.88
277.262	75.88
277.494	103.88
277.726	88.88
277.957	102.88
278.189	76.88
278.421	88.88
278.652	76.88
278.884	86.88
279.115	82.88
279.347	74.88
279.579	88.88
279.81	82.88
280.042	88.88
280.273	79.88
280.505	88.88
280.736	88.88
280.968	72.88
281.199	88.88
281.431	78.88
281.662	90.88
281.894	79.88
282.125	86.88
282.356	77.88
282.588	89.88
282.819	81.88
283.051	88.88
283.282	67.88
283.513	86.88
283.745	89.88
283.976	84.88
284.207	81.88
284.439	87.88
284.67	80.88
284.901	74.88
285.132	83.88
285.364	76.88
285.595	85.88
285.826	85.88
286.057	93.88
286.288	77.88
286.52	81.88
286.751	84.88
286.982	81.88
287.213	81.88
287.444	81.88
287.675	86.88
287.906	91.88
288.138	83.88
288.369	80.88
288.6	88.88
288.831	100.88
289.062	86.88
289.293	94.88
289.524	86.88
289.755	89.88
289.986	73.88
290.217	87.88
290.448	74.88
290.679	88.88
290.91	84.88
291.141	72.88
291.371	87.88
291.602	84.88
291.833	86.88
292.064	89.88
292.295	81.88
292.526	90.88
292.757	77.88
292.987	89.88
293.218	92.88
293.449	97.88
293.68	79.88
293.91	86.88
294.141	66.88
294.372	87.88
294.603	90.88
294.833	78.88
295.064	84.88
295.295	89.88
295.525	90.88
295.756	77.88
295.987	95.88
296.217	76.88
296.448	90.88
296.679	74.88
296.909	95.88
297.14	80.88
297.37	88.88
297.601	70.88
297.831	86.88
298.062	87.88
298.292	78.88
298.523	94.88
298.753	89.88
298.984	85.88
299.214	86.88
299.445	87.88
299.675	80.88
299.905	89.88
300.136	87.88
300.366	75.88
300.597	102.88
300.827	93.88
301.057	84.88
301.288	101.88
301.518	86.88
301.748	81.88
301.979	108.88
302.209	75.88
302.439	67.88
302.669	82.88
302.9	83.88
303.13	71.88
303.36	89.88
303.59	71.88
303.82	84.88
304.051	87.88
304.281	77.88
304.511	100.88
304.741	91.88
304.971	86.88
305.201	78.88
305.431	79.88
305.661	82.88
305.891	82.88
306.121	91.88
306.352	76.88
306.582	86.88
306.812	78.88
307.042	87.88
307.272	84.88
307.502	96.88
307.731	99.88
307.961	84.88
308.191	95.88
308.421	84.88
308.651	90.88
308.881	89.88
309.111	103.88
309.341	76.88
309.571	87.88
309.8	83.88
310.03	89.88
310.26	77.88
310.49	92.88
310.72	70.88
310.949	72.88
311.179	80.88
311.409	80.88
311.639	92.88
311.868	80.88
312.098	73.88
312.328	85.88
312.557	79.88
312.787	72.88
313.017	90.88
313.246	75.88
313.476	84.88
313.706	88.88
313.935	72.88
314.165	91.88
314.394	82.88
314.624	88.88
314.853	76.88
315.083	84.88
315.312	75.88
315.542	80.88
315.771	90.88
316.001	82.88
316.23	82.88
316.46	82.88
316.689	83.88
316.919	76.88
317.148	86.88
317.377	94.88
317.607	79.88
317.836	71.88
318.065	78.88
318.295	72.88
318.524	84.88
318.753	80.88
318.983	86.88
319.212	87.88
319.441	76.88
319.67	69.88
319.9	80.88
320.129	108.88
320.358	88.88
320.587	83.88
320.816	89.88
321.046	73.88
321.275	84.88
321.504	91.88
321.733	73.88
321.962	80.88
322.191	86.88
322.42	92.88
322.649	86.88
322.878	90.88
323.108	87.88
323.337	96.88
323.566	92.88
323.795	90.88
324.024	95.88
324.253	90.88
324.482	88.88
324.71	85.88
324.939	96.88
325.168	96.88
325.397	83.88
325.626	75.88
325.855	87.88
326.084	85.88
326.313	77.88
326.542	91.88
326.77	84.88
326.999	79.88
327.228	78.88
327.457	92.88
327.686	80.88
327.914	87.88
328.143	83.88
328.372	78.88
328.6	78.88
328.829	82.88
329.058	92.88
329.287	88.88
329.515	80.88
329.744	83.88
329.972	82.88
330.201	84.88
330.43	88.88
330.658	86.88
330.887	88.88
331.115	88.88
331.344	87.88
331.572	76.88
331.801	82.88
332.03	82.88
332.258	77.88
332.486	81.88
332.715	83.88
332.943	79.88
333.172	87.88
333.4	83.88
333.629	96.88
333.857	90.88
334.085	87.88
334.314	69.88
334.542	82.88
334.771	92.88
334.999	78.88
335.227	80.88
335.455	81.88
335.684	86.88
335.912	82.88
336.14	76.88
336.369	82.88
336.597	87.88
336.825	91.88
337.053	85.88
337.281	94.88
337.51	72.88
337.738	80.88
337.966	75.88
338.194	76.88
338.422	79.88
338.65	91.88
338.878	88.88
339.106	84.88
339.334	82.88
339.562	75.88
339.79	81.88
340.018	87.88
340.246	75.88
340.474	93.88
340.702	94.88
340.93	87.88
341.158	76.88
341.386	75.88
341.614	96.88
341.842	97.88
342.07	86.88
342.298	86.88
342.526	82.88
342.754	70.88
342.981	82.88
343.209	84.88
343.437	100.88
343.665	90.88
343.893	81.88
344.12	80.88
344.348	72.88
344.576	94.88
344.804	82.88
345.031	80.88
345.259	71.88
345.487	79.88
345.714	74.88
345.942	84.88
346.17	87.88
346.397	76.88
346.625	79.88
346.853	80.88
347.08	81.88
347.308	86.88
347.535	95.88
347.763	77.88
347.99	82.88
348.218	86.88
348.445	75.88
348.673	87.88
348.9	92.88
349.128	84.88
349.355	81.88
349.583	83.88
349.81	84.88
350.037	77.88
350.265	83.88
350.492	89.88
350.72	68.88
350.947	85.88
351.174	78.88
351.402	91.88
351.629	83.88
351.856	87.88
352.083	84.88
352.311	90.88
352.538	82.88
352.765	87.88
352.992	100.88
353.22	78.88
353.447	72.88
353.674	80.88
353.901	75.88
354.128	78.88
354.355	68.88
354.583	67.88
354.81	90.88
355.037	106.88
355.264	70.88
355.491	75.88
355.718	74.88
355.945	90.88
356.172	91.88
356.399	88.88
356.626	89.88
356.853	73.88
357.08	77.88
357.307	87.88
357.534	66.88
357.761	86.88
357.988	86.88
358.215	100.88
358.441	87.88
358.668	85.88
358.895	83.88
359.122	88.88
359.349	91.88
359.576	89.88
359.802	73.88
360.029	77.88
360.256	74.88
360.483	88.88
360.709	80.88
360.936	79.88
361.163	77.88
361.39	82.88
361.616	71.88
361.843	76.88
362.07	88.88
362.296	80.88
362.523	87.88
362.749	79.88
362.976	80.88
363.203	77.88
363.429	73.88
363.656	92.88
363.882	74.88
364.109	92.88
364.335	89.88
364.562	79.88
364.788	71.88
365.015	95.88
365.241	84.88
365.468	78.88
365.694	65.88
365.92	80.88
366.147	81.88
366.373	90.88
366.599	89.88
366.826	92.88
367.052	80.88
367.278	94.88
367.505	88.88
367.731	93.88
367.957	80.88
368.184	95.88
368.41	79.88
368.636	76.88
368.862	80.88
369.089	86.88
369.315	84.88
369.541	76.88
369.767	82.88
369.993	72.88
370.219	95.88
370.445	80.88
370.672	78.88
370.898	73.88
371.124	88.88
371.35	76.88
371.576	86.88
371.802	76.88
372.028	75.88
372.254	89.88
372.48	76.88
372.706	72.88
372.932	88.88
373.158	80.88
373.384	94.88
373.61	85.88
373.835	64.88
374.061	76.88
374.287	92.88
374.513	83.88
374.739	83.88
374.965	79.88
375.191	84.88
375.416	72.88
375.642	91.88
375.868	82.88
376.094	96.88
376.319	81.88
376.545	81.88
376.771	85.88
376.997	88.88
377.222	95.88
377.448	82.88
377.674	96.88
377.899	90.88
378.125	72.88
378.35	75.88
378.576	83.88
378.802	63.88
379.027	77.88
379.253	77.88
379.478	72.88
379.704	84.88
379.929	67.88
380.155	72.88
380.38	88.88
380.606	78.88
380.831	80.88
381.057	86.88
381.282	90.88
381.507	75.88
381.733	74.88
381.958	79.88
382.184	83.88
382.409	67.88
382.634	90.88
382.86	64.88
383.085	79.88
383.31	83.88
383.535	79.88
383.761	84.88
383.986	76.88
384.211	80.88
384.436	69.88
384.662	73.88
384.887	75.88
385.112	103.88
385.337	78.88
385.562	58.88
385.787	75.88
386.013	79.88
386.238	87.88
386.463	75.88
386.688	87.88
386.913	81.88
387.138	82.88
387.363	75.88
387.588	92.88
387.813	90.88
388.038	73.88
388.263	85.88
388.488	84.88
388.713	86.88
388.938	95.88
389.163	75.88
389.387	78.88
389.612	92.88
389.837	78.88
390.062	88.88
390.287	95.88
390.512	80.88
390.736	96.88
390.961	81.88
391.186	91.88
391.411	79.88
391.636	89.88
391.86	72.88
392.085	92.88
392.31	95.88
392.534	80.88
392.759	83.88
392.984	79.88
393.208	66.88
393.433	71.88
393.658	71.88
393.882	94.88
394.107	84.88
394.331	84.88
394.556	83.88
394.78	86.88
395.005	72.88
395.229	88.88
395.454	74.88
395.678	79.88
395.903	79.88
396.127	77.88
396.352	71.88
396.576	86.88
396.801	80.88
397.025	72.88
397.249	97.88
397.474	94.88
397.698	89.88
397.922	76.88
398.147	82.88
398.371	87.88
398.595	79.88
398.82	82.88
399.044	88.88
399.268	85.88
399.492	81.88
399.717	88.88
399.941	74.88
400.165	84.88
400.389	91.88
400.613	88.88
400.837	79.88
401.062	71.88
401.286	89.88
401.51	88.88
401.734	75.88
401.958	79.88
402.182	77.88
402.406	83.88
402.63	75.88
402.854	77.88
403.078	84.88
403.302	69.88
403.526	74.88
403.75	82.88
403.974	83.88
404.198	71.88
404.422	73.88
404.645	75.88
404.869	74.88
405.093	80.88
405.317	90.88
405.541	83.88
405.765	66.88
405.988	83.88
406.212	65.88
406.436	92.88
406.66	88.88
406.883	80.88
407.107	88.88
407.331	81.88
407.555	64.88
407.778	59.88
408.002	72.88
408.226	84.88
408.449	75.88
408.673	86.88
408.896	84.88
409.12	83.88
409.344	82.88
409.567	82.88
409.791	65.88
410.014	76.88
410.238	82.88
410.461	88.88
410.685	86.88
410.908	78.88
411.132	89.88
411.355	86.88
411.578	71.88
411.802	89.88
412.025	81.88
412.249	77.88
412.472	78.88
412.695	76.88
412.919	88.88
413.142	87.88
413.365	66.88
413.589	78.88
413.812	78.88
414.035	89.88
414.258	94.88
414.482	74.88
414.705	86.88
414.928	87.88
415.151	74.88
415.374	74.88
415.597	69.88
415.821	77.88
416.044	77.88
416.267	87.88
416.49	82.88
416.713	66.88
416.936	77.88
417.159	78.88
417.382	83.88
417.605	86.88
417.828	72.88
418.051	75.88
418.274	93.88
418.497	76.88
418.72	69.88
418.943	69.88
419.166	80.88
419.389	68.88
419.611	76.88
419.834	59.88
420.057	72.88
420.28	75.88
420.503	82.88
420.726	62.88
420.948	87.88
421.171	82.88
421.394	69.88
421.617	82.88
421.839	74.88
422.062	76.88
422.285	71.88
422.507	75.88
422.73	84.88
422.953	82.88
423.175	80.88
423.398	68.88
423.621	86.88
423.843	84.88
424.066	82.88
424.288	89.88
424.511	73.88
424.733	88.88
424.956	88.88
425.178	86.88
425.401	86.88
425.623	82.88
425.846	62.88
426.068	93.88
426.291	74.88
426.513	76.88
426.735	87.88
426.958	87.88
427.18	68.88
427.402	81.88
427.625	75.88
427.847	74.88
428.069	85.88
428.292	82.88
428.514	76.88
428.736	81.88
428.958	76.88
429.181	75.88
429.403	71.88
429.625	86.88
429.847	81.88
430.069	81.88
430.292	71.88
430.514	82.88
430.736	75.88
430.958	86.88
431.18	86.88
431.402	71.88
431.624	88.88
431.846	89.88
432.068	83.88
432.29	74.88
432.512	79.88
432.734	80.88
432.956	90.88
433.178	81.88
433.4	95.88
433.622	72.88
433.844	75.88
434.066	81.88
434.287	82.88
434.509	92.88
434.731	82.88
434.953	67.88
435.175	73.88
435.397	85.88
435.618	89.88
435.84	73.88
436.062	73.88
436.284	83.88
436.505	76.88
436.727	86.88
436.949	78.88
437.17	84.88
437.392	92.88
437.614	70.88
437.835	86.88
438.057	71.88
438.278	81.88
438.5	86.88
438.721	81.88
438.943	95.88
439.165	90.88
439.386	72.88
439.608	90.88
439.829	86.88
440.05	80.88
440.272	89.88
440.493	79.88
440.715	74.88
440.936	67.88
441.158	74.88
441.379	74.88
441.6	91.88
441.822	79.88
442.043	71.88
442.264	75.88
442.486	89.88
442.707	78.88
442.928	74.88
443.149	76.88
443.371	82.88
443.592	89.88
443.813	84.88
444.034	81.88
444.255	86.88
444.476	83.88
444.698	67.88
444.919	103.88
445.14	131.88
445.361	102.88
445.582	83.88
445.803	70.88
446.024	72.88
446.245	93.88
446.466	72.88
446.687	82.88
446.908	88.88
447.129	80.88
447.35	74.88
447.571	84.88
447.792	79.88
448.013	86.88
448.234	74.88
448.455	93.88
448.675	80.88
448.896	75.88
449.117	99.88
449.338	82.88
449.559	77.88
449.779	78.88
450	76.88
450.221	92.88
450.442	75.88
450.662	63.88
450.883	72.88
451.104	78.88
451.324	80.88
451.545	65.88
451.766	78.88
451.986	65.88
452.207	75.88
452.428	81.88
452.648	74.88
452.869	108.88
453.089	105.88
453.31	78.88
453.53	86.88
453.751	87.88
453.971	79.88
454.192	78.88
454.412	82.88
454.633	76.88
454.853	77.88
455.073	87.88
455.294	74.88
455.514	88.88
455.734	79.88
455.955	71.88
456.175	59.88
456.395	91.88
456.616	62.88
456.836	70.88
457.056	86.88
457.276	79.88
457.497	64.88
457.717	76.88
457.937	84.88
458.157	86.88
458.377	74.88
458.598	68.88
458.818	80.88
459.038	85.88
459.258	74.88
459.478	77.88
459.698	68.88
459.918	80.88
460.138	89.88
460.358	79.88
460.578	72.88
460.798	89.88
461.018	91.88
461.238	69.88
461.458	82.88
461.678	88.88
461.898	71.88
462.118	82.88
462.338	83.88
462.558	78.88
462.777	71.88
462.997	81.88
463.217	83.88
463.437	76.88
463.657	77.88
463.876	76.88
464.096	87.88
464.316	79.88
464.536	76.88
464.755	70.88
464.975	88.88
465.195	68.88
465.414	81.88
465.634	81.88
465.854	78.88
466.073	81.88
466.293	80.88
466.512	87.88
466.732	76.88
466.951	85.88
467.171	61.88
467.391	78.88
467.61	82.88
467.829	77.88
468.049	98.88
468.268	84.88
468.488	82.88
468.707	78.88
468.927	74.88
469.146	74.88
469.365	80.88
469.585	74.88
469.804	77.88
470.023	74.88
470.243	82.88
470.462	73.88
470.681	100.88
470.901	90.88
471.12	93.88
471.339	97.88
471.558	92.88
471.777	64.88
471.997	82.88
472.216	83.88
472.435	88.88
472.654	88.88
472.873	71.88
473.092	78.88
473.311	71.88
473.53	78.88
473.749	71.88
473.968	71.88
474.187	82.88
474.406	67.88
474.625	63.88
474.844	77.88
475.063	73.88
475.282	74.88
475.501	63.88
475.72	80.88
475.939	80.88
476.158	87.88
476.377	72.88
476.596	82.88
476.814	88.88
477.033	84.88
477.252	75.88
477.471	86.88
477.69	80.88
477.908	94.88
478.127	84.88
478.346	72.88
478.564	79.88
478.783	78.88
479.002	66.88
479.22	76.88
479.439	80.88
479.658	77.88
479.876	81.88
480.095	80.88
480.313	84.88
480.532	70.88
480.751	92.88
480.969	72.88
481.188	78.88
481.406	83.88
481.624	86.88
481.843	74.88
482.061	75.88
482.28	76.88
482.498	80.88
482.717	88.88
482.935	91.88
483.153	82.88
483.372	85.88
483.59	86.88
483.808	81.88
484.027	95.88
484.245	83.88
484.463	81.88
484.681	88.88
484.9	83.88
485.118	82.88
485.336	88.88
485.554	78.88
485.772	79.88
485.99	91.88
486.209	89.88
486.427	89.88
486.645	81.88
486.863	70.88
487.081	77.88
487.299	79.88
487.517	90.88
487.735	85.88
487.953	88.88
488.171	80.88
488.389	88.88
488.607	78.88
488.825	72.88
489.043	86.88
489.261	84.88
489.479	69.88
489.696	91.88
489.914	86.88
490.132	78.88
490.35	85.88
490.568	70.88
490.786	67.88
491.003	98.88
491.221	72.88
491.439	80.88
491.657	82.88
491.874	81.88
492.092	74.88
492.31	84.88
492.527	85.88
492.745	83.88
492.963	80.88
493.18	92.88
493.398	96.88
493.615	68.88
493.833	73.88
494.05	74.88
494.268	86.88
494.485	80.88
494.703	74.88
494.92	72.88
495.138	90.88
495.355	80.88
495.573	76.88
495.79	92.88
496.008	71.88
496.225	75.88
496.442	78.88
496.66	85.88
496.877	95.88
497.094	88.88
497.312	88.88
497.529	97.88
497.746	79.88
497.963	82.88
498.181	86.88
498.398	79.88
498.615	73.88
498.832	75.88
499.049	76.88
499.267	77.88
499.484	80.88
499.701	87.88
499.918	87.88
500.135	82.88
500.352	93.88
500.569	76.88
500.786	81.88
501.003	72.88
501.22	79.88
501.437	89.88
501.654	90.88
501.871	83.88
502.088	86.88
502.305	84.88
502.522	87.88
502.739	85.88
502.956	82.88
503.172	83.88
503.389	72.88
503.606	69.88
503.823	74.88
504.04	72.88
504.256	90.88
504.473	81.88
504.69	81.88
504.907	78.88
505.123	89.88
505.34	77.88
505.557	87.88
505.773	92.88
505.99	82.88
506.207	89.88
506.423	64.88
506.64	89.88
506.856	79.88
507.073	80.88
507.289	92.88
507.506	70.88
507.722	76.88
507.939	87.88
508.155	86.88
508.372	99.88
508.588	86.88
508.805	83.88
509.021	80.88
509.238	85.88
509.454	84.88
509.67	76.88
509.887	84.88
510.103	82.88
510.319	83.88
510.536	85.88
510.752	77.88
510.968	82.88
511.184	92.88
511.401	82.88
511.617	76.88
511.833	74.88
512.049	92.88
512.265	92.88
512.481	76.88
512.698	83.88
512.914	78.88
513.13	77.88
513.346	83.88
513.562	95.88
513.778	81.88
513.994	77.88
514.21	77.88
514.426	91.88
514.642	75.88
514.858	71.88
515.074	81.88
515.29	84.88
515.506	66.88
515.721	86.88
515.937	79.88
516.153	76.88
516.369	80.88
516.585	72.88
516.801	96.88
517.016	88.88
517.232	73.88
517.448	81.88
517.664	82.88
517.879	69.88
518.095	86.88
518.311	88.88
518.527	89.88
518.742	79.88
518.958	79.88
519.173	82.88
519.389	79.88
519.605	83.88
519.82	92.88
520.036	88.88
