Data from BG_HRD10591_098.txt Node
Date: Fri May 16 15:33:55 EDT 2025
User: Yrep
Spectrometer: HR+D1059
Trigger mode: 1
Integration Time (sec): 1.000000E-1
Scans to average: 1
Electric dark correction enabled: true
Nonlinearity correction enabled: false
Boxcar width: 0
XAxis mode: Wavelengths
Number of Pixels in Spectrum: 2048
>>>>>Begin Spectral Data<<<<<
223.165	-27.19
223.4	-27.19
223.635	-27.19
223.869	-8.19
224.104	-18.19
224.338	-14.19
224.573	-21.19
224.808	-6.19
225.042	-20.19
225.277	-16.19
225.511	-5.19
225.746	2.81
225.98	13.81
226.215	13.81
226.449	21.81
226.683	21.81
226.918	26.81
227.152	35.81
227.387	33.81
227.621	42.81
227.856	37.81
228.09	63.81
228.324	50.81
228.559	64.81
228.793	62.81
229.027	71.81
229.262	56.81
229.496	63.81
229.73	66.81
229.964	67.81
230.199	68.81
230.433	82.81
230.667	92.81
230.901	80.81
231.136	76.81
231.37	65.81
231.604	84.81
231.838	87.81
232.072	76.81
232.306	90.81
232.541	71.81
232.775	80.81
233.009	83.81
233.243	76.81
233.477	72.81
233.711	79.81
233.945	74.81
234.179	88.81
234.413	97.81
234.647	81.81
234.881	93.81
235.115	86.81
235.349	71.81
235.583	67.81
235.817	88.81
236.051	94.81
236.285	64.81
236.519	75.81
236.753	82.81
236.987	73.81
237.221	78.81
237.455	84.81
237.689	76.81
237.922	81.81
238.156	68.81
238.39	68.81
238.624	73.81
238.858	85.81
239.091	78.81
239.325	60.81
239.559	62.81
239.793	65.81
240.027	74.81
240.26	87.81
240.494	80.81
240.728	72.81
240.961	80.81
241.195	85.81
241.429	70.81
241.662	69.81
241.896	54.81
242.13	76.81
242.363	84.81
242.597	78.81
242.83	72.81
243.064	78.81
243.298	75.81
243.531	82.81
243.765	74.81
243.998	86.81
244.232	77.81
244.465	78.81
244.699	79.81
244.932	78.81
245.166	76.81
245.399	80.81
245.633	79.81
245.866	80.81
246.099	77.81
246.333	79.81
246.566	74.81
246.8	68.81
247.033	75.81
247.266	71.81
247.5	73.81
247.733	74.81
247.966	62.81
248.2	72.81
248.433	72.81
248.666	69.81
248.899	74.81
249.133	84.81
249.366	72.81
249.599	84.81
249.832	66.81
250.066	86.81
250.299	64.81
250.532	54.81
250.765	79.81
250.998	76.81
251.231	74.81
251.465	81.81
251.698	82.81
251.931	73.81
252.164	61.81
252.397	81.81
252.63	81.81
252.863	81.81
253.096	82.81
253.329	77.81
253.562	81.81
253.795	78.81
254.028	71.81
254.261	76.81
254.494	79.81
254.727	71.81
254.96	80.81
255.193	65.81
255.426	82.81
255.659	78.81
255.892	90.81
256.124	74.81
256.357	80.81
256.59	76.81
256.823	84.81
257.056	72.81
257.289	74.81
257.521	73.81
257.754	77.81
257.987	79.81
258.22	79.81
258.452	73.81
258.685	76.81
258.918	70.81
259.151	86.81
259.383	75.81
259.616	80.81
259.849	69.81
260.081	73.81
260.314	89.81
260.547	80.81
260.779	66.81
261.012	75.81
261.244	100.81
261.477	85.81
261.71	79.81
261.942	87.81
262.175	86.81
262.407	77.81
262.64	76.81
262.872	77.81
263.105	74.81
263.337	92.81
263.57	88.81
263.802	84.81
264.035	78.81
264.267	88.81
264.499	82.81
264.732	81.81
264.964	70.81
265.197	78.81
265.429	85.81
265.661	89.81
265.894	93.81
266.126	81.81
266.358	78.81
266.591	81.81
266.823	81.81
267.055	79.81
267.287	73.81
267.52	77.81
267.752	95.81
267.984	89.81
268.216	97.81
268.448	81.81
268.681	82.81
268.913	79.81
269.145	76.81
269.377	87.81
269.609	74.81
269.841	86.81
270.073	86.81
270.306	83.81
270.538	59.81
270.77	75.81
271.002	91.81
271.234	86.81
271.466	88.81
271.698	91.81
271.93	81.81
272.162	93.81
272.394	88.81
272.626	87.81
272.858	79.81
273.09	77.81
273.322	77.81
273.553	77.81
273.785	72.81
274.017	82.81
274.249	74.81
274.481	84.81
274.713	94.81
274.945	91.81
275.176	89.81
275.408	65.81
275.64	73.81
275.872	82.81
276.104	90.81
276.335	96.81
276.567	106.81
276.799	81.81
277.031	84.81
277.262	80.81
277.494	81.81
277.726	91.81
277.957	84.81
278.189	84.81
278.421	76.81
278.652	86.81
278.884	92.81
279.115	76.81
279.347	89.81
279.579	94.81
279.81	98.81
280.042	80.81
280.273	81.81
280.505	84.81
280.736	74.81
280.968	85.81
281.199	82.81
281.431	89.81
281.662	84.81
281.894	95.81
282.125	86.81
282.356	86.81
282.588	73.81
282.819	73.81
283.051	90.81
283.282	81.81
283.513	85.81
283.745	80.81
283.976	88.81
284.207	90.81
284.439	73.81
284.67	89.81
284.901	91.81
285.132	85.81
285.364	89.81
285.595	77.81
285.826	89.81
286.057	79.81
286.288	95.81
286.52	85.81
286.751	91.81
286.982	81.81
287.213	84.81
287.444	84.81
287.675	81.81
287.906	81.81
288.138	76.81
288.369	84.81
288.6	78.81
288.831	86.81
289.062	87.81
289.293	82.81
289.524	81.81
289.755	90.81
289.986	64.81
290.217	75.81
290.448	82.81
290.679	95.81
290.91	80.81
291.141	87.81
291.371	82.81
291.602	79.81
291.833	78.81
292.064	89.81
292.295	82.81
292.526	82.81
292.757	107.81
292.987	78.81
293.218	88.81
293.449	93.81
293.68	81.81
293.91	78.81
294.141	78.81
294.372	97.81
294.603	78.81
294.833	78.81
295.064	77.81
295.295	82.81
295.525	86.81
295.756	82.81
295.987	88.81
296.217	92.81
296.448	81.81
296.679	83.81
296.909	86.81
297.14	89.81
297.37	89.81
297.601	84.81
297.831	72.81
298.062	65.81
298.292	85.81
298.523	100.81
298.753	81.81
298.984	81.81
299.214	96.81
299.445	84.81
299.675	78.81
299.905	89.81
300.136	89.81
300.366	87.81
300.597	77.81
300.827	102.81
301.057	91.81
301.288	96.81
301.518	87.81
301.748	86.81
301.979	90.81
302.209	82.81
302.439	87.81
302.669	83.81
302.9	86.81
303.13	84.81
303.36	90.81
303.59	100.81
303.82	97.81
304.051	81.81
304.281	79.81
304.511	77.81
304.741	85.81
304.971	78.81
305.201	84.81
305.431	96.81
305.661	105.81
305.891	84.81
306.121	93.81
306.352	85.81
306.582	80.81
306.812	94.81
307.042	87.81
307.272	82.81
307.502	95.81
307.731	97.81
307.961	72.81
308.191	86.81
308.421	89.81
308.651	105.81
308.881	67.81
309.111	80.81
309.341	89.81
309.571	85.81
309.8	81.81
310.03	76.81
310.26	79.81
310.49	74.81
310.72	89.81
310.949	91.81
311.179	85.81
311.409	102.81
311.639	76.81
311.868	92.81
312.098	74.81
312.328	81.81
312.557	76.81
312.787	89.81
313.017	81.81
313.246	92.81
313.476	80.81
313.706	92.81
313.935	76.81
314.165	86.81
314.394	75.81
314.624	70.81
314.853	95.81
315.083	90.81
315.312	100.81
315.542	91.81
315.771	89.81
316.001	86.81
316.23	95.81
316.46	89.81
316.689	76.81
316.919	84.81
317.148	89.81
317.377	91.81
317.607	84.81
317.836	79.81
318.065	87.81
318.295	76.81
318.524	93.81
318.753	97.81
318.983	96.81
319.212	97.81
319.441	80.81
319.67	81.81
319.9	73.81
320.129	89.81
320.358	93.81
320.587	83.81
320.816	83.81
321.046	86.81
321.275	94.81
321.504	75.81
321.733	84.81
321.962	89.81
322.191	83.81
322.42	80.81
322.649	75.81
322.878	97.81
323.108	100.81
323.337	88.81
323.566	94.81
323.795	100.81
324.024	75.81
324.253	85.81
324.482	83.81
324.71	80.81
324.939	93.81
325.168	88.81
325.397	90.81
325.626	83.81
325.855	92.81
326.084	76.81
326.313	89.81
326.542	86.81
326.77	87.81
326.999	92.81
327.228	87.81
327.457	73.81
327.686	87.81
327.914	83.81
328.143	85.81
328.372	85.81
328.6	91.81
328.829	91.81
329.058	91.81
329.287	87.81
329.515	106.81
329.744	90.81
329.972	88.81
330.201	77.81
330.43	79.81
330.658	86.81
330.887	73.81
331.115	63.81
331.344	82.81
331.572	80.81
331.801	85.81
332.03	98.81
332.258	97.81
332.486	77.81
332.715	70.81
332.943	74.81
333.172	85.81
333.4	82.81
333.629	76.81
333.857	79.81
334.085	86.81
334.314	72.81
334.542	92.81
334.771	86.81
334.999	86.81
335.227	88.81
335.455	74.81
335.684	82.81
335.912	80.81
336.14	90.81
336.369	84.81
336.597	85.81
336.825	85.81
337.053	62.81
337.281	93.81
337.51	83.81
337.738	88.81
337.966	82.81
338.194	90.81
338.422	90.81
338.65	101.81
338.878	103.81
339.106	78.81
339.334	80.81
339.562	81.81
339.79	87.81
340.018	88.81
340.246	94.81
340.474	84.81
340.702	93.81
340.93	90.81
341.158	77.81
341.386	82.81
341.614	96.81
341.842	89.81
342.07	104.81
342.298	91.81
342.526	76.81
342.754	72.81
342.981	84.81
343.209	79.81
343.437	90.81
343.665	81.81
343.893	82.81
344.12	96.81
344.348	82.81
344.576	89.81
344.804	74.81
345.031	94.81
345.259	91.81
345.487	97.81
345.714	84.81
345.942	84.81
346.17	71.81
346.397	74.81
346.625	73.81
346.853	79.81
347.08	89.81
347.308	89.81
347.535	95.81
347.763	76.81
347.99	74.81
348.218	85.81
348.445	77.81
348.673	84.81
348.9	85.81
349.128	90.81
349.355	77.81
349.583	99.81
349.81	93.81
350.037	78.81
350.265	96.81
350.492	79.81
350.72	78.81
350.947	81.81
351.174	97.81
351.402	79.81
351.629	82.81
351.856	94.81
352.083	94.81
352.311	81.81
352.538	76.81
352.765	77.81
352.992	84.81
353.22	85.81
353.447	90.81
353.674	99.81
353.901	81.81
354.128	89.81
354.355	73.81
354.583	76.81
354.81	90.81
355.037	87.81
355.264	72.81
355.491	81.81
355.718	83.81
355.945	91.81
356.172	91.81
356.399	75.81
356.626	85.81
356.853	81.81
357.08	84.81
357.307	92.81
357.534	87.81
357.761	80.81
357.988	77.81
358.215	88.81
358.441	67.81
358.668	86.81
358.895	82.81
359.122	91.81
359.349	96.81
359.576	102.81
359.802	98.81
360.029	94.81
360.256	79.81
360.483	80.81
360.709	92.81
360.936	79.81
361.163	78.81
361.39	84.81
361.616	100.81
361.843	88.81
362.07	104.81
362.296	79.81
362.523	66.81
362.749	73.81
362.976	85.81
363.203	87.81
363.429	77.81
363.656	100.81
363.882	98.81
364.109	102.81
364.335	94.81
364.562	86.81
364.788	91.81
365.015	95.81
365.241	86.81
365.468	87.81
365.694	102.81
365.92	87.81
366.147	83.81
366.373	72.81
366.599	69.81
366.826	81.81
367.052	84.81
367.278	94.81
367.505	81.81
367.731	98.81
367.957	95.81
368.184	95.81
368.41	80.81
368.636	95.81
368.862	80.81
369.089	84.81
369.315	79.81
369.541	81.81
369.767	76.81
369.993	67.81
370.219	84.81
370.445	87.81
370.672	80.81
370.898	93.81
371.124	80.81
371.35	98.81
371.576	85.81
371.802	81.81
372.028	92.81
372.254	89.81
372.48	76.81
372.706	94.81
372.932	80.81
373.158	89.81
373.384	95.81
373.61	84.81
373.835	78.81
374.061	81.81
374.287	84.81
374.513	87.81
374.739	70.81
374.965	78.81
375.191	88.81
375.416	103.81
375.642	88.81
375.868	79.81
376.094	82.81
376.319	92.81
376.545	86.81
376.771	91.81
376.997	86.81
377.222	87.81
377.448	69.81
377.674	86.81
377.899	89.81
378.125	95.81
378.35	83.81
378.576	88.81
378.802	64.81
379.027	90.81
379.253	90.81
379.478	90.81
379.704	84.81
379.929	92.81
380.155	89.81
380.38	85.81
380.606	77.81
380.831	95.81
381.057	91.81
381.282	90.81
381.507	75.81
381.733	80.81
381.958	88.81
382.184	89.81
382.409	74.81
382.634	97.81
382.86	87.81
383.085	86.81
383.31	76.81
383.535	84.81
383.761	96.81
383.986	89.81
384.211	88.81
384.436	76.81
384.662	92.81
384.887	87.81
385.112	93.81
385.337	88.81
385.562	76.81
385.787	87.81
386.013	83.81
386.238	88.81
386.463	96.81
386.688	88.81
386.913	81.81
387.138	76.81
387.363	97.81
387.588	89.81
387.813	101.81
388.038	86.81
388.263	88.81
388.488	83.81
388.713	92.81
388.938	82.81
389.163	81.81
389.387	77.81
389.612	81.81
389.837	80.81
390.062	92.81
390.287	88.81
390.512	94.81
390.736	78.81
390.961	81.81
391.186	82.81
391.411	87.81
391.636	91.81
391.86	78.81
392.085	76.81
392.31	91.81
392.534	81.81
392.759	74.81
392.984	95.81
393.208	81.81
393.433	77.81
393.658	92.81
393.882	92.81
394.107	98.81
394.331	101.81
394.556	81.81
394.78	90.81
395.005	83.81
395.229	69.81
395.454	96.81
395.678	74.81
395.903	88.81
396.127	89.81
396.352	95.81
396.576	81.81
396.801	91.81
397.025	79.81
397.249	85.81
397.474	82.81
397.698	77.81
397.922	98.81
398.147	94.81
398.371	78.81
398.595	98.81
398.82	97.81
399.044	85.81
399.268	86.81
399.492	88.81
399.717	82.81
399.941	90.81
400.165	80.81
400.389	101.81
400.613	86.81
400.837	90.81
401.062	91.81
401.286	70.81
401.51	81.81
401.734	73.81
401.958	86.81
402.182	85.81
402.406	82.81
402.63	91.81
402.854	84.81
403.078	81.81
403.302	87.81
403.526	82.81
403.75	91.81
403.974	89.81
404.198	97.81
404.422	83.81
404.645	81.81
404.869	94.81
405.093	86.81
405.317	94.81
405.541	90.81
405.765	75.81
405.988	88.81
406.212	87.81
406.436	86.81
406.66	88.81
406.883	88.81
407.107	76.81
407.331	96.81
407.555	69.81
407.778	98.81
408.002	89.81
408.226	85.81
408.449	93.81
408.673	93.81
408.896	90.81
409.12	88.81
409.344	92.81
409.567	93.81
409.791	92.81
410.014	87.81
410.238	91.81
410.461	83.81
410.685	96.81
410.908	85.81
411.132	81.81
411.355	76.81
411.578	93.81
411.802	85.81
412.025	81.81
412.249	88.81
412.472	100.81
412.695	104.81
412.919	77.81
413.142	84.81
413.365	79.81
413.589	89.81
413.812	69.81
414.035	85.81
414.258	92.81
414.482	76.81
414.705	89.81
414.928	94.81
415.151	66.81
415.374	88.81
415.597	77.81
415.821	71.81
416.044	84.81
416.267	94.81
416.49	92.81
416.713	75.81
416.936	80.81
417.159	71.81
417.382	97.81
417.605	85.81
417.828	79.81
418.051	76.81
418.274	97.81
418.497	77.81
418.72	66.81
418.943	93.81
419.166	77.81
419.389	88.81
419.611	76.81
419.834	89.81
420.057	85.81
420.28	80.81
420.503	76.81
420.726	88.81
420.948	85.81
421.171	90.81
421.394	99.81
421.617	95.81
421.839	78.81
422.062	76.81
422.285	84.81
422.507	90.81
422.73	80.81
422.953	82.81
423.175	82.81
423.398	101.81
423.621	72.81
423.843	87.81
424.066	105.81
424.288	82.81
424.511	84.81
424.733	88.81
424.956	97.81
425.178	74.81
425.401	81.81
425.623	96.81
425.846	101.81
426.068	91.81
426.291	90.81
426.513	110.81
426.735	94.81
426.958	78.81
427.18	88.81
427.402	84.81
427.625	77.81
427.847	82.81
428.069	72.81
428.292	85.81
428.514	89.81
428.736	90.81
428.958	72.81
429.181	94.81
429.403	82.81
429.625	88.81
429.847	78.81
430.069	89.81
430.292	88.81
430.514	70.81
430.736	84.81
430.958	90.81
431.18	76.81
431.402	72.81
431.624	80.81
431.846	65.81
432.068	78.81
432.29	88.81
432.512	82.81
432.734	81.81
432.956	91.81
433.178	90.81
433.4	78.81
433.622	81.81
433.844	88.81
434.066	90.81
434.287	76.81
434.509	102.81
434.731	88.81
434.953	86.81
435.175	98.81
435.397	76.81
435.618	76.81
435.84	78.81
436.062	65.81
436.284	87.81
436.505	84.81
436.727	95.81
436.949	81.81
437.17	76.81
437.392	89.81
437.614	70.81
437.835	86.81
438.057	85.81
438.278	86.81
438.5	99.81
438.721	90.81
438.943	87.81
439.165	76.81
439.386	70.81
439.608	87.81
439.829	67.81
440.05	82.81
440.272	85.81
440.493	74.81
440.715	86.81
440.936	92.81
441.158	88.81
441.379	90.81
441.6	97.81
441.822	81.81
442.043	81.81
442.264	95.81
442.486	78.81
442.707	73.81
442.928	84.81
443.149	93.81
443.371	87.81
443.592	81.81
443.813	86.81
444.034	90.81
444.255	82.81
444.476	82.81
444.698	88.81
444.919	86.81
445.14	156.81
445.361	111.81
445.582	82.81
445.803	84.81
446.024	81.81
446.245	90.81
446.466	91.81
446.687	82.81
446.908	72.81
447.129	84.81
447.35	88.81
447.571	93.81
447.792	96.81
448.013	65.81
448.234	90.81
448.455	76.81
448.675	79.81
448.896	81.81
449.117	81.81
449.338	85.81
449.559	81.81
449.779	81.81
450	89.81
450.221	75.81
450.442	90.81
450.662	91.81
450.883	78.81
451.104	94.81
451.324	72.81
451.545	85.81
451.766	93.81
451.986	80.81
452.207	77.81
452.428	72.81
452.648	87.81
452.869	92.81
453.089	96.81
453.31	83.81
453.53	66.81
453.751	100.81
453.971	80.81
454.192	87.81
454.412	85.81
454.633	78.81
454.853	85.81
455.073	84.81
455.294	86.81
455.514	85.81
455.734	80.81
455.955	86.81
456.175	84.81
456.395	75.81
456.616	82.81
456.836	86.81
457.056	98.81
457.276	88.81
457.497	78.81
457.717	100.81
457.937	81.81
458.157	81.81
458.377	80.81
458.598	81.81
458.818	84.81
459.038	77.81
459.258	81.81
459.478	91.81
459.698	75.81
459.918	94.81
460.138	79.81
460.358	86.81
460.578	90.81
460.798	92.81
461.018	91.81
461.238	84.81
461.458	86.81
461.678	71.81
461.898	93.81
462.118	89.81
462.338	92.81
462.558	95.81
462.777	90.81
462.997	80.81
463.217	92.81
463.437	76.81
463.657	80.81
463.876	86.81
464.096	76.81
464.316	82.81
464.536	100.81
464.755	80.81
464.975	72.81
465.195	71.81
465.414	89.81
465.634	81.81
465.854	76.81
466.073	94.81
466.293	85.81
466.512	85.81
466.732	79.81
466.951	69.81
467.171	102.81
467.391	80.81
467.61	77.81
467.829	88.81
468.049	95.81
468.268	91.81
468.488	88.81
468.707	90.81
468.927	80.81
469.146	75.81
469.365	96.81
469.585	87.81
469.804	96.81
470.023	87.81
470.243	90.81
470.462	86.81
470.681	91.81
470.901	72.81
471.12	102.81
471.339	96.81
471.558	89.81
471.777	89.81
471.997	95.81
472.216	93.81
472.435	71.81
472.654	79.81
472.873	73.81
473.092	73.81
473.311	75.81
473.53	97.81
473.749	81.81
473.968	90.81
474.187	91.81
474.406	84.81
474.625	80.81
474.844	84.81
475.063	90.81
475.282	91.81
475.501	84.81
475.72	88.81
475.939	81.81
476.158	81.81
476.377	86.81
476.596	87.81
476.814	98.81
477.033	90.81
477.252	79.81
477.471	79.81
477.69	93.81
477.908	86.81
478.127	83.81
478.346	79.81
478.564	86.81
478.783	82.81
479.002	90.81
479.22	85.81
479.439	76.81
479.658	84.81
479.876	88.81
480.095	90.81
480.313	79.81
480.532	85.81
480.751	91.81
480.969	82.81
481.188	76.81
481.406	82.81
481.624	90.81
481.843	89.81
482.061	84.81
482.28	87.81
482.498	90.81
482.717	74.81
482.935	97.81
483.153	79.81
483.372	92.81
483.59	98.81
483.808	86.81
484.027	82.81
484.245	93.81
484.463	73.81
484.681	93.81
484.9	96.81
485.118	101.81
485.336	92.81
485.554	79.81
485.772	85.81
485.99	90.81
486.209	95.81
486.427	95.81
486.645	72.81
486.863	104.81
487.081	105.81
487.299	78.81
487.517	82.81
487.735	89.81
487.953	74.81
488.171	89.81
488.389	85.81
488.607	73.81
488.825	67.81
489.043	91.81
489.261	90.81
489.479	77.81
489.696	67.81
489.914	88.81
490.132	79.81
490.35	102.81
490.568	76.81
490.786	72.81
491.003	100.81
491.221	84.81
491.439	82.81
491.657	93.81
491.874	100.81
492.092	84.81
492.31	79.81
492.527	88.81
492.745	92.81
492.963	84.81
493.18	80.81
493.398	96.81
493.615	86.81
493.833	84.81
494.05	79.81
494.268	89.81
494.485	80.81
494.703	73.81
494.92	100.81
495.138	91.81
495.355	91.81
495.573	88.81
495.79	78.81
496.008	91.81
496.225	76.81
496.442	84.81
496.66	91.81
496.877	101.81
497.094	91.81
497.312	76.81
497.529	88.81
497.746	93.81
497.963	87.81
498.181	89.81
498.398	90.81
498.615	94.81
498.832	85.81
499.049	108.81
499.267	104.81
499.484	90.81
499.701	110.81
499.918	97.81
500.135	92.81
500.352	110.81
500.569	106.81
500.786	102.81
501.003	99.81
501.22	100.81
501.437	88.81
501.654	100.81
501.871	87.81
502.088	76.81
502.305	94.81
502.522	88.81
502.739	80.81
502.956	86.81
503.172	74.81
503.389	90.81
503.606	97.81
503.823	87.81
504.04	81.81
504.256	84.81
504.473	90.81
504.69	84.81
504.907	94.81
505.123	88.81
505.34	84.81
505.557	92.81
505.773	89.81
505.99	95.81
506.207	82.81
506.423	80.81
506.64	88.81
506.856	86.81
507.073	90.81
507.289	97.81
507.506	78.81
507.722	80.81
507.939	70.81
508.155	86.81
508.372	86.81
508.588	85.81
508.805	90.81
509.021	93.81
509.238	92.81
509.454	80.81
509.67	75.81
509.887	85.81
510.103	78.81
510.319	80.81
510.536	80.81
510.752	83.81
510.968	73.81
511.184	88.81
511.401	75.81
511.617	95.81
511.833	103.81
512.049	90.81
512.265	88.81
512.481	92.81
512.698	80.81
512.914	84.81
513.13	89.81
513.346	93.81
513.562	82.81
513.778	98.81
513.994	71.81
514.21	86.81
514.426	90.81
514.642	76.81
514.858	82.81
515.074	93.81
515.29	87.81
515.506	93.81
515.721	89.81
515.937	87.81
516.153	89.81
516.369	86.81
516.585	97.81
516.801	86.81
517.016	90.81
517.232	90.81
517.448	90.81
517.664	85.81
517.879	90.81
518.095	92.81
518.311	92.81
518.527	79.81
518.742	81.81
518.958	90.81
519.173	83.81
519.389	82.81
519.605	85.81
