Data from BG_HRD10591_026.txt Node
Date: Fri May 16 15:33:20 EDT 2025
User: Yrep
Spectrometer: HR+D1059
Trigger mode: 1
Integration Time (sec): 1.000000E-1
Scans to average: 1
Electric dark correction enabled: true
Nonlinearity correction enabled: false
Boxcar width: 0
XAxis mode: Wavelengths
Number of Pixels in Spectrum: 2048
>>>>>Begin Spectral Data<<<<<
223.165	-22.69
223.4	-22.69
223.635	-22.69
223.869	-17.69
224.104	-21.69
224.338	-24.69
224.573	-18.69
224.808	-16.69
225.042	9.31
225.277	-1.69
225.511	-11.69
225.746	-3.69
225.98	16.31
226.215	15.31
226.449	19.31
226.683	16.31
226.918	26.31
227.152	36.31
227.387	38.31
227.621	53.31
227.856	40.31
228.09	45.31
228.324	54.31
228.559	65.31
228.793	67.31
229.027	53.31
229.262	71.31
229.496	74.31
229.73	66.31
229.964	67.31
230.199	86.31
230.433	78.31
230.667	69.31
230.901	72.31
231.136	83.31
231.37	75.31
231.604	83.31
231.838	80.31
232.072	75.31
232.306	75.31
232.541	80.31
232.775	82.31
233.009	81.31
233.243	82.31
233.477	86.31
233.711	68.31
233.945	71.31
234.179	98.31
234.413	74.31
234.647	81.31
234.881	79.31
235.115	74.31
235.349	81.31
235.583	84.31
235.817	83.31
236.051	86.31
236.285	74.31
236.519	71.31
236.753	93.31
236.987	83.31
237.221	83.31
237.455	67.31
237.689	69.31
237.922	88.31
238.156	60.31
238.39	59.31
238.624	75.31
238.858	77.31
239.091	68.31
239.325	82.31
239.559	76.31
239.793	62.31
240.027	86.31
240.26	81.31
240.494	65.31
240.728	74.31
240.961	67.31
241.195	69.31
241.429	71.31
241.662	72.31
241.896	71.31
242.13	77.31
242.363	72.31
242.597	84.31
242.83	68.31
243.064	84.31
243.298	74.31
243.531	72.31
243.765	72.31
243.998	83.31
244.232	81.31
244.465	69.31
244.699	62.31
244.932	73.31
245.166	79.31
245.399	65.31
245.633	76.31
245.866	70.31
246.099	74.31
246.333	83.31
246.566	71.31
246.8	78.31
247.033	78.31
247.266	79.31
247.5	72.31
247.733	58.31
247.966	92.31
248.2	86.31
248.433	80.31
248.666	62.31
248.899	62.31
249.133	68.31
249.366	83.31
249.599	81.31
249.832	80.31
250.066	87.31
250.299	76.31
250.532	70.31
250.765	78.31
250.998	65.31
251.231	79.31
251.465	81.31
251.698	78.31
251.931	67.31
252.164	65.31
252.397	76.31
252.63	74.31
252.863	82.31
253.096	74.31
253.329	79.31
253.562	74.31
253.795	73.31
254.028	83.31
254.261	80.31
254.494	75.31
254.727	84.31
254.96	74.31
255.193	78.31
255.426	61.31
255.659	94.31
255.892	74.31
256.124	75.31
256.357	71.31
256.59	80.31
256.823	81.31
257.056	85.31
257.289	84.31
257.521	64.31
257.754	86.31
257.987	72.31
258.22	77.31
258.452	88.31
258.685	67.31
258.918	101.31
259.151	62.31
259.383	79.31
259.616	70.31
259.849	71.31
260.081	86.31
260.314	91.31
260.547	70.31
260.779	76.31
261.012	71.31
261.244	80.31
261.477	87.31
261.71	76.31
261.942	98.31
262.175	80.31
262.407	82.31
262.64	88.31
262.872	77.31
263.105	91.31
263.337	85.31
263.57	77.31
263.802	76.31
264.035	74.31
264.267	66.31
264.499	84.31
264.732	85.31
264.964	93.31
265.197	82.31
265.429	94.31
265.661	85.31
265.894	86.31
266.126	83.31
266.358	90.31
266.591	81.31
266.823	93.31
267.055	75.31
267.287	77.31
267.52	82.31
267.752	84.31
267.984	72.31
268.216	84.31
268.448	99.31
268.681	79.31
268.913	91.31
269.145	86.31
269.377	69.31
269.609	76.31
269.841	83.31
270.073	96.31
270.306	96.31
270.538	76.31
270.77	86.31
271.002	81.31
271.234	100.31
271.466	77.31
271.698	82.31
271.93	68.31
272.162	79.31
272.394	88.31
272.626	73.31
272.858	81.31
273.09	92.31
273.322	81.31
273.553	82.31
273.785	80.31
274.017	73.31
274.249	82.31
274.481	79.31
274.713	74.31
274.945	81.31
275.176	71.31
275.408	85.31
275.64	79.31
275.872	72.31
276.104	87.31
276.335	75.31
276.567	75.31
276.799	72.31
277.031	66.31
277.262	66.31
277.494	76.31
277.726	84.31
277.957	88.31
278.189	69.31
278.421	83.31
278.652	80.31
278.884	82.31
279.115	96.31
279.347	87.31
279.579	82.31
279.81	92.31
280.042	80.31
280.273	86.31
280.505	74.31
280.736	90.31
280.968	87.31
281.199	91.31
281.431	95.31
281.662	88.31
281.894	62.31
282.125	81.31
282.356	97.31
282.588	82.31
282.819	83.31
283.051	91.31
283.282	75.31
283.513	79.31
283.745	88.31
283.976	82.31
284.207	77.31
284.439	89.31
284.67	91.31
284.901	75.31
285.132	81.31
285.364	87.31
285.595	89.31
285.826	99.31
286.057	86.31
286.288	90.31
286.52	87.31
286.751	93.31
286.982	91.31
287.213	97.31
287.444	90.31
287.675	84.31
287.906	91.31
288.138	79.31
288.369	84.31
288.6	83.31
288.831	69.31
289.062	72.31
289.293	67.31
289.524	83.31
289.755	79.31
289.986	80.31
290.217	88.31
290.448	83.31
290.679	84.31
290.91	97.31
291.141	72.31
291.371	80.31
291.602	78.31
291.833	96.31
292.064	98.31
292.295	75.31
292.526	89.31
292.757	79.31
292.987	96.31
293.218	80.31
293.449	82.31
293.68	77.31
293.91	90.31
294.141	106.31
294.372	87.31
294.603	86.31
294.833	94.31
295.064	78.31
295.295	90.31
295.525	90.31
295.756	75.31
295.987	79.31
296.217	106.31
296.448	80.31
296.679	82.31
296.909	88.31
297.14	78.31
297.37	98.31
297.601	83.31
297.831	102.31
298.062	88.31
298.292	96.31
298.523	89.31
298.753	93.31
298.984	74.31
299.214	82.31
299.445	78.31
299.675	83.31
299.905	84.31
300.136	74.31
300.366	71.31
300.597	77.31
300.827	83.31
301.057	82.31
301.288	89.31
301.518	86.31
301.748	97.31
301.979	92.31
302.209	86.31
302.439	97.31
302.669	84.31
302.9	84.31
303.13	82.31
303.36	87.31
303.59	95.31
303.82	82.31
304.051	84.31
304.281	84.31
304.511	87.31
304.741	80.31
304.971	75.31
305.201	101.31
305.431	87.31
305.661	77.31
305.891	90.31
306.121	96.31
306.352	85.31
306.582	94.31
306.812	81.31
307.042	86.31
307.272	73.31
307.502	78.31
307.731	77.31
307.961	83.31
308.191	91.31
308.421	86.31
308.651	73.31
308.881	94.31
309.111	77.31
309.341	89.31
309.571	81.31
309.8	83.31
310.03	87.31
310.26	70.31
310.49	91.31
310.72	96.31
310.949	86.31
311.179	84.31
311.409	92.31
311.639	98.31
311.868	86.31
312.098	82.31
312.328	88.31
312.557	90.31
312.787	77.31
313.017	88.31
313.246	94.31
313.476	88.31
313.706	68.31
313.935	94.31
314.165	87.31
314.394	94.31
314.624	97.31
314.853	95.31
315.083	98.31
315.312	94.31
315.542	86.31
315.771	92.31
316.001	93.31
316.23	89.31
316.46	83.31
316.689	79.31
316.919	74.31
317.148	87.31
317.377	82.31
317.607	93.31
317.836	82.31
318.065	80.31
318.295	90.31
318.524	78.31
318.753	103.31
318.983	104.31
319.212	81.31
319.441	80.31
319.67	72.31
319.9	82.31
320.129	78.31
320.358	87.31
320.587	78.31
320.816	75.31
321.046	88.31
321.275	91.31
321.504	83.31
321.733	79.31
321.962	74.31
322.191	88.31
322.42	97.31
322.649	96.31
322.878	83.31
323.108	105.31
323.337	83.31
323.566	73.31
323.795	83.31
324.024	93.31
324.253	88.31
324.482	101.31
324.71	79.31
324.939	100.31
325.168	89.31
325.397	92.31
325.626	90.31
325.855	89.31
326.084	98.31
326.313	88.31
326.542	83.31
326.77	90.31
326.999	82.31
327.228	89.31
327.457	77.31
327.686	78.31
327.914	89.31
328.143	92.31
328.372	79.31
328.6	83.31
328.829	89.31
329.058	88.31
329.287	87.31
329.515	91.31
329.744	86.31
329.972	94.31
330.201	91.31
330.43	89.31
330.658	88.31
330.887	85.31
331.115	96.31
331.344	80.31
331.572	75.31
331.801	71.31
332.03	82.31
332.258	83.31
332.486	80.31
332.715	88.31
332.943	89.31
333.172	74.31
333.4	79.31
333.629	89.31
333.857	85.31
334.085	102.31
334.314	92.31
334.542	86.31
334.771	97.31
334.999	85.31
335.227	89.31
335.455	84.31
335.684	84.31
335.912	82.31
336.14	79.31
336.369	93.31
336.597	95.31
336.825	86.31
337.053	76.31
337.281	110.31
337.51	88.31
337.738	80.31
337.966	82.31
338.194	78.31
338.422	82.31
338.65	77.31
338.878	87.31
339.106	92.31
339.334	102.31
339.562	78.31
339.79	88.31
340.018	79.31
340.246	94.31
340.474	76.31
340.702	78.31
340.93	88.31
341.158	96.31
341.386	83.31
341.614	86.31
341.842	86.31
342.07	77.31
342.298	93.31
342.526	98.31
342.754	108.31
342.981	88.31
343.209	91.31
343.437	91.31
343.665	81.31
343.893	86.31
344.12	95.31
344.348	96.31
344.576	89.31
344.804	87.31
345.031	98.31
345.259	73.31
345.487	81.31
345.714	58.31
345.942	88.31
346.17	86.31
346.397	84.31
346.625	92.31
346.853	88.31
347.08	93.31
347.308	88.31
347.535	87.31
347.763	89.31
347.99	95.31
348.218	95.31
348.445	95.31
348.673	95.31
348.9	80.31
349.128	91.31
349.355	95.31
349.583	91.31
349.81	88.31
350.037	82.31
350.265	83.31
350.492	91.31
350.72	87.31
350.947	99.31
351.174	100.31
351.402	85.31
351.629	81.31
351.856	81.31
352.083	84.31
352.311	84.31
352.538	78.31
352.765	82.31
352.992	92.31
353.22	70.31
353.447	87.31
353.674	82.31
353.901	82.31
354.128	84.31
354.355	95.31
354.583	76.31
354.81	86.31
355.037	99.31
355.264	82.31
355.491	86.31
355.718	90.31
355.945	95.31
356.172	81.31
356.399	89.31
356.626	82.31
356.853	79.31
357.08	83.31
357.307	87.31
357.534	76.31
357.761	92.31
357.988	89.31
358.215	90.31
358.441	72.31
358.668	84.31
358.895	93.31
359.122	104.31
359.349	92.31
359.576	85.31
359.802	81.31
360.029	63.31
360.256	104.31
360.483	82.31
360.709	80.31
360.936	108.31
361.163	96.31
361.39	86.31
361.616	78.31
361.843	86.31
362.07	84.31
362.296	87.31
362.523	86.31
362.749	78.31
362.976	78.31
363.203	87.31
363.429	75.31
363.656	93.31
363.882	95.31
364.109	78.31
364.335	79.31
364.562	82.31
364.788	91.31
365.015	94.31
365.241	91.31
365.468	78.31
365.694	87.31
365.92	92.31
366.147	77.31
366.373	93.31
366.599	84.31
366.826	98.31
367.052	95.31
367.278	91.31
367.505	81.31
367.731	100.31
367.957	78.31
368.184	82.31
368.41	79.31
368.636	82.31
368.862	94.31
369.089	87.31
369.315	93.31
369.541	82.31
369.767	87.31
369.993	91.31
370.219	89.31
370.445	96.31
370.672	81.31
370.898	96.31
371.124	84.31
371.35	88.31
371.576	80.31
371.802	81.31
372.028	85.31
372.254	90.31
372.48	82.31
372.706	89.31
372.932	90.31
373.158	84.31
373.384	70.31
373.61	100.31
373.835	80.31
374.061	89.31
374.287	80.31
374.513	86.31
374.739	89.31
374.965	87.31
375.191	95.31
375.416	90.31
375.642	83.31
375.868	83.31
376.094	90.31
376.319	82.31
376.545	92.31
376.771	86.31
376.997	65.31
377.222	100.31
377.448	89.31
377.674	98.31
377.899	84.31
378.125	82.31
378.35	81.31
378.576	76.31
378.802	85.31
379.027	79.31
379.253	99.31
379.478	97.31
379.704	83.31
379.929	73.31
380.155	83.31
380.38	78.31
380.606	99.31
380.831	84.31
381.057	105.31
381.282	80.31
381.507	95.31
381.733	90.31
381.958	93.31
382.184	91.31
382.409	82.31
382.634	78.31
382.86	89.31
383.085	88.31
383.31	84.31
383.535	86.31
383.761	73.31
383.986	91.31
384.211	79.31
384.436	77.31
384.662	88.31
384.887	92.31
385.112	83.31
385.337	87.31
385.562	93.31
385.787	82.31
386.013	88.31
386.238	73.31
386.463	79.31
386.688	92.31
386.913	83.31
387.138	86.31
387.363	86.31
387.588	77.31
387.813	78.31
388.038	80.31
388.263	78.31
388.488	96.31
388.713	94.31
388.938	79.31
389.163	84.31
389.387	82.31
389.612	88.31
389.837	89.31
390.062	97.31
390.287	84.31
390.512	84.31
390.736	90.31
390.961	82.31
391.186	80.31
391.411	73.31
391.636	84.31
391.86	95.31
392.085	89.31
392.31	84.31
392.534	88.31
392.759	87.31
392.984	85.31
393.208	95.31
393.433	87.31
393.658	83.31
393.882	88.31
394.107	94.31
394.331	94.31
394.556	88.31
394.78	73.31
395.005	79.31
395.229	85.31
395.454	93.31
395.678	94.31
395.903	95.31
396.127	77.31
396.352	88.31
396.576	86.31
396.801	82.31
397.025	106.31
397.249	83.31
397.474	104.31
397.698	88.31
397.922	84.31
398.147	76.31
398.371	82.31
398.595	91.31
398.82	80.31
399.044	81.31
399.268	85.31
399.492	97.31
399.717	97.31
399.941	88.31
400.165	82.31
400.389	83.31
400.613	78.31
400.837	85.31
401.062	82.31
401.286	76.31
401.51	92.31
401.734	85.31
401.958	84.31
402.182	84.31
402.406	80.31
402.63	79.31
402.854	89.31
403.078	89.31
403.302	76.31
403.526	97.31
403.75	90.31
403.974	90.31
404.198	93.31
404.422	83.31
404.645	97.31
404.869	83.31
405.093	76.31
405.317	102.31
405.541	83.31
405.765	83.31
405.988	65.31
406.212	81.31
406.436	85.31
406.66	87.31
406.883	91.31
407.107	83.31
407.331	94.31
407.555	94.31
407.778	92.31
408.002	89.31
408.226	74.31
408.449	83.31
408.673	81.31
408.896	87.31
409.12	99.31
409.344	83.31
409.567	88.31
409.791	91.31
410.014	91.31
410.238	90.31
410.461	85.31
410.685	99.31
410.908	84.31
411.132	86.31
411.355	84.31
411.578	96.31
411.802	79.31
412.025	85.31
412.249	80.31
412.472	105.31
412.695	83.31
412.919	83.31
413.142	79.31
413.365	78.31
413.589	83.31
413.812	95.31
414.035	99.31
414.258	84.31
414.482	84.31
414.705	95.31
414.928	104.31
415.151	86.31
415.374	109.31
415.597	75.31
415.821	83.31
416.044	91.31
416.267	89.31
416.49	87.31
416.713	82.31
416.936	84.31
417.159	82.31
417.382	94.31
417.605	83.31
417.828	84.31
418.051	76.31
418.274	89.31
418.497	75.31
418.72	87.31
418.943	95.31
419.166	102.31
419.389	91.31
419.611	82.31
419.834	77.31
420.057	94.31
420.28	64.31
420.503	89.31
420.726	79.31
420.948	83.31
421.171	97.31
421.394	81.31
421.617	81.31
421.839	75.31
422.062	95.31
422.285	74.31
422.507	64.31
422.73	91.31
422.953	76.31
423.175	90.31
423.398	84.31
423.621	83.31
423.843	88.31
424.066	82.31
424.288	61.31
424.511	83.31
424.733	82.31
424.956	82.31
425.178	91.31
425.401	90.31
425.623	95.31
425.846	87.31
426.068	96.31
426.291	90.31
426.513	93.31
426.735	95.31
426.958	90.31
427.18	96.31
427.402	93.31
427.625	90.31
427.847	83.31
428.069	84.31
428.292	90.31
428.514	99.31
428.736	91.31
428.958	86.31
429.181	81.31
429.403	86.31
429.625	78.31
429.847	90.31
430.069	90.31
430.292	91.31
430.514	85.31
430.736	85.31
430.958	83.31
431.18	92.31
431.402	80.31
431.624	80.31
431.846	91.31
432.068	84.31
432.29	91.31
432.512	86.31
432.734	93.31
432.956	86.31
433.178	73.31
433.4	87.31
433.622	82.31
433.844	84.31
434.066	103.31
434.287	69.31
434.509	84.31
434.731	94.31
434.953	79.31
435.175	92.31
435.397	84.31
435.618	90.31
435.84	93.31
436.062	91.31
436.284	102.31
436.505	97.31
436.727	78.31
436.949	82.31
437.17	78.31
437.392	85.31
437.614	90.31
437.835	83.31
438.057	78.31
438.278	86.31
438.5	105.31
438.721	90.31
438.943	87.31
439.165	80.31
439.386	86.31
439.608	85.31
439.829	75.31
440.05	94.31
440.272	96.31
440.493	89.31
440.715	89.31
440.936	93.31
441.158	91.31
441.379	87.31
441.6	98.31
441.822	80.31
442.043	103.31
442.264	89.31
442.486	86.31
442.707	88.31
442.928	88.31
443.149	81.31
443.371	82.31
443.592	77.31
443.813	71.31
444.034	81.31
444.255	77.31
444.476	83.31
444.698	98.31
444.919	87.31
445.14	165.31
445.361	127.31
445.582	76.31
445.803	88.31
446.024	87.31
446.245	81.31
446.466	78.31
446.687	74.31
446.908	81.31
447.129	87.31
447.35	94.31
447.571	90.31
447.792	81.31
448.013	68.31
448.234	88.31
448.455	95.31
448.675	77.31
448.896	92.31
449.117	93.31
449.338	96.31
449.559	65.31
449.779	74.31
450	82.31
450.221	80.31
450.442	90.31
450.662	76.31
450.883	91.31
451.104	99.31
451.324	98.31
451.545	82.31
451.766	73.31
451.986	83.31
452.207	92.31
452.428	78.31
452.648	76.31
452.869	78.31
453.089	78.31
453.31	71.31
453.53	97.31
453.751	102.31
453.971	91.31
454.192	74.31
454.412	80.31
454.633	89.31
454.853	79.31
455.073	86.31
455.294	75.31
455.514	97.31
455.734	90.31
455.955	75.31
456.175	83.31
456.395	83.31
456.616	91.31
456.836	87.31
457.056	91.31
457.276	104.31
457.497	74.31
457.717	83.31
457.937	80.31
458.157	82.31
458.377	83.31
458.598	84.31
458.818	89.31
459.038	76.31
459.258	86.31
459.478	77.31
459.698	79.31
459.918	92.31
460.138	91.31
460.358	91.31
460.578	83.31
460.798	89.31
461.018	98.31
461.238	91.31
461.458	95.31
461.678	87.31
461.898	94.31
462.118	72.31
462.338	71.31
462.558	77.31
462.777	88.31
462.997	90.31
463.217	99.31
463.437	106.31
463.657	93.31
463.876	92.31
464.096	91.31
464.316	96.31
464.536	106.31
464.755	102.31
464.975	84.31
465.195	89.31
465.414	97.31
465.634	74.31
465.854	82.31
466.073	90.31
466.293	96.31
466.512	81.31
466.732	76.31
466.951	81.31
467.171	78.31
467.391	87.31
467.61	80.31
467.829	71.31
468.049	66.31
468.268	81.31
468.488	71.31
468.707	95.31
468.927	77.31
469.146	86.31
469.365	93.31
469.585	94.31
469.804	83.31
470.023	82.31
470.243	90.31
470.462	82.31
470.681	84.31
470.901	88.31
471.12	62.31
471.339	102.31
471.558	72.31
471.777	96.31
471.997	96.31
472.216	81.31
472.435	82.31
472.654	88.31
472.873	82.31
473.092	81.31
473.311	77.31
473.53	71.31
473.749	95.31
473.968	88.31
474.187	84.31
474.406	94.31
474.625	92.31
474.844	75.31
475.063	79.31
475.282	88.31
475.501	93.31
475.72	105.31
475.939	87.31
476.158	83.31
476.377	72.31
476.596	79.31
476.814	79.31
477.033	86.31
477.252	76.31
477.471	82.31
477.69	91.31
477.908	85.31
478.127	89.31
478.346	75.31
478.564	91.31
478.783	88.31
479.002	81.31
479.22	79.31
479.439	99.31
479.658	99.31
479.876	71.31
480.095	90.31
480.313	83.31
480.532	94.31
480.751	76.31
480.969	79.31
481.188	94.31
481.406	92.31
481.624	82.31
481.843	86.31
482.061	86.31
482.28	83.31
482.498	98.31
482.717	93.31
482.935	82.31
483.153	106.31
483.372	76.31
483.59	81.31
483.808	83.31
484.027	75.31
484.245	95.31
484.463	89.31
484.681	97.31
484.9	86.31
485.118	84.31
485.336	86.31
485.554	77.31
485.772	85.31
485.99	85.31
486.209	91.31
486.427	83.31
486.645	90.31
486.863	80.31
487.081	88.31
487.299	88.31
487.517	94.31
487.735	91.31
487.953	76.31
488.171	77.31
488.389	78.31
488.607	76.31
488.825	75.31
489.043	88.31
489.261	78.31
489.479	94.31
489.696	87.31
489.914	83.31
490.132	82.31
490.35	104.31
490.568	86.31
490.786	82.31
491.003	75.31
491.221	73.31
491.439	76.31
491.657	89.31
491.874	81.31
492.092	78.31
492.31	96.31
492.527	96.31
492.745	91.31
492.963	97.31
493.18	95.31
493.398	93.31
493.615	95.31
493.833	67.31
494.05	93.31
494.268	110.31
494.485	84.31
494.703	78.31
494.92	99.31
495.138	89.31
495.355	96.31
495.573	74.31
495.79	72.31
496.008	87.31
496.225	94.31
496.442	84.31
496.66	102.31
496.877	91.31
497.094	90.31
497.312	87.31
497.529	86.31
497.746	87.31
497.963	88.31
498.181	92.31
498.398	87.31
498.615	88.31
498.832	96.31
499.049	92.31
499.267	100.31
499.484	92.31
499.701	107.31
499.918	103.31
500.135	94.31
500.352	87.31
500.569	96.31
500.786	116.31
501.003	102.31
501.22	90.31
501.437	98.31
501.654	92.31
501.871	79.31
502.088	90.31
502.305	95.31
502.522	103.31
502.739	96.31
502.956	96.31
503.172	89.31
503.389	83.31
503.606	98.31
503.823	94.31
504.04	86.31
504.256	88.31
504.473	89.31
504.69	97.31
504.907	81.31
505.123	89.31
505.34	95.31
505.557	97.31
505.773	88.31
505.99	95.31
506.207	90.31
506.423	91.31
506.64	82.31
506.856	83.31
507.073	81.31
507.289	100.31
507.506	72.31
507.722	77.31
507.939	87.31
508.155	92.31
508.372	88.31
508.588	79.31
508.805	79.31
509.021	95.31
509.238	91.31
509.454	86.31
509.67	89.31
509.887	95.31
510.103	88.31
510.319	67.31
510.536	91.31
510.752	87.31
510.968	87.31
511.184	92.31
511.401	96.31
511.617	88.31
511.833	90.31
512.049	92.31
512.265	76.31
512.481	95.31
512.698	95.31
512.914	78.31
513.13	89.31
513.346	89.31
513.562	102.31
513.778	86.31
513.994	89.31
514.21	90.31
514.426	91.31
514.642	84.31
514.858	86.31
515.074	95.31
515.29	92.31
515.506	67.31
515.721	81.31
515.937	76.31
516.153	85.31
516.369	94.31
516.585	88.31
516.801	84.31
517.016	88.31
517.232	88.31
517.448	87.31
517.664	106.31
517.879	97.31
518.095	81.31
518.311	81.31
518.527	83.31
518.742	79.31
518.958	91.31
519.173	87.31
519.389	85.31
519.605	91.31
