Data from BG_HRD10591_028.txt Node
Date: Fri May 16 15:33:21 EDT 2025
User: Yrep
Spectrometer: HR+D1059
Trigger mode: 1
Integration Time (sec): 1.000000E-1
Scans to average: 1
Electric dark correction enabled: true
Nonlinearity correction enabled: false
Boxcar width: 0
XAxis mode: Wavelengths
Number of Pixels in Spectrum: 2048
>>>>>Begin Spectral Data<<<<<
223.165	-15.31
223.4	-15.31
223.635	-15.31
223.869	-2.31
224.104	-6.31
224.338	-11.31
224.573	-20.31
224.808	-12.31
225.042	-25.31
225.277	-0.31
225.511	-8.31
225.746	2.69
225.98	-2.31
226.215	19.69
226.449	9.69
226.683	21.69
226.918	30.69
227.152	19.69
227.387	58.69
227.621	43.69
227.856	51.69
228.09	47.69
228.324	52.69
228.559	49.69
228.793	54.69
229.027	61.69
229.262	67.69
229.496	65.69
229.73	66.69
229.964	79.69
230.199	72.69
230.433	72.69
230.667	76.69
230.901	72.69
231.136	83.69
231.37	89.69
231.604	81.69
231.838	79.69
232.072	88.69
232.306	90.69
232.541	85.69
232.775	71.69
233.009	75.69
233.243	90.69
233.477	78.69
233.711	82.69
233.945	92.69
234.179	73.69
234.413	91.69
234.647	90.69
234.881	88.69
235.115	85.69
235.349	86.69
235.583	88.69
235.817	91.69
236.051	90.69
236.285	77.69
236.519	83.69
236.753	95.69
236.987	84.69
237.221	79.69
237.455	92.69
237.689	83.69
237.922	69.69
238.156	73.69
238.39	77.69
238.624	74.69
238.858	76.69
239.091	70.69
239.325	85.69
239.559	97.69
239.793	64.69
240.027	78.69
240.26	86.69
240.494	80.69
240.728	85.69
240.961	63.69
241.195	87.69
241.429	68.69
241.662	69.69
241.896	74.69
242.13	63.69
242.363	75.69
242.597	78.69
242.83	71.69
243.064	83.69
243.298	70.69
243.531	71.69
243.765	69.69
243.998	94.69
244.232	82.69
244.465	68.69
244.699	77.69
244.932	75.69
245.166	67.69
245.399	87.69
245.633	60.69
245.866	76.69
246.099	83.69
246.333	81.69
246.566	69.69
246.8	87.69
247.033	86.69
247.266	89.69
247.5	79.69
247.733	80.69
247.966	73.69
248.2	91.69
248.433	72.69
248.666	72.69
248.899	94.69
249.133	81.69
249.366	86.69
249.599	78.69
249.832	76.69
250.066	78.69
250.299	73.69
250.532	59.69
250.765	70.69
250.998	73.69
251.231	78.69
251.465	79.69
251.698	77.69
251.931	72.69
252.164	79.69
252.397	73.69
252.63	79.69
252.863	72.69
253.096	86.69
253.329	89.69
253.562	78.69
253.795	83.69
254.028	75.69
254.261	78.69
254.494	92.69
254.727	86.69
254.96	82.69
255.193	88.69
255.426	89.69
255.659	79.69
255.892	69.69
256.124	72.69
256.357	75.69
256.59	84.69
256.823	86.69
257.056	73.69
257.289	79.69
257.521	93.69
257.754	85.69
257.987	83.69
258.22	85.69
258.452	91.69
258.685	85.69
258.918	85.69
259.151	88.69
259.383	87.69
259.616	75.69
259.849	70.69
260.081	88.69
260.314	95.69
260.547	97.69
260.779	88.69
261.012	80.69
261.244	89.69
261.477	77.69
261.71	89.69
261.942	88.69
262.175	90.69
262.407	89.69
262.64	87.69
262.872	97.69
263.105	88.69
263.337	99.69
263.57	73.69
263.802	75.69
264.035	93.69
264.267	80.69
264.499	86.69
264.732	94.69
264.964	90.69
265.197	91.69
265.429	92.69
265.661	86.69
265.894	79.69
266.126	84.69
266.358	87.69
266.591	93.69
266.823	90.69
267.055	75.69
267.287	87.69
267.52	87.69
267.752	100.69
267.984	91.69
268.216	92.69
268.448	95.69
268.681	93.69
268.913	94.69
269.145	75.69
269.377	85.69
269.609	86.69
269.841	96.69
270.073	90.69
270.306	85.69
270.538	87.69
270.77	86.69
271.002	88.69
271.234	87.69
271.466	83.69
271.698	78.69
271.93	102.69
272.162	74.69
272.394	83.69
272.626	78.69
272.858	96.69
273.09	85.69
273.322	85.69
273.553	90.69
273.785	85.69
274.017	88.69
274.249	92.69
274.481	93.69
274.713	87.69
274.945	91.69
275.176	94.69
275.408	89.69
275.64	90.69
275.872	86.69
276.104	90.69
276.335	86.69
276.567	98.69
276.799	83.69
277.031	85.69
277.262	93.69
277.494	85.69
277.726	88.69
277.957	89.69
278.189	81.69
278.421	94.69
278.652	75.69
278.884	89.69
279.115	81.69
279.347	72.69
279.579	81.69
279.81	77.69
280.042	97.69
280.273	93.69
280.505	90.69
280.736	86.69
280.968	88.69
281.199	76.69
281.431	81.69
281.662	90.69
281.894	88.69
282.125	84.69
282.356	79.69
282.588	71.69
282.819	81.69
283.051	97.69
283.282	83.69
283.513	95.69
283.745	81.69
283.976	84.69
284.207	80.69
284.439	90.69
284.67	99.69
284.901	91.69
285.132	81.69
285.364	89.69
285.595	79.69
285.826	86.69
286.057	82.69
286.288	85.69
286.52	93.69
286.751	90.69
286.982	81.69
287.213	85.69
287.444	109.69
287.675	90.69
287.906	79.69
288.138	93.69
288.369	96.69
288.6	100.69
288.831	90.69
289.062	84.69
289.293	99.69
289.524	90.69
289.755	75.69
289.986	86.69
290.217	90.69
290.448	86.69
290.679	101.69
290.91	81.69
291.141	90.69
291.371	84.69
291.602	80.69
291.833	91.69
292.064	99.69
292.295	85.69
292.526	93.69
292.757	93.69
292.987	85.69
293.218	99.69
293.449	81.69
293.68	75.69
293.91	93.69
294.141	96.69
294.372	93.69
294.603	83.69
294.833	87.69
295.064	82.69
295.295	77.69
295.525	86.69
295.756	92.69
295.987	93.69
296.217	94.69
296.448	100.69
296.679	82.69
296.909	88.69
297.14	93.69
297.37	79.69
297.601	96.69
297.831	81.69
298.062	85.69
298.292	86.69
298.523	78.69
298.753	87.69
298.984	93.69
299.214	90.69
299.445	98.69
299.675	88.69
299.905	91.69
300.136	84.69
300.366	101.69
300.597	94.69
300.827	99.69
301.057	98.69
301.288	94.69
301.518	88.69
301.748	102.69
301.979	94.69
302.209	84.69
302.439	89.69
302.669	77.69
302.9	101.69
303.13	90.69
303.36	105.69
303.59	101.69
303.82	102.69
304.051	76.69
304.281	91.69
304.511	89.69
304.741	88.69
304.971	74.69
305.201	94.69
305.431	92.69
305.661	90.69
305.891	108.69
306.121	79.69
306.352	82.69
306.582	88.69
306.812	99.69
307.042	92.69
307.272	86.69
307.502	77.69
307.731	95.69
307.961	89.69
308.191	89.69
308.421	107.69
308.651	89.69
308.881	99.69
309.111	79.69
309.341	95.69
309.571	96.69
309.8	86.69
310.03	88.69
310.26	97.69
310.49	98.69
310.72	89.69
310.949	91.69
311.179	82.69
311.409	77.69
311.639	99.69
311.868	89.69
312.098	102.69
312.328	84.69
312.557	101.69
312.787	109.69
313.017	80.69
313.246	92.69
313.476	94.69
313.706	94.69
313.935	88.69
314.165	91.69
314.394	80.69
314.624	94.69
314.853	87.69
315.083	81.69
315.312	108.69
315.542	95.69
315.771	84.69
316.001	78.69
316.23	81.69
316.46	91.69
316.689	83.69
316.919	76.69
317.148	97.69
317.377	89.69
317.607	98.69
317.836	102.69
318.065	90.69
318.295	83.69
318.524	97.69
318.753	83.69
318.983	81.69
319.212	95.69
319.441	76.69
319.67	87.69
319.9	106.69
320.129	89.69
320.358	105.69
320.587	86.69
320.816	83.69
321.046	92.69
321.275	108.69
321.504	94.69
321.733	91.69
321.962	90.69
322.191	94.69
322.42	97.69
322.649	89.69
322.878	91.69
323.108	92.69
323.337	123.69
323.566	93.69
323.795	98.69
324.024	97.69
324.253	90.69
324.482	83.69
324.71	92.69
324.939	84.69
325.168	75.69
325.397	92.69
325.626	99.69
325.855	98.69
326.084	93.69
326.313	85.69
326.542	77.69
326.77	94.69
326.999	79.69
327.228	86.69
327.457	92.69
327.686	79.69
327.914	86.69
328.143	88.69
328.372	89.69
328.6	86.69
328.829	101.69
329.058	91.69
329.287	98.69
329.515	95.69
329.744	99.69
329.972	89.69
330.201	97.69
330.43	93.69
330.658	99.69
330.887	81.69
331.115	78.69
331.344	104.69
331.572	90.69
331.801	87.69
332.03	95.69
332.258	109.69
332.486	90.69
332.715	86.69
332.943	92.69
333.172	104.69
333.4	96.69
333.629	90.69
333.857	83.69
334.085	90.69
334.314	105.69
334.542	72.69
334.771	89.69
334.999	93.69
335.227	98.69
335.455	81.69
335.684	84.69
335.912	86.69
336.14	86.69
336.369	86.69
336.597	88.69
336.825	83.69
337.053	90.69
337.281	83.69
337.51	87.69
337.738	87.69
337.966	81.69
338.194	83.69
338.422	100.69
338.65	90.69
338.878	85.69
339.106	85.69
339.334	81.69
339.562	107.69
339.79	85.69
340.018	83.69
340.246	79.69
340.474	90.69
340.702	97.69
340.93	94.69
341.158	95.69
341.386	85.69
341.614	61.69
341.842	94.69
342.07	90.69
342.298	84.69
342.526	88.69
342.754	101.69
342.981	96.69
343.209	98.69
343.437	113.69
343.665	102.69
343.893	99.69
344.12	108.69
344.348	86.69
344.576	84.69
344.804	85.69
345.031	89.69
345.259	78.69
345.487	88.69
345.714	82.69
345.942	91.69
346.17	90.69
346.397	93.69
346.625	88.69
346.853	90.69
347.08	82.69
347.308	94.69
347.535	86.69
347.763	85.69
347.99	98.69
348.218	83.69
348.445	101.69
348.673	74.69
348.9	95.69
349.128	93.69
349.355	99.69
349.583	79.69
349.81	94.69
350.037	83.69
350.265	101.69
350.492	82.69
350.72	78.69
350.947	95.69
351.174	83.69
351.402	105.69
351.629	86.69
351.856	90.69
352.083	72.69
352.311	75.69
352.538	90.69
352.765	74.69
352.992	99.69
353.22	94.69
353.447	96.69
353.674	92.69
353.901	91.69
354.128	82.69
354.355	102.69
354.583	92.69
354.81	86.69
355.037	85.69
355.264	95.69
355.491	94.69
355.718	79.69
355.945	87.69
356.172	91.69
356.399	73.69
356.626	83.69
356.853	98.69
357.08	83.69
357.307	81.69
357.534	77.69
357.761	85.69
357.988	88.69
358.215	95.69
358.441	94.69
358.668	97.69
358.895	97.69
359.122	95.69
359.349	80.69
359.576	90.69
359.802	97.69
360.029	93.69
360.256	89.69
360.483	75.69
360.709	74.69
360.936	79.69
361.163	93.69
361.39	82.69
361.616	100.69
361.843	90.69
362.07	82.69
362.296	82.69
362.523	69.69
362.749	96.69
362.976	71.69
363.203	95.69
363.429	77.69
363.656	82.69
363.882	89.69
364.109	86.69
364.335	91.69
364.562	99.69
364.788	97.69
365.015	91.69
365.241	93.69
365.468	79.69
365.694	77.69
365.92	101.69
366.147	83.69
366.373	86.69
366.599	82.69
366.826	74.69
367.052	88.69
367.278	85.69
367.505	89.69
367.731	78.69
367.957	88.69
368.184	85.69
368.41	93.69
368.636	71.69
368.862	92.69
369.089	97.69
369.315	87.69
369.541	95.69
369.767	72.69
369.993	87.69
370.219	85.69
370.445	92.69
370.672	89.69
370.898	80.69
371.124	97.69
371.35	102.69
371.576	94.69
371.802	85.69
372.028	97.69
372.254	90.69
372.48	81.69
372.706	89.69
372.932	79.69
373.158	93.69
373.384	93.69
373.61	93.69
373.835	84.69
374.061	93.69
374.287	96.69
374.513	102.69
374.739	90.69
374.965	86.69
375.191	98.69
375.416	105.69
375.642	102.69
375.868	93.69
376.094	83.69
376.319	98.69
376.545	89.69
376.771	93.69
376.997	83.69
377.222	89.69
377.448	87.69
377.674	89.69
377.899	98.69
378.125	75.69
378.35	96.69
378.576	78.69
378.802	83.69
379.027	86.69
379.253	87.69
379.478	89.69
379.704	90.69
379.929	91.69
380.155	99.69
380.38	91.69
380.606	106.69
380.831	84.69
381.057	96.69
381.282	85.69
381.507	90.69
381.733	90.69
381.958	93.69
382.184	87.69
382.409	81.69
382.634	89.69
382.86	89.69
383.085	92.69
383.31	87.69
383.535	87.69
383.761	100.69
383.986	76.69
384.211	91.69
384.436	96.69
384.662	77.69
384.887	72.69
385.112	88.69
385.337	92.69
385.562	85.69
385.787	83.69
386.013	91.69
386.238	95.69
386.463	90.69
386.688	97.69
386.913	73.69
387.138	82.69
387.363	89.69
387.588	91.69
387.813	92.69
388.038	86.69
388.263	93.69
388.488	83.69
388.713	78.69
388.938	74.69
389.163	83.69
389.387	85.69
389.612	78.69
389.837	85.69
390.062	93.69
390.287	85.69
390.512	93.69
390.736	78.69
390.961	93.69
391.186	87.69
391.411	69.69
391.636	97.69
391.86	97.69
392.085	89.69
392.31	85.69
392.534	92.69
392.759	103.69
392.984	83.69
393.208	90.69
393.433	85.69
393.658	87.69
393.882	94.69
394.107	87.69
394.331	98.69
394.556	101.69
394.78	85.69
395.005	86.69
395.229	89.69
395.454	99.69
395.678	107.69
395.903	106.69
396.127	97.69
396.352	85.69
396.576	79.69
396.801	83.69
397.025	66.69
397.249	89.69
397.474	82.69
397.698	83.69
397.922	103.69
398.147	84.69
398.371	97.69
398.595	76.69
398.82	75.69
399.044	96.69
399.268	90.69
399.492	85.69
399.717	88.69
399.941	93.69
400.165	88.69
400.389	93.69
400.613	87.69
400.837	103.69
401.062	86.69
401.286	91.69
401.51	92.69
401.734	84.69
401.958	88.69
402.182	101.69
402.406	91.69
402.63	84.69
402.854	69.69
403.078	100.69
403.302	106.69
403.526	97.69
403.75	91.69
403.974	83.69
404.198	78.69
404.422	101.69
404.645	77.69
404.869	86.69
405.093	90.69
405.317	70.69
405.541	89.69
405.765	96.69
405.988	83.69
406.212	82.69
406.436	97.69
406.66	91.69
406.883	82.69
407.107	92.69
407.331	86.69
407.555	85.69
407.778	81.69
408.002	83.69
408.226	88.69
408.449	83.69
408.673	99.69
408.896	85.69
409.12	99.69
409.344	101.69
409.567	86.69
409.791	94.69
410.014	89.69
410.238	93.69
410.461	98.69
410.685	82.69
410.908	83.69
411.132	75.69
411.355	97.69
411.578	95.69
411.802	87.69
412.025	97.69
412.249	86.69
412.472	90.69
412.695	93.69
412.919	91.69
413.142	96.69
413.365	83.69
413.589	93.69
413.812	100.69
414.035	85.69
414.258	96.69
414.482	102.69
414.705	87.69
414.928	92.69
415.151	85.69
415.374	101.69
415.597	77.69
415.821	78.69
416.044	98.69
416.267	98.69
416.49	82.69
416.713	91.69
416.936	94.69
417.159	90.69
417.382	85.69
417.605	69.69
417.828	85.69
418.051	97.69
418.274	100.69
418.497	97.69
418.72	83.69
418.943	103.69
419.166	78.69
419.389	92.69
419.611	93.69
419.834	95.69
420.057	101.69
420.28	80.69
420.503	84.69
420.726	97.69
420.948	97.69
421.171	84.69
421.394	85.69
421.617	98.69
421.839	75.69
422.062	99.69
422.285	93.69
422.507	95.69
422.73	94.69
422.953	75.69
423.175	81.69
423.398	91.69
423.621	72.69
423.843	81.69
424.066	81.69
424.288	92.69
424.511	87.69
424.733	101.69
424.956	88.69
425.178	93.69
425.401	97.69
425.623	89.69
425.846	97.69
426.068	85.69
426.291	95.69
426.513	84.69
426.735	95.69
426.958	90.69
427.18	94.69
427.402	84.69
427.625	93.69
427.847	99.69
428.069	102.69
428.292	81.69
428.514	95.69
428.736	82.69
428.958	92.69
429.181	96.69
429.403	88.69
429.625	96.69
429.847	94.69
430.069	114.69
430.292	93.69
430.514	95.69
430.736	76.69
430.958	83.69
431.18	91.69
431.402	86.69
431.624	95.69
431.846	87.69
432.068	101.69
432.29	95.69
432.512	97.69
432.734	80.69
432.956	83.69
433.178	85.69
433.4	86.69
433.622	94.69
433.844	97.69
434.066	91.69
434.287	90.69
434.509	93.69
434.731	90.69
434.953	96.69
435.175	90.69
435.397	90.69
435.618	90.69
435.84	92.69
436.062	84.69
436.284	79.69
436.505	87.69
436.727	97.69
436.949	82.69
437.17	93.69
437.392	93.69
437.614	98.69
437.835	92.69
438.057	73.69
438.278	92.69
438.5	94.69
438.721	91.69
438.943	97.69
439.165	92.69
439.386	84.69
439.608	86.69
439.829	102.69
440.05	95.69
440.272	85.69
440.493	87.69
440.715	95.69
440.936	100.69
441.158	87.69
441.379	96.69
441.6	89.69
441.822	99.69
442.043	88.69
442.264	65.69
442.486	97.69
442.707	96.69
442.928	99.69
443.149	74.69
443.371	105.69
443.592	96.69
443.813	89.69
444.034	89.69
444.255	96.69
444.476	90.69
444.698	93.69
444.919	100.69
445.14	158.69
445.361	128.69
445.582	93.69
445.803	99.69
446.024	79.69
446.245	107.69
446.466	89.69
446.687	82.69
446.908	90.69
447.129	96.69
447.35	88.69
447.571	85.69
447.792	91.69
448.013	79.69
448.234	94.69
448.455	91.69
448.675	90.69
448.896	78.69
449.117	97.69
449.338	86.69
449.559	82.69
449.779	75.69
450	96.69
450.221	78.69
450.442	79.69
450.662	88.69
450.883	100.69
451.104	87.69
451.324	93.69
451.545	87.69
451.766	99.69
451.986	83.69
452.207	92.69
452.428	71.69
452.648	87.69
452.869	90.69
453.089	77.69
453.31	88.69
453.53	98.69
453.751	96.69
453.971	86.69
454.192	105.69
454.412	89.69
454.633	88.69
454.853	100.69
455.073	93.69
455.294	102.69
455.514	73.69
455.734	101.69
455.955	89.69
456.175	71.69
456.395	77.69
456.616	73.69
456.836	84.69
457.056	102.69
457.276	86.69
457.497	88.69
457.717	78.69
457.937	94.69
458.157	82.69
458.377	86.69
458.598	77.69
458.818	92.69
459.038	94.69
459.258	91.69
459.478	70.69
459.698	85.69
459.918	92.69
460.138	92.69
460.358	89.69
460.578	80.69
460.798	102.69
461.018	105.69
461.238	105.69
461.458	91.69
461.678	87.69
461.898	92.69
462.118	98.69
462.338	99.69
462.558	94.69
462.777	86.69
462.997	93.69
463.217	97.69
463.437	92.69
463.657	97.69
463.876	86.69
464.096	98.69
464.316	83.69
464.536	91.69
464.755	98.69
464.975	97.69
465.195	97.69
465.414	108.69
465.634	101.69
465.854	93.69
466.073	86.69
466.293	78.69
466.512	87.69
466.732	86.69
466.951	97.69
467.171	97.69
467.391	95.69
467.61	95.69
467.829	105.69
468.049	80.69
468.268	91.69
468.488	95.69
468.707	88.69
468.927	91.69
469.146	90.69
469.365	92.69
469.585	86.69
469.804	101.69
470.023	87.69
470.243	94.69
470.462	84.69
470.681	92.69
470.901	94.69
471.12	88.69
471.339	105.69
471.558	93.69
471.777	89.69
471.997	92.69
472.216	84.69
472.435	82.69
472.654	84.69
472.873	95.69
473.092	100.69
473.311	99.69
473.53	89.69
473.749	83.69
473.968	82.69
474.187	99.69
474.406	92.69
474.625	96.69
474.844	74.69
475.063	74.69
475.282	76.69
475.501	91.69
475.72	87.69
475.939	94.69
476.158	94.69
476.377	96.69
476.596	90.69
476.814	90.69
477.033	107.69
477.252	79.69
477.471	79.69
477.69	90.69
477.908	92.69
478.127	72.69
478.346	97.69
478.564	105.69
478.783	90.69
479.002	95.69
479.22	95.69
479.439	85.69
479.658	85.69
479.876	87.69
480.095	89.69
480.313	97.69
480.532	95.69
480.751	85.69
480.969	83.69
481.188	93.69
481.406	93.69
481.624	94.69
481.843	72.69
482.061	94.69
482.28	91.69
482.498	79.69
482.717	88.69
482.935	93.69
483.153	108.69
483.372	91.69
483.59	79.69
483.808	91.69
484.027	102.69
484.245	86.69
484.463	81.69
484.681	97.69
484.9	86.69
485.118	88.69
485.336	76.69
485.554	91.69
485.772	85.69
485.99	89.69
486.209	96.69
486.427	107.69
486.645	99.69
486.863	87.69
487.081	90.69
487.299	89.69
487.517	81.69
487.735	81.69
487.953	87.69
488.171	103.69
488.389	93.69
488.607	93.69
488.825	86.69
489.043	78.69
489.261	96.69
489.479	93.69
489.696	81.69
489.914	83.69
490.132	91.69
490.35	85.69
490.568	94.69
490.786	85.69
491.003	86.69
491.221	109.69
491.439	73.69
491.657	89.69
491.874	90.69
492.092	95.69
492.31	98.69
492.527	84.69
492.745	99.69
492.963	90.69
493.18	93.69
493.398	89.69
493.615	90.69
493.833	88.69
494.05	84.69
494.268	82.69
494.485	96.69
494.703	89.69
494.92	94.69
495.138	90.69
495.355	89.69
495.573	75.69
495.79	89.69
496.008	77.69
496.225	84.69
496.442	86.69
496.66	110.69
496.877	84.69
497.094	92.69
497.312	82.69
497.529	95.69
497.746	82.69
497.963	89.69
498.181	82.69
498.398	91.69
498.615	90.69
498.832	93.69
499.049	103.69
499.267	104.69
499.484	114.69
499.701	101.69
499.918	91.69
500.135	103.69
500.352	109.69
500.569	117.69
500.786	121.69
501.003	101.69
501.22	95.69
501.437	89.69
501.654	97.69
501.871	103.69
502.088	100.69
502.305	85.69
502.522	96.69
502.739	67.69
502.956	85.69
503.172	85.69
503.389	83.69
503.606	82.69
503.823	90.69
504.04	98.69
504.256	102.69
504.473	92.69
504.69	81.69
504.907	108.69
505.123	81.69
505.34	83.69
505.557	86.69
505.773	95.69
505.99	91.69
506.207	91.69
506.423	108.69
506.64	81.69
506.856	94.69
507.073	82.69
507.289	107.69
507.506	83.69
507.722	90.69
507.939	92.69
508.155	94.69
508.372	94.69
508.588	77.69
508.805	92.69
509.021	87.69
509.238	91.69
509.454	89.69
509.67	88.69
509.887	83.69
510.103	95.69
510.319	93.69
510.536	92.69
510.752	88.69
510.968	90.69
511.184	83.69
511.401	83.69
511.617	89.69
511.833	93.69
512.049	101.69
512.265	91.69
512.481	92.69
512.698	98.69
512.914	83.69
513.13	100.69
513.346	99.69
513.562	91.69
513.778	92.69
513.994	81.69
514.21	79.69
514.426	75.69
514.642	91.69
514.858	89.69
515.074	94.69
515.29	109.69
515.506	101.69
515.721	80.69
515.937	83.69
516.153	90.69
516.369	86.69
516.585	91.69
516.801	82.69
517.016	100.69
517.232	78.69
517.448	98.69
517.664	98.69
517.879	97.69
518.095	79.69
518.311	106.69
518.527	91.69
518.742	94.69
