Data from BG_HRD10591_077.txt Node
Date: Fri May 16 15:33:45 EDT 2025
User: Yrep
Spectrometer: HR+D1059
Trigger mode: 1
Integration Time (sec): 1.000000E-1
Scans to average: 1
Electric dark correction enabled: true
Nonlinearity correction enabled: false
Boxcar width: 0
XAxis mode: Wavelengths
Number of Pixels in Spectrum: 2048
>>>>>Begin Spectral Data<<<<<
223.165	-25.56
223.4	-25.56
223.635	-25.56
223.869	-30.56
224.104	-27.56
224.338	-23.56
224.573	-2.56
224.808	-9.56
225.042	-4.56
225.277	0.44
225.511	-2.56
225.746	10.44
225.98	9.44
226.215	10.44
226.449	22.44
226.683	26.44
226.918	16.44
227.152	30.44
227.387	30.44
227.621	42.44
227.856	43.44
228.09	47.44
228.324	55.44
228.559	64.44
228.793	70.44
229.027	46.44
229.262	72.44
229.496	70.44
229.73	66.44
229.964	56.44
230.199	54.44
230.433	76.44
230.667	74.44
230.901	86.44
231.136	71.44
231.37	80.44
231.604	74.44
231.838	91.44
232.072	83.44
232.306	89.44
232.541	81.44
232.775	77.44
233.009	79.44
233.243	69.44
233.477	74.44
233.711	77.44
233.945	83.44
234.179	80.44
234.413	81.44
234.647	80.44
234.881	87.44
235.115	82.44
235.349	76.44
235.583	78.44
235.817	80.44
236.051	81.44
236.285	90.44
236.519	86.44
236.753	85.44
236.987	79.44
237.221	79.44
237.455	71.44
237.689	71.44
237.922	81.44
238.156	86.44
238.39	84.44
238.624	78.44
238.858	77.44
239.091	84.44
239.325	71.44
239.559	62.44
239.793	79.44
240.027	83.44
240.26	85.44
240.494	72.44
240.728	62.44
240.961	68.44
241.195	73.44
241.429	80.44
241.662	73.44
241.896	78.44
242.13	70.44
242.363	72.44
242.597	91.44
242.83	68.44
243.064	76.44
243.298	82.44
243.531	76.44
243.765	78.44
243.998	80.44
244.232	86.44
244.465	84.44
244.699	87.44
244.932	88.44
245.166	76.44
245.399	77.44
245.633	78.44
245.866	79.44
246.099	72.44
246.333	79.44
246.566	78.44
246.8	91.44
247.033	83.44
247.266	90.44
247.5	83.44
247.733	85.44
247.966	78.44
248.2	91.44
248.433	70.44
248.666	80.44
248.899	76.44
249.133	82.44
249.366	83.44
249.599	69.44
249.832	78.44
250.066	86.44
250.299	79.44
250.532	72.44
250.765	82.44
250.998	82.44
251.231	84.44
251.465	82.44
251.698	75.44
251.931	96.44
252.164	82.44
252.397	86.44
252.63	87.44
252.863	69.44
253.096	83.44
253.329	97.44
253.562	84.44
253.795	93.44
254.028	81.44
254.261	71.44
254.494	75.44
254.727	82.44
254.96	76.44
255.193	81.44
255.426	82.44
255.659	83.44
255.892	88.44
256.124	82.44
256.357	79.44
256.59	69.44
256.823	80.44
257.056	72.44
257.289	94.44
257.521	83.44
257.754	81.44
257.987	83.44
258.22	94.44
258.452	82.44
258.685	82.44
258.918	81.44
259.151	66.44
259.383	76.44
259.616	92.44
259.849	74.44
260.081	78.44
260.314	82.44
260.547	67.44
260.779	70.44
261.012	84.44
261.244	80.44
261.477	78.44
261.71	85.44
261.942	86.44
262.175	96.44
262.407	79.44
262.64	84.44
262.872	77.44
263.105	65.44
263.337	78.44
263.57	83.44
263.802	93.44
264.035	78.44
264.267	81.44
264.499	90.44
264.732	85.44
264.964	90.44
265.197	78.44
265.429	82.44
265.661	85.44
265.894	74.44
266.126	76.44
266.358	86.44
266.591	89.44
266.823	94.44
267.055	87.44
267.287	81.44
267.52	64.44
267.752	71.44
267.984	70.44
268.216	88.44
268.448	86.44
268.681	90.44
268.913	83.44
269.145	74.44
269.377	74.44
269.609	77.44
269.841	87.44
270.073	89.44
270.306	97.44
270.538	80.44
270.77	75.44
271.002	90.44
271.234	94.44
271.466	77.44
271.698	88.44
271.93	83.44
272.162	82.44
272.394	78.44
272.626	68.44
272.858	80.44
273.09	74.44
273.322	78.44
273.553	85.44
273.785	76.44
274.017	82.44
274.249	76.44
274.481	76.44
274.713	79.44
274.945	91.44
275.176	97.44
275.408	82.44
275.64	91.44
275.872	76.44
276.104	80.44
276.335	79.44
276.567	83.44
276.799	83.44
277.031	62.44
277.262	80.44
277.494	75.44
277.726	88.44
277.957	89.44
278.189	75.44
278.421	84.44
278.652	84.44
278.884	87.44
279.115	94.44
279.347	76.44
279.579	102.44
279.81	90.44
280.042	88.44
280.273	82.44
280.505	83.44
280.736	78.44
280.968	95.44
281.199	94.44
281.431	96.44
281.662	75.44
281.894	77.44
282.125	76.44
282.356	83.44
282.588	94.44
282.819	86.44
283.051	94.44
283.282	90.44
283.513	90.44
283.745	84.44
283.976	79.44
284.207	94.44
284.439	88.44
284.67	90.44
284.901	90.44
285.132	79.44
285.364	80.44
285.595	99.44
285.826	94.44
286.057	92.44
286.288	94.44
286.52	83.44
286.751	99.44
286.982	83.44
287.213	78.44
287.444	82.44
287.675	82.44
287.906	89.44
288.138	98.44
288.369	90.44
288.6	81.44
288.831	78.44
289.062	98.44
289.293	97.44
289.524	95.44
289.755	96.44
289.986	93.44
290.217	92.44
290.448	91.44
290.679	86.44
290.91	92.44
291.141	89.44
291.371	86.44
291.602	77.44
291.833	99.44
292.064	89.44
292.295	82.44
292.526	83.44
292.757	79.44
292.987	92.44
293.218	91.44
293.449	80.44
293.68	87.44
293.91	94.44
294.141	100.44
294.372	77.44
294.603	86.44
294.833	106.44
295.064	98.44
295.295	81.44
295.525	82.44
295.756	85.44
295.987	84.44
296.217	88.44
296.448	86.44
296.679	81.44
296.909	91.44
297.14	85.44
297.37	72.44
297.601	77.44
297.831	72.44
298.062	98.44
298.292	80.44
298.523	84.44
298.753	88.44
298.984	84.44
299.214	95.44
299.445	98.44
299.675	95.44
299.905	83.44
300.136	88.44
300.366	98.44
300.597	85.44
300.827	91.44
301.057	84.44
301.288	80.44
301.518	96.44
301.748	91.44
301.979	87.44
302.209	80.44
302.439	84.44
302.669	80.44
302.9	86.44
303.13	80.44
303.36	83.44
303.59	97.44
303.82	98.44
304.051	76.44
304.281	90.44
304.511	84.44
304.741	84.44
304.971	98.44
305.201	91.44
305.431	82.44
305.661	90.44
305.891	85.44
306.121	97.44
306.352	82.44
306.582	86.44
306.812	79.44
307.042	88.44
307.272	87.44
307.502	60.44
307.731	84.44
307.961	90.44
308.191	92.44
308.421	86.44
308.651	94.44
308.881	88.44
309.111	88.44
309.341	83.44
309.571	90.44
309.8	77.44
310.03	90.44
310.26	74.44
310.49	72.44
310.72	87.44
310.949	89.44
311.179	95.44
311.409	87.44
311.639	92.44
311.868	91.44
312.098	90.44
312.328	80.44
312.557	91.44
312.787	80.44
313.017	100.44
313.246	92.44
313.476	89.44
313.706	81.44
313.935	103.44
314.165	110.44
314.394	85.44
314.624	95.44
314.853	87.44
315.083	98.44
315.312	93.44
315.542	78.44
315.771	82.44
316.001	88.44
316.23	96.44
316.46	91.44
316.689	88.44
316.919	76.44
317.148	92.44
317.377	92.44
317.607	90.44
317.836	86.44
318.065	100.44
318.295	83.44
318.524	75.44
318.753	84.44
318.983	90.44
319.212	77.44
319.441	86.44
319.67	92.44
319.9	86.44
320.129	91.44
320.358	66.44
320.587	77.44
320.816	90.44
321.046	78.44
321.275	93.44
321.504	98.44
321.733	84.44
321.962	78.44
322.191	88.44
322.42	76.44
322.649	90.44
322.878	91.44
323.108	87.44
323.337	84.44
323.566	84.44
323.795	79.44
324.024	71.44
324.253	89.44
324.482	93.44
324.71	60.44
324.939	79.44
325.168	82.44
325.397	89.44
325.626	90.44
325.855	94.44
326.084	90.44
326.313	111.44
326.542	98.44
326.77	92.44
326.999	89.44
327.228	105.44
327.457	80.44
327.686	80.44
327.914	86.44
328.143	82.44
328.372	83.44
328.6	71.44
328.829	86.44
329.058	73.44
329.287	74.44
329.515	94.44
329.744	92.44
329.972	93.44
330.201	99.44
330.43	90.44
330.658	84.44
330.887	99.44
331.115	81.44
331.344	91.44
331.572	87.44
331.801	84.44
332.03	86.44
332.258	74.44
332.486	67.44
332.715	86.44
332.943	74.44
333.172	77.44
333.4	93.44
333.629	92.44
333.857	95.44
334.085	95.44
334.314	77.44
334.542	83.44
334.771	93.44
334.999	91.44
335.227	87.44
335.455	78.44
335.684	90.44
335.912	83.44
336.14	89.44
336.369	102.44
336.597	82.44
336.825	78.44
337.053	84.44
337.281	82.44
337.51	98.44
337.738	105.44
337.966	88.44
338.194	80.44
338.422	82.44
338.65	85.44
338.878	88.44
339.106	74.44
339.334	83.44
339.562	85.44
339.79	85.44
340.018	74.44
340.246	83.44
340.474	78.44
340.702	90.44
340.93	79.44
341.158	83.44
341.386	92.44
341.614	88.44
341.842	80.44
342.07	92.44
342.298	87.44
342.526	82.44
342.754	86.44
342.981	74.44
343.209	80.44
343.437	95.44
343.665	80.44
343.893	92.44
344.12	87.44
344.348	96.44
344.576	72.44
344.804	86.44
345.031	78.44
345.259	90.44
345.487	78.44
345.714	87.44
345.942	93.44
346.17	77.44
346.397	85.44
346.625	87.44
346.853	91.44
347.08	95.44
347.308	86.44
347.535	82.44
347.763	81.44
347.99	94.44
348.218	76.44
348.445	88.44
348.673	85.44
348.9	87.44
349.128	87.44
349.355	86.44
349.583	82.44
349.81	82.44
350.037	87.44
350.265	86.44
350.492	71.44
350.72	81.44
350.947	84.44
351.174	88.44
351.402	78.44
351.629	76.44
351.856	84.44
352.083	83.44
352.311	88.44
352.538	76.44
352.765	86.44
352.992	86.44
353.22	81.44
353.447	93.44
353.674	78.44
353.901	82.44
354.128	82.44
354.355	97.44
354.583	92.44
354.81	83.44
355.037	91.44
355.264	94.44
355.491	81.44
355.718	92.44
355.945	94.44
356.172	86.44
356.399	95.44
356.626	90.44
356.853	87.44
357.08	75.44
357.307	86.44
357.534	88.44
357.761	76.44
357.988	89.44
358.215	86.44
358.441	74.44
358.668	91.44
358.895	84.44
359.122	74.44
359.349	86.44
359.576	97.44
359.802	85.44
360.029	85.44
360.256	88.44
360.483	74.44
360.709	96.44
360.936	92.44
361.163	89.44
361.39	81.44
361.616	96.44
361.843	89.44
362.07	87.44
362.296	78.44
362.523	88.44
362.749	84.44
362.976	95.44
363.203	84.44
363.429	84.44
363.656	80.44
363.882	86.44
364.109	81.44
364.335	82.44
364.562	92.44
364.788	97.44
365.015	79.44
365.241	71.44
365.468	73.44
365.694	84.44
365.92	88.44
366.147	95.44
366.373	80.44
366.599	79.44
366.826	74.44
367.052	79.44
367.278	78.44
367.505	102.44
367.731	80.44
367.957	93.44
368.184	96.44
368.41	90.44
368.636	88.44
368.862	82.44
369.089	84.44
369.315	84.44
369.541	100.44
369.767	86.44
369.993	91.44
370.219	82.44
370.445	90.44
370.672	67.44
370.898	74.44
371.124	81.44
371.35	76.44
371.576	80.44
371.802	69.44
372.028	88.44
372.254	84.44
372.48	75.44
372.706	84.44
372.932	82.44
373.158	82.44
373.384	86.44
373.61	76.44
373.835	91.44
374.061	82.44
374.287	93.44
374.513	89.44
374.739	87.44
374.965	89.44
375.191	86.44
375.416	64.44
375.642	90.44
375.868	84.44
376.094	94.44
376.319	85.44
376.545	78.44
376.771	86.44
376.997	83.44
377.222	82.44
377.448	80.44
377.674	82.44
377.899	98.44
378.125	81.44
378.35	86.44
378.576	95.44
378.802	87.44
379.027	89.44
379.253	87.44
379.478	73.44
379.704	79.44
379.929	68.44
380.155	87.44
380.38	83.44
380.606	84.44
380.831	82.44
381.057	80.44
381.282	75.44
381.507	68.44
381.733	92.44
381.958	68.44
382.184	79.44
382.409	66.44
382.634	81.44
382.86	80.44
383.085	84.44
383.31	80.44
383.535	75.44
383.761	83.44
383.986	91.44
384.211	85.44
384.436	67.44
384.662	76.44
384.887	80.44
385.112	73.44
385.337	80.44
385.562	66.44
385.787	68.44
386.013	77.44
386.238	67.44
386.463	82.44
386.688	96.44
386.913	78.44
387.138	95.44
387.363	96.44
387.588	85.44
387.813	77.44
388.038	77.44
388.263	83.44
388.488	75.44
388.713	68.44
388.938	69.44
389.163	87.44
389.387	77.44
389.612	82.44
389.837	86.44
390.062	77.44
390.287	87.44
390.512	89.44
390.736	94.44
390.961	83.44
391.186	75.44
391.411	83.44
391.636	83.44
391.86	90.44
392.085	71.44
392.31	76.44
392.534	84.44
392.759	75.44
392.984	75.44
393.208	79.44
393.433	84.44
393.658	79.44
393.882	92.44
394.107	91.44
394.331	79.44
394.556	86.44
394.78	97.44
395.005	77.44
395.229	88.44
395.454	99.44
395.678	87.44
395.903	74.44
396.127	72.44
396.352	70.44
396.576	65.44
396.801	91.44
397.025	83.44
397.249	77.44
397.474	102.44
397.698	74.44
397.922	76.44
398.147	86.44
398.371	72.44
398.595	74.44
398.82	98.44
399.044	92.44
399.268	88.44
399.492	83.44
399.717	78.44
399.941	83.44
400.165	79.44
400.389	75.44
400.613	84.44
400.837	90.44
401.062	82.44
401.286	87.44
401.51	76.44
401.734	81.44
401.958	87.44
402.182	76.44
402.406	83.44
402.63	73.44
402.854	76.44
403.078	86.44
403.302	77.44
403.526	83.44
403.75	68.44
403.974	74.44
404.198	83.44
404.422	76.44
404.645	79.44
404.869	87.44
405.093	87.44
405.317	87.44
405.541	89.44
405.765	77.44
405.988	98.44
406.212	103.44
406.436	78.44
406.66	86.44
406.883	77.44
407.107	92.44
407.331	80.44
407.555	73.44
407.778	85.44
408.002	84.44
408.226	73.44
408.449	74.44
408.673	88.44
408.896	87.44
409.12	79.44
409.344	77.44
409.567	78.44
409.791	85.44
410.014	79.44
410.238	88.44
410.461	80.44
410.685	81.44
410.908	80.44
411.132	72.44
411.355	71.44
411.578	72.44
411.802	77.44
412.025	68.44
412.249	91.44
412.472	94.44
412.695	92.44
412.919	86.44
413.142	74.44
413.365	85.44
413.589	86.44
413.812	77.44
414.035	92.44
414.258	82.44
414.482	74.44
414.705	77.44
414.928	96.44
415.151	76.44
415.374	92.44
415.597	72.44
415.821	75.44
416.044	80.44
416.267	90.44
416.49	85.44
416.713	80.44
416.936	87.44
417.159	74.44
417.382	85.44
417.605	81.44
417.828	86.44
418.051	77.44
418.274	96.44
418.497	89.44
418.72	74.44
418.943	80.44
419.166	78.44
419.389	80.44
419.611	66.44
419.834	82.44
420.057	90.44
420.28	87.44
420.503	80.44
420.726	78.44
420.948	88.44
421.171	86.44
421.394	84.44
421.617	87.44
421.839	76.44
422.062	79.44
422.285	96.44
422.507	87.44
422.73	86.44
422.953	58.44
423.175	88.44
423.398	82.44
423.621	82.44
423.843	92.44
424.066	80.44
424.288	68.44
424.511	74.44
424.733	87.44
424.956	78.44
425.178	77.44
425.401	80.44
425.623	84.44
425.846	73.44
426.068	91.44
426.291	84.44
426.513	96.44
426.735	93.44
426.958	88.44
427.18	83.44
427.402	88.44
427.625	74.44
427.847	74.44
428.069	82.44
428.292	76.44
428.514	82.44
428.736	82.44
428.958	66.44
429.181	77.44
429.403	72.44
429.625	88.44
429.847	83.44
430.069	85.44
430.292	104.44
430.514	90.44
430.736	94.44
430.958	71.44
431.18	86.44
431.402	68.44
431.624	88.44
431.846	76.44
432.068	86.44
432.29	72.44
432.512	82.44
432.734	72.44
432.956	82.44
433.178	85.44
433.4	54.44
433.622	74.44
433.844	92.44
434.066	77.44
434.287	77.44
434.509	84.44
434.731	74.44
434.953	89.44
435.175	80.44
435.397	80.44
435.618	83.44
435.84	84.44
436.062	70.44
436.284	66.44
436.505	66.44
436.727	78.44
436.949	85.44
437.17	73.44
437.392	80.44
437.614	75.44
437.835	82.44
438.057	74.44
438.278	89.44
438.5	86.44
438.721	84.44
438.943	79.44
439.165	93.44
439.386	94.44
439.608	88.44
439.829	87.44
440.05	91.44
440.272	91.44
440.493	99.44
440.715	80.44
440.936	69.44
441.158	72.44
441.379	63.44
441.6	74.44
441.822	84.44
442.043	82.44
442.264	64.44
442.486	82.44
442.707	76.44
442.928	77.44
443.149	87.44
443.371	63.44
443.592	73.44
443.813	82.44
444.034	72.44
444.255	99.44
444.476	82.44
444.698	91.44
444.919	70.44
445.14	162.44
445.361	114.44
445.582	82.44
445.803	72.44
446.024	74.44
446.245	85.44
446.466	83.44
446.687	86.44
446.908	81.44
447.129	82.44
447.35	75.44
447.571	85.44
447.792	78.44
448.013	67.44
448.234	91.44
448.455	90.44
448.675	84.44
448.896	73.44
449.117	86.44
449.338	75.44
449.559	91.44
449.779	89.44
450	91.44
450.221	87.44
450.442	85.44
450.662	81.44
450.883	82.44
451.104	89.44
451.324	87.44
451.545	75.44
451.766	82.44
451.986	83.44
452.207	89.44
452.428	78.44
452.648	87.44
452.869	90.44
453.089	85.44
453.31	86.44
453.53	81.44
453.751	86.44
453.971	102.44
454.192	85.44
454.412	72.44
454.633	83.44
454.853	87.44
455.073	66.44
455.294	78.44
455.514	89.44
455.734	80.44
455.955	70.44
456.175	82.44
456.395	93.44
456.616	94.44
456.836	81.44
457.056	84.44
457.276	81.44
457.497	75.44
457.717	81.44
457.937	91.44
458.157	75.44
458.377	77.44
458.598	86.44
458.818	75.44
459.038	84.44
459.258	82.44
459.478	75.44
459.698	82.44
459.918	86.44
460.138	67.44
460.358	74.44
460.578	74.44
460.798	71.44
461.018	88.44
461.238	82.44
461.458	83.44
461.678	90.44
461.898	88.44
462.118	79.44
462.338	76.44
462.558	67.44
462.777	76.44
462.997	90.44
463.217	79.44
463.437	72.44
463.657	86.44
463.876	82.44
464.096	77.44
464.316	87.44
464.536	78.44
464.755	82.44
464.975	78.44
465.195	86.44
465.414	74.44
465.634	84.44
465.854	89.44
466.073	81.44
466.293	83.44
466.512	91.44
466.732	80.44
466.951	100.44
467.171	65.44
467.391	86.44
467.61	87.44
467.829	80.44
468.049	71.44
468.268	83.44
468.488	69.44
468.707	78.44
468.927	78.44
469.146	81.44
469.365	79.44
469.585	90.44
469.804	78.44
470.023	103.44
470.243	90.44
470.462	72.44
470.681	79.44
470.901	74.44
471.12	68.44
471.339	87.44
471.558	77.44
471.777	77.44
471.997	83.44
472.216	75.44
472.435	95.44
472.654	80.44
472.873	75.44
473.092	87.44
473.311	84.44
473.53	80.44
473.749	86.44
473.968	86.44
474.187	81.44
474.406	70.44
474.625	66.44
474.844	93.44
475.063	84.44
475.282	98.44
475.501	77.44
475.72	74.44
475.939	82.44
476.158	72.44
476.377	79.44
476.596	93.44
476.814	72.44
477.033	80.44
477.252	80.44
477.471	79.44
477.69	74.44
477.908	84.44
478.127	73.44
478.346	76.44
478.564	96.44
478.783	98.44
479.002	87.44
479.22	74.44
479.439	81.44
479.658	92.44
479.876	86.44
480.095	93.44
480.313	95.44
480.532	77.44
480.751	87.44
480.969	80.44
481.188	76.44
481.406	84.44
481.624	82.44
481.843	89.44
482.061	66.44
482.28	72.44
482.498	80.44
482.717	80.44
482.935	81.44
483.153	81.44
483.372	87.44
483.59	88.44
483.808	60.44
484.027	68.44
484.245	83.44
484.463	82.44
484.681	82.44
484.9	79.44
485.118	88.44
485.336	80.44
485.554	96.44
485.772	73.44
485.99	88.44
486.209	72.44
486.427	62.44
486.645	78.44
486.863	85.44
487.081	73.44
487.299	83.44
487.517	78.44
487.735	91.44
487.953	83.44
488.171	75.44
488.389	78.44
488.607	67.44
488.825	84.44
489.043	79.44
489.261	87.44
489.479	86.44
489.696	87.44
489.914	74.44
490.132	82.44
490.35	98.44
490.568	85.44
490.786	89.44
491.003	79.44
491.221	83.44
491.439	83.44
491.657	81.44
491.874	88.44
492.092	84.44
492.31	91.44
492.527	84.44
492.745	91.44
492.963	83.44
493.18	76.44
493.398	98.44
493.615	87.44
493.833	88.44
494.05	79.44
494.268	81.44
494.485	82.44
494.703	91.44
494.92	90.44
495.138	81.44
495.355	82.44
495.573	83.44
495.79	93.44
496.008	97.44
496.225	83.44
496.442	83.44
496.66	91.44
496.877	80.44
497.094	67.44
497.312	74.44
497.529	89.44
497.746	79.44
497.963	88.44
498.181	67.44
498.398	86.44
498.615	80.44
498.832	79.44
499.049	71.44
499.267	79.44
499.484	83.44
499.701	82.44
499.918	84.44
500.135	80.44
500.352	67.44
500.569	100.44
500.786	77.44
501.003	85.44
501.22	88.44
501.437	103.44
501.654	86.44
501.871	81.44
502.088	86.44
502.305	87.44
502.522	77.44
502.739	82.44
502.956	77.44
503.172	83.44
503.389	86.44
503.606	86.44
503.823	82.44
504.04	76.44
504.256	92.44
504.473	103.44
504.69	79.44
504.907	84.44
505.123	87.44
505.34	69.44
505.557	84.44
505.773	85.44
505.99	80.44
506.207	88.44
506.423	90.44
506.64	69.44
506.856	83.44
507.073	95.44
507.289	84.44
507.506	80.44
507.722	93.44
507.939	79.44
508.155	83.44
508.372	93.44
508.588	81.44
508.805	78.44
509.021	79.44
509.238	82.44
509.454	102.44
509.67	89.44
509.887	82.44
510.103	71.44
510.319	76.44
510.536	81.44
510.752	91.44
510.968	79.44
511.184	78.44
511.401	92.44
511.617	84.44
511.833	96.44
512.049	86.44
512.265	92.44
512.481	84.44
512.698	81.44
512.914	83.44
513.13	83.44
513.346	90.44
513.562	80.44
513.778	86.44
513.994	80.44
514.21	88.44
514.426	85.44
514.642	83.44
514.858	92.44
515.074	94.44
515.29	95.44
515.506	83.44
515.721	70.44
515.937	80.44
516.153	85.44
516.369	83.44
516.585	86.44
516.801	82.44
517.016	81.44
517.232	71.44
517.448	78.44
517.664	83.44
517.879	82.44
518.095	80.44
518.311	103.44
518.527	88.44
518.742	94.44
518.958	89.44
519.173	92.44
519.389	93.44
519.605	90.44
519.82	64.44
520.036	93.44
