Data from BG_HRD10591_080.txt Node
Date: Fri May 16 15:33:47 EDT 2025
User: Yrep
Spectrometer: HR+D1059
Trigger mode: 1
Integration Time (sec): 1.000000E-1
Scans to average: 1
Electric dark correction enabled: true
Nonlinearity correction enabled: false
Boxcar width: 0
XAxis mode: Wavelengths
Number of Pixels in Spectrum: 2048
>>>>>Begin Spectral Data<<<<<
223.165	-26.62
223.4	-26.62
223.635	-26.62
223.869	-21.62
224.104	-17.62
224.338	-26.62
224.573	-3.62
224.808	-7.62
225.042	14.38
225.277	-5.62
225.511	-7.62
225.746	-3.62
225.98	13.38
226.215	2.38
226.449	16.38
226.683	26.38
226.918	20.38
227.152	27.38
227.387	30.38
227.621	49.38
227.856	46.38
228.09	53.38
228.324	54.38
228.559	63.38
228.793	61.38
229.027	58.38
229.262	73.38
229.496	72.38
229.73	76.38
229.964	74.38
230.199	80.38
230.433	87.38
230.667	86.38
230.901	76.38
231.136	78.38
231.37	81.38
231.604	72.38
231.838	84.38
232.072	83.38
232.306	69.38
232.541	68.38
232.775	76.38
233.009	91.38
233.243	75.38
233.477	85.38
233.711	90.38
233.945	80.38
234.179	90.38
234.413	96.38
234.647	86.38
234.881	102.38
235.115	78.38
235.349	67.38
235.583	86.38
235.817	85.38
236.051	63.38
236.285	77.38
236.519	73.38
236.753	90.38
236.987	64.38
237.221	79.38
237.455	77.38
237.689	79.38
237.922	91.38
238.156	84.38
238.39	83.38
238.624	84.38
238.858	90.38
239.091	85.38
239.325	80.38
239.559	73.38
239.793	72.38
240.027	73.38
240.26	85.38
240.494	96.38
240.728	79.38
240.961	73.38
241.195	86.38
241.429	84.38
241.662	87.38
241.896	80.38
242.13	94.38
242.363	80.38
242.597	80.38
242.83	93.38
243.064	77.38
243.298	75.38
243.531	74.38
243.765	76.38
243.998	66.38
244.232	88.38
244.465	78.38
244.699	78.38
244.932	85.38
245.166	84.38
245.399	67.38
245.633	87.38
245.866	83.38
246.099	77.38
246.333	72.38
246.566	64.38
246.8	83.38
247.033	88.38
247.266	69.38
247.5	83.38
247.733	84.38
247.966	71.38
248.2	71.38
248.433	75.38
248.666	72.38
248.899	83.38
249.133	93.38
249.366	99.38
249.599	82.38
249.832	85.38
250.066	85.38
250.299	95.38
250.532	70.38
250.765	79.38
250.998	89.38
251.231	88.38
251.465	99.38
251.698	75.38
251.931	92.38
252.164	73.38
252.397	66.38
252.63	91.38
252.863	70.38
253.096	75.38
253.329	76.38
253.562	79.38
253.795	94.38
254.028	84.38
254.261	64.38
254.494	71.38
254.727	87.38
254.96	69.38
255.193	83.38
255.426	89.38
255.659	80.38
255.892	83.38
256.124	92.38
256.357	91.38
256.59	77.38
256.823	79.38
257.056	81.38
257.289	92.38
257.521	93.38
257.754	95.38
257.987	82.38
258.22	92.38
258.452	83.38
258.685	75.38
258.918	74.38
259.151	72.38
259.383	84.38
259.616	80.38
259.849	83.38
260.081	91.38
260.314	88.38
260.547	78.38
260.779	79.38
261.012	83.38
261.244	74.38
261.477	87.38
261.71	86.38
261.942	74.38
262.175	69.38
262.407	75.38
262.64	86.38
262.872	83.38
263.105	86.38
263.337	80.38
263.57	91.38
263.802	76.38
264.035	83.38
264.267	89.38
264.499	94.38
264.732	80.38
264.964	89.38
265.197	72.38
265.429	82.38
265.661	76.38
265.894	85.38
266.126	79.38
266.358	93.38
266.591	84.38
266.823	94.38
267.055	73.38
267.287	89.38
267.52	82.38
267.752	86.38
267.984	78.38
268.216	95.38
268.448	106.38
268.681	85.38
268.913	79.38
269.145	82.38
269.377	85.38
269.609	88.38
269.841	94.38
270.073	90.38
270.306	86.38
270.538	84.38
270.77	79.38
271.002	76.38
271.234	77.38
271.466	86.38
271.698	84.38
271.93	88.38
272.162	83.38
272.394	112.38
272.626	79.38
272.858	74.38
273.09	77.38
273.322	73.38
273.553	80.38
273.785	90.38
274.017	87.38
274.249	90.38
274.481	106.38
274.713	94.38
274.945	87.38
275.176	86.38
275.408	82.38
275.64	73.38
275.872	70.38
276.104	82.38
276.335	79.38
276.567	92.38
276.799	80.38
277.031	94.38
277.262	72.38
277.494	83.38
277.726	86.38
277.957	98.38
278.189	92.38
278.421	79.38
278.652	90.38
278.884	92.38
279.115	82.38
279.347	90.38
279.579	83.38
279.81	82.38
280.042	67.38
280.273	90.38
280.505	74.38
280.736	89.38
280.968	82.38
281.199	88.38
281.431	87.38
281.662	74.38
281.894	72.38
282.125	85.38
282.356	94.38
282.588	86.38
282.819	89.38
283.051	78.38
283.282	91.38
283.513	102.38
283.745	83.38
283.976	82.38
284.207	98.38
284.439	82.38
284.67	78.38
284.901	82.38
285.132	81.38
285.364	89.38
285.595	90.38
285.826	87.38
286.057	90.38
286.288	91.38
286.52	94.38
286.751	66.38
286.982	79.38
287.213	88.38
287.444	87.38
287.675	88.38
287.906	81.38
288.138	81.38
288.369	88.38
288.6	85.38
288.831	94.38
289.062	82.38
289.293	82.38
289.524	98.38
289.755	91.38
289.986	83.38
290.217	95.38
290.448	97.38
290.679	97.38
290.91	95.38
291.141	88.38
291.371	97.38
291.602	78.38
291.833	85.38
292.064	79.38
292.295	99.38
292.526	98.38
292.757	83.38
292.987	88.38
293.218	98.38
293.449	88.38
293.68	96.38
293.91	102.38
294.141	92.38
294.372	74.38
294.603	105.38
294.833	83.38
295.064	97.38
295.295	85.38
295.525	87.38
295.756	100.38
295.987	94.38
296.217	74.38
296.448	90.38
296.679	92.38
296.909	94.38
297.14	90.38
297.37	83.38
297.601	92.38
297.831	89.38
298.062	91.38
298.292	85.38
298.523	85.38
298.753	85.38
298.984	93.38
299.214	96.38
299.445	84.38
299.675	78.38
299.905	74.38
300.136	88.38
300.366	80.38
300.597	90.38
300.827	94.38
301.057	94.38
301.288	81.38
301.518	92.38
301.748	94.38
301.979	96.38
302.209	93.38
302.439	84.38
302.669	86.38
302.9	86.38
303.13	94.38
303.36	82.38
303.59	83.38
303.82	87.38
304.051	71.38
304.281	91.38
304.511	98.38
304.741	94.38
304.971	92.38
305.201	93.38
305.431	90.38
305.661	84.38
305.891	74.38
306.121	80.38
306.352	77.38
306.582	88.38
306.812	87.38
307.042	95.38
307.272	92.38
307.502	93.38
307.731	91.38
307.961	77.38
308.191	81.38
308.421	98.38
308.651	78.38
308.881	87.38
309.111	99.38
309.341	90.38
309.571	87.38
309.8	82.38
310.03	93.38
310.26	102.38
310.49	99.38
310.72	85.38
310.949	93.38
311.179	85.38
311.409	90.38
311.639	92.38
311.868	92.38
312.098	83.38
312.328	85.38
312.557	96.38
312.787	79.38
313.017	95.38
313.246	106.38
313.476	85.38
313.706	83.38
313.935	80.38
314.165	87.38
314.394	75.38
314.624	93.38
314.853	84.38
315.083	83.38
315.312	90.38
315.542	85.38
315.771	99.38
316.001	100.38
316.23	93.38
316.46	98.38
316.689	84.38
316.919	87.38
317.148	98.38
317.377	85.38
317.607	85.38
317.836	87.38
318.065	78.38
318.295	81.38
318.524	91.38
318.753	86.38
318.983	91.38
319.212	90.38
319.441	95.38
319.67	63.38
319.9	101.38
320.129	99.38
320.358	92.38
320.587	83.38
320.816	76.38
321.046	80.38
321.275	93.38
321.504	79.38
321.733	99.38
321.962	88.38
322.191	91.38
322.42	81.38
322.649	80.38
322.878	88.38
323.108	96.38
323.337	72.38
323.566	90.38
323.795	88.38
324.024	83.38
324.253	77.38
324.482	74.38
324.71	83.38
324.939	66.38
325.168	84.38
325.397	84.38
325.626	111.38
325.855	108.38
326.084	84.38
326.313	92.38
326.542	92.38
326.77	91.38
326.999	85.38
327.228	82.38
327.457	82.38
327.686	90.38
327.914	109.38
328.143	86.38
328.372	84.38
328.6	84.38
328.829	82.38
329.058	86.38
329.287	69.38
329.515	78.38
329.744	86.38
329.972	110.38
330.201	79.38
330.43	87.38
330.658	88.38
330.887	99.38
331.115	86.38
331.344	98.38
331.572	99.38
331.801	90.38
332.03	96.38
332.258	92.38
332.486	72.38
332.715	80.38
332.943	84.38
333.172	84.38
333.4	79.38
333.629	84.38
333.857	96.38
334.085	92.38
334.314	102.38
334.542	92.38
334.771	86.38
334.999	81.38
335.227	92.38
335.455	82.38
335.684	85.38
335.912	84.38
336.14	87.38
336.369	86.38
336.597	77.38
336.825	90.38
337.053	72.38
337.281	91.38
337.51	83.38
337.738	93.38
337.966	93.38
338.194	96.38
338.422	89.38
338.65	86.38
338.878	87.38
339.106	82.38
339.334	91.38
339.562	88.38
339.79	72.38
340.018	76.38
340.246	98.38
340.474	101.38
340.702	89.38
340.93	82.38
341.158	62.38
341.386	76.38
341.614	91.38
341.842	80.38
342.07	93.38
342.298	80.38
342.526	88.38
342.754	80.38
342.981	83.38
343.209	93.38
343.437	104.38
343.665	92.38
343.893	97.38
344.12	87.38
344.348	85.38
344.576	87.38
344.804	76.38
345.031	96.38
345.259	93.38
345.487	94.38
345.714	99.38
345.942	90.38
346.17	100.38
346.397	84.38
346.625	80.38
346.853	79.38
347.08	93.38
347.308	104.38
347.535	93.38
347.763	87.38
347.99	90.38
348.218	86.38
348.445	80.38
348.673	92.38
348.9	93.38
349.128	85.38
349.355	95.38
349.583	91.38
349.81	88.38
350.037	80.38
350.265	86.38
350.492	93.38
350.72	79.38
350.947	84.38
351.174	82.38
351.402	70.38
351.629	104.38
351.856	104.38
352.083	90.38
352.311	90.38
352.538	103.38
352.765	95.38
352.992	87.38
353.22	95.38
353.447	87.38
353.674	78.38
353.901	102.38
354.128	90.38
354.355	73.38
354.583	93.38
354.81	90.38
355.037	72.38
355.264	86.38
355.491	84.38
355.718	89.38
355.945	90.38
356.172	95.38
356.399	86.38
356.626	90.38
356.853	92.38
357.08	90.38
357.307	90.38
357.534	88.38
357.761	82.38
357.988	94.38
358.215	100.38
358.441	86.38
358.668	96.38
358.895	82.38
359.122	70.38
359.349	86.38
359.576	97.38
359.802	95.38
360.029	85.38
360.256	84.38
360.483	86.38
360.709	59.38
360.936	95.38
361.163	85.38
361.39	85.38
361.616	88.38
361.843	95.38
362.07	92.38
362.296	100.38
362.523	90.38
362.749	91.38
362.976	81.38
363.203	67.38
363.429	70.38
363.656	86.38
363.882	79.38
364.109	85.38
364.335	90.38
364.562	82.38
364.788	77.38
365.015	81.38
365.241	83.38
365.468	90.38
365.694	76.38
365.92	85.38
366.147	62.38
366.373	89.38
366.599	98.38
366.826	82.38
367.052	99.38
367.278	77.38
367.505	87.38
367.731	83.38
367.957	91.38
368.184	87.38
368.41	98.38
368.636	69.38
368.862	89.38
369.089	67.38
369.315	97.38
369.541	111.38
369.767	94.38
369.993	101.38
370.219	91.38
370.445	96.38
370.672	82.38
370.898	76.38
371.124	84.38
371.35	86.38
371.576	85.38
371.802	90.38
372.028	95.38
372.254	90.38
372.48	73.38
372.706	94.38
372.932	76.38
373.158	84.38
373.384	79.38
373.61	90.38
373.835	88.38
374.061	87.38
374.287	88.38
374.513	97.38
374.739	76.38
374.965	88.38
375.191	79.38
375.416	85.38
375.642	78.38
375.868	85.38
376.094	86.38
376.319	88.38
376.545	88.38
376.771	84.38
376.997	95.38
377.222	78.38
377.448	85.38
377.674	81.38
377.899	76.38
378.125	94.38
378.35	75.38
378.576	77.38
378.802	96.38
379.027	100.38
379.253	96.38
379.478	99.38
379.704	92.38
379.929	72.38
380.155	80.38
380.38	85.38
380.606	87.38
380.831	91.38
381.057	94.38
381.282	75.38
381.507	91.38
381.733	78.38
381.958	84.38
382.184	80.38
382.409	95.38
382.634	84.38
382.86	100.38
383.085	89.38
383.31	78.38
383.535	84.38
383.761	78.38
383.986	69.38
384.211	84.38
384.436	86.38
384.662	82.38
384.887	90.38
385.112	77.38
385.337	86.38
385.562	84.38
385.787	96.38
386.013	88.38
386.238	86.38
386.463	86.38
386.688	92.38
386.913	74.38
387.138	78.38
387.363	90.38
387.588	83.38
387.813	79.38
388.038	93.38
388.263	84.38
388.488	95.38
388.713	91.38
388.938	75.38
389.163	85.38
389.387	90.38
389.612	87.38
389.837	88.38
390.062	85.38
390.287	90.38
390.512	80.38
390.736	96.38
390.961	101.38
391.186	80.38
391.411	74.38
391.636	88.38
391.86	90.38
392.085	84.38
392.31	91.38
392.534	76.38
392.759	96.38
392.984	80.38
393.208	79.38
393.433	82.38
393.658	78.38
393.882	99.38
394.107	91.38
394.331	77.38
394.556	79.38
394.78	89.38
395.005	78.38
395.229	84.38
395.454	90.38
395.678	82.38
395.903	81.38
396.127	76.38
396.352	81.38
396.576	100.38
396.801	93.38
397.025	76.38
397.249	82.38
397.474	77.38
397.698	61.38
397.922	79.38
398.147	81.38
398.371	86.38
398.595	83.38
398.82	82.38
399.044	83.38
399.268	72.38
399.492	96.38
399.717	83.38
399.941	60.38
400.165	86.38
400.389	78.38
400.613	92.38
400.837	92.38
401.062	91.38
401.286	84.38
401.51	87.38
401.734	79.38
401.958	70.38
402.182	77.38
402.406	81.38
402.63	82.38
402.854	70.38
403.078	83.38
403.302	77.38
403.526	82.38
403.75	99.38
403.974	100.38
404.198	93.38
404.422	89.38
404.645	93.38
404.869	82.38
405.093	90.38
405.317	102.38
405.541	89.38
405.765	71.38
405.988	79.38
406.212	90.38
406.436	88.38
406.66	74.38
406.883	95.38
407.107	88.38
407.331	87.38
407.555	79.38
407.778	75.38
408.002	82.38
408.226	89.38
408.449	70.38
408.673	93.38
408.896	78.38
409.12	75.38
409.344	74.38
409.567	83.38
409.791	82.38
410.014	90.38
410.238	88.38
410.461	77.38
410.685	77.38
410.908	78.38
411.132	93.38
411.355	81.38
411.578	78.38
411.802	77.38
412.025	83.38
412.249	80.38
412.472	67.38
412.695	84.38
412.919	94.38
413.142	73.38
413.365	60.38
413.589	87.38
413.812	80.38
414.035	78.38
414.258	81.38
414.482	81.38
414.705	95.38
414.928	105.38
415.151	72.38
415.374	75.38
415.597	81.38
415.821	94.38
416.044	84.38
416.267	92.38
416.49	100.38
416.713	82.38
416.936	96.38
417.159	96.38
417.382	76.38
417.605	80.38
417.828	87.38
418.051	74.38
418.274	79.38
418.497	93.38
418.72	75.38
418.943	78.38
419.166	89.38
419.389	79.38
419.611	85.38
419.834	91.38
420.057	100.38
420.28	79.38
420.503	78.38
420.726	71.38
420.948	79.38
421.171	73.38
421.394	85.38
421.617	80.38
421.839	91.38
422.062	80.38
422.285	73.38
422.507	83.38
422.73	75.38
422.953	73.38
423.175	88.38
423.398	92.38
423.621	78.38
423.843	79.38
424.066	83.38
424.288	77.38
424.511	95.38
424.733	85.38
424.956	83.38
425.178	80.38
425.401	86.38
425.623	80.38
425.846	82.38
426.068	89.38
426.291	99.38
426.513	78.38
426.735	78.38
426.958	92.38
427.18	97.38
427.402	97.38
427.625	90.38
427.847	74.38
428.069	86.38
428.292	81.38
428.514	84.38
428.736	77.38
428.958	87.38
429.181	79.38
429.403	75.38
429.625	78.38
429.847	91.38
430.069	78.38
430.292	80.38
430.514	95.38
430.736	62.38
430.958	88.38
431.18	87.38
431.402	82.38
431.624	87.38
431.846	85.38
432.068	97.38
432.29	77.38
432.512	87.38
432.734	90.38
432.956	86.38
433.178	92.38
433.4	80.38
433.622	87.38
433.844	86.38
434.066	80.38
434.287	83.38
434.509	81.38
434.731	80.38
434.953	78.38
435.175	90.38
435.397	83.38
435.618	82.38
435.84	82.38
436.062	91.38
436.284	84.38
436.505	78.38
436.727	86.38
436.949	75.38
437.17	88.38
437.392	98.38
437.614	66.38
437.835	82.38
438.057	69.38
438.278	86.38
438.5	87.38
438.721	102.38
438.943	86.38
439.165	61.38
439.386	68.38
439.608	89.38
439.829	91.38
440.05	88.38
440.272	73.38
440.493	100.38
440.715	93.38
440.936	79.38
441.158	99.38
441.379	78.38
441.6	73.38
441.822	79.38
442.043	83.38
442.264	88.38
442.486	95.38
442.707	69.38
442.928	83.38
443.149	83.38
443.371	68.38
443.592	88.38
443.813	87.38
444.034	87.38
444.255	79.38
444.476	92.38
444.698	94.38
444.919	86.38
445.14	151.38
445.361	124.38
445.582	93.38
445.803	93.38
446.024	93.38
446.245	86.38
446.466	84.38
446.687	84.38
446.908	80.38
447.129	87.38
447.35	77.38
447.571	81.38
447.792	90.38
448.013	80.38
448.234	84.38
448.455	96.38
448.675	84.38
448.896	82.38
449.117	92.38
449.338	87.38
449.559	79.38
449.779	91.38
450	88.38
450.221	90.38
450.442	81.38
450.662	83.38
450.883	95.38
451.104	82.38
451.324	84.38
451.545	81.38
451.766	69.38
451.986	88.38
452.207	94.38
452.428	91.38
452.648	90.38
452.869	83.38
453.089	66.38
453.31	95.38
453.53	90.38
453.751	86.38
453.971	80.38
454.192	82.38
454.412	91.38
454.633	82.38
454.853	87.38
455.073	98.38
455.294	84.38
455.514	70.38
455.734	81.38
455.955	90.38
456.175	69.38
456.395	90.38
456.616	78.38
456.836	85.38
457.056	75.38
457.276	96.38
457.497	87.38
457.717	82.38
457.937	91.38
458.157	95.38
458.377	96.38
458.598	78.38
458.818	67.38
459.038	76.38
459.258	79.38
459.478	75.38
459.698	94.38
459.918	94.38
460.138	76.38
460.358	68.38
460.578	92.38
460.798	86.38
461.018	80.38
461.238	67.38
461.458	91.38
461.678	98.38
461.898	104.38
462.118	79.38
462.338	99.38
462.558	89.38
462.777	70.38
462.997	84.38
463.217	86.38
463.437	83.38
463.657	82.38
463.876	83.38
464.096	83.38
464.316	88.38
464.536	90.38
464.755	96.38
464.975	85.38
465.195	78.38
465.414	78.38
465.634	81.38
465.854	87.38
466.073	99.38
466.293	68.38
466.512	93.38
466.732	78.38
466.951	82.38
467.171	71.38
467.391	77.38
467.61	80.38
467.829	78.38
468.049	77.38
468.268	79.38
468.488	92.38
468.707	101.38
468.927	82.38
469.146	84.38
469.365	79.38
469.585	85.38
469.804	85.38
470.023	89.38
470.243	83.38
470.462	75.38
470.681	84.38
470.901	83.38
471.12	76.38
471.339	109.38
471.558	87.38
471.777	79.38
471.997	86.38
472.216	76.38
472.435	90.38
472.654	72.38
472.873	92.38
473.092	88.38
473.311	94.38
473.53	96.38
473.749	93.38
473.968	92.38
474.187	98.38
474.406	90.38
474.625	90.38
474.844	79.38
475.063	77.38
475.282	81.38
475.501	89.38
475.72	100.38
475.939	91.38
476.158	78.38
476.377	86.38
476.596	88.38
476.814	79.38
477.033	72.38
477.252	84.38
477.471	69.38
477.69	83.38
477.908	67.38
478.127	84.38
478.346	91.38
478.564	90.38
478.783	87.38
479.002	84.38
479.22	89.38
479.439	76.38
479.658	75.38
479.876	90.38
480.095	93.38
480.313	81.38
480.532	78.38
480.751	91.38
480.969	70.38
481.188	82.38
481.406	71.38
481.624	96.38
481.843	79.38
482.061	81.38
482.28	88.38
482.498	102.38
482.717	86.38
482.935	89.38
483.153	92.38
483.372	85.38
483.59	92.38
483.808	82.38
484.027	74.38
484.245	87.38
484.463	83.38
484.681	83.38
484.9	86.38
485.118	91.38
485.336	82.38
485.554	85.38
485.772	73.38
485.99	90.38
486.209	81.38
486.427	84.38
486.645	75.38
486.863	88.38
487.081	76.38
487.299	85.38
487.517	100.38
487.735	87.38
487.953	85.38
488.171	94.38
488.389	71.38
488.607	94.38
488.825	99.38
489.043	87.38
489.261	83.38
489.479	96.38
489.696	87.38
489.914	84.38
490.132	88.38
490.35	75.38
490.568	92.38
490.786	82.38
491.003	90.38
491.221	85.38
491.439	93.38
491.657	88.38
491.874	94.38
492.092	80.38
492.31	84.38
492.527	79.38
492.745	71.38
492.963	76.38
493.18	78.38
493.398	86.38
493.615	88.38
493.833	87.38
494.05	85.38
494.268	92.38
494.485	90.38
494.703	94.38
494.92	89.38
495.138	89.38
495.355	107.38
495.573	99.38
495.79	77.38
496.008	65.38
496.225	78.38
496.442	89.38
496.66	96.38
496.877	87.38
497.094	94.38
497.312	93.38
497.529	92.38
497.746	95.38
497.963	85.38
498.181	84.38
498.398	81.38
498.615	94.38
498.832	83.38
499.049	87.38
499.267	97.38
499.484	95.38
499.701	73.38
499.918	94.38
500.135	86.38
500.352	92.38
500.569	90.38
500.786	86.38
501.003	90.38
501.22	88.38
501.437	89.38
501.654	78.38
501.871	86.38
502.088	83.38
502.305	97.38
502.522	86.38
502.739	87.38
502.956	100.38
503.172	95.38
503.389	89.38
503.606	91.38
503.823	86.38
504.04	81.38
504.256	86.38
504.473	87.38
504.69	98.38
504.907	96.38
505.123	92.38
505.34	88.38
505.557	89.38
505.773	86.38
505.99	95.38
506.207	80.38
506.423	88.38
506.64	86.38
506.856	86.38
507.073	90.38
507.289	89.38
507.506	88.38
507.722	80.38
507.939	82.38
508.155	90.38
508.372	93.38
508.588	85.38
508.805	78.38
509.021	80.38
509.238	78.38
509.454	86.38
509.67	98.38
509.887	87.38
510.103	72.38
510.319	84.38
510.536	91.38
510.752	87.38
510.968	83.38
511.184	72.38
511.401	80.38
511.617	92.38
511.833	93.38
512.049	79.38
512.265	86.38
512.481	95.38
512.698	66.38
512.914	90.38
513.13	76.38
513.346	89.38
513.562	83.38
513.778	88.38
513.994	84.38
514.21	82.38
514.426	93.38
514.642	98.38
514.858	90.38
515.074	98.38
515.29	84.38
515.506	81.38
515.721	79.38
515.937	93.38
516.153	95.38
516.369	68.38
516.585	74.38
516.801	82.38
517.016	98.38
517.232	84.38
517.448	81.38
517.664	85.38
517.879	76.38
518.095	75.38
518.311	89.38
518.527	80.38
518.742	67.38
518.958	86.38
519.173	84.38
519.389	90.38
519.605	94.38
