Data from BG_HRD10591_086.txt Node
Date: Fri May 16 15:33:50 EDT 2025
User: Yrep
Spectrometer: HR+D1059
Trigger mode: 1
Integration Time (sec): 1.000000E-1
Scans to average: 1
Electric dark correction enabled: true
Nonlinearity correction enabled: false
Boxcar width: 0
XAxis mode: Wavelengths
Number of Pixels in Spectrum: 2048
>>>>>Begin Spectral Data<<<<<
223.165	-11.75
223.4	-11.75
223.635	-11.75
223.869	-31.75
224.104	-15.75
224.338	-4.75
224.573	-5.75
224.808	-1.75
225.042	-10.75
225.277	-7.75
225.511	-5.75
225.746	1.25
225.98	6.25
226.215	6.25
226.449	24.25
226.683	18.25
226.918	22.25
227.152	17.25
227.387	39.25
227.621	43.25
227.856	46.25
228.09	44.25
228.324	55.25
228.559	60.25
228.793	60.25
229.027	62.25
229.262	72.25
229.496	67.25
229.73	64.25
229.964	81.25
230.199	75.25
230.433	82.25
230.667	78.25
230.901	74.25
231.136	72.25
231.37	82.25
231.604	70.25
231.838	76.25
232.072	76.25
232.306	83.25
232.541	92.25
232.775	91.25
233.009	84.25
233.243	91.25
233.477	80.25
233.711	84.25
233.945	79.25
234.179	103.25
234.413	77.25
234.647	80.25
234.881	75.25
235.115	86.25
235.349	76.25
235.583	87.25
235.817	81.25
236.051	78.25
236.285	84.25
236.519	97.25
236.753	89.25
236.987	77.25
237.221	92.25
237.455	86.25
237.689	76.25
237.922	69.25
238.156	76.25
238.39	80.25
238.624	79.25
238.858	85.25
239.091	85.25
239.325	85.25
239.559	99.25
239.793	89.25
240.027	80.25
240.26	72.25
240.494	86.25
240.728	75.25
240.961	82.25
241.195	70.25
241.429	90.25
241.662	79.25
241.896	92.25
242.13	83.25
242.363	73.25
242.597	67.25
242.83	65.25
243.064	67.25
243.298	83.25
243.531	84.25
243.765	91.25
243.998	83.25
244.232	65.25
244.465	79.25
244.699	74.25
244.932	86.25
245.166	71.25
245.399	87.25
245.633	95.25
245.866	78.25
246.099	88.25
246.333	71.25
246.566	87.25
246.8	90.25
247.033	78.25
247.266	80.25
247.5	93.25
247.733	77.25
247.966	78.25
248.2	76.25
248.433	70.25
248.666	80.25
248.899	92.25
249.133	80.25
249.366	72.25
249.599	72.25
249.832	80.25
250.066	90.25
250.299	88.25
250.532	87.25
250.765	69.25
250.998	64.25
251.231	85.25
251.465	82.25
251.698	86.25
251.931	70.25
252.164	69.25
252.397	93.25
252.63	64.25
252.863	76.25
253.096	71.25
253.329	67.25
253.562	74.25
253.795	93.25
254.028	81.25
254.261	54.25
254.494	87.25
254.727	78.25
254.96	71.25
255.193	78.25
255.426	86.25
255.659	77.25
255.892	86.25
256.124	80.25
256.357	84.25
256.59	79.25
256.823	80.25
257.056	75.25
257.289	87.25
257.521	93.25
257.754	88.25
257.987	88.25
258.22	80.25
258.452	77.25
258.685	93.25
258.918	95.25
259.151	76.25
259.383	82.25
259.616	86.25
259.849	97.25
260.081	80.25
260.314	74.25
260.547	75.25
260.779	93.25
261.012	81.25
261.244	77.25
261.477	98.25
261.71	79.25
261.942	90.25
262.175	75.25
262.407	84.25
262.64	94.25
262.872	88.25
263.105	78.25
263.337	78.25
263.57	73.25
263.802	99.25
264.035	82.25
264.267	88.25
264.499	82.25
264.732	94.25
264.964	84.25
265.197	83.25
265.429	90.25
265.661	76.25
265.894	87.25
266.126	91.25
266.358	97.25
266.591	73.25
266.823	78.25
267.055	78.25
267.287	86.25
267.52	85.25
267.752	92.25
267.984	89.25
268.216	83.25
268.448	84.25
268.681	92.25
268.913	83.25
269.145	95.25
269.377	99.25
269.609	84.25
269.841	95.25
270.073	83.25
270.306	92.25
270.538	91.25
270.77	81.25
271.002	82.25
271.234	91.25
271.466	79.25
271.698	86.25
271.93	94.25
272.162	91.25
272.394	88.25
272.626	98.25
272.858	97.25
273.09	90.25
273.322	79.25
273.553	78.25
273.785	72.25
274.017	75.25
274.249	92.25
274.481	71.25
274.713	90.25
274.945	96.25
275.176	81.25
275.408	92.25
275.64	86.25
275.872	74.25
276.104	87.25
276.335	92.25
276.567	95.25
276.799	90.25
277.031	82.25
277.262	96.25
277.494	80.25
277.726	99.25
277.957	94.25
278.189	89.25
278.421	96.25
278.652	69.25
278.884	76.25
279.115	72.25
279.347	101.25
279.579	98.25
279.81	93.25
280.042	78.25
280.273	86.25
280.505	100.25
280.736	98.25
280.968	78.25
281.199	100.25
281.431	88.25
281.662	90.25
281.894	96.25
282.125	71.25
282.356	86.25
282.588	98.25
282.819	88.25
283.051	88.25
283.282	85.25
283.513	85.25
283.745	83.25
283.976	79.25
284.207	75.25
284.439	83.25
284.67	92.25
284.901	88.25
285.132	87.25
285.364	88.25
285.595	86.25
285.826	75.25
286.057	94.25
286.288	72.25
286.52	89.25
286.751	78.25
286.982	79.25
287.213	88.25
287.444	82.25
287.675	82.25
287.906	89.25
288.138	83.25
288.369	90.25
288.6	96.25
288.831	80.25
289.062	77.25
289.293	73.25
289.524	107.25
289.755	80.25
289.986	87.25
290.217	85.25
290.448	84.25
290.679	87.25
290.91	101.25
291.141	86.25
291.371	69.25
291.602	93.25
291.833	90.25
292.064	98.25
292.295	87.25
292.526	72.25
292.757	85.25
292.987	90.25
293.218	93.25
293.449	92.25
293.68	90.25
293.91	87.25
294.141	97.25
294.372	96.25
294.603	96.25
294.833	73.25
295.064	86.25
295.295	98.25
295.525	90.25
295.756	95.25
295.987	90.25
296.217	91.25
296.448	87.25
296.679	94.25
296.909	82.25
297.14	82.25
297.37	83.25
297.601	83.25
297.831	77.25
298.062	90.25
298.292	95.25
298.523	88.25
298.753	83.25
298.984	86.25
299.214	95.25
299.445	87.25
299.675	79.25
299.905	81.25
300.136	90.25
300.366	82.25
300.597	99.25
300.827	85.25
301.057	85.25
301.288	83.25
301.518	86.25
301.748	86.25
301.979	116.25
302.209	78.25
302.439	87.25
302.669	92.25
302.9	73.25
303.13	87.25
303.36	76.25
303.59	81.25
303.82	97.25
304.051	84.25
304.281	85.25
304.511	86.25
304.741	95.25
304.971	87.25
305.201	99.25
305.431	84.25
305.661	97.25
305.891	84.25
306.121	96.25
306.352	99.25
306.582	93.25
306.812	71.25
307.042	90.25
307.272	80.25
307.502	90.25
307.731	73.25
307.961	85.25
308.191	103.25
308.421	87.25
308.651	84.25
308.881	84.25
309.111	80.25
309.341	87.25
309.571	85.25
309.8	110.25
310.03	83.25
310.26	106.25
310.49	77.25
310.72	76.25
310.949	87.25
311.179	73.25
311.409	82.25
311.639	74.25
311.868	92.25
312.098	86.25
312.328	98.25
312.557	85.25
312.787	95.25
313.017	82.25
313.246	99.25
313.476	86.25
313.706	89.25
313.935	91.25
314.165	90.25
314.394	94.25
314.624	88.25
314.853	77.25
315.083	89.25
315.312	81.25
315.542	99.25
315.771	94.25
316.001	93.25
316.23	90.25
316.46	94.25
316.689	93.25
316.919	75.25
317.148	85.25
317.377	90.25
317.607	96.25
317.836	97.25
318.065	79.25
318.295	85.25
318.524	82.25
318.753	88.25
318.983	90.25
319.212	98.25
319.441	79.25
319.67	87.25
319.9	97.25
320.129	89.25
320.358	86.25
320.587	78.25
320.816	93.25
321.046	95.25
321.275	80.25
321.504	91.25
321.733	104.25
321.962	90.25
322.191	87.25
322.42	88.25
322.649	101.25
322.878	112.25
323.108	97.25
323.337	84.25
323.566	93.25
323.795	102.25
324.024	83.25
324.253	82.25
324.482	78.25
324.71	93.25
324.939	101.25
325.168	81.25
325.397	93.25
325.626	94.25
325.855	72.25
326.084	98.25
326.313	78.25
326.542	94.25
326.77	87.25
326.999	91.25
327.228	79.25
327.457	95.25
327.686	87.25
327.914	84.25
328.143	97.25
328.372	88.25
328.6	78.25
328.829	95.25
329.058	93.25
329.287	95.25
329.515	100.25
329.744	77.25
329.972	88.25
330.201	76.25
330.43	89.25
330.658	93.25
330.887	95.25
331.115	94.25
331.344	91.25
331.572	83.25
331.801	98.25
332.03	91.25
332.258	96.25
332.486	90.25
332.715	80.25
332.943	80.25
333.172	71.25
333.4	79.25
333.629	100.25
333.857	93.25
334.085	76.25
334.314	85.25
334.542	100.25
334.771	90.25
334.999	75.25
335.227	88.25
335.455	90.25
335.684	76.25
335.912	92.25
336.14	86.25
336.369	78.25
336.597	95.25
336.825	96.25
337.053	88.25
337.281	82.25
337.51	92.25
337.738	78.25
337.966	83.25
338.194	97.25
338.422	86.25
338.65	78.25
338.878	85.25
339.106	87.25
339.334	91.25
339.562	87.25
339.79	74.25
340.018	79.25
340.246	95.25
340.474	88.25
340.702	94.25
340.93	90.25
341.158	78.25
341.386	93.25
341.614	91.25
341.842	90.25
342.07	88.25
342.298	84.25
342.526	85.25
342.754	85.25
342.981	86.25
343.209	106.25
343.437	103.25
343.665	85.25
343.893	90.25
344.12	95.25
344.348	76.25
344.576	88.25
344.804	84.25
345.031	91.25
345.259	90.25
345.487	76.25
345.714	87.25
345.942	69.25
346.17	79.25
346.397	83.25
346.625	75.25
346.853	82.25
347.08	84.25
347.308	88.25
347.535	82.25
347.763	68.25
347.99	76.25
348.218	101.25
348.445	76.25
348.673	93.25
348.9	99.25
349.128	82.25
349.355	79.25
349.583	63.25
349.81	82.25
350.037	84.25
350.265	78.25
350.492	73.25
350.72	92.25
350.947	104.25
351.174	87.25
351.402	94.25
351.629	92.25
351.856	97.25
352.083	91.25
352.311	98.25
352.538	85.25
352.765	79.25
352.992	82.25
353.22	85.25
353.447	96.25
353.674	85.25
353.901	85.25
354.128	86.25
354.355	96.25
354.583	85.25
354.81	98.25
355.037	91.25
355.264	77.25
355.491	75.25
355.718	88.25
355.945	86.25
356.172	75.25
356.399	86.25
356.626	94.25
356.853	96.25
357.08	77.25
357.307	85.25
357.534	85.25
357.761	91.25
357.988	87.25
358.215	87.25
358.441	95.25
358.668	86.25
358.895	103.25
359.122	86.25
359.349	94.25
359.576	98.25
359.802	93.25
360.029	82.25
360.256	86.25
360.483	87.25
360.709	88.25
360.936	86.25
361.163	95.25
361.39	79.25
361.616	81.25
361.843	93.25
362.07	80.25
362.296	82.25
362.523	94.25
362.749	100.25
362.976	85.25
363.203	96.25
363.429	79.25
363.656	86.25
363.882	85.25
364.109	81.25
364.335	79.25
364.562	87.25
364.788	90.25
365.015	84.25
365.241	84.25
365.468	91.25
365.694	77.25
365.92	77.25
366.147	76.25
366.373	91.25
366.599	87.25
366.826	95.25
367.052	95.25
367.278	78.25
367.505	90.25
367.731	100.25
367.957	102.25
368.184	88.25
368.41	92.25
368.636	93.25
368.862	87.25
369.089	101.25
369.315	94.25
369.541	88.25
369.767	85.25
369.993	93.25
370.219	89.25
370.445	88.25
370.672	80.25
370.898	88.25
371.124	86.25
371.35	81.25
371.576	76.25
371.802	85.25
372.028	64.25
372.254	86.25
372.48	86.25
372.706	82.25
372.932	94.25
373.158	78.25
373.384	101.25
373.61	90.25
373.835	76.25
374.061	84.25
374.287	88.25
374.513	90.25
374.739	83.25
374.965	87.25
375.191	80.25
375.416	89.25
375.642	89.25
375.868	93.25
376.094	75.25
376.319	80.25
376.545	90.25
376.771	89.25
376.997	72.25
377.222	86.25
377.448	97.25
377.674	87.25
377.899	84.25
378.125	95.25
378.35	79.25
378.576	88.25
378.802	91.25
379.027	84.25
379.253	75.25
379.478	84.25
379.704	91.25
379.929	79.25
380.155	95.25
380.38	97.25
380.606	86.25
380.831	83.25
381.057	82.25
381.282	86.25
381.507	71.25
381.733	94.25
381.958	91.25
382.184	82.25
382.409	87.25
382.634	82.25
382.86	91.25
383.085	99.25
383.31	77.25
383.535	108.25
383.761	74.25
383.986	67.25
384.211	91.25
384.436	102.25
384.662	92.25
384.887	92.25
385.112	74.25
385.337	86.25
385.562	82.25
385.787	88.25
386.013	71.25
386.238	91.25
386.463	76.25
386.688	82.25
386.913	79.25
387.138	85.25
387.363	79.25
387.588	99.25
387.813	91.25
388.038	79.25
388.263	85.25
388.488	93.25
388.713	81.25
388.938	77.25
389.163	81.25
389.387	78.25
389.612	87.25
389.837	81.25
390.062	78.25
390.287	87.25
390.512	80.25
390.736	80.25
390.961	86.25
391.186	84.25
391.411	87.25
391.636	91.25
391.86	100.25
392.085	80.25
392.31	80.25
392.534	71.25
392.759	78.25
392.984	94.25
393.208	86.25
393.433	87.25
393.658	70.25
393.882	94.25
394.107	90.25
394.331	87.25
394.556	69.25
394.78	80.25
395.005	84.25
395.229	78.25
395.454	79.25
395.678	87.25
395.903	91.25
396.127	91.25
396.352	71.25
396.576	86.25
396.801	87.25
397.025	79.25
397.249	89.25
397.474	84.25
397.698	76.25
397.922	84.25
398.147	86.25
398.371	69.25
398.595	87.25
398.82	96.25
399.044	84.25
399.268	81.25
399.492	77.25
399.717	83.25
399.941	94.25
400.165	72.25
400.389	79.25
400.613	84.25
400.837	96.25
401.062	76.25
401.286	84.25
401.51	67.25
401.734	87.25
401.958	76.25
402.182	79.25
402.406	87.25
402.63	86.25
402.854	75.25
403.078	82.25
403.302	77.25
403.526	92.25
403.75	86.25
403.974	90.25
404.198	86.25
404.422	78.25
404.645	92.25
404.869	90.25
405.093	78.25
405.317	90.25
405.541	89.25
405.765	87.25
405.988	78.25
406.212	76.25
406.436	94.25
406.66	92.25
406.883	83.25
407.107	80.25
407.331	96.25
407.555	77.25
407.778	91.25
408.002	87.25
408.226	80.25
408.449	93.25
408.673	84.25
408.896	85.25
409.12	81.25
409.344	84.25
409.567	96.25
409.791	87.25
410.014	78.25
410.238	72.25
410.461	82.25
410.685	104.25
410.908	88.25
411.132	94.25
411.355	93.25
411.578	82.25
411.802	108.25
412.025	82.25
412.249	81.25
412.472	88.25
412.695	82.25
412.919	83.25
413.142	85.25
413.365	93.25
413.589	90.25
413.812	82.25
414.035	96.25
414.258	102.25
414.482	97.25
414.705	83.25
414.928	79.25
415.151	75.25
415.374	71.25
415.597	89.25
415.821	83.25
416.044	75.25
416.267	83.25
416.49	79.25
416.713	78.25
416.936	91.25
417.159	65.25
417.382	85.25
417.605	84.25
417.828	78.25
418.051	85.25
418.274	87.25
418.497	76.25
418.72	87.25
418.943	78.25
419.166	80.25
419.389	95.25
419.611	83.25
419.834	79.25
420.057	88.25
420.28	86.25
420.503	83.25
420.726	83.25
420.948	80.25
421.171	84.25
421.394	90.25
421.617	84.25
421.839	95.25
422.062	86.25
422.285	72.25
422.507	73.25
422.73	87.25
422.953	85.25
423.175	87.25
423.398	75.25
423.621	84.25
423.843	73.25
424.066	70.25
424.288	75.25
424.511	94.25
424.733	94.25
424.956	85.25
425.178	90.25
425.401	81.25
425.623	93.25
425.846	85.25
426.068	84.25
426.291	85.25
426.513	82.25
426.735	72.25
426.958	83.25
427.18	99.25
427.402	88.25
427.625	77.25
427.847	65.25
428.069	74.25
428.292	78.25
428.514	91.25
428.736	87.25
428.958	87.25
429.181	91.25
429.403	90.25
429.625	76.25
429.847	86.25
430.069	102.25
430.292	98.25
430.514	91.25
430.736	92.25
430.958	83.25
431.18	79.25
431.402	72.25
431.624	86.25
431.846	82.25
432.068	80.25
432.29	75.25
432.512	90.25
432.734	88.25
432.956	83.25
433.178	86.25
433.4	67.25
433.622	83.25
433.844	85.25
434.066	89.25
434.287	72.25
434.509	84.25
434.731	90.25
434.953	94.25
435.175	86.25
435.397	78.25
435.618	77.25
435.84	74.25
436.062	81.25
436.284	87.25
436.505	79.25
436.727	83.25
436.949	89.25
437.17	75.25
437.392	73.25
437.614	91.25
437.835	68.25
438.057	87.25
438.278	90.25
438.5	90.25
438.721	88.25
438.943	86.25
439.165	84.25
439.386	76.25
439.608	92.25
439.829	74.25
440.05	72.25
440.272	89.25
440.493	80.25
440.715	79.25
440.936	86.25
441.158	93.25
441.379	69.25
441.6	69.25
441.822	90.25
442.043	89.25
442.264	77.25
442.486	68.25
442.707	74.25
442.928	78.25
443.149	84.25
443.371	85.25
443.592	86.25
443.813	80.25
444.034	72.25
444.255	92.25
444.476	70.25
444.698	72.25
444.919	79.25
445.14	155.25
445.361	130.25
445.582	94.25
445.803	92.25
446.024	96.25
446.245	79.25
446.466	86.25
446.687	90.25
446.908	88.25
447.129	103.25
447.35	85.25
447.571	65.25
447.792	76.25
448.013	97.25
448.234	83.25
448.455	83.25
448.675	85.25
448.896	81.25
449.117	82.25
449.338	75.25
449.559	91.25
449.779	87.25
450	75.25
450.221	99.25
450.442	106.25
450.662	84.25
450.883	82.25
451.104	83.25
451.324	88.25
451.545	78.25
451.766	73.25
451.986	100.25
452.207	79.25
452.428	104.25
452.648	86.25
452.869	92.25
453.089	81.25
453.31	81.25
453.53	93.25
453.751	89.25
453.971	90.25
454.192	90.25
454.412	86.25
454.633	82.25
454.853	93.25
455.073	94.25
455.294	79.25
455.514	78.25
455.734	78.25
455.955	81.25
456.175	70.25
456.395	86.25
456.616	82.25
456.836	95.25
457.056	85.25
457.276	91.25
457.497	73.25
457.717	85.25
457.937	79.25
458.157	94.25
458.377	90.25
458.598	86.25
458.818	84.25
459.038	82.25
459.258	94.25
459.478	80.25
459.698	72.25
459.918	90.25
460.138	81.25
460.358	90.25
460.578	75.25
460.798	104.25
461.018	78.25
461.238	82.25
461.458	76.25
461.678	93.25
461.898	90.25
462.118	87.25
462.338	71.25
462.558	79.25
462.777	84.25
462.997	71.25
463.217	84.25
463.437	95.25
463.657	77.25
463.876	71.25
464.096	83.25
464.316	87.25
464.536	90.25
464.755	84.25
464.975	79.25
465.195	83.25
465.414	90.25
465.634	90.25
465.854	81.25
466.073	82.25
466.293	88.25
466.512	71.25
466.732	82.25
466.951	82.25
467.171	86.25
467.391	88.25
467.61	67.25
467.829	68.25
468.049	89.25
468.268	96.25
468.488	87.25
468.707	84.25
468.927	82.25
469.146	73.25
469.365	84.25
469.585	85.25
469.804	78.25
470.023	84.25
470.243	85.25
470.462	93.25
470.681	78.25
470.901	93.25
471.12	100.25
471.339	86.25
471.558	93.25
471.777	95.25
471.997	101.25
472.216	91.25
472.435	70.25
472.654	83.25
472.873	77.25
473.092	79.25
473.311	91.25
473.53	83.25
473.749	87.25
473.968	75.25
474.187	88.25
474.406	81.25
474.625	83.25
474.844	95.25
475.063	82.25
475.282	73.25
475.501	89.25
475.72	88.25
475.939	90.25
476.158	90.25
476.377	79.25
476.596	79.25
476.814	71.25
477.033	67.25
477.252	90.25
477.471	70.25
477.69	88.25
477.908	100.25
478.127	96.25
478.346	84.25
478.564	93.25
478.783	80.25
479.002	75.25
479.22	93.25
479.439	100.25
479.658	79.25
479.876	71.25
480.095	76.25
480.313	89.25
480.532	66.25
480.751	72.25
480.969	76.25
481.188	78.25
481.406	89.25
481.624	74.25
481.843	75.25
482.061	78.25
482.28	101.25
482.498	94.25
482.717	88.25
482.935	90.25
483.153	86.25
483.372	90.25
483.59	83.25
483.808	84.25
484.027	104.25
484.245	74.25
484.463	73.25
484.681	88.25
484.9	87.25
485.118	85.25
485.336	79.25
485.554	94.25
485.772	81.25
485.99	87.25
486.209	79.25
486.427	81.25
486.645	77.25
486.863	78.25
487.081	75.25
487.299	87.25
487.517	92.25
487.735	94.25
487.953	100.25
488.171	91.25
488.389	94.25
488.607	96.25
488.825	83.25
489.043	74.25
489.261	98.25
489.479	83.25
489.696	86.25
489.914	74.25
490.132	79.25
490.35	81.25
490.568	84.25
490.786	90.25
491.003	84.25
491.221	73.25
491.439	81.25
491.657	91.25
491.874	84.25
492.092	92.25
492.31	82.25
492.527	72.25
492.745	84.25
492.963	90.25
493.18	80.25
493.398	83.25
493.615	85.25
493.833	77.25
494.05	78.25
494.268	73.25
494.485	96.25
494.703	78.25
494.92	91.25
495.138	70.25
495.355	85.25
495.573	88.25
495.79	80.25
496.008	86.25
496.225	78.25
496.442	79.25
496.66	88.25
496.877	85.25
497.094	90.25
497.312	71.25
497.529	81.25
497.746	94.25
497.963	87.25
498.181	80.25
498.398	92.25
498.615	84.25
498.832	78.25
499.049	84.25
499.267	86.25
499.484	86.25
499.701	85.25
499.918	91.25
500.135	71.25
500.352	100.25
500.569	74.25
500.786	101.25
501.003	94.25
501.22	89.25
501.437	86.25
501.654	86.25
501.871	81.25
502.088	89.25
502.305	87.25
502.522	80.25
502.739	82.25
502.956	92.25
503.172	80.25
503.389	83.25
503.606	82.25
503.823	67.25
504.04	82.25
504.256	94.25
504.473	90.25
504.69	83.25
504.907	83.25
505.123	85.25
505.34	84.25
505.557	96.25
505.773	84.25
505.99	80.25
506.207	80.25
506.423	78.25
506.64	81.25
506.856	91.25
507.073	87.25
507.289	72.25
507.506	82.25
507.722	73.25
507.939	72.25
508.155	105.25
508.372	92.25
508.588	80.25
508.805	82.25
509.021	95.25
509.238	91.25
509.454	93.25
509.67	77.25
509.887	87.25
510.103	84.25
510.319	73.25
510.536	75.25
510.752	89.25
510.968	84.25
511.184	83.25
511.401	75.25
511.617	86.25
511.833	93.25
512.049	103.25
512.265	87.25
512.481	86.25
512.698	92.25
512.914	91.25
513.13	95.25
513.346	92.25
513.562	79.25
513.778	86.25
513.994	79.25
514.21	89.25
514.426	90.25
514.642	86.25
514.858	81.25
515.074	86.25
515.29	84.25
515.506	92.25
515.721	68.25
515.937	78.25
516.153	92.25
516.369	83.25
516.585	81.25
516.801	95.25
517.016	91.25
517.232	84.25
517.448	89.25
517.664	70.25
517.879	95.25
518.095	86.25
518.311	86.25
518.527	95.25
518.742	77.25
518.958	93.25
519.173	100.25
519.389	85.25
519.605	81.25
