Data from BG_HRD10591_091.txt Node
Date: Fri May 16 15:33:52 EDT 2025
User: Yrep
Spectrometer: HR+D1059
Trigger mode: 1
Integration Time (sec): 1.000000E-1
Scans to average: 1
Electric dark correction enabled: true
Nonlinearity correction enabled: false
Boxcar width: 0
XAxis mode: Wavelengths
Number of Pixels in Spectrum: 2048
>>>>>Begin Spectral Data<<<<<
223.165	-21.69
223.4	-21.69
223.635	-21.69
223.869	-11.69
224.104	-18.69
224.338	-10.69
224.573	-21.69
224.808	-7.69
225.042	-9.69
225.277	-13.69
225.511	0.31
225.746	7.31
225.98	8.31
226.215	14.31
226.449	13.31
226.683	13.31
226.918	24.31
227.152	34.31
227.387	40.31
227.621	30.31
227.856	34.31
228.09	41.31
228.324	59.31
228.559	48.31
228.793	69.31
229.027	60.31
229.262	78.31
229.496	68.31
229.73	76.31
229.964	64.31
230.199	68.31
230.433	69.31
230.667	64.31
230.901	80.31
231.136	63.31
231.37	89.31
231.604	79.31
231.838	84.31
232.072	68.31
232.306	67.31
232.541	74.31
232.775	60.31
233.009	62.31
233.243	89.31
233.477	78.31
233.711	75.31
233.945	59.31
234.179	69.31
234.413	62.31
234.647	75.31
234.881	82.31
235.115	72.31
235.349	86.31
235.583	81.31
235.817	92.31
236.051	76.31
236.285	72.31
236.519	72.31
236.753	75.31
236.987	63.31
237.221	75.31
237.455	72.31
237.689	83.31
237.922	70.31
238.156	70.31
238.39	75.31
238.624	74.31
238.858	76.31
239.091	64.31
239.325	81.31
239.559	73.31
239.793	76.31
240.027	74.31
240.26	76.31
240.494	83.31
240.728	67.31
240.961	69.31
241.195	71.31
241.429	82.31
241.662	70.31
241.896	65.31
242.13	64.31
242.363	66.31
242.597	73.31
242.83	76.31
243.064	71.31
243.298	74.31
243.531	72.31
243.765	86.31
243.998	72.31
244.232	73.31
244.465	60.31
244.699	70.31
244.932	66.31
245.166	70.31
245.399	71.31
245.633	68.31
245.866	82.31
246.099	84.31
246.333	77.31
246.566	66.31
246.8	70.31
247.033	69.31
247.266	79.31
247.5	82.31
247.733	74.31
247.966	64.31
248.2	74.31
248.433	89.31
248.666	75.31
248.899	89.31
249.133	86.31
249.366	82.31
249.599	72.31
249.832	68.31
250.066	72.31
250.299	82.31
250.532	68.31
250.765	73.31
250.998	75.31
251.231	79.31
251.465	69.31
251.698	77.31
251.931	76.31
252.164	64.31
252.397	74.31
252.63	70.31
252.863	75.31
253.096	84.31
253.329	83.31
253.562	80.31
253.795	67.31
254.028	79.31
254.261	63.31
254.494	62.31
254.727	77.31
254.96	83.31
255.193	76.31
255.426	79.31
255.659	80.31
255.892	79.31
256.124	73.31
256.357	66.31
256.59	79.31
256.823	87.31
257.056	72.31
257.289	72.31
257.521	74.31
257.754	63.31
257.987	86.31
258.22	83.31
258.452	64.31
258.685	74.31
258.918	58.31
259.151	69.31
259.383	73.31
259.616	82.31
259.849	72.31
260.081	75.31
260.314	79.31
260.547	74.31
260.779	77.31
261.012	85.31
261.244	67.31
261.477	90.31
261.71	84.31
261.942	76.31
262.175	92.31
262.407	69.31
262.64	74.31
262.872	88.31
263.105	78.31
263.337	84.31
263.57	89.31
263.802	83.31
264.035	81.31
264.267	87.31
264.499	62.31
264.732	76.31
264.964	90.31
265.197	76.31
265.429	73.31
265.661	68.31
265.894	67.31
266.126	82.31
266.358	71.31
266.591	95.31
266.823	77.31
267.055	75.31
267.287	79.31
267.52	66.31
267.752	77.31
267.984	72.31
268.216	86.31
268.448	89.31
268.681	89.31
268.913	80.31
269.145	90.31
269.377	82.31
269.609	78.31
269.841	90.31
270.073	82.31
270.306	80.31
270.538	77.31
270.77	63.31
271.002	79.31
271.234	73.31
271.466	75.31
271.698	81.31
271.93	86.31
272.162	78.31
272.394	93.31
272.626	82.31
272.858	74.31
273.09	75.31
273.322	86.31
273.553	77.31
273.785	76.31
274.017	73.31
274.249	73.31
274.481	87.31
274.713	96.31
274.945	91.31
275.176	76.31
275.408	81.31
275.64	85.31
275.872	85.31
276.104	86.31
276.335	75.31
276.567	82.31
276.799	87.31
277.031	72.31
277.262	75.31
277.494	75.31
277.726	79.31
277.957	87.31
278.189	88.31
278.421	78.31
278.652	89.31
278.884	78.31
279.115	90.31
279.347	84.31
279.579	91.31
279.81	71.31
280.042	79.31
280.273	86.31
280.505	64.31
280.736	76.31
280.968	82.31
281.199	107.31
281.431	93.31
281.662	89.31
281.894	81.31
282.125	90.31
282.356	79.31
282.588	58.31
282.819	77.31
283.051	86.31
283.282	80.31
283.513	80.31
283.745	96.31
283.976	93.31
284.207	84.31
284.439	75.31
284.67	74.31
284.901	82.31
285.132	77.31
285.364	93.31
285.595	75.31
285.826	84.31
286.057	93.31
286.288	85.31
286.52	92.31
286.751	83.31
286.982	79.31
287.213	77.31
287.444	87.31
287.675	82.31
287.906	87.31
288.138	86.31
288.369	75.31
288.6	96.31
288.831	74.31
289.062	88.31
289.293	82.31
289.524	84.31
289.755	57.31
289.986	46.31
290.217	76.31
290.448	75.31
290.679	74.31
290.91	89.31
291.141	72.31
291.371	93.31
291.602	86.31
291.833	63.31
292.064	81.31
292.295	87.31
292.526	69.31
292.757	67.31
292.987	73.31
293.218	87.31
293.449	73.31
293.68	86.31
293.91	86.31
294.141	98.31
294.372	74.31
294.603	88.31
294.833	73.31
295.064	77.31
295.295	88.31
295.525	73.31
295.756	72.31
295.987	84.31
296.217	89.31
296.448	87.31
296.679	75.31
296.909	78.31
297.14	62.31
297.37	62.31
297.601	76.31
297.831	85.31
298.062	70.31
298.292	60.31
298.523	74.31
298.753	81.31
298.984	66.31
299.214	70.31
299.445	63.31
299.675	86.31
299.905	88.31
300.136	78.31
300.366	66.31
300.597	79.31
300.827	81.31
301.057	74.31
301.288	86.31
301.518	74.31
301.748	84.31
301.979	82.31
302.209	80.31
302.439	77.31
302.669	83.31
302.9	75.31
303.13	77.31
303.36	76.31
303.59	79.31
303.82	69.31
304.051	96.31
304.281	86.31
304.511	80.31
304.741	88.31
304.971	80.31
305.201	98.31
305.431	83.31
305.661	75.31
305.891	74.31
306.121	90.31
306.352	83.31
306.582	70.31
306.812	81.31
307.042	91.31
307.272	91.31
307.502	69.31
307.731	80.31
307.961	83.31
308.191	88.31
308.421	78.31
308.651	96.31
308.881	90.31
309.111	82.31
309.341	90.31
309.571	87.31
309.8	73.31
310.03	82.31
310.26	93.31
310.49	86.31
310.72	87.31
310.949	75.31
311.179	87.31
311.409	78.31
311.639	79.31
311.868	85.31
312.098	78.31
312.328	74.31
312.557	84.31
312.787	92.31
313.017	78.31
313.246	90.31
313.476	78.31
313.706	96.31
313.935	84.31
314.165	74.31
314.394	88.31
314.624	92.31
314.853	76.31
315.083	62.31
315.312	83.31
315.542	76.31
315.771	82.31
316.001	87.31
316.23	87.31
316.46	95.31
316.689	93.31
316.919	78.31
317.148	72.31
317.377	87.31
317.607	88.31
317.836	90.31
318.065	70.31
318.295	88.31
318.524	79.31
318.753	87.31
318.983	90.31
319.212	87.31
319.441	74.31
319.67	95.31
319.9	77.31
320.129	91.31
320.358	77.31
320.587	96.31
320.816	73.31
321.046	70.31
321.275	83.31
321.504	78.31
321.733	73.31
321.962	66.31
322.191	87.31
322.42	95.31
322.649	74.31
322.878	83.31
323.108	70.31
323.337	71.31
323.566	91.31
323.795	78.31
324.024	76.31
324.253	88.31
324.482	94.31
324.71	83.31
324.939	103.31
325.168	83.31
325.397	81.31
325.626	84.31
325.855	79.31
326.084	79.31
326.313	82.31
326.542	74.31
326.77	86.31
326.999	96.31
327.228	82.31
327.457	84.31
327.686	85.31
327.914	80.31
328.143	87.31
328.372	75.31
328.6	70.31
328.829	87.31
329.058	82.31
329.287	62.31
329.515	74.31
329.744	78.31
329.972	75.31
330.201	74.31
330.43	82.31
330.658	98.31
330.887	81.31
331.115	81.31
331.344	86.31
331.572	81.31
331.801	77.31
332.03	71.31
332.258	65.31
332.486	77.31
332.715	76.31
332.943	78.31
333.172	63.31
333.4	71.31
333.629	83.31
333.857	68.31
334.085	77.31
334.314	76.31
334.542	82.31
334.771	79.31
334.999	89.31
335.227	78.31
335.455	78.31
335.684	88.31
335.912	75.31
336.14	86.31
336.369	89.31
336.597	86.31
336.825	71.31
337.053	75.31
337.281	83.31
337.51	70.31
337.738	86.31
337.966	82.31
338.194	83.31
338.422	73.31
338.65	60.31
338.878	82.31
339.106	88.31
339.334	86.31
339.562	89.31
339.79	65.31
340.018	69.31
340.246	83.31
340.474	87.31
340.702	71.31
340.93	89.31
341.158	92.31
341.386	91.31
341.614	61.31
341.842	74.31
342.07	79.31
342.298	72.31
342.526	91.31
342.754	70.31
342.981	75.31
343.209	73.31
343.437	89.31
343.665	80.31
343.893	81.31
344.12	86.31
344.348	78.31
344.576	90.31
344.804	84.31
345.031	72.31
345.259	83.31
345.487	73.31
345.714	65.31
345.942	80.31
346.17	89.31
346.397	81.31
346.625	61.31
346.853	76.31
347.08	68.31
347.308	71.31
347.535	90.31
347.763	68.31
347.99	82.31
348.218	75.31
348.445	76.31
348.673	78.31
348.9	82.31
349.128	78.31
349.355	84.31
349.583	78.31
349.81	91.31
350.037	80.31
350.265	77.31
350.492	77.31
350.72	75.31
350.947	73.31
351.174	77.31
351.402	75.31
351.629	89.31
351.856	71.31
352.083	70.31
352.311	80.31
352.538	78.31
352.765	74.31
352.992	91.31
353.22	77.31
353.447	81.31
353.674	92.31
353.901	83.31
354.128	91.31
354.355	94.31
354.583	78.31
354.81	78.31
355.037	78.31
355.264	87.31
355.491	70.31
355.718	73.31
355.945	75.31
356.172	82.31
356.399	92.31
356.626	89.31
356.853	72.31
357.08	78.31
357.307	82.31
357.534	69.31
357.761	82.31
357.988	76.31
358.215	84.31
358.441	83.31
358.668	78.31
358.895	67.31
359.122	70.31
359.349	83.31
359.576	74.31
359.802	90.31
360.029	74.31
360.256	84.31
360.483	91.31
360.709	78.31
360.936	87.31
361.163	73.31
361.39	83.31
361.616	86.31
361.843	83.31
362.07	85.31
362.296	84.31
362.523	62.31
362.749	71.31
362.976	70.31
363.203	102.31
363.429	76.31
363.656	88.31
363.882	90.31
364.109	104.31
364.335	91.31
364.562	90.31
364.788	70.31
365.015	79.31
365.241	79.31
365.468	84.31
365.694	70.31
365.92	88.31
366.147	77.31
366.373	64.31
366.599	65.31
366.826	78.31
367.052	77.31
367.278	80.31
367.505	84.31
367.731	81.31
367.957	80.31
368.184	72.31
368.41	75.31
368.636	73.31
368.862	89.31
369.089	80.31
369.315	65.31
369.541	70.31
369.767	76.31
369.993	90.31
370.219	69.31
370.445	72.31
370.672	84.31
370.898	81.31
371.124	75.31
371.35	83.31
371.576	101.31
371.802	86.31
372.028	82.31
372.254	74.31
372.48	89.31
372.706	78.31
372.932	84.31
373.158	65.31
373.384	86.31
373.61	84.31
373.835	90.31
374.061	71.31
374.287	82.31
374.513	77.31
374.739	78.31
374.965	81.31
375.191	70.31
375.416	68.31
375.642	80.31
375.868	89.31
376.094	89.31
376.319	86.31
376.545	78.31
376.771	73.31
376.997	71.31
377.222	82.31
377.448	65.31
377.674	76.31
377.899	80.31
378.125	80.31
378.35	64.31
378.576	86.31
378.802	80.31
379.027	86.31
379.253	93.31
379.478	71.31
379.704	79.31
379.929	81.31
380.155	78.31
380.38	100.31
380.606	83.31
380.831	83.31
381.057	76.31
381.282	92.31
381.507	82.31
381.733	81.31
381.958	71.31
382.184	86.31
382.409	92.31
382.634	94.31
382.86	87.31
383.085	76.31
383.31	68.31
383.535	86.31
383.761	70.31
383.986	70.31
384.211	87.31
384.436	80.31
384.662	75.31
384.887	74.31
385.112	82.31
385.337	76.31
385.562	78.31
385.787	86.31
386.013	83.31
386.238	82.31
386.463	73.31
386.688	78.31
386.913	82.31
387.138	82.31
387.363	79.31
387.588	88.31
387.813	69.31
388.038	82.31
388.263	73.31
388.488	76.31
388.713	71.31
388.938	75.31
389.163	72.31
389.387	76.31
389.612	91.31
389.837	79.31
390.062	75.31
390.287	73.31
390.512	58.31
390.736	70.31
390.961	79.31
391.186	63.31
391.411	74.31
391.636	85.31
391.86	74.31
392.085	91.31
392.31	82.31
392.534	72.31
392.759	85.31
392.984	78.31
393.208	72.31
393.433	78.31
393.658	83.31
393.882	71.31
394.107	83.31
394.331	78.31
394.556	78.31
394.78	82.31
395.005	81.31
395.229	82.31
395.454	78.31
395.678	82.31
395.903	77.31
396.127	80.31
396.352	77.31
396.576	82.31
396.801	78.31
397.025	87.31
397.249	70.31
397.474	83.31
397.698	84.31
397.922	77.31
398.147	60.31
398.371	89.31
398.595	82.31
398.82	84.31
399.044	67.31
399.268	73.31
399.492	65.31
399.717	88.31
399.941	78.31
400.165	83.31
400.389	76.31
400.613	71.31
400.837	82.31
401.062	85.31
401.286	83.31
401.51	76.31
401.734	84.31
401.958	74.31
402.182	77.31
402.406	68.31
402.63	76.31
402.854	77.31
403.078	74.31
403.302	68.31
403.526	82.31
403.75	75.31
403.974	84.31
404.198	90.31
404.422	71.31
404.645	74.31
404.869	72.31
405.093	86.31
405.317	76.31
405.541	63.31
405.765	67.31
405.988	72.31
406.212	62.31
406.436	73.31
406.66	85.31
406.883	74.31
407.107	85.31
407.331	70.31
407.555	70.31
407.778	80.31
408.002	68.31
408.226	83.31
408.449	64.31
408.673	71.31
408.896	73.31
409.12	71.31
409.344	74.31
409.567	81.31
409.791	78.31
410.014	78.31
410.238	60.31
410.461	72.31
410.685	82.31
410.908	80.31
411.132	82.31
411.355	84.31
411.578	69.31
411.802	68.31
412.025	93.31
412.249	64.31
412.472	83.31
412.695	72.31
412.919	78.31
413.142	71.31
413.365	84.31
413.589	85.31
413.812	76.31
414.035	88.31
414.258	78.31
414.482	89.31
414.705	82.31
414.928	82.31
415.151	79.31
415.374	82.31
415.597	62.31
415.821	79.31
416.044	78.31
416.267	71.31
416.49	79.31
416.713	69.31
416.936	79.31
417.159	67.31
417.382	73.31
417.605	74.31
417.828	76.31
418.051	77.31
418.274	76.31
418.497	75.31
418.72	71.31
418.943	80.31
419.166	86.31
419.389	89.31
419.611	75.31
419.834	71.31
420.057	82.31
420.28	75.31
420.503	75.31
420.726	85.31
420.948	70.31
421.171	88.31
421.394	80.31
421.617	70.31
421.839	72.31
422.062	67.31
422.285	78.31
422.507	64.31
422.73	66.31
422.953	69.31
423.175	79.31
423.398	78.31
423.621	87.31
423.843	76.31
424.066	78.31
424.288	70.31
424.511	78.31
424.733	82.31
424.956	82.31
425.178	74.31
425.401	79.31
425.623	83.31
425.846	70.31
426.068	80.31
426.291	69.31
426.513	78.31
426.735	73.31
426.958	68.31
427.18	74.31
427.402	78.31
427.625	78.31
427.847	66.31
428.069	69.31
428.292	78.31
428.514	77.31
428.736	74.31
428.958	83.31
429.181	87.31
429.403	72.31
429.625	71.31
429.847	66.31
430.069	76.31
430.292	85.31
430.514	81.31
430.736	78.31
430.958	81.31
431.18	81.31
431.402	61.31
431.624	70.31
431.846	67.31
432.068	85.31
432.29	78.31
432.512	70.31
432.734	91.31
432.956	78.31
433.178	70.31
433.4	74.31
433.622	76.31
433.844	79.31
434.066	80.31
434.287	79.31
434.509	83.31
434.731	82.31
434.953	84.31
435.175	81.31
435.397	79.31
435.618	75.31
435.84	72.31
436.062	71.31
436.284	64.31
436.505	70.31
436.727	95.31
436.949	82.31
437.17	79.31
437.392	73.31
437.614	74.31
437.835	81.31
438.057	80.31
438.278	54.31
438.5	68.31
438.721	78.31
438.943	78.31
439.165	83.31
439.386	88.31
439.608	74.31
439.829	76.31
440.05	85.31
440.272	75.31
440.493	58.31
440.715	67.31
440.936	82.31
441.158	59.31
441.379	62.31
441.6	77.31
441.822	77.31
442.043	87.31
442.264	67.31
442.486	73.31
442.707	86.31
442.928	82.31
443.149	72.31
443.371	89.31
443.592	77.31
443.813	91.31
444.034	78.31
444.255	70.31
444.476	81.31
444.698	74.31
444.919	67.31
445.14	134.31
445.361	104.31
445.582	79.31
445.803	77.31
446.024	82.31
446.245	90.31
446.466	76.31
446.687	75.31
446.908	81.31
447.129	76.31
447.35	69.31
447.571	87.31
447.792	84.31
448.013	64.31
448.234	74.31
448.455	81.31
448.675	78.31
448.896	74.31
449.117	79.31
449.338	89.31
449.559	85.31
449.779	83.31
450	92.31
450.221	87.31
450.442	71.31
450.662	79.31
450.883	71.31
451.104	74.31
451.324	89.31
451.545	74.31
451.766	69.31
451.986	69.31
452.207	78.31
452.428	83.31
452.648	74.31
452.869	87.31
453.089	70.31
453.31	79.31
453.53	76.31
453.751	73.31
453.971	64.31
454.192	71.31
454.412	69.31
454.633	92.31
454.853	79.31
455.073	90.31
455.294	79.31
455.514	79.31
455.734	77.31
455.955	67.31
456.175	82.31
456.395	79.31
456.616	80.31
456.836	80.31
457.056	74.31
457.276	73.31
457.497	80.31
457.717	89.31
457.937	95.31
458.157	80.31
458.377	67.31
458.598	68.31
458.818	80.31
459.038	77.31
459.258	76.31
459.478	71.31
459.698	71.31
459.918	79.31
460.138	84.31
460.358	69.31
460.578	78.31
460.798	83.31
461.018	60.31
461.238	76.31
461.458	72.31
461.678	62.31
461.898	71.31
462.118	91.31
462.338	79.31
462.558	82.31
462.777	77.31
462.997	77.31
463.217	65.31
463.437	82.31
463.657	76.31
463.876	80.31
464.096	82.31
464.316	80.31
464.536	66.31
464.755	90.31
464.975	80.31
465.195	92.31
465.414	70.31
465.634	70.31
465.854	60.31
466.073	78.31
466.293	82.31
466.512	79.31
466.732	87.31
466.951	69.31
467.171	83.31
467.391	79.31
467.61	79.31
467.829	77.31
468.049	71.31
468.268	83.31
468.488	74.31
468.707	59.31
468.927	88.31
469.146	72.31
469.365	84.31
469.585	77.31
469.804	74.31
470.023	71.31
470.243	78.31
470.462	70.31
470.681	99.31
470.901	85.31
471.12	76.31
471.339	81.31
471.558	77.31
471.777	70.31
471.997	78.31
472.216	85.31
472.435	66.31
472.654	69.31
472.873	84.31
473.092	84.31
473.311	79.31
473.53	73.31
473.749	75.31
473.968	83.31
474.187	82.31
474.406	73.31
474.625	79.31
474.844	80.31
475.063	90.31
475.282	84.31
475.501	74.31
475.72	76.31
475.939	90.31
476.158	81.31
476.377	91.31
476.596	83.31
476.814	80.31
477.033	73.31
477.252	69.31
477.471	72.31
477.69	72.31
477.908	83.31
478.127	83.31
478.346	74.31
478.564	76.31
478.783	78.31
479.002	78.31
479.22	67.31
479.439	89.31
479.658	74.31
479.876	79.31
480.095	72.31
480.313	73.31
480.532	82.31
480.751	74.31
480.969	75.31
481.188	85.31
481.406	85.31
481.624	86.31
481.843	73.31
482.061	90.31
482.28	63.31
482.498	79.31
482.717	75.31
482.935	84.31
483.153	80.31
483.372	84.31
483.59	75.31
483.808	80.31
484.027	88.31
484.245	84.31
484.463	75.31
484.681	76.31
484.9	72.31
485.118	93.31
485.336	72.31
485.554	73.31
485.772	74.31
485.99	77.31
486.209	74.31
486.427	71.31
486.645	78.31
486.863	73.31
487.081	78.31
487.299	88.31
487.517	72.31
487.735	81.31
487.953	85.31
488.171	72.31
488.389	74.31
488.607	66.31
488.825	61.31
489.043	83.31
489.261	82.31
489.479	81.31
489.696	88.31
489.914	76.31
490.132	87.31
490.35	84.31
490.568	80.31
490.786	70.31
491.003	80.31
491.221	94.31
491.439	81.31
491.657	82.31
491.874	92.31
492.092	79.31
492.31	80.31
492.527	84.31
492.745	65.31
492.963	89.31
493.18	74.31
493.398	83.31
493.615	76.31
493.833	80.31
494.05	76.31
494.268	71.31
494.485	70.31
494.703	74.31
494.92	83.31
495.138	88.31
495.355	79.31
495.573	91.31
495.79	80.31
496.008	86.31
496.225	75.31
496.442	75.31
496.66	85.31
496.877	84.31
497.094	73.31
497.312	86.31
497.529	72.31
497.746	76.31
497.963	77.31
498.181	87.31
498.398	76.31
498.615	75.31
498.832	84.31
499.049	79.31
499.267	75.31
499.484	78.31
499.701	96.31
499.918	74.31
500.135	79.31
500.352	83.31
500.569	85.31
500.786	78.31
501.003	78.31
501.22	88.31
501.437	78.31
501.654	77.31
501.871	68.31
502.088	60.31
502.305	74.31
502.522	74.31
502.739	87.31
502.956	92.31
503.172	77.31
503.389	74.31
503.606	86.31
503.823	62.31
504.04	74.31
504.256	78.31
504.473	64.31
504.69	74.31
504.907	86.31
505.123	75.31
505.34	85.31
505.557	74.31
505.773	84.31
505.99	81.31
506.207	78.31
506.423	87.31
506.64	84.31
506.856	90.31
507.073	86.31
507.289	91.31
507.506	70.31
507.722	78.31
507.939	87.31
508.155	73.31
508.372	80.31
508.588	76.31
508.805	77.31
509.021	67.31
509.238	82.31
509.454	72.31
509.67	73.31
509.887	76.31
510.103	88.31
510.319	78.31
510.536	80.31
510.752	87.31
510.968	71.31
511.184	95.31
511.401	100.31
511.617	86.31
511.833	78.31
512.049	80.31
512.265	71.31
512.481	84.31
512.698	64.31
512.914	79.31
513.13	88.31
513.346	87.31
513.562	72.31
513.778	86.31
513.994	71.31
514.21	62.31
514.426	78.31
514.642	78.31
514.858	68.31
515.074	79.31
515.29	89.31
515.506	76.31
515.721	78.31
515.937	71.31
516.153	82.31
516.369	78.31
516.585	76.31
516.801	91.31
517.016	90.31
517.232	80.31
517.448	72.31
517.664	69.31
517.879	89.31
518.095	82.31
518.311	99.31
518.527	90.31
518.742	89.31
518.958	78.31
519.173	87.31
519.389	79.31
519.605	70.31
519.82	86.31
520.036	79.31
520.251	88.31
