Data from BG_HRD10591_046.txt Node
Date: Fri May 16 15:33:30 EDT 2025
User: Yrep
Spectrometer: HR+D1059
Trigger mode: 1
Integration Time (sec): 1.000000E-1
Scans to average: 1
Electric dark correction enabled: true
Nonlinearity correction enabled: false
Boxcar width: 0
XAxis mode: Wavelengths
Number of Pixels in Spectrum: 2048
>>>>>Begin Spectral Data<<<<<
223.165	-30.69
223.4	-30.69
223.635	-30.69
223.869	-34.69
224.104	-22.69
224.338	-23.69
224.573	-15.69
224.808	-9.69
225.042	-7.69
225.277	3.31
225.511	2.31
225.746	10.31
225.98	-2.69
226.215	24.31
226.449	19.31
226.683	26.31
226.918	30.31
227.152	31.31
227.387	38.31
227.621	44.31
227.856	58.31
228.09	51.31
228.324	34.31
228.559	67.31
228.793	54.31
229.027	50.31
229.262	62.31
229.496	58.31
229.73	72.31
229.964	73.31
230.199	59.31
230.433	70.31
230.667	66.31
230.901	83.31
231.136	77.31
231.37	74.31
231.604	68.31
231.838	82.31
232.072	82.31
232.306	88.31
232.541	87.31
232.775	67.31
233.009	61.31
233.243	86.31
233.477	94.31
233.711	95.31
233.945	79.31
234.179	84.31
234.413	75.31
234.647	72.31
234.881	74.31
235.115	89.31
235.349	72.31
235.583	80.31
235.817	79.31
236.051	83.31
236.285	98.31
236.519	71.31
236.753	66.31
236.987	64.31
237.221	74.31
237.455	76.31
237.689	77.31
237.922	72.31
238.156	81.31
238.39	74.31
238.624	68.31
238.858	77.31
239.091	80.31
239.325	67.31
239.559	75.31
239.793	76.31
240.027	72.31
240.26	76.31
240.494	78.31
240.728	76.31
240.961	74.31
241.195	77.31
241.429	69.31
241.662	83.31
241.896	64.31
242.13	68.31
242.363	82.31
242.597	72.31
242.83	84.31
243.064	83.31
243.298	76.31
243.531	93.31
243.765	78.31
243.998	81.31
244.232	82.31
244.465	66.31
244.699	86.31
244.932	87.31
245.166	84.31
245.399	77.31
245.633	71.31
245.866	73.31
246.099	82.31
246.333	82.31
246.566	79.31
246.8	84.31
247.033	67.31
247.266	65.31
247.5	78.31
247.733	76.31
247.966	80.31
248.2	71.31
248.433	69.31
248.666	70.31
248.899	91.31
249.133	72.31
249.366	79.31
249.599	82.31
249.832	74.31
250.066	86.31
250.299	79.31
250.532	78.31
250.765	83.31
250.998	81.31
251.231	73.31
251.465	80.31
251.698	85.31
251.931	81.31
252.164	78.31
252.397	70.31
252.63	78.31
252.863	83.31
253.096	79.31
253.329	76.31
253.562	69.31
253.795	86.31
254.028	68.31
254.261	69.31
254.494	78.31
254.727	80.31
254.96	88.31
255.193	94.31
255.426	67.31
255.659	76.31
255.892	88.31
256.124	80.31
256.357	82.31
256.59	84.31
256.823	80.31
257.056	66.31
257.289	72.31
257.521	99.31
257.754	64.31
257.987	80.31
258.22	79.31
258.452	89.31
258.685	85.31
258.918	85.31
259.151	83.31
259.383	67.31
259.616	77.31
259.849	80.31
260.081	86.31
260.314	80.31
260.547	71.31
260.779	73.31
261.012	82.31
261.244	79.31
261.477	77.31
261.71	85.31
261.942	85.31
262.175	87.31
262.407	84.31
262.64	83.31
262.872	86.31
263.105	76.31
263.337	88.31
263.57	83.31
263.802	76.31
264.035	73.31
264.267	69.31
264.499	66.31
264.732	70.31
264.964	76.31
265.197	75.31
265.429	73.31
265.661	82.31
265.894	67.31
266.126	77.31
266.358	70.31
266.591	77.31
266.823	84.31
267.055	89.31
267.287	86.31
267.52	87.31
267.752	83.31
267.984	68.31
268.216	88.31
268.448	98.31
268.681	80.31
268.913	104.31
269.145	91.31
269.377	91.31
269.609	86.31
269.841	88.31
270.073	90.31
270.306	104.31
270.538	95.31
270.77	71.31
271.002	87.31
271.234	64.31
271.466	83.31
271.698	88.31
271.93	68.31
272.162	72.31
272.394	89.31
272.626	82.31
272.858	82.31
273.09	76.31
273.322	87.31
273.553	95.31
273.785	97.31
274.017	90.31
274.249	78.31
274.481	80.31
274.713	83.31
274.945	91.31
275.176	66.31
275.408	77.31
275.64	79.31
275.872	79.31
276.104	85.31
276.335	74.31
276.567	89.31
276.799	83.31
277.031	72.31
277.262	80.31
277.494	83.31
277.726	81.31
277.957	76.31
278.189	78.31
278.421	79.31
278.652	73.31
278.884	91.31
279.115	76.31
279.347	81.31
279.579	80.31
279.81	81.31
280.042	85.31
280.273	97.31
280.505	80.31
280.736	84.31
280.968	83.31
281.199	78.31
281.431	89.31
281.662	96.31
281.894	81.31
282.125	83.31
282.356	82.31
282.588	81.31
282.819	83.31
283.051	81.31
283.282	83.31
283.513	79.31
283.745	97.31
283.976	81.31
284.207	86.31
284.439	84.31
284.67	82.31
284.901	90.31
285.132	87.31
285.364	89.31
285.595	83.31
285.826	86.31
286.057	85.31
286.288	87.31
286.52	87.31
286.751	90.31
286.982	82.31
287.213	76.31
287.444	83.31
287.675	82.31
287.906	90.31
288.138	90.31
288.369	88.31
288.6	90.31
288.831	79.31
289.062	91.31
289.293	102.31
289.524	66.31
289.755	81.31
289.986	93.31
290.217	76.31
290.448	82.31
290.679	85.31
290.91	92.31
291.141	83.31
291.371	80.31
291.602	76.31
291.833	79.31
292.064	96.31
292.295	78.31
292.526	82.31
292.757	85.31
292.987	80.31
293.218	91.31
293.449	92.31
293.68	84.31
293.91	84.31
294.141	90.31
294.372	74.31
294.603	91.31
294.833	93.31
295.064	72.31
295.295	86.31
295.525	83.31
295.756	79.31
295.987	79.31
296.217	86.31
296.448	95.31
296.679	95.31
296.909	91.31
297.14	87.31
297.37	72.31
297.601	98.31
297.831	78.31
298.062	78.31
298.292	82.31
298.523	98.31
298.753	93.31
298.984	84.31
299.214	88.31
299.445	91.31
299.675	94.31
299.905	80.31
300.136	86.31
300.366	83.31
300.597	95.31
300.827	88.31
301.057	72.31
301.288	85.31
301.518	87.31
301.748	83.31
301.979	103.31
302.209	83.31
302.439	75.31
302.669	80.31
302.9	90.31
303.13	92.31
303.36	92.31
303.59	92.31
303.82	91.31
304.051	96.31
304.281	82.31
304.511	82.31
304.741	97.31
304.971	84.31
305.201	88.31
305.431	87.31
305.661	78.31
305.891	83.31
306.121	79.31
306.352	82.31
306.582	86.31
306.812	95.31
307.042	74.31
307.272	90.31
307.502	85.31
307.731	88.31
307.961	75.31
308.191	90.31
308.421	80.31
308.651	76.31
308.881	95.31
309.111	72.31
309.341	89.31
309.571	86.31
309.8	68.31
310.03	95.31
310.26	94.31
310.49	101.31
310.72	88.31
310.949	80.31
311.179	88.31
311.409	98.31
311.639	82.31
311.868	82.31
312.098	76.31
312.328	94.31
312.557	86.31
312.787	90.31
313.017	91.31
313.246	85.31
313.476	91.31
313.706	100.31
313.935	99.31
314.165	81.31
314.394	84.31
314.624	83.31
314.853	91.31
315.083	77.31
315.312	90.31
315.542	84.31
315.771	75.31
316.001	95.31
316.23	79.31
316.46	77.31
316.689	80.31
316.919	86.31
317.148	90.31
317.377	92.31
317.607	82.31
317.836	90.31
318.065	75.31
318.295	90.31
318.524	81.31
318.753	83.31
318.983	72.31
319.212	107.31
319.441	86.31
319.67	74.31
319.9	91.31
320.129	90.31
320.358	85.31
320.587	86.31
320.816	98.31
321.046	90.31
321.275	87.31
321.504	98.31
321.733	89.31
321.962	78.31
322.191	76.31
322.42	89.31
322.649	91.31
322.878	87.31
323.108	90.31
323.337	86.31
323.566	89.31
323.795	90.31
324.024	91.31
324.253	108.31
324.482	93.31
324.71	86.31
324.939	90.31
325.168	82.31
325.397	89.31
325.626	74.31
325.855	80.31
326.084	93.31
326.313	102.31
326.542	83.31
326.77	98.31
326.999	80.31
327.228	92.31
327.457	86.31
327.686	88.31
327.914	84.31
328.143	74.31
328.372	74.31
328.6	72.31
328.829	84.31
329.058	87.31
329.287	82.31
329.515	76.31
329.744	78.31
329.972	91.31
330.201	99.31
330.43	72.31
330.658	94.31
330.887	81.31
331.115	78.31
331.344	86.31
331.572	81.31
331.801	86.31
332.03	87.31
332.258	92.31
332.486	91.31
332.715	89.31
332.943	83.31
333.172	94.31
333.4	97.31
333.629	98.31
333.857	83.31
334.085	85.31
334.314	88.31
334.542	75.31
334.771	87.31
334.999	79.31
335.227	87.31
335.455	93.31
335.684	87.31
335.912	90.31
336.14	104.31
336.369	98.31
336.597	86.31
336.825	92.31
337.053	71.31
337.281	85.31
337.51	93.31
337.738	89.31
337.966	85.31
338.194	79.31
338.422	75.31
338.65	86.31
338.878	82.31
339.106	100.31
339.334	94.31
339.562	80.31
339.79	83.31
340.018	83.31
340.246	78.31
340.474	85.31
340.702	83.31
340.93	73.31
341.158	85.31
341.386	96.31
341.614	85.31
341.842	106.31
342.07	82.31
342.298	87.31
342.526	90.31
342.754	92.31
342.981	74.31
343.209	92.31
343.437	108.31
343.665	88.31
343.893	76.31
344.12	83.31
344.348	73.31
344.576	86.31
344.804	82.31
345.031	99.31
345.259	81.31
345.487	82.31
345.714	91.31
345.942	73.31
346.17	74.31
346.397	85.31
346.625	78.31
346.853	81.31
347.08	83.31
347.308	91.31
347.535	82.31
347.763	86.31
347.99	86.31
348.218	87.31
348.445	98.31
348.673	83.31
348.9	75.31
349.128	100.31
349.355	86.31
349.583	64.31
349.81	64.31
350.037	83.31
350.265	90.31
350.492	82.31
350.72	96.31
350.947	82.31
351.174	83.31
351.402	82.31
351.629	94.31
351.856	100.31
352.083	86.31
352.311	76.31
352.538	71.31
352.765	97.31
352.992	88.31
353.22	95.31
353.447	81.31
353.674	94.31
353.901	88.31
354.128	93.31
354.355	92.31
354.583	83.31
354.81	86.31
355.037	80.31
355.264	89.31
355.491	78.31
355.718	86.31
355.945	94.31
356.172	90.31
356.399	85.31
356.626	75.31
356.853	78.31
357.08	79.31
357.307	73.31
357.534	92.31
357.761	77.31
357.988	84.31
358.215	92.31
358.441	89.31
358.668	84.31
358.895	75.31
359.122	92.31
359.349	80.31
359.576	85.31
359.802	89.31
360.029	78.31
360.256	83.31
360.483	79.31
360.709	67.31
360.936	89.31
361.163	104.31
361.39	89.31
361.616	81.31
361.843	86.31
362.07	90.31
362.296	76.31
362.523	71.31
362.749	80.31
362.976	93.31
363.203	79.31
363.429	80.31
363.656	99.31
363.882	82.31
364.109	81.31
364.335	91.31
364.562	94.31
364.788	89.31
365.015	80.31
365.241	88.31
365.468	91.31
365.694	84.31
365.92	90.31
366.147	77.31
366.373	90.31
366.599	82.31
366.826	77.31
367.052	95.31
367.278	79.31
367.505	89.31
367.731	94.31
367.957	72.31
368.184	95.31
368.41	82.31
368.636	78.31
368.862	88.31
369.089	72.31
369.315	77.31
369.541	90.31
369.767	92.31
369.993	84.31
370.219	80.31
370.445	93.31
370.672	84.31
370.898	76.31
371.124	86.31
371.35	85.31
371.576	82.31
371.802	97.31
372.028	97.31
372.254	87.31
372.48	80.31
372.706	82.31
372.932	87.31
373.158	79.31
373.384	84.31
373.61	81.31
373.835	95.31
374.061	80.31
374.287	82.31
374.513	74.31
374.739	82.31
374.965	75.31
375.191	67.31
375.416	90.31
375.642	92.31
375.868	82.31
376.094	94.31
376.319	84.31
376.545	84.31
376.771	92.31
376.997	89.31
377.222	88.31
377.448	95.31
377.674	88.31
377.899	67.31
378.125	87.31
378.35	81.31
378.576	89.31
378.802	101.31
379.027	99.31
379.253	86.31
379.478	82.31
379.704	89.31
379.929	72.31
380.155	95.31
380.38	87.31
380.606	84.31
380.831	87.31
381.057	72.31
381.282	82.31
381.507	89.31
381.733	87.31
381.958	95.31
382.184	83.31
382.409	67.31
382.634	82.31
382.86	74.31
383.085	82.31
383.31	87.31
383.535	98.31
383.761	93.31
383.986	86.31
384.211	82.31
384.436	92.31
384.662	83.31
384.887	78.31
385.112	84.31
385.337	84.31
385.562	103.31
385.787	81.31
386.013	92.31
386.238	95.31
386.463	75.31
386.688	90.31
386.913	83.31
387.138	90.31
387.363	87.31
387.588	79.31
387.813	76.31
388.038	78.31
388.263	82.31
388.488	84.31
388.713	86.31
388.938	84.31
389.163	84.31
389.387	89.31
389.612	76.31
389.837	91.31
390.062	83.31
390.287	103.31
390.512	80.31
390.736	83.31
390.961	83.31
391.186	92.31
391.411	73.31
391.636	72.31
391.86	81.31
392.085	79.31
392.31	112.31
392.534	85.31
392.759	80.31
392.984	97.31
393.208	90.31
393.433	85.31
393.658	62.31
393.882	91.31
394.107	84.31
394.331	90.31
394.556	76.31
394.78	77.31
395.005	89.31
395.229	87.31
395.454	97.31
395.678	93.31
395.903	71.31
396.127	88.31
396.352	103.31
396.576	86.31
396.801	77.31
397.025	99.31
397.249	78.31
397.474	81.31
397.698	84.31
397.922	81.31
398.147	84.31
398.371	94.31
398.595	90.31
398.82	70.31
399.044	86.31
399.268	73.31
399.492	89.31
399.717	105.31
399.941	96.31
400.165	86.31
400.389	97.31
400.613	76.31
400.837	97.31
401.062	78.31
401.286	88.31
401.51	94.31
401.734	73.31
401.958	86.31
402.182	84.31
402.406	91.31
402.63	88.31
402.854	103.31
403.078	81.31
403.302	83.31
403.526	88.31
403.75	82.31
403.974	85.31
404.198	81.31
404.422	92.31
404.645	83.31
404.869	79.31
405.093	84.31
405.317	68.31
405.541	88.31
405.765	94.31
405.988	90.31
406.212	90.31
406.436	87.31
406.66	95.31
406.883	84.31
407.107	90.31
407.331	109.31
407.555	78.31
407.778	90.31
408.002	97.31
408.226	95.31
408.449	96.31
408.673	86.31
408.896	90.31
409.12	90.31
409.344	82.31
409.567	75.31
409.791	91.31
410.014	96.31
410.238	88.31
410.461	76.31
410.685	80.31
410.908	83.31
411.132	81.31
411.355	95.31
411.578	91.31
411.802	83.31
412.025	96.31
412.249	90.31
412.472	97.31
412.695	87.31
412.919	77.31
413.142	97.31
413.365	84.31
413.589	82.31
413.812	84.31
414.035	83.31
414.258	67.31
414.482	88.31
414.705	76.31
414.928	82.31
415.151	78.31
415.374	81.31
415.597	76.31
415.821	80.31
416.044	87.31
416.267	89.31
416.49	91.31
416.713	85.31
416.936	88.31
417.159	84.31
417.382	88.31
417.605	84.31
417.828	84.31
418.051	92.31
418.274	87.31
418.497	82.31
418.72	96.31
418.943	76.31
419.166	84.31
419.389	91.31
419.611	87.31
419.834	91.31
420.057	83.31
420.28	84.31
420.503	88.31
420.726	73.31
420.948	80.31
421.171	95.31
421.394	87.31
421.617	88.31
421.839	76.31
422.062	81.31
422.285	98.31
422.507	96.31
422.73	90.31
422.953	82.31
423.175	90.31
423.398	98.31
423.621	90.31
423.843	67.31
424.066	87.31
424.288	86.31
424.511	73.31
424.733	82.31
424.956	85.31
425.178	93.31
425.401	71.31
425.623	85.31
425.846	96.31
426.068	90.31
426.291	78.31
426.513	87.31
426.735	83.31
426.958	80.31
427.18	73.31
427.402	76.31
427.625	82.31
427.847	82.31
428.069	81.31
428.292	88.31
428.514	80.31
428.736	81.31
428.958	93.31
429.181	87.31
429.403	78.31
429.625	98.31
429.847	97.31
430.069	88.31
430.292	86.31
430.514	74.31
430.736	81.31
430.958	87.31
431.18	98.31
431.402	82.31
431.624	88.31
431.846	90.31
432.068	81.31
432.29	83.31
432.512	98.31
432.734	83.31
432.956	68.31
433.178	72.31
433.4	94.31
433.622	80.31
433.844	76.31
434.066	91.31
434.287	100.31
434.509	88.31
434.731	78.31
434.953	72.31
435.175	75.31
435.397	84.31
435.618	81.31
435.84	89.31
436.062	88.31
436.284	77.31
436.505	80.31
436.727	91.31
436.949	92.31
437.17	91.31
437.392	93.31
437.614	81.31
437.835	71.31
438.057	84.31
438.278	75.31
438.5	84.31
438.721	88.31
438.943	90.31
439.165	92.31
439.386	71.31
439.608	78.31
439.829	87.31
440.05	86.31
440.272	83.31
440.493	87.31
440.715	82.31
440.936	81.31
441.158	79.31
441.379	96.31
441.6	81.31
441.822	90.31
442.043	80.31
442.264	91.31
442.486	89.31
442.707	71.31
442.928	88.31
443.149	77.31
443.371	87.31
443.592	86.31
443.813	94.31
444.034	92.31
444.255	92.31
444.476	86.31
444.698	87.31
444.919	79.31
445.14	160.31
445.361	127.31
445.582	91.31
445.803	86.31
446.024	90.31
446.245	90.31
446.466	66.31
446.687	78.31
446.908	83.31
447.129	95.31
447.35	91.31
447.571	92.31
447.792	91.31
448.013	95.31
448.234	88.31
448.455	85.31
448.675	80.31
448.896	68.31
449.117	96.31
449.338	84.31
449.559	79.31
449.779	78.31
450	90.31
450.221	81.31
450.442	88.31
450.662	77.31
450.883	86.31
451.104	91.31
451.324	82.31
451.545	84.31
451.766	78.31
451.986	90.31
452.207	87.31
452.428	86.31
452.648	90.31
452.869	92.31
453.089	79.31
453.31	88.31
453.53	85.31
453.751	91.31
453.971	94.31
454.192	78.31
454.412	87.31
454.633	80.31
454.853	83.31
455.073	76.31
455.294	91.31
455.514	101.31
455.734	80.31
455.955	78.31
456.175	94.31
456.395	80.31
456.616	80.31
456.836	80.31
457.056	90.31
457.276	79.31
457.497	79.31
457.717	98.31
457.937	68.31
458.157	80.31
458.377	92.31
458.598	80.31
458.818	91.31
459.038	91.31
459.258	82.31
459.478	83.31
459.698	98.31
459.918	92.31
460.138	91.31
460.358	71.31
460.578	90.31
460.798	83.31
461.018	86.31
461.238	96.31
461.458	88.31
461.678	94.31
461.898	82.31
462.118	93.31
462.338	82.31
462.558	81.31
462.777	102.31
462.997	110.31
463.217	81.31
463.437	87.31
463.657	102.31
463.876	93.31
464.096	94.31
464.316	89.31
464.536	89.31
464.755	83.31
464.975	98.31
465.195	86.31
465.414	83.31
465.634	90.31
465.854	79.31
466.073	71.31
466.293	89.31
466.512	82.31
466.732	92.31
466.951	70.31
467.171	91.31
467.391	95.31
467.61	83.31
467.829	87.31
468.049	97.31
468.268	84.31
468.488	87.31
468.707	91.31
468.927	84.31
469.146	83.31
469.365	88.31
469.585	87.31
469.804	100.31
470.023	80.31
470.243	80.31
470.462	97.31
470.681	99.31
470.901	84.31
471.12	73.31
471.339	87.31
471.558	93.31
471.777	83.31
471.997	81.31
472.216	80.31
472.435	94.31
472.654	91.31
472.873	92.31
473.092	88.31
473.311	87.31
473.53	84.31
473.749	95.31
473.968	89.31
474.187	85.31
474.406	79.31
474.625	89.31
474.844	95.31
475.063	88.31
475.282	95.31
475.501	94.31
475.72	104.31
475.939	69.31
476.158	86.31
476.377	88.31
476.596	85.31
476.814	95.31
477.033	84.31
477.252	88.31
477.471	67.31
477.69	93.31
477.908	85.31
478.127	89.31
478.346	91.31
478.564	94.31
478.783	86.31
479.002	78.31
479.22	84.31
479.439	94.31
479.658	87.31
479.876	92.31
480.095	84.31
480.313	78.31
480.532	99.31
480.751	86.31
480.969	85.31
481.188	94.31
481.406	93.31
481.624	86.31
481.843	78.31
482.061	82.31
482.28	79.31
482.498	92.31
482.717	79.31
482.935	93.31
483.153	77.31
483.372	82.31
483.59	76.31
483.808	107.31
484.027	91.31
484.245	83.31
484.463	84.31
484.681	84.31
484.9	92.31
485.118	80.31
485.336	85.31
485.554	76.31
485.772	96.31
485.99	102.31
486.209	84.31
486.427	91.31
486.645	96.31
486.863	94.31
487.081	78.31
487.299	88.31
487.517	95.31
487.735	79.31
487.953	82.31
488.171	88.31
488.389	80.31
488.607	83.31
488.825	83.31
489.043	76.31
489.261	87.31
489.479	83.31
489.696	88.31
489.914	83.31
490.132	75.31
490.35	91.31
490.568	89.31
490.786	85.31
491.003	90.31
491.221	87.31
491.439	90.31
491.657	88.31
491.874	88.31
492.092	87.31
492.31	93.31
492.527	93.31
492.745	92.31
492.963	87.31
493.18	76.31
493.398	91.31
493.615	91.31
493.833	80.31
494.05	76.31
494.268	81.31
494.485	83.31
494.703	90.31
494.92	106.31
495.138	103.31
495.355	99.31
495.573	70.31
495.79	81.31
496.008	77.31
496.225	76.31
496.442	91.31
496.66	89.31
496.877	76.31
497.094	90.31
497.312	95.31
497.529	94.31
497.746	84.31
497.963	86.31
498.181	92.31
498.398	92.31
498.615	79.31
498.832	95.31
499.049	115.31
499.267	82.31
499.484	103.31
499.701	90.31
499.918	106.31
500.135	99.31
500.352	106.31
500.569	112.31
500.786	110.31
501.003	107.31
501.22	78.31
501.437	104.31
501.654	79.31
501.871	104.31
502.088	80.31
502.305	95.31
502.522	90.31
502.739	106.31
502.956	81.31
503.172	89.31
503.389	97.31
503.606	98.31
503.823	89.31
504.04	91.31
504.256	98.31
504.473	95.31
504.69	98.31
504.907	84.31
505.123	72.31
505.34	94.31
505.557	90.31
505.773	95.31
505.99	105.31
506.207	94.31
506.423	82.31
506.64	89.31
506.856	88.31
507.073	90.31
507.289	82.31
507.506	83.31
507.722	88.31
507.939	94.31
508.155	88.31
508.372	88.31
508.588	99.31
508.805	87.31
509.021	108.31
509.238	76.31
509.454	81.31
509.67	84.31
509.887	83.31
510.103	88.31
510.319	80.31
510.536	103.31
510.752	78.31
510.968	82.31
511.184	95.31
511.401	78.31
511.617	68.31
511.833	81.31
512.049	91.31
512.265	87.31
512.481	89.31
512.698	88.31
512.914	99.31
513.13	88.31
513.346	78.31
513.562	78.31
513.778	77.31
513.994	87.31
514.21	95.31
514.426	99.31
514.642	83.31
514.858	103.31
515.074	80.31
515.29	84.31
515.506	86.31
515.721	94.31
515.937	93.31
516.153	95.31
516.369	89.31
516.585	75.31
516.801	84.31
517.016	89.31
517.232	98.31
517.448	100.31
517.664	80.31
517.879	98.31
518.095	88.31
518.311	91.31
518.527	92.31
518.742	82.31
518.958	86.31
519.173	91.31
519.389	91.31
519.605	89.31
