Data from BG_HRD10591_064.txt Node
Date: Fri May 16 15:33:39 EDT 2025
User: Yrep
Spectrometer: HR+D1059
Trigger mode: 1
Integration Time (sec): 1.000000E-1
Scans to average: 1
Electric dark correction enabled: true
Nonlinearity correction enabled: false
Boxcar width: 0
XAxis mode: Wavelengths
Number of Pixels in Spectrum: 2048
>>>>>Begin Spectral Data<<<<<
223.165	-7.56
223.4	-7.56
223.635	-7.56
223.869	1.44
224.104	-16.56
224.338	-24.56
224.573	-17.56
224.808	-24.56
225.042	-4.56
225.277	3.44
225.511	-12.56
225.746	4.44
225.98	0.44
226.215	11.44
226.449	11.44
226.683	24.44
226.918	18.44
227.152	32.44
227.387	42.44
227.621	41.44
227.856	41.44
228.09	45.44
228.324	50.44
228.559	71.44
228.793	57.44
229.027	73.44
229.262	57.44
229.496	58.44
229.73	69.44
229.964	65.44
230.199	71.44
230.433	71.44
230.667	84.44
230.901	61.44
231.136	73.44
231.37	85.44
231.604	79.44
231.838	83.44
232.072	91.44
232.306	75.44
232.541	79.44
232.775	79.44
233.009	75.44
233.243	78.44
233.477	85.44
233.711	78.44
233.945	89.44
234.179	83.44
234.413	79.44
234.647	88.44
234.881	85.44
235.115	80.44
235.349	65.44
235.583	86.44
235.817	85.44
236.051	74.44
236.285	90.44
236.519	90.44
236.753	67.44
236.987	68.44
237.221	73.44
237.455	74.44
237.689	72.44
237.922	72.44
238.156	81.44
238.39	81.44
238.624	76.44
238.858	85.44
239.091	79.44
239.325	79.44
239.559	77.44
239.793	86.44
240.027	79.44
240.26	76.44
240.494	70.44
240.728	73.44
240.961	63.44
241.195	86.44
241.429	71.44
241.662	65.44
241.896	81.44
242.13	88.44
242.363	64.44
242.597	78.44
242.83	81.44
243.064	73.44
243.298	68.44
243.531	77.44
243.765	67.44
243.998	75.44
244.232	70.44
244.465	83.44
244.699	82.44
244.932	84.44
245.166	69.44
245.399	79.44
245.633	66.44
245.866	64.44
246.099	83.44
246.333	77.44
246.566	77.44
246.8	87.44
247.033	73.44
247.266	79.44
247.5	86.44
247.733	65.44
247.966	72.44
248.2	82.44
248.433	83.44
248.666	89.44
248.899	80.44
249.133	85.44
249.366	72.44
249.599	88.44
249.832	70.44
250.066	76.44
250.299	80.44
250.532	78.44
250.765	94.44
250.998	82.44
251.231	72.44
251.465	83.44
251.698	94.44
251.931	81.44
252.164	67.44
252.397	64.44
252.63	81.44
252.863	90.44
253.096	85.44
253.329	93.44
253.562	66.44
253.795	74.44
254.028	77.44
254.261	78.44
254.494	83.44
254.727	83.44
254.96	81.44
255.193	85.44
255.426	88.44
255.659	73.44
255.892	68.44
256.124	86.44
256.357	77.44
256.59	77.44
256.823	79.44
257.056	75.44
257.289	71.44
257.521	85.44
257.754	73.44
257.987	77.44
258.22	84.44
258.452	81.44
258.685	82.44
258.918	89.44
259.151	73.44
259.383	83.44
259.616	85.44
259.849	78.44
260.081	90.44
260.314	83.44
260.547	77.44
260.779	82.44
261.012	75.44
261.244	74.44
261.477	76.44
261.71	89.44
261.942	86.44
262.175	85.44
262.407	87.44
262.64	94.44
262.872	76.44
263.105	70.44
263.337	78.44
263.57	94.44
263.802	89.44
264.035	77.44
264.267	85.44
264.499	85.44
264.732	83.44
264.964	93.44
265.197	73.44
265.429	74.44
265.661	83.44
265.894	87.44
266.126	78.44
266.358	81.44
266.591	73.44
266.823	72.44
267.055	68.44
267.287	80.44
267.52	85.44
267.752	68.44
267.984	86.44
268.216	73.44
268.448	77.44
268.681	82.44
268.913	79.44
269.145	85.44
269.377	92.44
269.609	95.44
269.841	94.44
270.073	79.44
270.306	91.44
270.538	69.44
270.77	73.44
271.002	88.44
271.234	72.44
271.466	74.44
271.698	83.44
271.93	79.44
272.162	74.44
272.394	90.44
272.626	82.44
272.858	80.44
273.09	84.44
273.322	93.44
273.553	85.44
273.785	87.44
274.017	91.44
274.249	85.44
274.481	75.44
274.713	79.44
274.945	82.44
275.176	80.44
275.408	88.44
275.64	86.44
275.872	86.44
276.104	87.44
276.335	88.44
276.567	78.44
276.799	72.44
277.031	84.44
277.262	85.44
277.494	86.44
277.726	83.44
277.957	81.44
278.189	72.44
278.421	81.44
278.652	67.44
278.884	85.44
279.115	77.44
279.347	79.44
279.579	84.44
279.81	100.44
280.042	79.44
280.273	77.44
280.505	88.44
280.736	91.44
280.968	79.44
281.199	80.44
281.431	74.44
281.662	81.44
281.894	83.44
282.125	90.44
282.356	76.44
282.588	91.44
282.819	95.44
283.051	74.44
283.282	96.44
283.513	93.44
283.745	83.44
283.976	83.44
284.207	87.44
284.439	78.44
284.67	76.44
284.901	81.44
285.132	100.44
285.364	83.44
285.595	89.44
285.826	89.44
286.057	83.44
286.288	93.44
286.52	78.44
286.751	70.44
286.982	103.44
287.213	90.44
287.444	97.44
287.675	79.44
287.906	80.44
288.138	94.44
288.369	85.44
288.6	88.44
288.831	68.44
289.062	76.44
289.293	83.44
289.524	89.44
289.755	96.44
289.986	83.44
290.217	87.44
290.448	81.44
290.679	93.44
290.91	100.44
291.141	89.44
291.371	81.44
291.602	82.44
291.833	89.44
292.064	95.44
292.295	84.44
292.526	82.44
292.757	80.44
292.987	71.44
293.218	78.44
293.449	77.44
293.68	85.44
293.91	88.44
294.141	86.44
294.372	84.44
294.603	88.44
294.833	95.44
295.064	81.44
295.295	88.44
295.525	88.44
295.756	82.44
295.987	83.44
296.217	87.44
296.448	92.44
296.679	91.44
296.909	88.44
297.14	88.44
297.37	79.44
297.601	87.44
297.831	85.44
298.062	83.44
298.292	87.44
298.523	95.44
298.753	86.44
298.984	85.44
299.214	92.44
299.445	94.44
299.675	79.44
299.905	85.44
300.136	85.44
300.366	95.44
300.597	86.44
300.827	89.44
301.057	85.44
301.288	87.44
301.518	91.44
301.748	78.44
301.979	103.44
302.209	88.44
302.439	79.44
302.669	90.44
302.9	75.44
303.13	91.44
303.36	86.44
303.59	85.44
303.82	78.44
304.051	83.44
304.281	84.44
304.511	86.44
304.741	86.44
304.971	96.44
305.201	91.44
305.431	76.44
305.661	73.44
305.891	105.44
306.121	97.44
306.352	84.44
306.582	85.44
306.812	85.44
307.042	85.44
307.272	87.44
307.502	100.44
307.731	97.44
307.961	81.44
308.191	84.44
308.421	86.44
308.651	98.44
308.881	96.44
309.111	88.44
309.341	74.44
309.571	86.44
309.8	83.44
310.03	88.44
310.26	94.44
310.49	93.44
310.72	88.44
310.949	76.44
311.179	92.44
311.409	89.44
311.639	83.44
311.868	86.44
312.098	90.44
312.328	86.44
312.557	87.44
312.787	87.44
313.017	95.44
313.246	89.44
313.476	72.44
313.706	86.44
313.935	84.44
314.165	105.44
314.394	95.44
314.624	96.44
314.853	86.44
315.083	84.44
315.312	93.44
315.542	91.44
315.771	81.44
316.001	78.44
316.23	81.44
316.46	76.44
316.689	91.44
316.919	89.44
317.148	85.44
317.377	81.44
317.607	91.44
317.836	93.44
318.065	85.44
318.295	79.44
318.524	80.44
318.753	87.44
318.983	89.44
319.212	86.44
319.441	96.44
319.67	79.44
319.9	83.44
320.129	81.44
320.358	81.44
320.587	90.44
320.816	85.44
321.046	83.44
321.275	82.44
321.504	96.44
321.733	87.44
321.962	85.44
322.191	87.44
322.42	98.44
322.649	87.44
322.878	91.44
323.108	83.44
323.337	91.44
323.566	83.44
323.795	87.44
324.024	78.44
324.253	78.44
324.482	92.44
324.71	94.44
324.939	92.44
325.168	81.44
325.397	81.44
325.626	87.44
325.855	78.44
326.084	90.44
326.313	91.44
326.542	87.44
326.77	79.44
326.999	96.44
327.228	103.44
327.457	75.44
327.686	81.44
327.914	87.44
328.143	95.44
328.372	88.44
328.6	89.44
328.829	99.44
329.058	97.44
329.287	93.44
329.515	97.44
329.744	91.44
329.972	97.44
330.201	95.44
330.43	97.44
330.658	69.44
330.887	87.44
331.115	106.44
331.344	87.44
331.572	101.44
331.801	83.44
332.03	99.44
332.258	79.44
332.486	102.44
332.715	88.44
332.943	90.44
333.172	92.44
333.4	81.44
333.629	87.44
333.857	85.44
334.085	86.44
334.314	95.44
334.542	82.44
334.771	94.44
334.999	88.44
335.227	86.44
335.455	89.44
335.684	82.44
335.912	85.44
336.14	95.44
336.369	81.44
336.597	90.44
336.825	81.44
337.053	91.44
337.281	88.44
337.51	83.44
337.738	96.44
337.966	86.44
338.194	72.44
338.422	80.44
338.65	84.44
338.878	93.44
339.106	95.44
339.334	86.44
339.562	79.44
339.79	84.44
340.018	81.44
340.246	92.44
340.474	97.44
340.702	94.44
340.93	95.44
341.158	78.44
341.386	88.44
341.614	92.44
341.842	105.44
342.07	87.44
342.298	91.44
342.526	98.44
342.754	90.44
342.981	90.44
343.209	81.44
343.437	101.44
343.665	83.44
343.893	83.44
344.12	101.44
344.348	95.44
344.576	108.44
344.804	78.44
345.031	83.44
345.259	75.44
345.487	83.44
345.714	97.44
345.942	78.44
346.17	94.44
346.397	83.44
346.625	93.44
346.853	91.44
347.08	86.44
347.308	92.44
347.535	85.44
347.763	96.44
347.99	97.44
348.218	93.44
348.445	80.44
348.673	84.44
348.9	89.44
349.128	109.44
349.355	82.44
349.583	80.44
349.81	82.44
350.037	85.44
350.265	87.44
350.492	74.44
350.72	81.44
350.947	91.44
351.174	88.44
351.402	90.44
351.629	95.44
351.856	75.44
352.083	80.44
352.311	93.44
352.538	71.44
352.765	76.44
352.992	79.44
353.22	88.44
353.447	86.44
353.674	88.44
353.901	87.44
354.128	84.44
354.355	94.44
354.583	90.44
354.81	80.44
355.037	84.44
355.264	94.44
355.491	89.44
355.718	90.44
355.945	86.44
356.172	86.44
356.399	93.44
356.626	88.44
356.853	86.44
357.08	82.44
357.307	85.44
357.534	91.44
357.761	91.44
357.988	86.44
358.215	86.44
358.441	82.44
358.668	84.44
358.895	101.44
359.122	87.44
359.349	88.44
359.576	73.44
359.802	82.44
360.029	92.44
360.256	83.44
360.483	79.44
360.709	92.44
360.936	82.44
361.163	85.44
361.39	88.44
361.616	90.44
361.843	92.44
362.07	90.44
362.296	83.44
362.523	89.44
362.749	81.44
362.976	88.44
363.203	87.44
363.429	96.44
363.656	91.44
363.882	87.44
364.109	107.44
364.335	81.44
364.562	96.44
364.788	86.44
365.015	102.44
365.241	87.44
365.468	86.44
365.694	89.44
365.92	91.44
366.147	85.44
366.373	90.44
366.599	90.44
366.826	71.44
367.052	88.44
367.278	77.44
367.505	78.44
367.731	86.44
367.957	81.44
368.184	86.44
368.41	85.44
368.636	90.44
368.862	101.44
369.089	85.44
369.315	83.44
369.541	86.44
369.767	81.44
369.993	90.44
370.219	81.44
370.445	54.44
370.672	93.44
370.898	78.44
371.124	81.44
371.35	89.44
371.576	89.44
371.802	93.44
372.028	89.44
372.254	95.44
372.48	98.44
372.706	78.44
372.932	87.44
373.158	82.44
373.384	91.44
373.61	101.44
373.835	86.44
374.061	83.44
374.287	78.44
374.513	71.44
374.739	86.44
374.965	89.44
375.191	89.44
375.416	90.44
375.642	94.44
375.868	98.44
376.094	87.44
376.319	85.44
376.545	89.44
376.771	68.44
376.997	81.44
377.222	85.44
377.448	83.44
377.674	87.44
377.899	81.44
378.125	66.44
378.35	72.44
378.576	82.44
378.802	75.44
379.027	91.44
379.253	99.44
379.478	90.44
379.704	93.44
379.929	81.44
380.155	82.44
380.38	85.44
380.606	90.44
380.831	73.44
381.057	101.44
381.282	71.44
381.507	80.44
381.733	87.44
381.958	73.44
382.184	86.44
382.409	79.44
382.634	76.44
382.86	94.44
383.085	101.44
383.31	80.44
383.535	92.44
383.761	95.44
383.986	95.44
384.211	83.44
384.436	85.44
384.662	83.44
384.887	86.44
385.112	96.44
385.337	95.44
385.562	106.44
385.787	89.44
386.013	72.44
386.238	98.44
386.463	90.44
386.688	101.44
386.913	85.44
387.138	81.44
387.363	79.44
387.588	82.44
387.813	93.44
388.038	83.44
388.263	92.44
388.488	89.44
388.713	87.44
388.938	93.44
389.163	101.44
389.387	85.44
389.612	84.44
389.837	85.44
390.062	85.44
390.287	77.44
390.512	76.44
390.736	88.44
390.961	82.44
391.186	96.44
391.411	74.44
391.636	82.44
391.86	93.44
392.085	91.44
392.31	72.44
392.534	96.44
392.759	81.44
392.984	89.44
393.208	103.44
393.433	77.44
393.658	79.44
393.882	103.44
394.107	84.44
394.331	94.44
394.556	78.44
394.78	80.44
395.005	95.44
395.229	86.44
395.454	95.44
395.678	79.44
395.903	88.44
396.127	77.44
396.352	85.44
396.576	92.44
396.801	97.44
397.025	89.44
397.249	84.44
397.474	102.44
397.698	97.44
397.922	84.44
398.147	93.44
398.371	73.44
398.595	89.44
398.82	77.44
399.044	77.44
399.268	90.44
399.492	73.44
399.717	85.44
399.941	93.44
400.165	83.44
400.389	86.44
400.613	90.44
400.837	98.44
401.062	86.44
401.286	87.44
401.51	75.44
401.734	96.44
401.958	97.44
402.182	73.44
402.406	78.44
402.63	87.44
402.854	85.44
403.078	89.44
403.302	82.44
403.526	90.44
403.75	98.44
403.974	93.44
404.198	85.44
404.422	89.44
404.645	85.44
404.869	74.44
405.093	95.44
405.317	82.44
405.541	81.44
405.765	73.44
405.988	92.44
406.212	95.44
406.436	84.44
406.66	90.44
406.883	90.44
407.107	98.44
407.331	84.44
407.555	97.44
407.778	88.44
408.002	90.44
408.226	102.44
408.449	103.44
408.673	93.44
408.896	82.44
409.12	82.44
409.344	94.44
409.567	81.44
409.791	86.44
410.014	81.44
410.238	95.44
410.461	81.44
410.685	80.44
410.908	76.44
411.132	90.44
411.355	92.44
411.578	94.44
411.802	75.44
412.025	86.44
412.249	105.44
412.472	91.44
412.695	105.44
412.919	68.44
413.142	104.44
413.365	75.44
413.589	93.44
413.812	77.44
414.035	82.44
414.258	80.44
414.482	90.44
414.705	97.44
414.928	95.44
415.151	105.44
415.374	86.44
415.597	85.44
415.821	84.44
416.044	91.44
416.267	95.44
416.49	91.44
416.713	105.44
416.936	101.44
417.159	87.44
417.382	91.44
417.605	103.44
417.828	89.44
418.051	91.44
418.274	99.44
418.497	85.44
418.72	96.44
418.943	86.44
419.166	80.44
419.389	106.44
419.611	80.44
419.834	94.44
420.057	90.44
420.28	63.44
420.503	79.44
420.726	103.44
420.948	92.44
421.171	87.44
421.394	86.44
421.617	86.44
421.839	90.44
422.062	86.44
422.285	73.44
422.507	74.44
422.73	87.44
422.953	96.44
423.175	96.44
423.398	82.44
423.621	76.44
423.843	91.44
424.066	89.44
424.288	91.44
424.511	93.44
424.733	85.44
424.956	89.44
425.178	79.44
425.401	82.44
425.623	94.44
425.846	74.44
426.068	87.44
426.291	85.44
426.513	87.44
426.735	74.44
426.958	84.44
427.18	87.44
427.402	76.44
427.625	82.44
427.847	82.44
428.069	86.44
428.292	87.44
428.514	99.44
428.736	77.44
428.958	89.44
429.181	85.44
429.403	88.44
429.625	82.44
429.847	90.44
430.069	101.44
430.292	95.44
430.514	77.44
430.736	86.44
430.958	90.44
431.18	93.44
431.402	95.44
431.624	64.44
431.846	92.44
432.068	100.44
432.29	94.44
432.512	89.44
432.734	98.44
432.956	87.44
433.178	86.44
433.4	87.44
433.622	91.44
433.844	89.44
434.066	77.44
434.287	85.44
434.509	95.44
434.731	77.44
434.953	93.44
435.175	97.44
435.397	85.44
435.618	86.44
435.84	103.44
436.062	91.44
436.284	86.44
436.505	89.44
436.727	80.44
436.949	87.44
437.17	92.44
437.392	85.44
437.614	87.44
437.835	86.44
438.057	79.44
438.278	81.44
438.5	58.44
438.721	80.44
438.943	91.44
439.165	83.44
439.386	78.44
439.608	84.44
439.829	74.44
440.05	73.44
440.272	73.44
440.493	91.44
440.715	84.44
440.936	86.44
441.158	91.44
441.379	87.44
441.6	92.44
441.822	93.44
442.043	71.44
442.264	80.44
442.486	80.44
442.707	86.44
442.928	89.44
443.149	89.44
443.371	90.44
443.592	93.44
443.813	81.44
444.034	86.44
444.255	77.44
444.476	95.44
444.698	88.44
444.919	87.44
445.14	158.44
445.361	117.44
445.582	96.44
445.803	85.44
446.024	80.44
446.245	102.44
446.466	91.44
446.687	66.44
446.908	91.44
447.129	93.44
447.35	88.44
447.571	93.44
447.792	91.44
448.013	73.44
448.234	93.44
448.455	90.44
448.675	96.44
448.896	95.44
449.117	74.44
449.338	79.44
449.559	95.44
449.779	88.44
450	81.44
450.221	84.44
450.442	80.44
450.662	90.44
450.883	80.44
451.104	87.44
451.324	93.44
451.545	90.44
451.766	66.44
451.986	96.44
452.207	86.44
452.428	77.44
452.648	87.44
452.869	98.44
453.089	79.44
453.31	87.44
453.53	90.44
453.751	71.44
453.971	74.44
454.192	84.44
454.412	77.44
454.633	84.44
454.853	89.44
455.073	84.44
455.294	101.44
455.514	96.44
455.734	92.44
455.955	90.44
456.175	75.44
456.395	77.44
456.616	75.44
456.836	91.44
457.056	78.44
457.276	82.44
457.497	88.44
457.717	82.44
457.937	90.44
458.157	82.44
458.377	79.44
458.598	77.44
458.818	90.44
459.038	87.44
459.258	91.44
459.478	79.44
459.698	104.44
459.918	67.44
460.138	83.44
460.358	87.44
460.578	83.44
460.798	81.44
461.018	100.44
461.238	88.44
461.458	105.44
461.678	77.44
461.898	82.44
462.118	90.44
462.338	107.44
462.558	87.44
462.777	97.44
462.997	109.44
463.217	79.44
463.437	104.44
463.657	83.44
463.876	85.44
464.096	84.44
464.316	93.44
464.536	105.44
464.755	90.44
464.975	95.44
465.195	91.44
465.414	83.44
465.634	71.44
465.854	96.44
466.073	82.44
466.293	87.44
466.512	85.44
466.732	81.44
466.951	81.44
467.171	82.44
467.391	87.44
467.61	95.44
467.829	74.44
468.049	83.44
468.268	87.44
468.488	71.44
468.707	91.44
468.927	93.44
469.146	81.44
469.365	81.44
469.585	86.44
469.804	71.44
470.023	76.44
470.243	88.44
470.462	87.44
470.681	87.44
470.901	94.44
471.12	69.44
471.339	93.44
471.558	107.44
471.777	84.44
471.997	77.44
472.216	88.44
472.435	83.44
472.654	90.44
472.873	106.44
473.092	67.44
473.311	91.44
473.53	81.44
473.749	97.44
473.968	82.44
474.187	77.44
474.406	86.44
474.625	91.44
474.844	95.44
475.063	85.44
475.282	89.44
475.501	98.44
475.72	87.44
475.939	78.44
476.158	90.44
476.377	76.44
476.596	81.44
476.814	94.44
477.033	94.44
477.252	66.44
477.471	76.44
477.69	88.44
477.908	101.44
478.127	96.44
478.346	85.44
478.564	83.44
478.783	64.44
479.002	90.44
479.22	79.44
479.439	91.44
479.658	77.44
479.876	85.44
480.095	97.44
480.313	95.44
480.532	88.44
480.751	106.44
480.969	89.44
481.188	95.44
481.406	111.44
481.624	94.44
481.843	82.44
482.061	78.44
482.28	92.44
482.498	85.44
482.717	90.44
482.935	82.44
483.153	91.44
483.372	85.44
483.59	91.44
483.808	95.44
484.027	86.44
484.245	89.44
484.463	95.44
484.681	97.44
484.9	75.44
485.118	88.44
485.336	92.44
485.554	78.44
485.772	85.44
485.99	102.44
486.209	92.44
486.427	98.44
486.645	94.44
486.863	87.44
487.081	83.44
487.299	91.44
487.517	87.44
487.735	100.44
487.953	95.44
488.171	103.44
488.389	88.44
488.607	90.44
488.825	86.44
489.043	81.44
489.261	92.44
489.479	94.44
489.696	86.44
489.914	95.44
490.132	76.44
490.35	89.44
490.568	98.44
490.786	91.44
491.003	90.44
491.221	99.44
491.439	85.44
491.657	99.44
491.874	88.44
492.092	96.44
492.31	86.44
492.527	106.44
492.745	83.44
492.963	81.44
493.18	94.44
493.398	90.44
493.615	84.44
493.833	87.44
494.05	106.44
494.268	79.44
494.485	95.44
494.703	92.44
494.92	92.44
495.138	91.44
495.355	82.44
495.573	84.44
495.79	89.44
496.008	79.44
496.225	90.44
496.442	89.44
496.66	103.44
496.877	81.44
497.094	75.44
497.312	86.44
497.529	90.44
497.746	91.44
497.963	95.44
498.181	96.44
498.398	106.44
498.615	112.44
498.832	91.44
499.049	91.44
499.267	91.44
499.484	91.44
499.701	109.44
499.918	96.44
500.135	108.44
500.352	102.44
500.569	120.44
500.786	93.44
501.003	108.44
501.22	102.44
501.437	85.44
501.654	97.44
501.871	105.44
502.088	91.44
502.305	91.44
502.522	92.44
502.739	92.44
502.956	75.44
503.172	95.44
503.389	90.44
503.606	84.44
503.823	96.44
504.04	101.44
504.256	93.44
504.473	88.44
504.69	74.44
504.907	95.44
505.123	82.44
505.34	88.44
505.557	95.44
505.773	87.44
505.99	86.44
506.207	85.44
506.423	86.44
506.64	84.44
506.856	80.44
507.073	87.44
507.289	78.44
507.506	66.44
507.722	92.44
507.939	101.44
508.155	85.44
508.372	83.44
508.588	81.44
508.805	93.44
509.021	95.44
509.238	93.44
509.454	95.44
509.67	90.44
509.887	79.44
510.103	93.44
510.319	94.44
510.536	83.44
510.752	76.44
510.968	90.44
511.184	84.44
511.401	93.44
511.617	85.44
511.833	97.44
512.049	98.44
512.265	95.44
512.481	86.44
512.698	83.44
512.914	89.44
513.13	82.44
513.346	93.44
513.562	91.44
513.778	90.44
513.994	95.44
514.21	84.44
514.426	95.44
514.642	91.44
514.858	79.44
515.074	93.44
515.29	96.44
515.506	82.44
515.721	81.44
515.937	103.44
516.153	90.44
516.369	96.44
516.585	81.44
516.801	98.44
517.016	94.44
517.232	94.44
517.448	96.44
517.664	86.44
517.879	97.44
518.095	81.44
518.311	88.44
518.527	90.44
518.742	96.44
518.958	81.44
519.173	97.44
519.389	92.44
