Data from BG_HRD10591_041.txt Node
Date: Fri May 16 15:33:27 EDT 2025
User: Yrep
Spectrometer: HR+D1059
Trigger mode: 1
Integration Time (sec): 1.000000E-1
Scans to average: 1
Electric dark correction enabled: true
Nonlinearity correction enabled: false
Boxcar width: 0
XAxis mode: Wavelengths
Number of Pixels in Spectrum: 2048
>>>>>Begin Spectral Data<<<<<
223.165	-19.44
223.4	-19.44
223.635	-19.44
223.869	-23.44
224.104	-27.44
224.338	-30.44
224.573	-19.44
224.808	-18.44
225.042	-10.44
225.277	-6.44
225.511	1.56
225.746	6.56
225.98	19.56
226.215	13.56
226.449	24.56
226.683	29.56
226.918	29.56
227.152	30.56
227.387	20.56
227.621	30.56
227.856	43.56
228.09	45.56
228.324	52.56
228.559	51.56
228.793	59.56
229.027	61.56
229.262	58.56
229.496	79.56
229.73	57.56
229.964	67.56
230.199	73.56
230.433	65.56
230.667	71.56
230.901	75.56
231.136	87.56
231.37	77.56
231.604	85.56
231.838	77.56
232.072	93.56
232.306	68.56
232.541	87.56
232.775	73.56
233.009	67.56
233.243	74.56
233.477	73.56
233.711	87.56
233.945	77.56
234.179	66.56
234.413	77.56
234.647	71.56
234.881	73.56
235.115	80.56
235.349	80.56
235.583	79.56
235.817	79.56
236.051	77.56
236.285	86.56
236.519	86.56
236.753	72.56
236.987	65.56
237.221	63.56
237.455	73.56
237.689	77.56
237.922	73.56
238.156	70.56
238.39	67.56
238.624	87.56
238.858	75.56
239.091	69.56
239.325	70.56
239.559	83.56
239.793	68.56
240.027	73.56
240.26	72.56
240.494	86.56
240.728	70.56
240.961	73.56
241.195	83.56
241.429	69.56
241.662	73.56
241.896	79.56
242.13	64.56
242.363	67.56
242.597	71.56
242.83	58.56
243.064	78.56
243.298	84.56
243.531	77.56
243.765	89.56
243.998	59.56
244.232	84.56
244.465	68.56
244.699	72.56
244.932	76.56
245.166	65.56
245.399	65.56
245.633	69.56
245.866	65.56
246.099	72.56
246.333	74.56
246.566	75.56
246.8	73.56
247.033	74.56
247.266	61.56
247.5	74.56
247.733	62.56
247.966	64.56
248.2	54.56
248.433	72.56
248.666	72.56
248.899	71.56
249.133	71.56
249.366	77.56
249.599	91.56
249.832	75.56
250.066	81.56
250.299	76.56
250.532	83.56
250.765	73.56
250.998	67.56
251.231	81.56
251.465	84.56
251.698	78.56
251.931	65.56
252.164	88.56
252.397	73.56
252.63	87.56
252.863	76.56
253.096	84.56
253.329	77.56
253.562	83.56
253.795	87.56
254.028	89.56
254.261	83.56
254.494	81.56
254.727	75.56
254.96	69.56
255.193	78.56
255.426	66.56
255.659	70.56
255.892	93.56
256.124	70.56
256.357	72.56
256.59	78.56
256.823	53.56
257.056	64.56
257.289	72.56
257.521	79.56
257.754	68.56
257.987	69.56
258.22	77.56
258.452	85.56
258.685	86.56
258.918	79.56
259.151	80.56
259.383	77.56
259.616	82.56
259.849	74.56
260.081	77.56
260.314	76.56
260.547	80.56
260.779	86.56
261.012	77.56
261.244	74.56
261.477	82.56
261.71	74.56
261.942	81.56
262.175	71.56
262.407	88.56
262.64	90.56
262.872	87.56
263.105	80.56
263.337	96.56
263.57	70.56
263.802	76.56
264.035	69.56
264.267	75.56
264.499	61.56
264.732	97.56
264.964	69.56
265.197	70.56
265.429	80.56
265.661	88.56
265.894	79.56
266.126	80.56
266.358	70.56
266.591	80.56
266.823	61.56
267.055	78.56
267.287	85.56
267.52	94.56
267.752	93.56
267.984	94.56
268.216	62.56
268.448	88.56
268.681	80.56
268.913	61.56
269.145	87.56
269.377	83.56
269.609	75.56
269.841	100.56
270.073	81.56
270.306	94.56
270.538	80.56
270.77	71.56
271.002	64.56
271.234	74.56
271.466	74.56
271.698	73.56
271.93	85.56
272.162	73.56
272.394	80.56
272.626	88.56
272.858	84.56
273.09	73.56
273.322	71.56
273.553	82.56
273.785	73.56
274.017	81.56
274.249	89.56
274.481	88.56
274.713	80.56
274.945	83.56
275.176	85.56
275.408	80.56
275.64	66.56
275.872	86.56
276.104	83.56
276.335	72.56
276.567	82.56
276.799	76.56
277.031	75.56
277.262	90.56
277.494	83.56
277.726	80.56
277.957	90.56
278.189	79.56
278.421	80.56
278.652	71.56
278.884	77.56
279.115	71.56
279.347	80.56
279.579	92.56
279.81	87.56
280.042	86.56
280.273	85.56
280.505	83.56
280.736	87.56
280.968	73.56
281.199	78.56
281.431	79.56
281.662	76.56
281.894	79.56
282.125	89.56
282.356	76.56
282.588	90.56
282.819	74.56
283.051	84.56
283.282	73.56
283.513	79.56
283.745	85.56
283.976	83.56
284.207	79.56
284.439	83.56
284.67	94.56
284.901	82.56
285.132	96.56
285.364	80.56
285.595	93.56
285.826	88.56
286.057	87.56
286.288	79.56
286.52	83.56
286.751	72.56
286.982	86.56
287.213	70.56
287.444	90.56
287.675	84.56
287.906	77.56
288.138	85.56
288.369	71.56
288.6	81.56
288.831	80.56
289.062	93.56
289.293	80.56
289.524	69.56
289.755	89.56
289.986	71.56
290.217	83.56
290.448	79.56
290.679	76.56
290.91	89.56
291.141	88.56
291.371	76.56
291.602	76.56
291.833	89.56
292.064	76.56
292.295	94.56
292.526	84.56
292.757	90.56
292.987	83.56
293.218	87.56
293.449	79.56
293.68	81.56
293.91	91.56
294.141	84.56
294.372	85.56
294.603	79.56
294.833	89.56
295.064	87.56
295.295	79.56
295.525	80.56
295.756	84.56
295.987	92.56
296.217	87.56
296.448	77.56
296.679	89.56
296.909	90.56
297.14	85.56
297.37	95.56
297.601	89.56
297.831	81.56
298.062	78.56
298.292	73.56
298.523	78.56
298.753	71.56
298.984	81.56
299.214	86.56
299.445	92.56
299.675	97.56
299.905	94.56
300.136	90.56
300.366	89.56
300.597	81.56
300.827	77.56
301.057	82.56
301.288	73.56
301.518	76.56
301.748	81.56
301.979	79.56
302.209	89.56
302.439	77.56
302.669	93.56
302.9	73.56
303.13	80.56
303.36	88.56
303.59	78.56
303.82	86.56
304.051	93.56
304.281	84.56
304.511	79.56
304.741	84.56
304.971	82.56
305.201	81.56
305.431	75.56
305.661	77.56
305.891	76.56
306.121	86.56
306.352	81.56
306.582	77.56
306.812	86.56
307.042	77.56
307.272	86.56
307.502	88.56
307.731	93.56
307.961	85.56
308.191	85.56
308.421	83.56
308.651	87.56
308.881	93.56
309.111	91.56
309.341	81.56
309.571	79.56
309.8	94.56
310.03	77.56
310.26	78.56
310.49	92.56
310.72	80.56
310.949	74.56
311.179	80.56
311.409	83.56
311.639	71.56
311.868	84.56
312.098	78.56
312.328	85.56
312.557	84.56
312.787	84.56
313.017	85.56
313.246	91.56
313.476	90.56
313.706	82.56
313.935	93.56
314.165	65.56
314.394	73.56
314.624	86.56
314.853	90.56
315.083	75.56
315.312	83.56
315.542	90.56
315.771	88.56
316.001	72.56
316.23	77.56
316.46	87.56
316.689	77.56
316.919	69.56
317.148	78.56
317.377	100.56
317.607	99.56
317.836	87.56
318.065	88.56
318.295	90.56
318.524	83.56
318.753	87.56
318.983	86.56
319.212	80.56
319.441	71.56
319.67	89.56
319.9	76.56
320.129	85.56
320.358	78.56
320.587	73.56
320.816	79.56
321.046	88.56
321.275	95.56
321.504	77.56
321.733	81.56
321.962	87.56
322.191	81.56
322.42	84.56
322.649	94.56
322.878	85.56
323.108	97.56
323.337	81.56
323.566	73.56
323.795	83.56
324.024	71.56
324.253	85.56
324.482	73.56
324.71	84.56
324.939	73.56
325.168	88.56
325.397	94.56
325.626	88.56
325.855	78.56
326.084	75.56
326.313	84.56
326.542	95.56
326.77	80.56
326.999	88.56
327.228	115.56
327.457	79.56
327.686	76.56
327.914	91.56
328.143	84.56
328.372	86.56
328.6	84.56
328.829	95.56
329.058	90.56
329.287	85.56
329.515	75.56
329.744	99.56
329.972	85.56
330.201	76.56
330.43	83.56
330.658	69.56
330.887	79.56
331.115	90.56
331.344	89.56
331.572	69.56
331.801	84.56
332.03	81.56
332.258	96.56
332.486	75.56
332.715	88.56
332.943	77.56
333.172	79.56
333.4	79.56
333.629	84.56
333.857	79.56
334.085	69.56
334.314	86.56
334.542	91.56
334.771	84.56
334.999	89.56
335.227	95.56
335.455	96.56
335.684	95.56
335.912	80.56
336.14	91.56
336.369	90.56
336.597	96.56
336.825	81.56
337.053	83.56
337.281	83.56
337.51	84.56
337.738	80.56
337.966	88.56
338.194	95.56
338.422	89.56
338.65	78.56
338.878	85.56
339.106	76.56
339.334	88.56
339.562	80.56
339.79	87.56
340.018	96.56
340.246	93.56
340.474	66.56
340.702	79.56
340.93	87.56
341.158	88.56
341.386	88.56
341.614	80.56
341.842	80.56
342.07	81.56
342.298	86.56
342.526	95.56
342.754	83.56
342.981	80.56
343.209	75.56
343.437	90.56
343.665	73.56
343.893	87.56
344.12	86.56
344.348	85.56
344.576	84.56
344.804	77.56
345.031	87.56
345.259	86.56
345.487	81.56
345.714	90.56
345.942	85.56
346.17	88.56
346.397	85.56
346.625	75.56
346.853	75.56
347.08	100.56
347.308	88.56
347.535	77.56
347.763	79.56
347.99	86.56
348.218	86.56
348.445	92.56
348.673	85.56
348.9	83.56
349.128	88.56
349.355	76.56
349.583	79.56
349.81	101.56
350.037	85.56
350.265	85.56
350.492	82.56
350.72	79.56
350.947	83.56
351.174	74.56
351.402	71.56
351.629	83.56
351.856	80.56
352.083	79.56
352.311	71.56
352.538	83.56
352.765	96.56
352.992	83.56
353.22	72.56
353.447	82.56
353.674	72.56
353.901	80.56
354.128	89.56
354.355	77.56
354.583	94.56
354.81	95.56
355.037	78.56
355.264	85.56
355.491	96.56
355.718	94.56
355.945	95.56
356.172	97.56
356.399	89.56
356.626	64.56
356.853	96.56
357.08	78.56
357.307	83.56
357.534	85.56
357.761	82.56
357.988	81.56
358.215	92.56
358.441	90.56
358.668	76.56
358.895	84.56
359.122	79.56
359.349	81.56
359.576	92.56
359.802	73.56
360.029	87.56
360.256	91.56
360.483	75.56
360.709	79.56
360.936	83.56
361.163	79.56
361.39	86.56
361.616	80.56
361.843	79.56
362.07	77.56
362.296	78.56
362.523	75.56
362.749	71.56
362.976	93.56
363.203	82.56
363.429	83.56
363.656	76.56
363.882	69.56
364.109	86.56
364.335	84.56
364.562	67.56
364.788	75.56
365.015	68.56
365.241	71.56
365.468	67.56
365.694	80.56
365.92	79.56
366.147	91.56
366.373	86.56
366.599	80.56
366.826	70.56
367.052	93.56
367.278	83.56
367.505	90.56
367.731	91.56
367.957	91.56
368.184	85.56
368.41	94.56
368.636	82.56
368.862	82.56
369.089	90.56
369.315	87.56
369.541	81.56
369.767	92.56
369.993	73.56
370.219	56.56
370.445	84.56
370.672	71.56
370.898	86.56
371.124	73.56
371.35	75.56
371.576	75.56
371.802	88.56
372.028	81.56
372.254	81.56
372.48	82.56
372.706	79.56
372.932	75.56
373.158	89.56
373.384	90.56
373.61	88.56
373.835	85.56
374.061	95.56
374.287	76.56
374.513	77.56
374.739	72.56
374.965	75.56
375.191	84.56
375.416	90.56
375.642	79.56
375.868	84.56
376.094	86.56
376.319	77.56
376.545	85.56
376.771	79.56
376.997	80.56
377.222	85.56
377.448	75.56
377.674	77.56
377.899	81.56
378.125	63.56
378.35	84.56
378.576	75.56
378.802	76.56
379.027	72.56
379.253	85.56
379.478	84.56
379.704	86.56
379.929	75.56
380.155	86.56
380.38	90.56
380.606	88.56
380.831	81.56
381.057	100.56
381.282	97.56
381.507	82.56
381.733	85.56
381.958	88.56
382.184	75.56
382.409	71.56
382.634	86.56
382.86	67.56
383.085	76.56
383.31	91.56
383.535	86.56
383.761	91.56
383.986	81.56
384.211	81.56
384.436	72.56
384.662	79.56
384.887	79.56
385.112	76.56
385.337	83.56
385.562	79.56
385.787	81.56
386.013	83.56
386.238	89.56
386.463	72.56
386.688	95.56
386.913	77.56
387.138	91.56
387.363	78.56
387.588	78.56
387.813	92.56
388.038	84.56
388.263	90.56
388.488	97.56
388.713	102.56
388.938	85.56
389.163	65.56
389.387	85.56
389.612	59.56
389.837	80.56
390.062	89.56
390.287	88.56
390.512	75.56
390.736	85.56
390.961	90.56
391.186	82.56
391.411	87.56
391.636	76.56
391.86	83.56
392.085	80.56
392.31	78.56
392.534	99.56
392.759	95.56
392.984	79.56
393.208	85.56
393.433	94.56
393.658	91.56
393.882	81.56
394.107	85.56
394.331	76.56
394.556	81.56
394.78	85.56
395.005	71.56
395.229	79.56
395.454	100.56
395.678	90.56
395.903	82.56
396.127	85.56
396.352	92.56
396.576	82.56
396.801	71.56
397.025	89.56
397.249	102.56
397.474	76.56
397.698	78.56
397.922	68.56
398.147	97.56
398.371	86.56
398.595	87.56
398.82	80.56
399.044	84.56
399.268	70.56
399.492	87.56
399.717	104.56
399.941	93.56
400.165	94.56
400.389	85.56
400.613	89.56
400.837	87.56
401.062	83.56
401.286	87.56
401.51	80.56
401.734	82.56
401.958	69.56
402.182	80.56
402.406	95.56
402.63	83.56
402.854	88.56
403.078	87.56
403.302	90.56
403.526	82.56
403.75	83.56
403.974	77.56
404.198	76.56
404.422	80.56
404.645	87.56
404.869	91.56
405.093	72.56
405.317	70.56
405.541	81.56
405.765	85.56
405.988	87.56
406.212	81.56
406.436	84.56
406.66	88.56
406.883	88.56
407.107	90.56
407.331	98.56
407.555	81.56
407.778	83.56
408.002	84.56
408.226	87.56
408.449	92.56
408.673	84.56
408.896	87.56
409.12	83.56
409.344	75.56
409.567	75.56
409.791	84.56
410.014	88.56
410.238	96.56
410.461	95.56
410.685	88.56
410.908	89.56
411.132	78.56
411.355	71.56
411.578	76.56
411.802	91.56
412.025	83.56
412.249	68.56
412.472	93.56
412.695	73.56
412.919	77.56
413.142	80.56
413.365	72.56
413.589	89.56
413.812	84.56
414.035	91.56
414.258	79.56
414.482	91.56
414.705	84.56
414.928	70.56
415.151	95.56
415.374	77.56
415.597	68.56
415.821	91.56
416.044	79.56
416.267	77.56
416.49	86.56
416.713	83.56
416.936	77.56
417.159	99.56
417.382	72.56
417.605	72.56
417.828	83.56
418.051	84.56
418.274	84.56
418.497	73.56
418.72	77.56
418.943	79.56
419.166	82.56
419.389	96.56
419.611	84.56
419.834	72.56
420.057	84.56
420.28	83.56
420.503	84.56
420.726	86.56
420.948	85.56
421.171	81.56
421.394	91.56
421.617	92.56
421.839	88.56
422.062	91.56
422.285	92.56
422.507	80.56
422.73	76.56
422.953	78.56
423.175	91.56
423.398	82.56
423.621	95.56
423.843	88.56
424.066	88.56
424.288	75.56
424.511	83.56
424.733	88.56
424.956	83.56
425.178	89.56
425.401	88.56
425.623	71.56
425.846	85.56
426.068	91.56
426.291	84.56
426.513	91.56
426.735	78.56
426.958	73.56
427.18	85.56
427.402	97.56
427.625	76.56
427.847	88.56
428.069	91.56
428.292	84.56
428.514	86.56
428.736	88.56
428.958	85.56
429.181	84.56
429.403	90.56
429.625	86.56
429.847	76.56
430.069	78.56
430.292	80.56
430.514	90.56
430.736	88.56
430.958	79.56
431.18	87.56
431.402	76.56
431.624	83.56
431.846	93.56
432.068	88.56
432.29	85.56
432.512	89.56
432.734	87.56
432.956	78.56
433.178	91.56
433.4	89.56
433.622	83.56
433.844	90.56
434.066	87.56
434.287	92.56
434.509	84.56
434.731	109.56
434.953	76.56
435.175	83.56
435.397	89.56
435.618	85.56
435.84	89.56
436.062	89.56
436.284	72.56
436.505	86.56
436.727	83.56
436.949	86.56
437.17	84.56
437.392	92.56
437.614	84.56
437.835	95.56
438.057	77.56
438.278	83.56
438.5	86.56
438.721	84.56
438.943	80.56
439.165	77.56
439.386	93.56
439.608	77.56
439.829	97.56
440.05	85.56
440.272	85.56
440.493	87.56
440.715	85.56
440.936	93.56
441.158	97.56
441.379	81.56
441.6	72.56
441.822	82.56
442.043	87.56
442.264	90.56
442.486	86.56
442.707	82.56
442.928	73.56
443.149	93.56
443.371	84.56
443.592	79.56
443.813	89.56
444.034	81.56
444.255	77.56
444.476	80.56
444.698	81.56
444.919	76.56
445.14	166.56
445.361	121.56
445.582	93.56
445.803	94.56
446.024	71.56
446.245	93.56
446.466	72.56
446.687	80.56
446.908	90.56
447.129	81.56
447.35	89.56
447.571	88.56
447.792	80.56
448.013	80.56
448.234	80.56
448.455	78.56
448.675	89.56
448.896	75.56
449.117	87.56
449.338	81.56
449.559	78.56
449.779	88.56
450	83.56
450.221	90.56
450.442	80.56
450.662	79.56
450.883	93.56
451.104	90.56
451.324	89.56
451.545	81.56
451.766	78.56
451.986	94.56
452.207	84.56
452.428	100.56
452.648	89.56
452.869	84.56
453.089	88.56
453.31	79.56
453.53	69.56
453.751	88.56
453.971	101.56
454.192	78.56
454.412	67.56
454.633	83.56
454.853	91.56
455.073	98.56
455.294	73.56
455.514	83.56
455.734	74.56
455.955	89.56
456.175	81.56
456.395	95.56
456.616	76.56
456.836	85.56
457.056	94.56
457.276	87.56
457.497	69.56
457.717	76.56
457.937	89.56
458.157	93.56
458.377	79.56
458.598	83.56
458.818	72.56
459.038	83.56
459.258	79.56
459.478	74.56
459.698	85.56
459.918	83.56
460.138	93.56
460.358	95.56
460.578	89.56
460.798	85.56
461.018	73.56
461.238	78.56
461.458	77.56
461.678	84.56
461.898	96.56
462.118	91.56
462.338	68.56
462.558	74.56
462.777	81.56
462.997	83.56
463.217	85.56
463.437	88.56
463.657	88.56
463.876	85.56
464.096	89.56
464.316	101.56
464.536	82.56
464.755	102.56
464.975	81.56
465.195	94.56
465.414	96.56
465.634	91.56
465.854	92.56
466.073	83.56
466.293	90.56
466.512	91.56
466.732	91.56
466.951	69.56
467.171	84.56
467.391	95.56
467.61	89.56
467.829	90.56
468.049	80.56
468.268	82.56
468.488	93.56
468.707	71.56
468.927	81.56
469.146	70.56
469.365	92.56
469.585	92.56
469.804	81.56
470.023	82.56
470.243	87.56
470.462	77.56
470.681	78.56
470.901	81.56
471.12	97.56
471.339	81.56
471.558	95.56
471.777	81.56
471.997	84.56
472.216	79.56
472.435	80.56
472.654	89.56
472.873	88.56
473.092	92.56
473.311	80.56
473.53	96.56
473.749	77.56
473.968	95.56
474.187	94.56
474.406	87.56
474.625	87.56
474.844	84.56
475.063	82.56
475.282	79.56
475.501	76.56
475.72	87.56
475.939	85.56
476.158	92.56
476.377	92.56
476.596	79.56
476.814	83.56
477.033	86.56
477.252	88.56
477.471	82.56
477.69	79.56
477.908	83.56
478.127	91.56
478.346	83.56
478.564	81.56
478.783	78.56
479.002	93.56
479.22	74.56
479.439	88.56
479.658	79.56
479.876	87.56
480.095	85.56
480.313	101.56
480.532	80.56
480.751	75.56
480.969	103.56
481.188	86.56
481.406	84.56
481.624	75.56
481.843	87.56
482.061	99.56
482.28	74.56
482.498	87.56
482.717	103.56
482.935	96.56
483.153	73.56
483.372	86.56
483.59	80.56
483.808	78.56
484.027	95.56
484.245	90.56
484.463	81.56
484.681	81.56
484.9	91.56
485.118	94.56
485.336	73.56
485.554	86.56
485.772	93.56
485.99	95.56
486.209	74.56
486.427	87.56
486.645	92.56
486.863	108.56
487.081	99.56
487.299	107.56
487.517	97.56
487.735	88.56
487.953	88.56
488.171	80.56
488.389	84.56
488.607	73.56
488.825	96.56
489.043	91.56
489.261	94.56
489.479	87.56
489.696	88.56
489.914	84.56
490.132	89.56
490.35	95.56
490.568	74.56
490.786	91.56
491.003	88.56
491.221	75.56
491.439	83.56
491.657	86.56
491.874	86.56
492.092	92.56
492.31	72.56
492.527	92.56
492.745	97.56
492.963	94.56
493.18	90.56
493.398	87.56
493.615	81.56
493.833	87.56
494.05	101.56
494.268	95.56
494.485	85.56
494.703	82.56
494.92	80.56
495.138	84.56
495.355	80.56
495.573	91.56
495.79	81.56
496.008	80.56
496.225	95.56
496.442	85.56
496.66	87.56
496.877	80.56
497.094	87.56
497.312	91.56
497.529	86.56
497.746	101.56
497.963	79.56
498.181	85.56
498.398	103.56
498.615	99.56
498.832	108.56
499.049	83.56
499.267	101.56
499.484	102.56
499.701	97.56
499.918	110.56
500.135	101.56
500.352	111.56
500.569	103.56
500.786	106.56
501.003	96.56
501.22	108.56
501.437	97.56
501.654	88.56
501.871	88.56
502.088	87.56
502.305	93.56
502.522	88.56
502.739	93.56
502.956	86.56
503.172	79.56
503.389	84.56
503.606	73.56
503.823	87.56
504.04	82.56
504.256	91.56
504.473	91.56
504.69	85.56
504.907	102.56
505.123	87.56
505.34	79.56
505.557	77.56
505.773	89.56
505.99	71.56
506.207	79.56
506.423	87.56
506.64	81.56
506.856	97.56
507.073	92.56
507.289	85.56
507.506	90.56
507.722	92.56
507.939	64.56
508.155	87.56
508.372	92.56
508.588	85.56
508.805	92.56
509.021	78.56
509.238	81.56
509.454	80.56
509.67	86.56
509.887	101.56
510.103	82.56
510.319	86.56
510.536	103.56
510.752	79.56
510.968	75.56
511.184	84.56
511.401	73.56
511.617	81.56
511.833	88.56
512.049	91.56
512.265	81.56
512.481	94.56
512.698	89.56
512.914	74.56
513.13	86.56
513.346	90.56
513.562	93.56
513.778	88.56
513.994	87.56
514.21	72.56
514.426	93.56
514.642	77.56
514.858	74.56
515.074	92.56
515.29	75.56
515.506	75.56
515.721	86.56
515.937	93.56
516.153	76.56
516.369	85.56
516.585	92.56
516.801	84.56
517.016	96.56
517.232	89.56
517.448	81.56
517.664	87.56
517.879	77.56
518.095	94.56
518.311	66.56
518.527	94.56
518.742	87.56
518.958	88.56
519.173	87.56
519.389	87.56
519.605	76.56
519.82	85.56
