Data from BG_HRD10591_044.txt Node
Date: Fri May 16 15:33:29 EDT 2025
User: Yrep
Spectrometer: HR+D1059
Trigger mode: 1
Integration Time (sec): 1.000000E-1
Scans to average: 1
Electric dark correction enabled: true
Nonlinearity correction enabled: false
Boxcar width: 0
XAxis mode: Wavelengths
Number of Pixels in Spectrum: 2048
>>>>>Begin Spectral Data<<<<<
223.165	-6.75
223.4	-6.75
223.635	-6.75
223.869	-18.75
224.104	-26.75
224.338	-9.75
224.573	-25.75
224.808	-11.75
225.042	7.25
225.277	-22.75
225.511	15.25
225.746	8.25
225.98	2.25
226.215	9.25
226.449	11.25
226.683	22.25
226.918	24.25
227.152	22.25
227.387	44.25
227.621	30.25
227.856	48.25
228.09	46.25
228.324	60.25
228.559	53.25
228.793	53.25
229.027	72.25
229.262	62.25
229.496	73.25
229.73	68.25
229.964	71.25
230.199	73.25
230.433	79.25
230.667	87.25
230.901	76.25
231.136	71.25
231.37	70.25
231.604	78.25
231.838	88.25
232.072	78.25
232.306	87.25
232.541	77.25
232.775	86.25
233.009	79.25
233.243	72.25
233.477	78.25
233.711	80.25
233.945	85.25
234.179	70.25
234.413	83.25
234.647	78.25
234.881	70.25
235.115	80.25
235.349	64.25
235.583	73.25
235.817	78.25
236.051	83.25
236.285	83.25
236.519	77.25
236.753	70.25
236.987	66.25
237.221	60.25
237.455	77.25
237.689	76.25
237.922	81.25
238.156	74.25
238.39	61.25
238.624	72.25
238.858	74.25
239.091	74.25
239.325	73.25
239.559	79.25
239.793	84.25
240.027	74.25
240.26	84.25
240.494	79.25
240.728	70.25
240.961	64.25
241.195	76.25
241.429	74.25
241.662	67.25
241.896	85.25
242.13	84.25
242.363	73.25
242.597	88.25
242.83	71.25
243.064	76.25
243.298	64.25
243.531	69.25
243.765	74.25
243.998	67.25
244.232	74.25
244.465	91.25
244.699	72.25
244.932	74.25
245.166	82.25
245.399	76.25
245.633	84.25
245.866	72.25
246.099	67.25
246.333	71.25
246.566	74.25
246.8	77.25
247.033	75.25
247.266	88.25
247.5	90.25
247.733	69.25
247.966	80.25
248.2	83.25
248.433	81.25
248.666	60.25
248.899	64.25
249.133	69.25
249.366	88.25
249.599	85.25
249.832	79.25
250.066	100.25
250.299	73.25
250.532	81.25
250.765	74.25
250.998	64.25
251.231	90.25
251.465	81.25
251.698	88.25
251.931	81.25
252.164	74.25
252.397	91.25
252.63	86.25
252.863	87.25
253.096	76.25
253.329	85.25
253.562	88.25
253.795	69.25
254.028	86.25
254.261	78.25
254.494	87.25
254.727	83.25
254.96	88.25
255.193	70.25
255.426	66.25
255.659	70.25
255.892	90.25
256.124	81.25
256.357	86.25
256.59	92.25
256.823	80.25
257.056	89.25
257.289	79.25
257.521	83.25
257.754	75.25
257.987	74.25
258.22	83.25
258.452	77.25
258.685	60.25
258.918	72.25
259.151	79.25
259.383	82.25
259.616	82.25
259.849	96.25
260.081	81.25
260.314	87.25
260.547	84.25
260.779	86.25
261.012	82.25
261.244	84.25
261.477	96.25
261.71	80.25
261.942	78.25
262.175	84.25
262.407	87.25
262.64	73.25
262.872	82.25
263.105	67.25
263.337	86.25
263.57	75.25
263.802	84.25
264.035	86.25
264.267	59.25
264.499	82.25
264.732	91.25
264.964	76.25
265.197	67.25
265.429	80.25
265.661	83.25
265.894	82.25
266.126	84.25
266.358	81.25
266.591	84.25
266.823	84.25
267.055	78.25
267.287	87.25
267.52	71.25
267.752	80.25
267.984	70.25
268.216	82.25
268.448	89.25
268.681	89.25
268.913	77.25
269.145	89.25
269.377	85.25
269.609	81.25
269.841	85.25
270.073	84.25
270.306	80.25
270.538	74.25
270.77	76.25
271.002	87.25
271.234	85.25
271.466	80.25
271.698	80.25
271.93	86.25
272.162	61.25
272.394	68.25
272.626	79.25
272.858	71.25
273.09	92.25
273.322	89.25
273.553	75.25
273.785	97.25
274.017	84.25
274.249	85.25
274.481	83.25
274.713	90.25
274.945	95.25
275.176	80.25
275.408	85.25
275.64	85.25
275.872	96.25
276.104	76.25
276.335	70.25
276.567	81.25
276.799	91.25
277.031	70.25
277.262	85.25
277.494	80.25
277.726	70.25
277.957	89.25
278.189	76.25
278.421	87.25
278.652	80.25
278.884	80.25
279.115	86.25
279.347	73.25
279.579	88.25
279.81	88.25
280.042	104.25
280.273	77.25
280.505	68.25
280.736	75.25
280.968	91.25
281.199	92.25
281.431	85.25
281.662	79.25
281.894	77.25
282.125	90.25
282.356	98.25
282.588	82.25
282.819	82.25
283.051	88.25
283.282	68.25
283.513	78.25
283.745	98.25
283.976	88.25
284.207	80.25
284.439	65.25
284.67	91.25
284.901	86.25
285.132	76.25
285.364	81.25
285.595	92.25
285.826	89.25
286.057	89.25
286.288	89.25
286.52	96.25
286.751	88.25
286.982	84.25
287.213	92.25
287.444	83.25
287.675	79.25
287.906	94.25
288.138	92.25
288.369	75.25
288.6	88.25
288.831	96.25
289.062	83.25
289.293	86.25
289.524	80.25
289.755	71.25
289.986	105.25
290.217	101.25
290.448	79.25
290.679	88.25
290.91	90.25
291.141	97.25
291.371	87.25
291.602	87.25
291.833	66.25
292.064	82.25
292.295	89.25
292.526	84.25
292.757	88.25
292.987	78.25
293.218	86.25
293.449	83.25
293.68	66.25
293.91	86.25
294.141	91.25
294.372	90.25
294.603	95.25
294.833	92.25
295.064	89.25
295.295	74.25
295.525	103.25
295.756	80.25
295.987	98.25
296.217	75.25
296.448	90.25
296.679	78.25
296.909	73.25
297.14	81.25
297.37	93.25
297.601	94.25
297.831	84.25
298.062	70.25
298.292	90.25
298.523	92.25
298.753	80.25
298.984	92.25
299.214	84.25
299.445	80.25
299.675	72.25
299.905	75.25
300.136	96.25
300.366	98.25
300.597	80.25
300.827	91.25
301.057	92.25
301.288	94.25
301.518	82.25
301.748	84.25
301.979	104.25
302.209	91.25
302.439	85.25
302.669	80.25
302.9	90.25
303.13	90.25
303.36	107.25
303.59	80.25
303.82	85.25
304.051	84.25
304.281	94.25
304.511	100.25
304.741	93.25
304.971	88.25
305.201	95.25
305.431	83.25
305.661	74.25
305.891	93.25
306.121	90.25
306.352	81.25
306.582	96.25
306.812	91.25
307.042	86.25
307.272	85.25
307.502	77.25
307.731	92.25
307.961	86.25
308.191	85.25
308.421	104.25
308.651	93.25
308.881	90.25
309.111	84.25
309.341	92.25
309.571	78.25
309.8	79.25
310.03	76.25
310.26	95.25
310.49	85.25
310.72	72.25
310.949	90.25
311.179	72.25
311.409	78.25
311.639	90.25
311.868	90.25
312.098	77.25
312.328	90.25
312.557	74.25
312.787	98.25
313.017	87.25
313.246	93.25
313.476	84.25
313.706	76.25
313.935	97.25
314.165	90.25
314.394	97.25
314.624	87.25
314.853	94.25
315.083	80.25
315.312	93.25
315.542	80.25
315.771	86.25
316.001	73.25
316.23	81.25
316.46	88.25
316.689	89.25
316.919	85.25
317.148	97.25
317.377	87.25
317.607	90.25
317.836	80.25
318.065	79.25
318.295	96.25
318.524	91.25
318.753	90.25
318.983	84.25
319.212	72.25
319.441	91.25
319.67	74.25
319.9	80.25
320.129	71.25
320.358	95.25
320.587	94.25
320.816	83.25
321.046	82.25
321.275	88.25
321.504	86.25
321.733	86.25
321.962	87.25
322.191	84.25
322.42	90.25
322.649	90.25
322.878	84.25
323.108	98.25
323.337	71.25
323.566	69.25
323.795	92.25
324.024	81.25
324.253	88.25
324.482	86.25
324.71	96.25
324.939	88.25
325.168	84.25
325.397	96.25
325.626	85.25
325.855	92.25
326.084	81.25
326.313	90.25
326.542	92.25
326.77	91.25
326.999	97.25
327.228	89.25
327.457	88.25
327.686	63.25
327.914	80.25
328.143	88.25
328.372	97.25
328.6	89.25
328.829	82.25
329.058	80.25
329.287	96.25
329.515	84.25
329.744	82.25
329.972	84.25
330.201	85.25
330.43	84.25
330.658	82.25
330.887	93.25
331.115	75.25
331.344	78.25
331.572	73.25
331.801	93.25
332.03	76.25
332.258	72.25
332.486	87.25
332.715	89.25
332.943	81.25
333.172	86.25
333.4	80.25
333.629	96.25
333.857	85.25
334.085	88.25
334.314	92.25
334.542	89.25
334.771	83.25
334.999	91.25
335.227	88.25
335.455	92.25
335.684	94.25
335.912	93.25
336.14	88.25
336.369	97.25
336.597	92.25
336.825	100.25
337.053	88.25
337.281	77.25
337.51	86.25
337.738	87.25
337.966	93.25
338.194	90.25
338.422	88.25
338.65	90.25
338.878	88.25
339.106	68.25
339.334	87.25
339.562	93.25
339.79	96.25
340.018	79.25
340.246	96.25
340.474	100.25
340.702	86.25
340.93	89.25
341.158	100.25
341.386	88.25
341.614	97.25
341.842	83.25
342.07	92.25
342.298	79.25
342.526	96.25
342.754	88.25
342.981	93.25
343.209	98.25
343.437	73.25
343.665	98.25
343.893	84.25
344.12	96.25
344.348	88.25
344.576	82.25
344.804	86.25
345.031	82.25
345.259	93.25
345.487	79.25
345.714	70.25
345.942	80.25
346.17	93.25
346.397	83.25
346.625	72.25
346.853	90.25
347.08	82.25
347.308	95.25
347.535	90.25
347.763	82.25
347.99	88.25
348.218	78.25
348.445	91.25
348.673	85.25
348.9	104.25
349.128	94.25
349.355	87.25
349.583	85.25
349.81	89.25
350.037	79.25
350.265	88.25
350.492	85.25
350.72	89.25
350.947	97.25
351.174	85.25
351.402	82.25
351.629	88.25
351.856	98.25
352.083	100.25
352.311	100.25
352.538	80.25
352.765	78.25
352.992	85.25
353.22	92.25
353.447	92.25
353.674	82.25
353.901	86.25
354.128	83.25
354.355	81.25
354.583	87.25
354.81	86.25
355.037	72.25
355.264	92.25
355.491	76.25
355.718	97.25
355.945	76.25
356.172	76.25
356.399	103.25
356.626	79.25
356.853	84.25
357.08	80.25
357.307	89.25
357.534	88.25
357.761	81.25
357.988	90.25
358.215	77.25
358.441	81.25
358.668	82.25
358.895	94.25
359.122	90.25
359.349	88.25
359.576	75.25
359.802	86.25
360.029	78.25
360.256	75.25
360.483	73.25
360.709	87.25
360.936	91.25
361.163	65.25
361.39	88.25
361.616	86.25
361.843	84.25
362.07	85.25
362.296	73.25
362.523	74.25
362.749	88.25
362.976	82.25
363.203	89.25
363.429	90.25
363.656	96.25
363.882	90.25
364.109	85.25
364.335	88.25
364.562	80.25
364.788	80.25
365.015	90.25
365.241	84.25
365.468	70.25
365.694	83.25
365.92	78.25
366.147	84.25
366.373	91.25
366.599	75.25
366.826	80.25
367.052	95.25
367.278	84.25
367.505	85.25
367.731	95.25
367.957	88.25
368.184	81.25
368.41	78.25
368.636	79.25
368.862	82.25
369.089	87.25
369.315	92.25
369.541	89.25
369.767	95.25
369.993	86.25
370.219	80.25
370.445	86.25
370.672	80.25
370.898	80.25
371.124	98.25
371.35	85.25
371.576	74.25
371.802	102.25
372.028	89.25
372.254	90.25
372.48	76.25
372.706	92.25
372.932	81.25
373.158	88.25
373.384	86.25
373.61	104.25
373.835	93.25
374.061	66.25
374.287	91.25
374.513	102.25
374.739	92.25
374.965	92.25
375.191	76.25
375.416	108.25
375.642	91.25
375.868	91.25
376.094	95.25
376.319	82.25
376.545	94.25
376.771	90.25
376.997	76.25
377.222	88.25
377.448	88.25
377.674	77.25
377.899	87.25
378.125	79.25
378.35	71.25
378.576	85.25
378.802	81.25
379.027	81.25
379.253	90.25
379.478	92.25
379.704	80.25
379.929	84.25
380.155	90.25
380.38	78.25
380.606	87.25
380.831	89.25
381.057	87.25
381.282	85.25
381.507	75.25
381.733	90.25
381.958	90.25
382.184	95.25
382.409	70.25
382.634	74.25
382.86	82.25
383.085	100.25
383.31	85.25
383.535	80.25
383.761	84.25
383.986	97.25
384.211	79.25
384.436	75.25
384.662	85.25
384.887	82.25
385.112	78.25
385.337	72.25
385.562	88.25
385.787	88.25
386.013	93.25
386.238	95.25
386.463	77.25
386.688	79.25
386.913	91.25
387.138	77.25
387.363	94.25
387.588	101.25
387.813	97.25
388.038	80.25
388.263	97.25
388.488	78.25
388.713	83.25
388.938	87.25
389.163	85.25
389.387	84.25
389.612	77.25
389.837	88.25
390.062	78.25
390.287	88.25
390.512	83.25
390.736	88.25
390.961	103.25
391.186	95.25
391.411	89.25
391.636	101.25
391.86	80.25
392.085	83.25
392.31	75.25
392.534	81.25
392.759	96.25
392.984	90.25
393.208	80.25
393.433	92.25
393.658	76.25
393.882	90.25
394.107	95.25
394.331	89.25
394.556	95.25
394.78	77.25
395.005	92.25
395.229	94.25
395.454	87.25
395.678	81.25
395.903	104.25
396.127	72.25
396.352	93.25
396.576	88.25
396.801	91.25
397.025	80.25
397.249	95.25
397.474	93.25
397.698	103.25
397.922	82.25
398.147	76.25
398.371	76.25
398.595	95.25
398.82	76.25
399.044	88.25
399.268	73.25
399.492	88.25
399.717	81.25
399.941	82.25
400.165	85.25
400.389	85.25
400.613	93.25
400.837	85.25
401.062	83.25
401.286	88.25
401.51	89.25
401.734	96.25
401.958	87.25
402.182	84.25
402.406	82.25
402.63	100.25
402.854	85.25
403.078	92.25
403.302	97.25
403.526	87.25
403.75	93.25
403.974	85.25
404.198	90.25
404.422	92.25
404.645	89.25
404.869	88.25
405.093	96.25
405.317	104.25
405.541	77.25
405.765	93.25
405.988	90.25
406.212	95.25
406.436	98.25
406.66	94.25
406.883	91.25
407.107	84.25
407.331	78.25
407.555	84.25
407.778	102.25
408.002	91.25
408.226	90.25
408.449	87.25
408.673	70.25
408.896	87.25
409.12	84.25
409.344	97.25
409.567	72.25
409.791	101.25
410.014	78.25
410.238	76.25
410.461	85.25
410.685	88.25
410.908	89.25
411.132	83.25
411.355	81.25
411.578	90.25
411.802	84.25
412.025	91.25
412.249	87.25
412.472	86.25
412.695	89.25
412.919	88.25
413.142	98.25
413.365	94.25
413.589	94.25
413.812	87.25
414.035	72.25
414.258	82.25
414.482	86.25
414.705	72.25
414.928	94.25
415.151	93.25
415.374	76.25
415.597	78.25
415.821	84.25
416.044	80.25
416.267	74.25
416.49	97.25
416.713	87.25
416.936	84.25
417.159	89.25
417.382	91.25
417.605	93.25
417.828	94.25
418.051	82.25
418.274	76.25
418.497	79.25
418.72	92.25
418.943	88.25
419.166	80.25
419.389	94.25
419.611	87.25
419.834	93.25
420.057	96.25
420.28	89.25
420.503	84.25
420.726	82.25
420.948	75.25
421.171	84.25
421.394	89.25
421.617	84.25
421.839	87.25
422.062	92.25
422.285	81.25
422.507	94.25
422.73	82.25
422.953	86.25
423.175	96.25
423.398	96.25
423.621	94.25
423.843	88.25
424.066	102.25
424.288	87.25
424.511	88.25
424.733	89.25
424.956	96.25
425.178	83.25
425.401	92.25
425.623	76.25
425.846	74.25
426.068	81.25
426.291	94.25
426.513	89.25
426.735	97.25
426.958	98.25
427.18	81.25
427.402	81.25
427.625	90.25
427.847	90.25
428.069	82.25
428.292	85.25
428.514	93.25
428.736	76.25
428.958	93.25
429.181	89.25
429.403	84.25
429.625	85.25
429.847	86.25
430.069	77.25
430.292	92.25
430.514	78.25
430.736	83.25
430.958	86.25
431.18	89.25
431.402	90.25
431.624	94.25
431.846	80.25
432.068	100.25
432.29	74.25
432.512	63.25
432.734	71.25
432.956	82.25
433.178	94.25
433.4	84.25
433.622	90.25
433.844	84.25
434.066	86.25
434.287	82.25
434.509	90.25
434.731	93.25
434.953	74.25
435.175	94.25
435.397	101.25
435.618	78.25
435.84	89.25
436.062	97.25
436.284	81.25
436.505	89.25
436.727	69.25
436.949	92.25
437.17	78.25
437.392	78.25
437.614	85.25
437.835	81.25
438.057	85.25
438.278	92.25
438.5	78.25
438.721	84.25
438.943	87.25
439.165	80.25
439.386	82.25
439.608	92.25
439.829	86.25
440.05	74.25
440.272	76.25
440.493	80.25
440.715	70.25
440.936	96.25
441.158	106.25
441.379	86.25
441.6	97.25
441.822	91.25
442.043	76.25
442.264	85.25
442.486	91.25
442.707	100.25
442.928	86.25
443.149	81.25
443.371	85.25
443.592	96.25
443.813	88.25
444.034	90.25
444.255	97.25
444.476	88.25
444.698	87.25
444.919	90.25
445.14	157.25
445.361	126.25
445.582	89.25
445.803	76.25
446.024	92.25
446.245	93.25
446.466	78.25
446.687	69.25
446.908	69.25
447.129	74.25
447.35	85.25
447.571	98.25
447.792	79.25
448.013	74.25
448.234	76.25
448.455	76.25
448.675	88.25
448.896	74.25
449.117	87.25
449.338	85.25
449.559	86.25
449.779	97.25
450	81.25
450.221	83.25
450.442	79.25
450.662	88.25
450.883	78.25
451.104	85.25
451.324	92.25
451.545	87.25
451.766	94.25
451.986	89.25
452.207	90.25
452.428	92.25
452.648	73.25
452.869	82.25
453.089	84.25
453.31	93.25
453.53	90.25
453.751	82.25
453.971	102.25
454.192	76.25
454.412	90.25
454.633	98.25
454.853	89.25
455.073	81.25
455.294	105.25
455.514	79.25
455.734	87.25
455.955	75.25
456.175	80.25
456.395	78.25
456.616	68.25
456.836	77.25
457.056	82.25
457.276	77.25
457.497	80.25
457.717	83.25
457.937	102.25
458.157	73.25
458.377	81.25
458.598	88.25
458.818	78.25
459.038	79.25
459.258	81.25
459.478	67.25
459.698	73.25
459.918	85.25
460.138	81.25
460.358	79.25
460.578	105.25
460.798	87.25
461.018	72.25
461.238	75.25
461.458	82.25
461.678	93.25
461.898	77.25
462.118	93.25
462.338	74.25
462.558	94.25
462.777	66.25
462.997	76.25
463.217	88.25
463.437	98.25
463.657	81.25
463.876	74.25
464.096	92.25
464.316	80.25
464.536	86.25
464.755	77.25
464.975	76.25
465.195	91.25
465.414	82.25
465.634	83.25
465.854	80.25
466.073	70.25
466.293	90.25
466.512	89.25
466.732	93.25
466.951	86.25
467.171	95.25
467.391	80.25
467.61	81.25
467.829	78.25
468.049	83.25
468.268	82.25
468.488	78.25
468.707	74.25
468.927	81.25
469.146	92.25
469.365	81.25
469.585	91.25
469.804	90.25
470.023	79.25
470.243	93.25
470.462	94.25
470.681	92.25
470.901	80.25
471.12	78.25
471.339	95.25
471.558	81.25
471.777	95.25
471.997	92.25
472.216	84.25
472.435	84.25
472.654	93.25
472.873	98.25
473.092	101.25
473.311	89.25
473.53	94.25
473.749	81.25
473.968	87.25
474.187	86.25
474.406	93.25
474.625	80.25
474.844	82.25
475.063	79.25
475.282	79.25
475.501	90.25
475.72	87.25
475.939	82.25
476.158	86.25
476.377	84.25
476.596	88.25
476.814	86.25
477.033	85.25
477.252	81.25
477.471	83.25
477.69	98.25
477.908	93.25
478.127	81.25
478.346	96.25
478.564	66.25
478.783	76.25
479.002	96.25
479.22	102.25
479.439	80.25
479.658	84.25
479.876	77.25
480.095	81.25
480.313	90.25
480.532	87.25
480.751	88.25
480.969	91.25
481.188	88.25
481.406	71.25
481.624	88.25
481.843	76.25
482.061	84.25
482.28	87.25
482.498	89.25
482.717	88.25
482.935	80.25
483.153	98.25
483.372	74.25
483.59	88.25
483.808	80.25
484.027	81.25
484.245	88.25
484.463	96.25
484.681	99.25
484.9	86.25
485.118	84.25
485.336	80.25
485.554	79.25
485.772	79.25
485.99	80.25
486.209	83.25
486.427	81.25
486.645	77.25
486.863	78.25
487.081	89.25
487.299	86.25
487.517	94.25
487.735	94.25
487.953	88.25
488.171	92.25
488.389	80.25
488.607	91.25
488.825	77.25
489.043	96.25
489.261	76.25
489.479	84.25
489.696	95.25
489.914	72.25
490.132	97.25
490.35	87.25
490.568	96.25
490.786	91.25
491.003	83.25
491.221	93.25
491.439	88.25
491.657	94.25
491.874	80.25
492.092	86.25
492.31	86.25
492.527	84.25
492.745	93.25
492.963	90.25
493.18	68.25
493.398	89.25
493.615	89.25
493.833	100.25
494.05	92.25
494.268	82.25
494.485	79.25
494.703	88.25
494.92	92.25
495.138	93.25
495.355	92.25
495.573	90.25
495.79	86.25
496.008	92.25
496.225	88.25
496.442	80.25
496.66	96.25
496.877	86.25
497.094	100.25
497.312	92.25
497.529	85.25
497.746	99.25
497.963	89.25
498.181	89.25
498.398	97.25
498.615	88.25
498.832	100.25
499.049	92.25
499.267	85.25
499.484	84.25
499.701	105.25
499.918	110.25
500.135	103.25
500.352	96.25
500.569	120.25
500.786	113.25
501.003	105.25
501.22	110.25
501.437	105.25
501.654	102.25
501.871	97.25
502.088	99.25
502.305	84.25
502.522	95.25
502.739	88.25
502.956	72.25
503.172	96.25
503.389	100.25
503.606	88.25
503.823	88.25
504.04	88.25
504.256	88.25
504.473	94.25
504.69	101.25
504.907	87.25
505.123	72.25
505.34	92.25
505.557	84.25
505.773	72.25
505.99	83.25
506.207	86.25
506.423	86.25
506.64	98.25
506.856	89.25
507.073	82.25
507.289	91.25
507.506	84.25
507.722	93.25
507.939	76.25
508.155	80.25
508.372	84.25
508.588	94.25
508.805	87.25
509.021	95.25
509.238	85.25
509.454	94.25
509.67	84.25
509.887	88.25
510.103	93.25
510.319	80.25
510.536	91.25
510.752	88.25
510.968	104.25
511.184	89.25
511.401	72.25
511.617	90.25
511.833	80.25
512.049	89.25
512.265	90.25
512.481	88.25
512.698	79.25
512.914	84.25
513.13	89.25
513.346	92.25
513.562	78.25
513.778	81.25
513.994	90.25
514.21	76.25
514.426	86.25
514.642	86.25
514.858	78.25
515.074	96.25
515.29	90.25
515.506	85.25
515.721	95.25
515.937	96.25
516.153	97.25
516.369	102.25
516.585	76.25
516.801	84.25
517.016	89.25
517.232	86.25
517.448	86.25
517.664	102.25
517.879	100.25
518.095	74.25
518.311	93.25
518.527	89.25
518.742	88.25
518.958	92.25
519.173	99.25
519.389	104.25
519.605	92.25
