Data from BG_HRD10591_008.txt Node
Date: Fri May 16 15:33:11 EDT 2025
User: Yrep
Spectrometer: HR+D1059
Trigger mode: 1
Integration Time (sec): 1.000000E-1
Scans to average: 1
Electric dark correction enabled: true
Nonlinearity correction enabled: false
Boxcar width: 0
XAxis mode: Wavelengths
Number of Pixels in Spectrum: 2048
>>>>>Begin Spectral Data<<<<<
223.165	-21.44
223.4	-21.44
223.635	-21.44
223.869	-10.44
224.104	-11.44
224.338	-5.44
224.573	-6.44
224.808	-16.44
225.042	-7.44
225.277	-12.44
225.511	-24.44
225.746	2.56
225.98	8.56
226.215	0.56
226.449	23.56
226.683	29.56
226.918	22.56
227.152	28.56
227.387	32.56
227.621	37.56
227.856	47.56
228.09	38.56
228.324	45.56
228.559	65.56
228.793	51.56
229.027	55.56
229.262	63.56
229.496	69.56
229.73	69.56
229.964	61.56
230.199	74.56
230.433	72.56
230.667	71.56
230.901	79.56
231.136	84.56
231.37	87.56
231.604	71.56
231.838	85.56
232.072	77.56
232.306	84.56
232.541	88.56
232.775	89.56
233.009	79.56
233.243	84.56
233.477	75.56
233.711	81.56
233.945	75.56
234.179	76.56
234.413	76.56
234.647	90.56
234.881	75.56
235.115	68.56
235.349	83.56
235.583	78.56
235.817	75.56
236.051	83.56
236.285	80.56
236.519	80.56
236.753	71.56
236.987	78.56
237.221	84.56
237.455	68.56
237.689	73.56
237.922	67.56
238.156	69.56
238.39	80.56
238.624	79.56
238.858	78.56
239.091	78.56
239.325	79.56
239.559	80.56
239.793	82.56
240.027	79.56
240.26	74.56
240.494	79.56
240.728	78.56
240.961	72.56
241.195	65.56
241.429	75.56
241.662	84.56
241.896	76.56
242.13	65.56
242.363	75.56
242.597	66.56
242.83	81.56
243.064	83.56
243.298	68.56
243.531	68.56
243.765	76.56
243.998	70.56
244.232	85.56
244.465	73.56
244.699	97.56
244.932	73.56
245.166	65.56
245.399	80.56
245.633	76.56
245.866	70.56
246.099	73.56
246.333	72.56
246.566	72.56
246.8	86.56
247.033	71.56
247.266	77.56
247.5	81.56
247.733	71.56
247.966	87.56
248.2	83.56
248.433	69.56
248.666	70.56
248.899	75.56
249.133	97.56
249.366	73.56
249.599	81.56
249.832	100.56
250.066	78.56
250.299	76.56
250.532	71.56
250.765	67.56
250.998	77.56
251.231	89.56
251.465	86.56
251.698	88.56
251.931	76.56
252.164	75.56
252.397	88.56
252.63	73.56
252.863	73.56
253.096	70.56
253.329	74.56
253.562	71.56
253.795	71.56
254.028	85.56
254.261	83.56
254.494	64.56
254.727	87.56
254.96	75.56
255.193	92.56
255.426	81.56
255.659	87.56
255.892	88.56
256.124	78.56
256.357	83.56
256.59	84.56
256.823	78.56
257.056	81.56
257.289	89.56
257.521	82.56
257.754	79.56
257.987	85.56
258.22	92.56
258.452	72.56
258.685	80.56
258.918	89.56
259.151	67.56
259.383	84.56
259.616	69.56
259.849	67.56
260.081	85.56
260.314	80.56
260.547	74.56
260.779	77.56
261.012	87.56
261.244	70.56
261.477	91.56
261.71	75.56
261.942	74.56
262.175	86.56
262.407	86.56
262.64	83.56
262.872	74.56
263.105	72.56
263.337	75.56
263.57	80.56
263.802	76.56
264.035	75.56
264.267	99.56
264.499	80.56
264.732	85.56
264.964	79.56
265.197	87.56
265.429	76.56
265.661	85.56
265.894	80.56
266.126	80.56
266.358	71.56
266.591	90.56
266.823	83.56
267.055	76.56
267.287	68.56
267.52	76.56
267.752	81.56
267.984	78.56
268.216	84.56
268.448	91.56
268.681	83.56
268.913	55.56
269.145	74.56
269.377	87.56
269.609	81.56
269.841	85.56
270.073	88.56
270.306	96.56
270.538	84.56
270.77	75.56
271.002	86.56
271.234	86.56
271.466	77.56
271.698	80.56
271.93	88.56
272.162	88.56
272.394	75.56
272.626	87.56
272.858	74.56
273.09	72.56
273.322	85.56
273.553	70.56
273.785	86.56
274.017	82.56
274.249	77.56
274.481	85.56
274.713	79.56
274.945	89.56
275.176	83.56
275.408	80.56
275.64	86.56
275.872	96.56
276.104	80.56
276.335	92.56
276.567	79.56
276.799	85.56
277.031	81.56
277.262	90.56
277.494	75.56
277.726	77.56
277.957	87.56
278.189	79.56
278.421	85.56
278.652	87.56
278.884	76.56
279.115	93.56
279.347	81.56
279.579	80.56
279.81	90.56
280.042	93.56
280.273	81.56
280.505	96.56
280.736	83.56
280.968	71.56
281.199	91.56
281.431	90.56
281.662	76.56
281.894	97.56
282.125	97.56
282.356	88.56
282.588	81.56
282.819	79.56
283.051	94.56
283.282	79.56
283.513	88.56
283.745	74.56
283.976	89.56
284.207	83.56
284.439	89.56
284.67	84.56
284.901	86.56
285.132	88.56
285.364	100.56
285.595	89.56
285.826	84.56
286.057	78.56
286.288	87.56
286.52	83.56
286.751	92.56
286.982	88.56
287.213	91.56
287.444	106.56
287.675	88.56
287.906	75.56
288.138	75.56
288.369	75.56
288.6	73.56
288.831	83.56
289.062	87.56
289.293	92.56
289.524	84.56
289.755	93.56
289.986	95.56
290.217	74.56
290.448	89.56
290.679	77.56
290.91	88.56
291.141	95.56
291.371	87.56
291.602	83.56
291.833	87.56
292.064	89.56
292.295	68.56
292.526	79.56
292.757	94.56
292.987	77.56
293.218	77.56
293.449	64.56
293.68	84.56
293.91	83.56
294.141	82.56
294.372	83.56
294.603	99.56
294.833	86.56
295.064	91.56
295.295	81.56
295.525	77.56
295.756	80.56
295.987	85.56
296.217	101.56
296.448	93.56
296.679	79.56
296.909	80.56
297.14	85.56
297.37	95.56
297.601	86.56
297.831	89.56
298.062	72.56
298.292	84.56
298.523	89.56
298.753	82.56
298.984	77.56
299.214	89.56
299.445	74.56
299.675	75.56
299.905	84.56
300.136	80.56
300.366	86.56
300.597	99.56
300.827	77.56
301.057	75.56
301.288	95.56
301.518	92.56
301.748	88.56
301.979	88.56
302.209	71.56
302.439	77.56
302.669	88.56
302.9	92.56
303.13	83.56
303.36	86.56
303.59	78.56
303.82	87.56
304.051	82.56
304.281	95.56
304.511	92.56
304.741	79.56
304.971	82.56
305.201	86.56
305.431	95.56
305.661	88.56
305.891	77.56
306.121	87.56
306.352	90.56
306.582	92.56
306.812	100.56
307.042	96.56
307.272	94.56
307.502	87.56
307.731	78.56
307.961	85.56
308.191	85.56
308.421	75.56
308.651	84.56
308.881	78.56
309.111	83.56
309.341	80.56
309.571	83.56
309.8	76.56
310.03	87.56
310.26	93.56
310.49	89.56
310.72	85.56
310.949	85.56
311.179	86.56
311.409	81.56
311.639	92.56
311.868	94.56
312.098	87.56
312.328	92.56
312.557	90.56
312.787	84.56
313.017	86.56
313.246	78.56
313.476	79.56
313.706	76.56
313.935	81.56
314.165	89.56
314.394	85.56
314.624	87.56
314.853	88.56
315.083	97.56
315.312	83.56
315.542	97.56
315.771	85.56
316.001	90.56
316.23	83.56
316.46	82.56
316.689	85.56
316.919	87.56
317.148	74.56
317.377	89.56
317.607	83.56
317.836	85.56
318.065	75.56
318.295	79.56
318.524	83.56
318.753	72.56
318.983	79.56
319.212	85.56
319.441	93.56
319.67	83.56
319.9	75.56
320.129	78.56
320.358	81.56
320.587	92.56
320.816	85.56
321.046	93.56
321.275	90.56
321.504	70.56
321.733	96.56
321.962	71.56
322.191	75.56
322.42	83.56
322.649	89.56
322.878	88.56
323.108	92.56
323.337	86.56
323.566	86.56
323.795	89.56
324.024	75.56
324.253	83.56
324.482	72.56
324.71	81.56
324.939	95.56
325.168	97.56
325.397	77.56
325.626	89.56
325.855	75.56
326.084	74.56
326.313	85.56
326.542	86.56
326.77	83.56
326.999	73.56
327.228	83.56
327.457	89.56
327.686	88.56
327.914	88.56
328.143	93.56
328.372	87.56
328.6	90.56
328.829	96.56
329.058	71.56
329.287	90.56
329.515	91.56
329.744	87.56
329.972	99.56
330.201	95.56
330.43	90.56
330.658	92.56
330.887	83.56
331.115	90.56
331.344	94.56
331.572	100.56
331.801	77.56
332.03	73.56
332.258	68.56
332.486	65.56
332.715	83.56
332.943	86.56
333.172	90.56
333.4	75.56
333.629	86.56
333.857	77.56
334.085	73.56
334.314	86.56
334.542	84.56
334.771	82.56
334.999	81.56
335.227	87.56
335.455	86.56
335.684	81.56
335.912	89.56
336.14	93.56
336.369	81.56
336.597	90.56
336.825	89.56
337.053	88.56
337.281	72.56
337.51	84.56
337.738	88.56
337.966	79.56
338.194	81.56
338.422	95.56
338.65	79.56
338.878	93.56
339.106	76.56
339.334	104.56
339.562	85.56
339.79	92.56
340.018	97.56
340.246	89.56
340.474	82.56
340.702	86.56
340.93	102.56
341.158	74.56
341.386	71.56
341.614	91.56
341.842	99.56
342.07	96.56
342.298	89.56
342.526	74.56
342.754	73.56
342.981	87.56
343.209	85.56
343.437	109.56
343.665	80.56
343.893	94.56
344.12	89.56
344.348	83.56
344.576	77.56
344.804	87.56
345.031	87.56
345.259	91.56
345.487	78.56
345.714	91.56
345.942	88.56
346.17	86.56
346.397	64.56
346.625	80.56
346.853	83.56
347.08	77.56
347.308	76.56
347.535	92.56
347.763	78.56
347.99	68.56
348.218	69.56
348.445	77.56
348.673	78.56
348.9	87.56
349.128	87.56
349.355	75.56
349.583	101.56
349.81	94.56
350.037	95.56
350.265	105.56
350.492	86.56
350.72	80.56
350.947	91.56
351.174	77.56
351.402	74.56
351.629	92.56
351.856	77.56
352.083	85.56
352.311	81.56
352.538	87.56
352.765	97.56
352.992	89.56
353.22	81.56
353.447	88.56
353.674	85.56
353.901	79.56
354.128	69.56
354.355	77.56
354.583	74.56
354.81	75.56
355.037	72.56
355.264	78.56
355.491	79.56
355.718	86.56
355.945	80.56
356.172	84.56
356.399	91.56
356.626	85.56
356.853	86.56
357.08	84.56
357.307	80.56
357.534	87.56
357.761	89.56
357.988	81.56
358.215	85.56
358.441	89.56
358.668	78.56
358.895	75.56
359.122	91.56
359.349	97.56
359.576	91.56
359.802	83.56
360.029	77.56
360.256	88.56
360.483	91.56
360.709	79.56
360.936	100.56
361.163	79.56
361.39	90.56
361.616	77.56
361.843	87.56
362.07	83.56
362.296	75.56
362.523	96.56
362.749	79.56
362.976	68.56
363.203	79.56
363.429	80.56
363.656	86.56
363.882	83.56
364.109	72.56
364.335	75.56
364.562	89.56
364.788	88.56
365.015	91.56
365.241	83.56
365.468	99.56
365.694	88.56
365.92	97.56
366.147	85.56
366.373	71.56
366.599	82.56
366.826	80.56
367.052	79.56
367.278	83.56
367.505	86.56
367.731	93.56
367.957	90.56
368.184	84.56
368.41	85.56
368.636	93.56
368.862	84.56
369.089	87.56
369.315	72.56
369.541	77.56
369.767	76.56
369.993	94.56
370.219	57.56
370.445	82.56
370.672	83.56
370.898	80.56
371.124	78.56
371.35	77.56
371.576	71.56
371.802	79.56
372.028	75.56
372.254	69.56
372.48	93.56
372.706	95.56
372.932	93.56
373.158	76.56
373.384	96.56
373.61	94.56
373.835	75.56
374.061	79.56
374.287	79.56
374.513	95.56
374.739	88.56
374.965	69.56
375.191	64.56
375.416	81.56
375.642	77.56
375.868	85.56
376.094	96.56
376.319	89.56
376.545	93.56
376.771	73.56
376.997	83.56
377.222	79.56
377.448	73.56
377.674	85.56
377.899	85.56
378.125	71.56
378.35	94.56
378.576	79.56
378.802	67.56
379.027	70.56
379.253	88.56
379.478	84.56
379.704	80.56
379.929	88.56
380.155	92.56
380.38	83.56
380.606	95.56
380.831	78.56
381.057	83.56
381.282	92.56
381.507	79.56
381.733	83.56
381.958	97.56
382.184	78.56
382.409	106.56
382.634	87.56
382.86	79.56
383.085	81.56
383.31	77.56
383.535	94.56
383.761	96.56
383.986	82.56
384.211	78.56
384.436	81.56
384.662	79.56
384.887	90.56
385.112	73.56
385.337	77.56
385.562	93.56
385.787	96.56
386.013	77.56
386.238	93.56
386.463	81.56
386.688	107.56
386.913	80.56
387.138	79.56
387.363	73.56
387.588	83.56
387.813	86.56
388.038	80.56
388.263	106.56
388.488	96.56
388.713	93.56
388.938	93.56
389.163	78.56
389.387	80.56
389.612	73.56
389.837	81.56
390.062	86.56
390.287	83.56
390.512	85.56
390.736	80.56
390.961	81.56
391.186	86.56
391.411	87.56
391.636	85.56
391.86	80.56
392.085	83.56
392.31	79.56
392.534	78.56
392.759	85.56
392.984	85.56
393.208	83.56
393.433	68.56
393.658	71.56
393.882	77.56
394.107	93.56
394.331	87.56
394.556	84.56
394.78	85.56
395.005	86.56
395.229	83.56
395.454	87.56
395.678	94.56
395.903	88.56
396.127	77.56
396.352	81.56
396.576	78.56
396.801	97.56
397.025	84.56
397.249	95.56
397.474	94.56
397.698	80.56
397.922	93.56
398.147	91.56
398.371	78.56
398.595	85.56
398.82	91.56
399.044	80.56
399.268	92.56
399.492	85.56
399.717	88.56
399.941	86.56
400.165	95.56
400.389	85.56
400.613	77.56
400.837	103.56
401.062	71.56
401.286	92.56
401.51	90.56
401.734	99.56
401.958	87.56
402.182	87.56
402.406	94.56
402.63	92.56
402.854	92.56
403.078	81.56
403.302	73.56
403.526	78.56
403.75	86.56
403.974	99.56
404.198	92.56
404.422	71.56
404.645	85.56
404.869	80.56
405.093	78.56
405.317	80.56
405.541	96.56
405.765	81.56
405.988	100.56
406.212	91.56
406.436	87.56
406.66	94.56
406.883	83.56
407.107	75.56
407.331	80.56
407.555	80.56
407.778	92.56
408.002	95.56
408.226	89.56
408.449	89.56
408.673	92.56
408.896	90.56
409.12	78.56
409.344	86.56
409.567	83.56
409.791	100.56
410.014	79.56
410.238	86.56
410.461	91.56
410.685	87.56
410.908	76.56
411.132	85.56
411.355	89.56
411.578	83.56
411.802	85.56
412.025	89.56
412.249	77.56
412.472	85.56
412.695	83.56
412.919	81.56
413.142	75.56
413.365	93.56
413.589	78.56
413.812	71.56
414.035	96.56
414.258	91.56
414.482	93.56
414.705	95.56
414.928	81.56
415.151	85.56
415.374	87.56
415.597	85.56
415.821	87.56
416.044	70.56
416.267	84.56
416.49	88.56
416.713	84.56
416.936	88.56
417.159	76.56
417.382	100.56
417.605	79.56
417.828	68.56
418.051	88.56
418.274	92.56
418.497	95.56
418.72	89.56
418.943	87.56
419.166	82.56
419.389	80.56
419.611	94.56
419.834	85.56
420.057	81.56
420.28	93.56
420.503	95.56
420.726	83.56
420.948	73.56
421.171	70.56
421.394	86.56
421.617	79.56
421.839	91.56
422.062	98.56
422.285	87.56
422.507	78.56
422.73	85.56
422.953	78.56
423.175	79.56
423.398	72.56
423.621	86.56
423.843	87.56
424.066	87.56
424.288	93.56
424.511	82.56
424.733	76.56
424.956	93.56
425.178	86.56
425.401	88.56
425.623	86.56
425.846	85.56
426.068	81.56
426.291	88.56
426.513	85.56
426.735	80.56
426.958	83.56
427.18	73.56
427.402	96.56
427.625	87.56
427.847	80.56
428.069	94.56
428.292	85.56
428.514	95.56
428.736	81.56
428.958	86.56
429.181	78.56
429.403	87.56
429.625	76.56
429.847	90.56
430.069	71.56
430.292	81.56
430.514	90.56
430.736	75.56
430.958	88.56
431.18	82.56
431.402	82.56
431.624	95.56
431.846	103.56
432.068	85.56
432.29	81.56
432.512	85.56
432.734	88.56
432.956	96.56
433.178	85.56
433.4	85.56
433.622	85.56
433.844	86.56
434.066	88.56
434.287	70.56
434.509	79.56
434.731	95.56
434.953	80.56
435.175	85.56
435.397	83.56
435.618	87.56
435.84	95.56
436.062	78.56
436.284	87.56
436.505	104.56
436.727	88.56
436.949	90.56
437.17	86.56
437.392	103.56
437.614	71.56
437.835	76.56
438.057	87.56
438.278	91.56
438.5	84.56
438.721	77.56
438.943	90.56
439.165	86.56
439.386	81.56
439.608	96.56
439.829	89.56
440.05	89.56
440.272	80.56
440.493	94.56
440.715	78.56
440.936	88.56
441.158	78.56
441.379	77.56
441.6	96.56
441.822	81.56
442.043	82.56
442.264	87.56
442.486	95.56
442.707	89.56
442.928	87.56
443.149	91.56
443.371	86.56
443.592	84.56
443.813	81.56
444.034	93.56
444.255	77.56
444.476	90.56
444.698	94.56
444.919	100.56
445.14	163.56
445.361	121.56
445.582	87.56
445.803	79.56
446.024	93.56
446.245	83.56
446.466	90.56
446.687	99.56
446.908	94.56
447.129	84.56
447.35	84.56
447.571	76.56
447.792	82.56
448.013	97.56
448.234	84.56
448.455	87.56
448.675	73.56
448.896	79.56
449.117	86.56
449.338	91.56
449.559	79.56
449.779	79.56
450	76.56
450.221	77.56
450.442	90.56
450.662	84.56
450.883	74.56
451.104	97.56
451.324	81.56
451.545	75.56
451.766	71.56
451.986	72.56
452.207	88.56
452.428	77.56
452.648	83.56
452.869	90.56
453.089	81.56
453.31	87.56
453.53	90.56
453.751	75.56
453.971	87.56
454.192	79.56
454.412	88.56
454.633	83.56
454.853	83.56
455.073	81.56
455.294	80.56
455.514	88.56
455.734	70.56
455.955	77.56
456.175	87.56
456.395	69.56
456.616	80.56
456.836	74.56
457.056	75.56
457.276	82.56
457.497	76.56
457.717	86.56
457.937	77.56
458.157	85.56
458.377	80.56
458.598	83.56
458.818	86.56
459.038	91.56
459.258	86.56
459.478	77.56
459.698	79.56
459.918	81.56
460.138	90.56
460.358	84.56
460.578	88.56
460.798	91.56
461.018	78.56
461.238	83.56
461.458	87.56
461.678	101.56
461.898	99.56
462.118	99.56
462.338	85.56
462.558	81.56
462.777	88.56
462.997	79.56
463.217	93.56
463.437	84.56
463.657	92.56
463.876	97.56
464.096	97.56
464.316	86.56
464.536	97.56
464.755	77.56
464.975	75.56
465.195	99.56
465.414	94.56
465.634	88.56
465.854	90.56
466.073	91.56
466.293	68.56
466.512	86.56
466.732	79.56
466.951	85.56
467.171	83.56
467.391	82.56
467.61	78.56
467.829	88.56
468.049	88.56
468.268	93.56
468.488	88.56
468.707	83.56
468.927	92.56
469.146	83.56
469.365	77.56
469.585	85.56
469.804	86.56
470.023	85.56
470.243	83.56
470.462	74.56
470.681	76.56
470.901	76.56
471.12	81.56
471.339	83.56
471.558	92.56
471.777	87.56
471.997	77.56
472.216	95.56
472.435	99.56
472.654	83.56
472.873	94.56
473.092	88.56
473.311	73.56
473.53	71.56
473.749	78.56
473.968	93.56
474.187	89.56
474.406	88.56
474.625	93.56
474.844	79.56
475.063	85.56
475.282	79.56
475.501	92.56
475.72	79.56
475.939	80.56
476.158	84.56
476.377	73.56
476.596	79.56
476.814	88.56
477.033	95.56
477.252	79.56
477.471	91.56
477.69	81.56
477.908	83.56
478.127	73.56
478.346	81.56
478.564	81.56
478.783	89.56
479.002	94.56
479.22	101.56
479.439	79.56
479.658	83.56
479.876	84.56
480.095	79.56
480.313	84.56
480.532	86.56
480.751	92.56
480.969	92.56
481.188	73.56
481.406	79.56
481.624	84.56
481.843	75.56
482.061	96.56
482.28	79.56
482.498	94.56
482.717	83.56
482.935	78.56
483.153	83.56
483.372	87.56
483.59	87.56
483.808	80.56
484.027	85.56
484.245	81.56
484.463	91.56
484.681	99.56
484.9	85.56
485.118	86.56
485.336	93.56
485.554	79.56
485.772	79.56
485.99	80.56
486.209	92.56
486.427	109.56
486.645	80.56
486.863	86.56
487.081	95.56
487.299	87.56
487.517	92.56
487.735	92.56
487.953	75.56
488.171	78.56
488.389	79.56
488.607	79.56
488.825	89.56
489.043	80.56
489.261	103.56
489.479	71.56
489.696	74.56
489.914	103.56
490.132	83.56
490.35	78.56
490.568	97.56
490.786	76.56
491.003	74.56
491.221	90.56
491.439	81.56
491.657	88.56
491.874	83.56
492.092	85.56
492.31	92.56
492.527	90.56
492.745	83.56
492.963	89.56
493.18	97.56
493.398	90.56
493.615	89.56
493.833	97.56
494.05	73.56
494.268	84.56
494.485	93.56
494.703	99.56
494.92	79.56
495.138	97.56
495.355	96.56
495.573	88.56
495.79	82.56
496.008	96.56
496.225	88.56
496.442	75.56
496.66	102.56
496.877	82.56
497.094	100.56
497.312	83.56
497.529	92.56
497.746	93.56
497.963	94.56
498.181	99.56
498.398	97.56
498.615	98.56
498.832	103.56
499.049	100.56
499.267	92.56
499.484	99.56
499.701	92.56
499.918	92.56
500.135	106.56
500.352	112.56
500.569	105.56
500.786	95.56
501.003	101.56
501.22	109.56
501.437	99.56
501.654	90.56
501.871	95.56
502.088	80.56
502.305	99.56
502.522	94.56
502.739	108.56
502.956	87.56
503.172	75.56
503.389	80.56
503.606	76.56
503.823	80.56
504.04	85.56
504.256	85.56
504.473	88.56
504.69	107.56
504.907	102.56
505.123	77.56
505.34	77.56
505.557	102.56
505.773	90.56
505.99	73.56
506.207	92.56
506.423	79.56
506.64	80.56
506.856	101.56
507.073	79.56
507.289	83.56
507.506	105.56
507.722	79.56
507.939	89.56
508.155	86.56
508.372	87.56
508.588	75.56
508.805	89.56
509.021	77.56
509.238	86.56
509.454	85.56
509.67	75.56
509.887	93.56
510.103	101.56
510.319	87.56
510.536	90.56
510.752	87.56
510.968	77.56
511.184	87.56
511.401	87.56
511.617	78.56
511.833	94.56
512.049	77.56
512.265	88.56
512.481	89.56
512.698	85.56
512.914	85.56
513.13	79.56
513.346	73.56
513.562	84.56
513.778	92.56
513.994	101.56
514.21	83.56
514.426	83.56
514.642	92.56
514.858	89.56
515.074	84.56
515.29	80.56
515.506	90.56
515.721	81.56
515.937	93.56
516.153	89.56
516.369	84.56
516.585	88.56
516.801	91.56
517.016	81.56
517.232	91.56
517.448	96.56
517.664	77.56
517.879	97.56
518.095	104.56
518.311	95.56
518.527	92.56
518.742	79.56
518.958	99.56
519.173	92.56
519.389	83.56
519.605	93.56
519.82	88.56
