Data from BG_HRD10591_018.txt Node
Date: Fri May 16 15:33:16 EDT 2025
User: Yrep
Spectrometer: HR+D1059
Trigger mode: 1
Integration Time (sec): 1.000000E-1
Scans to average: 1
Electric dark correction enabled: true
Nonlinearity correction enabled: false
Boxcar width: 0
XAxis mode: Wavelengths
Number of Pixels in Spectrum: 2048
>>>>>Begin Spectral Data<<<<<
223.165	-24.12
223.4	-24.12
223.635	-24.12
223.869	-14.12
224.104	-8.12
224.338	-15.12
224.573	-12.12
224.808	-26.12
225.042	0.88
225.277	-12.12
225.511	-15.12
225.746	3.88
225.98	12.88
226.215	15.88
226.449	26.88
226.683	20.88
226.918	24.88
227.152	20.88
227.387	34.88
227.621	54.88
227.856	45.88
228.09	47.88
228.324	51.88
228.559	49.88
228.793	53.88
229.027	64.88
229.262	62.88
229.496	62.88
229.73	70.88
229.964	68.88
230.199	73.88
230.433	67.88
230.667	74.88
230.901	77.88
231.136	81.88
231.37	77.88
231.604	85.88
231.838	85.88
232.072	80.88
232.306	82.88
232.541	72.88
232.775	82.88
233.009	85.88
233.243	73.88
233.477	77.88
233.711	82.88
233.945	88.88
234.179	88.88
234.413	69.88
234.647	69.88
234.881	69.88
235.115	79.88
235.349	68.88
235.583	63.88
235.817	67.88
236.051	71.88
236.285	78.88
236.519	78.88
236.753	77.88
236.987	60.88
237.221	62.88
237.455	86.88
237.689	77.88
237.922	62.88
238.156	79.88
238.39	68.88
238.624	64.88
238.858	72.88
239.091	73.88
239.325	68.88
239.559	77.88
239.793	76.88
240.027	84.88
240.26	83.88
240.494	79.88
240.728	76.88
240.961	94.88
241.195	72.88
241.429	83.88
241.662	72.88
241.896	68.88
242.13	83.88
242.363	88.88
242.597	84.88
242.83	93.88
243.064	79.88
243.298	75.88
243.531	75.88
243.765	80.88
243.998	72.88
244.232	84.88
244.465	74.88
244.699	73.88
244.932	76.88
245.166	74.88
245.399	77.88
245.633	72.88
245.866	73.88
246.099	84.88
246.333	76.88
246.566	89.88
246.8	78.88
247.033	88.88
247.266	78.88
247.5	75.88
247.733	83.88
247.966	80.88
248.2	87.88
248.433	91.88
248.666	75.88
248.899	78.88
249.133	79.88
249.366	86.88
249.599	90.88
249.832	72.88
250.066	88.88
250.299	80.88
250.532	95.88
250.765	90.88
250.998	78.88
251.231	70.88
251.465	85.88
251.698	74.88
251.931	88.88
252.164	87.88
252.397	84.88
252.63	74.88
252.863	74.88
253.096	68.88
253.329	91.88
253.562	91.88
253.795	73.88
254.028	74.88
254.261	76.88
254.494	74.88
254.727	86.88
254.96	82.88
255.193	82.88
255.426	95.88
255.659	78.88
255.892	83.88
256.124	89.88
256.357	81.88
256.59	74.88
256.823	81.88
257.056	72.88
257.289	76.88
257.521	77.88
257.754	89.88
257.987	81.88
258.22	78.88
258.452	78.88
258.685	65.88
258.918	77.88
259.151	90.88
259.383	79.88
259.616	84.88
259.849	75.88
260.081	74.88
260.314	75.88
260.547	76.88
260.779	99.88
261.012	86.88
261.244	88.88
261.477	81.88
261.71	82.88
261.942	75.88
262.175	82.88
262.407	78.88
262.64	90.88
262.872	78.88
263.105	88.88
263.337	83.88
263.57	80.88
263.802	75.88
264.035	67.88
264.267	69.88
264.499	74.88
264.732	79.88
264.964	76.88
265.197	80.88
265.429	74.88
265.661	88.88
265.894	89.88
266.126	93.88
266.358	85.88
266.591	96.88
266.823	78.88
267.055	82.88
267.287	87.88
267.52	85.88
267.752	74.88
267.984	96.88
268.216	88.88
268.448	76.88
268.681	81.88
268.913	80.88
269.145	85.88
269.377	80.88
269.609	83.88
269.841	91.88
270.073	83.88
270.306	84.88
270.538	81.88
270.77	95.88
271.002	90.88
271.234	92.88
271.466	81.88
271.698	93.88
271.93	88.88
272.162	65.88
272.394	89.88
272.626	87.88
272.858	83.88
273.09	94.88
273.322	83.88
273.553	86.88
273.785	94.88
274.017	93.88
274.249	99.88
274.481	77.88
274.713	71.88
274.945	99.88
275.176	88.88
275.408	86.88
275.64	84.88
275.872	82.88
276.104	82.88
276.335	87.88
276.567	81.88
276.799	91.88
277.031	79.88
277.262	82.88
277.494	71.88
277.726	78.88
277.957	84.88
278.189	86.88
278.421	86.88
278.652	87.88
278.884	87.88
279.115	89.88
279.347	81.88
279.579	88.88
279.81	83.88
280.042	106.88
280.273	76.88
280.505	80.88
280.736	77.88
280.968	75.88
281.199	91.88
281.431	92.88
281.662	90.88
281.894	83.88
282.125	87.88
282.356	88.88
282.588	83.88
282.819	92.88
283.051	83.88
283.282	88.88
283.513	84.88
283.745	84.88
283.976	86.88
284.207	95.88
284.439	91.88
284.67	92.88
284.901	82.88
285.132	79.88
285.364	74.88
285.595	80.88
285.826	75.88
286.057	87.88
286.288	87.88
286.52	97.88
286.751	78.88
286.982	80.88
287.213	86.88
287.444	88.88
287.675	97.88
287.906	84.88
288.138	89.88
288.369	83.88
288.6	73.88
288.831	86.88
289.062	88.88
289.293	91.88
289.524	95.88
289.755	94.88
289.986	90.88
290.217	96.88
290.448	81.88
290.679	88.88
290.91	99.88
291.141	86.88
291.371	87.88
291.602	92.88
291.833	76.88
292.064	90.88
292.295	85.88
292.526	84.88
292.757	93.88
292.987	85.88
293.218	74.88
293.449	90.88
293.68	97.88
293.91	94.88
294.141	96.88
294.372	100.88
294.603	94.88
294.833	82.88
295.064	80.88
295.295	89.88
295.525	88.88
295.756	88.88
295.987	104.88
296.217	84.88
296.448	87.88
296.679	89.88
296.909	94.88
297.14	87.88
297.37	80.88
297.601	90.88
297.831	83.88
298.062	77.88
298.292	81.88
298.523	96.88
298.753	77.88
298.984	86.88
299.214	92.88
299.445	71.88
299.675	87.88
299.905	93.88
300.136	99.88
300.366	82.88
300.597	80.88
300.827	93.88
301.057	94.88
301.288	85.88
301.518	88.88
301.748	98.88
301.979	104.88
302.209	85.88
302.439	88.88
302.669	95.88
302.9	77.88
303.13	95.88
303.36	91.88
303.59	87.88
303.82	86.88
304.051	105.88
304.281	90.88
304.511	85.88
304.741	79.88
304.971	84.88
305.201	99.88
305.431	86.88
305.661	90.88
305.891	87.88
306.121	90.88
306.352	104.88
306.582	82.88
306.812	74.88
307.042	85.88
307.272	87.88
307.502	72.88
307.731	84.88
307.961	88.88
308.191	94.88
308.421	102.88
308.651	98.88
308.881	89.88
309.111	90.88
309.341	95.88
309.571	78.88
309.8	99.88
310.03	86.88
310.26	98.88
310.49	96.88
310.72	90.88
310.949	78.88
311.179	96.88
311.409	83.88
311.639	74.88
311.868	72.88
312.098	96.88
312.328	102.88
312.557	92.88
312.787	82.88
313.017	86.88
313.246	63.88
313.476	75.88
313.706	92.88
313.935	91.88
314.165	79.88
314.394	80.88
314.624	94.88
314.853	93.88
315.083	93.88
315.312	87.88
315.542	88.88
315.771	76.88
316.001	91.88
316.23	91.88
316.46	88.88
316.689	81.88
316.919	93.88
317.148	83.88
317.377	73.88
317.607	90.88
317.836	82.88
318.065	88.88
318.295	97.88
318.524	72.88
318.753	95.88
318.983	104.88
319.212	95.88
319.441	95.88
319.67	95.88
319.9	99.88
320.129	100.88
320.358	86.88
320.587	78.88
320.816	100.88
321.046	104.88
321.275	93.88
321.504	91.88
321.733	96.88
321.962	84.88
322.191	81.88
322.42	95.88
322.649	91.88
322.878	80.88
323.108	80.88
323.337	81.88
323.566	72.88
323.795	83.88
324.024	80.88
324.253	86.88
324.482	79.88
324.71	98.88
324.939	79.88
325.168	90.88
325.397	80.88
325.626	98.88
325.855	81.88
326.084	89.88
326.313	88.88
326.542	85.88
326.77	102.88
326.999	98.88
327.228	93.88
327.457	98.88
327.686	88.88
327.914	84.88
328.143	102.88
328.372	74.88
328.6	88.88
328.829	92.88
329.058	96.88
329.287	84.88
329.515	74.88
329.744	79.88
329.972	91.88
330.201	98.88
330.43	94.88
330.658	89.88
330.887	87.88
331.115	80.88
331.344	97.88
331.572	82.88
331.801	95.88
332.03	86.88
332.258	86.88
332.486	91.88
332.715	91.88
332.943	78.88
333.172	94.88
333.4	90.88
333.629	93.88
333.857	105.88
334.085	77.88
334.314	87.88
334.542	97.88
334.771	89.88
334.999	88.88
335.227	91.88
335.455	101.88
335.684	89.88
335.912	91.88
336.14	82.88
336.369	81.88
336.597	88.88
336.825	89.88
337.053	106.88
337.281	86.88
337.51	89.88
337.738	93.88
337.966	75.88
338.194	91.88
338.422	84.88
338.65	86.88
338.878	97.88
339.106	102.88
339.334	84.88
339.562	97.88
339.79	96.88
340.018	78.88
340.246	80.88
340.474	71.88
340.702	83.88
340.93	86.88
341.158	90.88
341.386	93.88
341.614	94.88
341.842	79.88
342.07	89.88
342.298	95.88
342.526	86.88
342.754	88.88
342.981	92.88
343.209	90.88
343.437	93.88
343.665	80.88
343.893	104.88
344.12	102.88
344.348	84.88
344.576	91.88
344.804	90.88
345.031	88.88
345.259	98.88
345.487	97.88
345.714	92.88
345.942	94.88
346.17	68.88
346.397	93.88
346.625	90.88
346.853	82.88
347.08	89.88
347.308	92.88
347.535	73.88
347.763	95.88
347.99	74.88
348.218	80.88
348.445	89.88
348.673	87.88
348.9	86.88
349.128	97.88
349.355	87.88
349.583	97.88
349.81	86.88
350.037	91.88
350.265	90.88
350.492	81.88
350.72	78.88
350.947	98.88
351.174	76.88
351.402	88.88
351.629	76.88
351.856	93.88
352.083	70.88
352.311	75.88
352.538	90.88
352.765	83.88
352.992	99.88
353.22	95.88
353.447	89.88
353.674	94.88
353.901	82.88
354.128	83.88
354.355	81.88
354.583	91.88
354.81	84.88
355.037	86.88
355.264	97.88
355.491	94.88
355.718	90.88
355.945	105.88
356.172	97.88
356.399	93.88
356.626	105.88
356.853	77.88
357.08	83.88
357.307	84.88
357.534	88.88
357.761	88.88
357.988	99.88
358.215	108.88
358.441	77.88
358.668	83.88
358.895	79.88
359.122	93.88
359.349	74.88
359.576	92.88
359.802	86.88
360.029	89.88
360.256	93.88
360.483	81.88
360.709	91.88
360.936	79.88
361.163	78.88
361.39	73.88
361.616	82.88
361.843	81.88
362.07	90.88
362.296	94.88
362.523	86.88
362.749	81.88
362.976	81.88
363.203	90.88
363.429	75.88
363.656	95.88
363.882	85.88
364.109	110.88
364.335	83.88
364.562	88.88
364.788	84.88
365.015	78.88
365.241	97.88
365.468	95.88
365.694	77.88
365.92	92.88
366.147	88.88
366.373	87.88
366.599	74.88
366.826	85.88
367.052	87.88
367.278	87.88
367.505	87.88
367.731	85.88
367.957	85.88
368.184	75.88
368.41	79.88
368.636	90.88
368.862	78.88
369.089	82.88
369.315	77.88
369.541	92.88
369.767	98.88
369.993	89.88
370.219	81.88
370.445	81.88
370.672	85.88
370.898	102.88
371.124	72.88
371.35	87.88
371.576	89.88
371.802	88.88
372.028	69.88
372.254	87.88
372.48	88.88
372.706	82.88
372.932	102.88
373.158	94.88
373.384	97.88
373.61	89.88
373.835	92.88
374.061	90.88
374.287	88.88
374.513	79.88
374.739	79.88
374.965	75.88
375.191	87.88
375.416	89.88
375.642	92.88
375.868	88.88
376.094	85.88
376.319	98.88
376.545	87.88
376.771	91.88
376.997	88.88
377.222	79.88
377.448	74.88
377.674	89.88
377.899	91.88
378.125	77.88
378.35	70.88
378.576	79.88
378.802	90.88
379.027	93.88
379.253	82.88
379.478	97.88
379.704	93.88
379.929	81.88
380.155	72.88
380.38	87.88
380.606	93.88
380.831	95.88
381.057	97.88
381.282	80.88
381.507	84.88
381.733	93.88
381.958	88.88
382.184	74.88
382.409	82.88
382.634	75.88
382.86	80.88
383.085	78.88
383.31	83.88
383.535	83.88
383.761	94.88
383.986	79.88
384.211	79.88
384.436	70.88
384.662	87.88
384.887	70.88
385.112	96.88
385.337	81.88
385.562	90.88
385.787	80.88
386.013	91.88
386.238	78.88
386.463	87.88
386.688	90.88
386.913	91.88
387.138	83.88
387.363	85.88
387.588	83.88
387.813	87.88
388.038	83.88
388.263	88.88
388.488	77.88
388.713	106.88
388.938	92.88
389.163	90.88
389.387	90.88
389.612	74.88
389.837	93.88
390.062	81.88
390.287	97.88
390.512	97.88
390.736	86.88
390.961	88.88
391.186	98.88
391.411	81.88
391.636	84.88
391.86	80.88
392.085	83.88
392.31	70.88
392.534	84.88
392.759	93.88
392.984	76.88
393.208	86.88
393.433	83.88
393.658	91.88
393.882	82.88
394.107	92.88
394.331	87.88
394.556	92.88
394.78	87.88
395.005	77.88
395.229	83.88
395.454	92.88
395.678	71.88
395.903	94.88
396.127	102.88
396.352	80.88
396.576	82.88
396.801	91.88
397.025	90.88
397.249	80.88
397.474	91.88
397.698	94.88
397.922	76.88
398.147	98.88
398.371	90.88
398.595	95.88
398.82	91.88
399.044	85.88
399.268	102.88
399.492	99.88
399.717	92.88
399.941	100.88
400.165	90.88
400.389	99.88
400.613	83.88
400.837	88.88
401.062	88.88
401.286	82.88
401.51	79.88
401.734	82.88
401.958	89.88
402.182	74.88
402.406	80.88
402.63	78.88
402.854	87.88
403.078	78.88
403.302	90.88
403.526	95.88
403.75	91.88
403.974	89.88
404.198	94.88
404.422	84.88
404.645	77.88
404.869	89.88
405.093	92.88
405.317	86.88
405.541	89.88
405.765	83.88
405.988	91.88
406.212	94.88
406.436	90.88
406.66	86.88
406.883	96.88
407.107	90.88
407.331	93.88
407.555	83.88
407.778	79.88
408.002	82.88
408.226	92.88
408.449	82.88
408.673	83.88
408.896	97.88
409.12	87.88
409.344	92.88
409.567	95.88
409.791	104.88
410.014	100.88
410.238	99.88
410.461	77.88
410.685	97.88
410.908	85.88
411.132	86.88
411.355	80.88
411.578	79.88
411.802	102.88
412.025	109.88
412.249	78.88
412.472	75.88
412.695	70.88
412.919	71.88
413.142	83.88
413.365	88.88
413.589	89.88
413.812	93.88
414.035	97.88
414.258	85.88
414.482	81.88
414.705	76.88
414.928	84.88
415.151	90.88
415.374	81.88
415.597	83.88
415.821	85.88
416.044	89.88
416.267	95.88
416.49	81.88
416.713	81.88
416.936	100.88
417.159	91.88
417.382	87.88
417.605	92.88
417.828	80.88
418.051	92.88
418.274	87.88
418.497	87.88
418.72	94.88
418.943	84.88
419.166	93.88
419.389	80.88
419.611	78.88
419.834	96.88
420.057	87.88
420.28	81.88
420.503	82.88
420.726	74.88
420.948	91.88
421.171	73.88
421.394	80.88
421.617	87.88
421.839	99.88
422.062	93.88
422.285	71.88
422.507	79.88
422.73	92.88
422.953	82.88
423.175	78.88
423.398	76.88
423.621	82.88
423.843	81.88
424.066	80.88
424.288	96.88
424.511	96.88
424.733	72.88
424.956	91.88
425.178	83.88
425.401	90.88
425.623	96.88
425.846	79.88
426.068	79.88
426.291	83.88
426.513	84.88
426.735	79.88
426.958	80.88
427.18	85.88
427.402	80.88
427.625	95.88
427.847	88.88
428.069	86.88
428.292	93.88
428.514	80.88
428.736	69.88
428.958	108.88
429.181	82.88
429.403	94.88
429.625	93.88
429.847	82.88
430.069	86.88
430.292	99.88
430.514	92.88
430.736	83.88
430.958	91.88
431.18	93.88
431.402	92.88
431.624	90.88
431.846	74.88
432.068	81.88
432.29	102.88
432.512	86.88
432.734	76.88
432.956	82.88
433.178	96.88
433.4	80.88
433.622	99.88
433.844	94.88
434.066	91.88
434.287	88.88
434.509	91.88
434.731	95.88
434.953	97.88
435.175	88.88
435.397	96.88
435.618	78.88
435.84	90.88
436.062	83.88
436.284	79.88
436.505	99.88
436.727	92.88
436.949	92.88
437.17	96.88
437.392	90.88
437.614	95.88
437.835	89.88
438.057	72.88
438.278	89.88
438.5	87.88
438.721	79.88
438.943	78.88
439.165	87.88
439.386	93.88
439.608	87.88
439.829	77.88
440.05	81.88
440.272	85.88
440.493	83.88
440.715	76.88
440.936	74.88
441.158	90.88
441.379	80.88
441.6	91.88
441.822	86.88
442.043	83.88
442.264	86.88
442.486	94.88
442.707	80.88
442.928	82.88
443.149	74.88
443.371	95.88
443.592	82.88
443.813	90.88
444.034	84.88
444.255	79.88
444.476	97.88
444.698	89.88
444.919	90.88
445.14	154.88
445.361	122.88
445.582	94.88
445.803	82.88
446.024	90.88
446.245	96.88
446.466	79.88
446.687	80.88
446.908	92.88
447.129	93.88
447.35	80.88
447.571	85.88
447.792	94.88
448.013	95.88
448.234	104.88
448.455	83.88
448.675	83.88
448.896	74.88
449.117	87.88
449.338	71.88
449.559	82.88
449.779	80.88
450	82.88
450.221	82.88
450.442	94.88
450.662	79.88
450.883	85.88
451.104	84.88
451.324	96.88
451.545	89.88
451.766	97.88
451.986	83.88
452.207	95.88
452.428	95.88
452.648	83.88
452.869	105.88
453.089	92.88
453.31	86.88
453.53	78.88
453.751	93.88
453.971	78.88
454.192	74.88
454.412	82.88
454.633	92.88
454.853	84.88
455.073	89.88
455.294	80.88
455.514	95.88
455.734	93.88
455.955	91.88
456.175	81.88
456.395	77.88
456.616	78.88
456.836	74.88
457.056	68.88
457.276	84.88
457.497	82.88
457.717	93.88
457.937	88.88
458.157	78.88
458.377	83.88
458.598	88.88
458.818	90.88
459.038	84.88
459.258	88.88
459.478	79.88
459.698	65.88
459.918	91.88
460.138	85.88
460.358	93.88
460.578	87.88
460.798	78.88
461.018	90.88
461.238	91.88
461.458	90.88
461.678	83.88
461.898	84.88
462.118	83.88
462.338	84.88
462.558	87.88
462.777	86.88
462.997	99.88
463.217	100.88
463.437	78.88
463.657	89.88
463.876	79.88
464.096	77.88
464.316	88.88
464.536	94.88
464.755	78.88
464.975	90.88
465.195	94.88
465.414	91.88
465.634	91.88
465.854	87.88
466.073	99.88
466.293	90.88
466.512	69.88
466.732	99.88
466.951	76.88
467.171	99.88
467.391	84.88
467.61	84.88
467.829	86.88
468.049	92.88
468.268	92.88
468.488	92.88
468.707	82.88
468.927	86.88
469.146	76.88
469.365	96.88
469.585	80.88
469.804	89.88
470.023	83.88
470.243	78.88
470.462	88.88
470.681	65.88
470.901	82.88
471.12	91.88
471.339	76.88
471.558	83.88
471.777	74.88
471.997	84.88
472.216	95.88
472.435	96.88
472.654	75.88
472.873	89.88
473.092	79.88
473.311	99.88
473.53	86.88
473.749	88.88
473.968	83.88
474.187	73.88
474.406	79.88
474.625	82.88
474.844	93.88
475.063	80.88
475.282	99.88
475.501	86.88
475.72	82.88
475.939	92.88
476.158	103.88
476.377	96.88
476.596	91.88
476.814	88.88
477.033	95.88
477.252	85.88
477.471	90.88
477.69	97.88
477.908	94.88
478.127	91.88
478.346	87.88
478.564	84.88
478.783	98.88
479.002	89.88
479.22	91.88
479.439	77.88
479.658	82.88
479.876	88.88
480.095	76.88
480.313	83.88
480.532	104.88
480.751	104.88
480.969	97.88
481.188	85.88
481.406	81.88
481.624	82.88
481.843	82.88
482.061	106.88
482.28	92.88
482.498	86.88
482.717	80.88
482.935	92.88
483.153	91.88
483.372	97.88
483.59	84.88
483.808	90.88
484.027	90.88
484.245	80.88
484.463	79.88
484.681	81.88
484.9	97.88
485.118	85.88
485.336	85.88
485.554	86.88
485.772	108.88
485.99	102.88
486.209	86.88
486.427	78.88
486.645	95.88
486.863	100.88
487.081	92.88
487.299	94.88
487.517	97.88
487.735	90.88
487.953	90.88
488.171	92.88
488.389	87.88
488.607	80.88
488.825	95.88
489.043	88.88
489.261	96.88
489.479	91.88
489.696	64.88
489.914	90.88
490.132	95.88
490.35	88.88
490.568	96.88
490.786	97.88
491.003	89.88
491.221	75.88
491.439	94.88
491.657	79.88
491.874	84.88
492.092	95.88
492.31	87.88
492.527	84.88
492.745	85.88
492.963	90.88
493.18	94.88
493.398	93.88
493.615	78.88
493.833	86.88
494.05	87.88
494.268	107.88
494.485	104.88
494.703	86.88
494.92	81.88
495.138	76.88
495.355	94.88
495.573	79.88
495.79	79.88
496.008	83.88
496.225	91.88
496.442	82.88
496.66	94.88
496.877	87.88
497.094	76.88
497.312	82.88
497.529	86.88
497.746	84.88
497.963	94.88
498.181	108.88
498.398	93.88
498.615	107.88
498.832	93.88
499.049	97.88
499.267	102.88
499.484	91.88
499.701	94.88
499.918	94.88
500.135	111.88
500.352	104.88
500.569	114.88
500.786	104.88
501.003	120.88
501.22	99.88
501.437	96.88
501.654	88.88
501.871	93.88
502.088	83.88
502.305	89.88
502.522	95.88
502.739	89.88
502.956	90.88
503.172	97.88
503.389	82.88
503.606	104.88
503.823	104.88
504.04	83.88
504.256	82.88
504.473	111.88
504.69	92.88
504.907	102.88
505.123	76.88
505.34	81.88
505.557	80.88
505.773	90.88
505.99	103.88
506.207	100.88
506.423	94.88
506.64	89.88
506.856	102.88
507.073	93.88
507.289	87.88
507.506	90.88
507.722	86.88
507.939	74.88
508.155	85.88
508.372	94.88
508.588	90.88
508.805	103.88
509.021	93.88
509.238	90.88
509.454	73.88
509.67	98.88
509.887	78.88
510.103	76.88
510.319	96.88
510.536	87.88
510.752	92.88
510.968	82.88
511.184	83.88
511.401	91.88
511.617	79.88
511.833	94.88
512.049	78.88
512.265	98.88
512.481	92.88
512.698	95.88
512.914	88.88
513.13	103.88
513.346	81.88
513.562	92.88
513.778	92.88
513.994	93.88
514.21	81.88
514.426	95.88
514.642	89.88
514.858	80.88
515.074	96.88
515.29	93.88
515.506	94.88
515.721	105.88
515.937	108.88
516.153	77.88
516.369	86.88
516.585	83.88
516.801	85.88
517.016	93.88
517.232	103.88
517.448	104.88
517.664	98.88
517.879	78.88
518.095	89.88
518.311	86.88
518.527	100.88
518.742	90.88
518.958	83.88
519.173	80.88
519.389	97.88
