Data from BG_HRD10591_068.txt Node
Date: Fri May 16 15:33:41 EDT 2025
User: Yrep
Spectrometer: HR+D1059
Trigger mode: 1
Integration Time (sec): 1.000000E-1
Scans to average: 1
Electric dark correction enabled: true
Nonlinearity correction enabled: false
Boxcar width: 0
XAxis mode: Wavelengths
Number of Pixels in Spectrum: 2048
>>>>>Begin Spectral Data<<<<<
223.165	-28.5
223.4	-28.5
223.635	-28.5
223.869	-19.5
224.104	-12.5
224.338	-22.5
224.573	-10.5
224.808	-16.5
225.042	-7.5
225.277	0.5
225.511	6.5
225.746	9.5
225.98	10.5
226.215	9.5
226.449	11.5
226.683	20.5
226.918	22.5
227.152	26.5
227.387	44.5
227.621	45.5
227.856	44.5
228.09	47.5
228.324	56.5
228.559	53.5
228.793	66.5
229.027	57.5
229.262	69.5
229.496	79.5
229.73	73.5
229.964	64.5
230.199	65.5
230.433	83.5
230.667	68.5
230.901	80.5
231.136	74.5
231.37	76.5
231.604	75.5
231.838	64.5
232.072	84.5
232.306	74.5
232.541	72.5
232.775	81.5
233.009	88.5
233.243	81.5
233.477	77.5
233.711	88.5
233.945	77.5
234.179	83.5
234.413	88.5
234.647	74.5
234.881	74.5
235.115	83.5
235.349	73.5
235.583	70.5
235.817	85.5
236.051	77.5
236.285	83.5
236.519	78.5
236.753	77.5
236.987	84.5
237.221	76.5
237.455	77.5
237.689	65.5
237.922	75.5
238.156	76.5
238.39	72.5
238.624	85.5
238.858	75.5
239.091	60.5
239.325	79.5
239.559	74.5
239.793	67.5
240.027	78.5
240.26	73.5
240.494	74.5
240.728	80.5
240.961	77.5
241.195	79.5
241.429	78.5
241.662	85.5
241.896	69.5
242.13	97.5
242.363	77.5
242.597	89.5
242.83	85.5
243.064	95.5
243.298	76.5
243.531	84.5
243.765	83.5
243.998	99.5
244.232	103.5
244.465	81.5
244.699	65.5
244.932	85.5
245.166	68.5
245.399	73.5
245.633	87.5
245.866	76.5
246.099	74.5
246.333	71.5
246.566	87.5
246.8	74.5
247.033	83.5
247.266	86.5
247.5	77.5
247.733	70.5
247.966	74.5
248.2	80.5
248.433	75.5
248.666	79.5
248.899	67.5
249.133	89.5
249.366	94.5
249.599	85.5
249.832	87.5
250.066	83.5
250.299	84.5
250.532	73.5
250.765	80.5
250.998	74.5
251.231	94.5
251.465	72.5
251.698	73.5
251.931	68.5
252.164	75.5
252.397	90.5
252.63	70.5
252.863	81.5
253.096	77.5
253.329	91.5
253.562	88.5
253.795	81.5
254.028	73.5
254.261	85.5
254.494	69.5
254.727	71.5
254.96	81.5
255.193	75.5
255.426	70.5
255.659	68.5
255.892	70.5
256.124	71.5
256.357	74.5
256.59	86.5
256.823	87.5
257.056	83.5
257.289	85.5
257.521	80.5
257.754	82.5
257.987	78.5
258.22	75.5
258.452	74.5
258.685	78.5
258.918	62.5
259.151	78.5
259.383	96.5
259.616	60.5
259.849	81.5
260.081	85.5
260.314	81.5
260.547	73.5
260.779	83.5
261.012	90.5
261.244	87.5
261.477	91.5
261.71	80.5
261.942	67.5
262.175	90.5
262.407	95.5
262.64	79.5
262.872	73.5
263.105	80.5
263.337	84.5
263.57	90.5
263.802	85.5
264.035	73.5
264.267	65.5
264.499	66.5
264.732	79.5
264.964	89.5
265.197	77.5
265.429	83.5
265.661	69.5
265.894	95.5
266.126	80.5
266.358	71.5
266.591	75.5
266.823	74.5
267.055	91.5
267.287	81.5
267.52	87.5
267.752	93.5
267.984	91.5
268.216	82.5
268.448	73.5
268.681	81.5
268.913	96.5
269.145	87.5
269.377	80.5
269.609	88.5
269.841	65.5
270.073	86.5
270.306	80.5
270.538	81.5
270.77	86.5
271.002	81.5
271.234	75.5
271.466	94.5
271.698	92.5
271.93	87.5
272.162	94.5
272.394	97.5
272.626	92.5
272.858	84.5
273.09	92.5
273.322	87.5
273.553	98.5
273.785	84.5
274.017	83.5
274.249	79.5
274.481	77.5
274.713	72.5
274.945	90.5
275.176	83.5
275.408	102.5
275.64	76.5
275.872	71.5
276.104	72.5
276.335	78.5
276.567	85.5
276.799	77.5
277.031	80.5
277.262	80.5
277.494	89.5
277.726	66.5
277.957	97.5
278.189	87.5
278.421	73.5
278.652	83.5
278.884	88.5
279.115	79.5
279.347	83.5
279.579	90.5
279.81	76.5
280.042	82.5
280.273	78.5
280.505	100.5
280.736	77.5
280.968	97.5
281.199	98.5
281.431	78.5
281.662	82.5
281.894	83.5
282.125	86.5
282.356	83.5
282.588	88.5
282.819	86.5
283.051	77.5
283.282	81.5
283.513	81.5
283.745	87.5
283.976	91.5
284.207	85.5
284.439	93.5
284.67	73.5
284.901	82.5
285.132	73.5
285.364	103.5
285.595	92.5
285.826	103.5
286.057	79.5
286.288	93.5
286.52	79.5
286.751	83.5
286.982	85.5
287.213	83.5
287.444	77.5
287.675	85.5
287.906	78.5
288.138	87.5
288.369	90.5
288.6	73.5
288.831	82.5
289.062	90.5
289.293	73.5
289.524	95.5
289.755	76.5
289.986	91.5
290.217	86.5
290.448	78.5
290.679	89.5
290.91	77.5
291.141	83.5
291.371	88.5
291.602	82.5
291.833	88.5
292.064	94.5
292.295	103.5
292.526	93.5
292.757	74.5
292.987	83.5
293.218	87.5
293.449	87.5
293.68	94.5
293.91	94.5
294.141	101.5
294.372	74.5
294.603	88.5
294.833	80.5
295.064	78.5
295.295	83.5
295.525	88.5
295.756	87.5
295.987	78.5
296.217	87.5
296.448	82.5
296.679	86.5
296.909	98.5
297.14	84.5
297.37	86.5
297.601	81.5
297.831	81.5
298.062	101.5
298.292	89.5
298.523	89.5
298.753	94.5
298.984	70.5
299.214	79.5
299.445	70.5
299.675	78.5
299.905	86.5
300.136	94.5
300.366	92.5
300.597	95.5
300.827	88.5
301.057	78.5
301.288	96.5
301.518	97.5
301.748	83.5
301.979	91.5
302.209	85.5
302.439	87.5
302.669	88.5
302.9	89.5
303.13	91.5
303.36	82.5
303.59	81.5
303.82	85.5
304.051	93.5
304.281	81.5
304.511	80.5
304.741	81.5
304.971	90.5
305.201	81.5
305.431	85.5
305.661	95.5
305.891	93.5
306.121	83.5
306.352	98.5
306.582	106.5
306.812	98.5
307.042	90.5
307.272	105.5
307.502	74.5
307.731	88.5
307.961	91.5
308.191	76.5
308.421	91.5
308.651	95.5
308.881	67.5
309.111	80.5
309.341	83.5
309.571	96.5
309.8	90.5
310.03	80.5
310.26	92.5
310.49	88.5
310.72	87.5
310.949	107.5
311.179	84.5
311.409	92.5
311.639	81.5
311.868	75.5
312.098	81.5
312.328	82.5
312.557	92.5
312.787	99.5
313.017	81.5
313.246	92.5
313.476	91.5
313.706	95.5
313.935	84.5
314.165	83.5
314.394	95.5
314.624	86.5
314.853	86.5
315.083	81.5
315.312	86.5
315.542	79.5
315.771	78.5
316.001	81.5
316.23	89.5
316.46	87.5
316.689	85.5
316.919	79.5
317.148	85.5
317.377	86.5
317.607	95.5
317.836	75.5
318.065	84.5
318.295	97.5
318.524	75.5
318.753	80.5
318.983	87.5
319.212	73.5
319.441	82.5
319.67	85.5
319.9	89.5
320.129	86.5
320.358	86.5
320.587	83.5
320.816	89.5
321.046	85.5
321.275	96.5
321.504	85.5
321.733	96.5
321.962	81.5
322.191	95.5
322.42	87.5
322.649	87.5
322.878	83.5
323.108	87.5
323.337	90.5
323.566	89.5
323.795	92.5
324.024	89.5
324.253	79.5
324.482	75.5
324.71	92.5
324.939	86.5
325.168	98.5
325.397	82.5
325.626	73.5
325.855	99.5
326.084	85.5
326.313	95.5
326.542	80.5
326.77	82.5
326.999	95.5
327.228	89.5
327.457	97.5
327.686	82.5
327.914	90.5
328.143	97.5
328.372	73.5
328.6	80.5
328.829	90.5
329.058	99.5
329.287	91.5
329.515	91.5
329.744	84.5
329.972	96.5
330.201	91.5
330.43	83.5
330.658	99.5
330.887	82.5
331.115	84.5
331.344	105.5
331.572	83.5
331.801	89.5
332.03	85.5
332.258	81.5
332.486	83.5
332.715	89.5
332.943	79.5
333.172	78.5
333.4	78.5
333.629	96.5
333.857	87.5
334.085	86.5
334.314	89.5
334.542	82.5
334.771	76.5
334.999	75.5
335.227	80.5
335.455	98.5
335.684	85.5
335.912	85.5
336.14	85.5
336.369	95.5
336.597	86.5
336.825	75.5
337.053	103.5
337.281	105.5
337.51	88.5
337.738	87.5
337.966	77.5
338.194	87.5
338.422	88.5
338.65	90.5
338.878	94.5
339.106	71.5
339.334	85.5
339.562	88.5
339.79	81.5
340.018	78.5
340.246	92.5
340.474	87.5
340.702	89.5
340.93	85.5
341.158	99.5
341.386	91.5
341.614	88.5
341.842	75.5
342.07	93.5
342.298	85.5
342.526	82.5
342.754	93.5
342.981	86.5
343.209	95.5
343.437	86.5
343.665	93.5
343.893	88.5
344.12	87.5
344.348	86.5
344.576	88.5
344.804	74.5
345.031	92.5
345.259	93.5
345.487	88.5
345.714	81.5
345.942	83.5
346.17	79.5
346.397	84.5
346.625	83.5
346.853	83.5
347.08	85.5
347.308	89.5
347.535	106.5
347.763	82.5
347.99	82.5
348.218	94.5
348.445	79.5
348.673	94.5
348.9	90.5
349.128	92.5
349.355	90.5
349.583	103.5
349.81	94.5
350.037	97.5
350.265	79.5
350.492	72.5
350.72	87.5
350.947	79.5
351.174	79.5
351.402	91.5
351.629	85.5
351.856	93.5
352.083	89.5
352.311	86.5
352.538	88.5
352.765	78.5
352.992	85.5
353.22	86.5
353.447	85.5
353.674	89.5
353.901	90.5
354.128	83.5
354.355	92.5
354.583	83.5
354.81	85.5
355.037	91.5
355.264	107.5
355.491	78.5
355.718	81.5
355.945	77.5
356.172	90.5
356.399	80.5
356.626	87.5
356.853	84.5
357.08	87.5
357.307	103.5
357.534	94.5
357.761	73.5
357.988	75.5
358.215	93.5
358.441	75.5
358.668	87.5
358.895	80.5
359.122	94.5
359.349	98.5
359.576	102.5
359.802	90.5
360.029	104.5
360.256	83.5
360.483	88.5
360.709	73.5
360.936	90.5
361.163	84.5
361.39	83.5
361.616	95.5
361.843	84.5
362.07	99.5
362.296	90.5
362.523	87.5
362.749	83.5
362.976	77.5
363.203	82.5
363.429	81.5
363.656	77.5
363.882	77.5
364.109	85.5
364.335	87.5
364.562	75.5
364.788	78.5
365.015	92.5
365.241	87.5
365.468	84.5
365.694	88.5
365.92	109.5
366.147	90.5
366.373	87.5
366.599	74.5
366.826	90.5
367.052	89.5
367.278	91.5
367.505	83.5
367.731	96.5
367.957	87.5
368.184	95.5
368.41	74.5
368.636	65.5
368.862	81.5
369.089	90.5
369.315	89.5
369.541	76.5
369.767	91.5
369.993	85.5
370.219	82.5
370.445	82.5
370.672	84.5
370.898	86.5
371.124	101.5
371.35	79.5
371.576	76.5
371.802	85.5
372.028	93.5
372.254	75.5
372.48	94.5
372.706	89.5
372.932	91.5
373.158	101.5
373.384	96.5
373.61	73.5
373.835	98.5
374.061	92.5
374.287	93.5
374.513	84.5
374.739	78.5
374.965	89.5
375.191	88.5
375.416	80.5
375.642	86.5
375.868	76.5
376.094	97.5
376.319	89.5
376.545	90.5
376.771	89.5
376.997	98.5
377.222	83.5
377.448	93.5
377.674	79.5
377.899	78.5
378.125	104.5
378.35	91.5
378.576	90.5
378.802	66.5
379.027	76.5
379.253	79.5
379.478	86.5
379.704	88.5
379.929	88.5
380.155	86.5
380.38	97.5
380.606	83.5
380.831	86.5
381.057	85.5
381.282	86.5
381.507	83.5
381.733	90.5
381.958	94.5
382.184	92.5
382.409	81.5
382.634	85.5
382.86	86.5
383.085	83.5
383.31	94.5
383.535	93.5
383.761	93.5
383.986	74.5
384.211	86.5
384.436	89.5
384.662	94.5
384.887	89.5
385.112	96.5
385.337	97.5
385.562	93.5
385.787	81.5
386.013	86.5
386.238	73.5
386.463	92.5
386.688	89.5
386.913	82.5
387.138	71.5
387.363	77.5
387.588	82.5
387.813	85.5
388.038	88.5
388.263	72.5
388.488	83.5
388.713	82.5
388.938	83.5
389.163	83.5
389.387	73.5
389.612	74.5
389.837	77.5
390.062	86.5
390.287	90.5
390.512	84.5
390.736	100.5
390.961	85.5
391.186	88.5
391.411	82.5
391.636	92.5
391.86	87.5
392.085	94.5
392.31	86.5
392.534	91.5
392.759	87.5
392.984	79.5
393.208	87.5
393.433	97.5
393.658	81.5
393.882	82.5
394.107	96.5
394.331	99.5
394.556	73.5
394.78	76.5
395.005	93.5
395.229	92.5
395.454	79.5
395.678	85.5
395.903	87.5
396.127	86.5
396.352	85.5
396.576	88.5
396.801	90.5
397.025	84.5
397.249	92.5
397.474	98.5
397.698	85.5
397.922	89.5
398.147	103.5
398.371	89.5
398.595	87.5
398.82	78.5
399.044	97.5
399.268	99.5
399.492	92.5
399.717	107.5
399.941	94.5
400.165	84.5
400.389	98.5
400.613	89.5
400.837	80.5
401.062	79.5
401.286	89.5
401.51	82.5
401.734	86.5
401.958	89.5
402.182	87.5
402.406	89.5
402.63	91.5
402.854	94.5
403.078	81.5
403.302	87.5
403.526	84.5
403.75	88.5
403.974	102.5
404.198	83.5
404.422	89.5
404.645	102.5
404.869	89.5
405.093	92.5
405.317	89.5
405.541	81.5
405.765	78.5
405.988	97.5
406.212	89.5
406.436	76.5
406.66	104.5
406.883	80.5
407.107	89.5
407.331	101.5
407.555	91.5
407.778	91.5
408.002	96.5
408.226	98.5
408.449	90.5
408.673	98.5
408.896	86.5
409.12	81.5
409.344	88.5
409.567	83.5
409.791	91.5
410.014	90.5
410.238	99.5
410.461	93.5
410.685	91.5
410.908	85.5
411.132	91.5
411.355	71.5
411.578	102.5
411.802	82.5
412.025	91.5
412.249	80.5
412.472	75.5
412.695	75.5
412.919	76.5
413.142	95.5
413.365	87.5
413.589	89.5
413.812	92.5
414.035	81.5
414.258	89.5
414.482	88.5
414.705	83.5
414.928	95.5
415.151	85.5
415.374	78.5
415.597	98.5
415.821	81.5
416.044	89.5
416.267	90.5
416.49	93.5
416.713	83.5
416.936	81.5
417.159	87.5
417.382	93.5
417.605	86.5
417.828	86.5
418.051	82.5
418.274	89.5
418.497	89.5
418.72	65.5
418.943	98.5
419.166	84.5
419.389	92.5
419.611	82.5
419.834	90.5
420.057	85.5
420.28	97.5
420.503	82.5
420.726	84.5
420.948	90.5
421.171	87.5
421.394	89.5
421.617	95.5
421.839	92.5
422.062	81.5
422.285	83.5
422.507	80.5
422.73	87.5
422.953	75.5
423.175	87.5
423.398	81.5
423.621	81.5
423.843	88.5
424.066	85.5
424.288	80.5
424.511	88.5
424.733	91.5
424.956	84.5
425.178	79.5
425.401	86.5
425.623	78.5
425.846	85.5
426.068	87.5
426.291	85.5
426.513	78.5
426.735	88.5
426.958	87.5
427.18	88.5
427.402	99.5
427.625	89.5
427.847	90.5
428.069	88.5
428.292	89.5
428.514	84.5
428.736	73.5
428.958	80.5
429.181	91.5
429.403	85.5
429.625	82.5
429.847	84.5
430.069	94.5
430.292	91.5
430.514	81.5
430.736	89.5
430.958	85.5
431.18	76.5
431.402	78.5
431.624	90.5
431.846	96.5
432.068	92.5
432.29	87.5
432.512	80.5
432.734	80.5
432.956	85.5
433.178	93.5
433.4	99.5
433.622	97.5
433.844	94.5
434.066	90.5
434.287	91.5
434.509	108.5
434.731	77.5
434.953	91.5
435.175	97.5
435.397	96.5
435.618	91.5
435.84	99.5
436.062	90.5
436.284	92.5
436.505	88.5
436.727	85.5
436.949	74.5
437.17	89.5
437.392	101.5
437.614	82.5
437.835	83.5
438.057	73.5
438.278	71.5
438.5	93.5
438.721	88.5
438.943	89.5
439.165	89.5
439.386	75.5
439.608	94.5
439.829	85.5
440.05	87.5
440.272	91.5
440.493	77.5
440.715	87.5
440.936	95.5
441.158	86.5
441.379	72.5
441.6	85.5
441.822	106.5
442.043	87.5
442.264	85.5
442.486	93.5
442.707	83.5
442.928	91.5
443.149	80.5
443.371	91.5
443.592	99.5
443.813	102.5
444.034	83.5
444.255	83.5
444.476	87.5
444.698	93.5
444.919	87.5
445.14	147.5
445.361	126.5
445.582	86.5
445.803	80.5
446.024	79.5
446.245	92.5
446.466	86.5
446.687	83.5
446.908	74.5
447.129	87.5
447.35	89.5
447.571	86.5
447.792	95.5
448.013	87.5
448.234	90.5
448.455	90.5
448.675	86.5
448.896	81.5
449.117	74.5
449.338	75.5
449.559	88.5
449.779	96.5
450	77.5
450.221	96.5
450.442	89.5
450.662	86.5
450.883	83.5
451.104	90.5
451.324	75.5
451.545	87.5
451.766	92.5
451.986	82.5
452.207	92.5
452.428	79.5
452.648	88.5
452.869	86.5
453.089	82.5
453.31	84.5
453.53	81.5
453.751	77.5
453.971	74.5
454.192	83.5
454.412	83.5
454.633	83.5
454.853	88.5
455.073	79.5
455.294	71.5
455.514	86.5
455.734	80.5
455.955	84.5
456.175	77.5
456.395	73.5
456.616	73.5
456.836	79.5
457.056	74.5
457.276	79.5
457.497	102.5
457.717	87.5
457.937	91.5
458.157	78.5
458.377	74.5
458.598	86.5
458.818	99.5
459.038	94.5
459.258	77.5
459.478	97.5
459.698	99.5
459.918	85.5
460.138	87.5
460.358	80.5
460.578	77.5
460.798	85.5
461.018	87.5
461.238	85.5
461.458	89.5
461.678	92.5
461.898	88.5
462.118	77.5
462.338	81.5
462.558	79.5
462.777	94.5
462.997	84.5
463.217	85.5
463.437	103.5
463.657	96.5
463.876	84.5
464.096	91.5
464.316	87.5
464.536	94.5
464.755	100.5
464.975	87.5
465.195	94.5
465.414	69.5
465.634	85.5
465.854	87.5
466.073	89.5
466.293	86.5
466.512	82.5
466.732	74.5
466.951	102.5
467.171	96.5
467.391	97.5
467.61	79.5
467.829	101.5
468.049	93.5
468.268	91.5
468.488	96.5
468.707	80.5
468.927	94.5
469.146	74.5
469.365	81.5
469.585	77.5
469.804	90.5
470.023	79.5
470.243	67.5
470.462	101.5
470.681	89.5
470.901	115.5
471.12	89.5
471.339	85.5
471.558	87.5
471.777	96.5
471.997	90.5
472.216	92.5
472.435	89.5
472.654	82.5
472.873	98.5
473.092	90.5
473.311	94.5
473.53	106.5
473.749	92.5
473.968	85.5
474.187	84.5
474.406	80.5
474.625	93.5
474.844	87.5
475.063	87.5
475.282	84.5
475.501	85.5
475.72	81.5
475.939	87.5
476.158	95.5
476.377	85.5
476.596	86.5
476.814	83.5
477.033	90.5
477.252	88.5
477.471	106.5
477.69	94.5
477.908	109.5
478.127	84.5
478.346	81.5
478.564	103.5
478.783	87.5
479.002	83.5
479.22	93.5
479.439	90.5
479.658	93.5
479.876	85.5
480.095	86.5
480.313	97.5
480.532	83.5
480.751	92.5
480.969	96.5
481.188	86.5
481.406	91.5
481.624	88.5
481.843	80.5
482.061	85.5
482.28	82.5
482.498	85.5
482.717	90.5
482.935	75.5
483.153	76.5
483.372	97.5
483.59	74.5
483.808	79.5
484.027	88.5
484.245	81.5
484.463	86.5
484.681	101.5
484.9	88.5
485.118	87.5
485.336	117.5
485.554	83.5
485.772	91.5
485.99	97.5
486.209	78.5
486.427	81.5
486.645	91.5
486.863	98.5
487.081	89.5
487.299	87.5
487.517	95.5
487.735	95.5
487.953	72.5
488.171	94.5
488.389	92.5
488.607	88.5
488.825	91.5
489.043	90.5
489.261	87.5
489.479	93.5
489.696	73.5
489.914	89.5
490.132	81.5
490.35	79.5
490.568	81.5
490.786	98.5
491.003	83.5
491.221	72.5
491.439	75.5
491.657	87.5
491.874	102.5
492.092	82.5
492.31	89.5
492.527	82.5
492.745	88.5
492.963	77.5
493.18	82.5
493.398	105.5
493.615	95.5
493.833	101.5
494.05	81.5
494.268	99.5
494.485	86.5
494.703	87.5
494.92	95.5
495.138	86.5
495.355	83.5
495.573	83.5
495.79	82.5
496.008	86.5
496.225	78.5
496.442	91.5
496.66	90.5
496.877	99.5
497.094	90.5
497.312	85.5
497.529	92.5
497.746	78.5
497.963	86.5
498.181	90.5
498.398	88.5
498.615	92.5
498.832	81.5
499.049	96.5
499.267	95.5
499.484	105.5
499.701	110.5
499.918	107.5
500.135	103.5
500.352	103.5
500.569	113.5
500.786	124.5
501.003	106.5
501.22	110.5
501.437	93.5
501.654	78.5
501.871	87.5
502.088	95.5
502.305	98.5
502.522	99.5
502.739	94.5
502.956	90.5
503.172	99.5
503.389	91.5
503.606	89.5
503.823	97.5
504.04	88.5
504.256	86.5
504.473	90.5
504.69	88.5
504.907	81.5
505.123	97.5
505.34	96.5
505.557	86.5
505.773	104.5
505.99	92.5
506.207	98.5
506.423	99.5
506.64	99.5
506.856	82.5
507.073	85.5
507.289	94.5
507.506	86.5
507.722	88.5
507.939	90.5
508.155	97.5
508.372	91.5
508.588	82.5
508.805	77.5
509.021	90.5
509.238	90.5
509.454	82.5
509.67	84.5
509.887	85.5
510.103	83.5
510.319	90.5
510.536	97.5
510.752	103.5
510.968	98.5
511.184	93.5
511.401	86.5
511.617	94.5
511.833	85.5
512.049	80.5
512.265	86.5
512.481	83.5
512.698	90.5
512.914	87.5
513.13	81.5
513.346	95.5
513.562	93.5
513.778	87.5
513.994	82.5
514.21	87.5
514.426	87.5
514.642	88.5
514.858	76.5
515.074	86.5
515.29	103.5
515.506	95.5
515.721	86.5
515.937	86.5
516.153	81.5
516.369	85.5
516.585	98.5
516.801	97.5
517.016	91.5
517.232	90.5
517.448	107.5
517.664	87.5
517.879	82.5
518.095	105.5
518.311	81.5
518.527	89.5
518.742	86.5
518.958	86.5
519.173	81.5
519.389	103.5
519.605	91.5
519.82	90.5
520.036	87.5
520.251	88.5
520.467	64.5
520.682	97.5
520.898	86.5
521.113	91.5
521.329	86.5
521.544	79.5
521.76	80.5
521.975	95.5
522.19	73.5
522.406	67.5
522.621	94.5
522.836	89.5
523.052	92.5
523.267	81.5
523.482	85.5
523.698	82.5
523.913	87.5
524.128	92.5
524.343	101.5
524.559	90.5
524.774	99.5
524.989	89.5
525.204	84.5
525.419	95.5
525.634	77.5
525.849	94.5
526.064	93.5
526.28	85.5
526.495	86.5
526.71	79.5
526.925	101.5
527.14	79.5
527.355	102.5
527.57	91.5
527.785	88.5
527.999	86.5
528.214	96.5
528.429	94.5
528.644	89.5
528.859	68.5
529.074	96.5
529.289	92.5
529.503	102.5
529.718	88.5
529.933	95.5
530.148	86.5
530.363	92.5
530.577	83.5
530.792	90.5
531.007	76.5
531.221	93.5
531.436	84.5
531.651	94.5
531.865	86.5
532.08	88.5
532.295	85.5
532.509	85.5
532.724	102.5
532.938	90.5
533.153	91.5
533.367	87.5
533.582	93.5
533.796	92.5
534.011	80.5
534.225	82.5
534.44	83.5
534.654	91.5
534.868	98.5
535.083	83.5
535.297	92.5
535.511	95.5
535.726	84.5
535.94	81.5
536.154	84.5
536.369	98.5
536.583	87.5
536.797	98.5
537.011	71.5
537.225	103.5
537.44	86.5
537.654	97.5
537.868	75.5
538.082	85.5
538.296	79.5
538.51	77.5
538.724	91.5
538.938	80.5
539.153	84.5
539.367	93.5
539.581	86.5
539.795	77.5
