Data from BG_HRD10591_066.txt Node
Date: Fri May 16 15:33:40 EDT 2025
User: Yrep
Spectrometer: HR+D1059
Trigger mode: 1
Integration Time (sec): 1.000000E-1
Scans to average: 1
Electric dark correction enabled: true
Nonlinearity correction enabled: false
Boxcar width: 0
XAxis mode: Wavelengths
Number of Pixels in Spectrum: 2048
>>>>>Begin Spectral Data<<<<<
223.165	-15.44
223.4	-15.44
223.635	-15.44
223.869	-17.44
224.104	-15.44
224.338	-14.44
224.573	-16.44
224.808	-15.44
225.042	-5.44
225.277	-12.44
225.511	3.56
225.746	-8.44
225.98	16.56
226.215	20.56
226.449	10.56
226.683	19.56
226.918	25.56
227.152	24.56
227.387	30.56
227.621	44.56
227.856	50.56
228.09	48.56
228.324	47.56
228.559	58.56
228.793	62.56
229.027	63.56
229.262	56.56
229.496	59.56
229.73	67.56
229.964	73.56
230.199	81.56
230.433	72.56
230.667	72.56
230.901	95.56
231.136	79.56
231.37	83.56
231.604	76.56
231.838	83.56
232.072	82.56
232.306	88.56
232.541	88.56
232.775	81.56
233.009	80.56
233.243	83.56
233.477	68.56
233.711	74.56
233.945	78.56
234.179	78.56
234.413	88.56
234.647	68.56
234.881	95.56
235.115	71.56
235.349	85.56
235.583	86.56
235.817	70.56
236.051	76.56
236.285	70.56
236.519	81.56
236.753	69.56
236.987	73.56
237.221	69.56
237.455	75.56
237.689	69.56
237.922	70.56
238.156	84.56
238.39	75.56
238.624	82.56
238.858	72.56
239.091	64.56
239.325	63.56
239.559	85.56
239.793	81.56
240.027	90.56
240.26	75.56
240.494	70.56
240.728	79.56
240.961	77.56
241.195	69.56
241.429	71.56
241.662	73.56
241.896	68.56
242.13	73.56
242.363	74.56
242.597	69.56
242.83	77.56
243.064	71.56
243.298	73.56
243.531	69.56
243.765	64.56
243.998	83.56
244.232	87.56
244.465	84.56
244.699	82.56
244.932	92.56
245.166	70.56
245.399	78.56
245.633	76.56
245.866	63.56
246.099	89.56
246.333	89.56
246.566	66.56
246.8	78.56
247.033	77.56
247.266	61.56
247.5	79.56
247.733	80.56
247.966	81.56
248.2	77.56
248.433	67.56
248.666	67.56
248.899	79.56
249.133	73.56
249.366	75.56
249.599	69.56
249.832	74.56
250.066	76.56
250.299	69.56
250.532	73.56
250.765	74.56
250.998	79.56
251.231	83.56
251.465	71.56
251.698	68.56
251.931	81.56
252.164	86.56
252.397	83.56
252.63	74.56
252.863	63.56
253.096	73.56
253.329	82.56
253.562	75.56
253.795	74.56
254.028	69.56
254.261	83.56
254.494	72.56
254.727	73.56
254.96	108.56
255.193	79.56
255.426	71.56
255.659	69.56
255.892	83.56
256.124	81.56
256.357	80.56
256.59	75.56
256.823	79.56
257.056	78.56
257.289	69.56
257.521	87.56
257.754	98.56
257.987	96.56
258.22	69.56
258.452	82.56
258.685	66.56
258.918	83.56
259.151	83.56
259.383	90.56
259.616	73.56
259.849	92.56
260.081	88.56
260.314	78.56
260.547	69.56
260.779	81.56
261.012	88.56
261.244	80.56
261.477	77.56
261.71	94.56
261.942	80.56
262.175	75.56
262.407	81.56
262.64	90.56
262.872	75.56
263.105	83.56
263.337	80.56
263.57	79.56
263.802	81.56
264.035	83.56
264.267	80.56
264.499	83.56
264.732	89.56
264.964	67.56
265.197	83.56
265.429	64.56
265.661	78.56
265.894	86.56
266.126	68.56
266.358	77.56
266.591	77.56
266.823	85.56
267.055	96.56
267.287	83.56
267.52	88.56
267.752	81.56
267.984	73.56
268.216	87.56
268.448	80.56
268.681	78.56
268.913	88.56
269.145	88.56
269.377	87.56
269.609	84.56
269.841	95.56
270.073	86.56
270.306	89.56
270.538	96.56
270.77	84.56
271.002	73.56
271.234	84.56
271.466	79.56
271.698	80.56
271.93	79.56
272.162	83.56
272.394	84.56
272.626	87.56
272.858	75.56
273.09	91.56
273.322	85.56
273.553	73.56
273.785	90.56
274.017	85.56
274.249	76.56
274.481	76.56
274.713	65.56
274.945	67.56
275.176	84.56
275.408	89.56
275.64	88.56
275.872	81.56
276.104	92.56
276.335	69.56
276.567	95.56
276.799	82.56
277.031	67.56
277.262	73.56
277.494	86.56
277.726	74.56
277.957	80.56
278.189	75.56
278.421	87.56
278.652	87.56
278.884	89.56
279.115	91.56
279.347	78.56
279.579	86.56
279.81	77.56
280.042	86.56
280.273	75.56
280.505	81.56
280.736	72.56
280.968	78.56
281.199	76.56
281.431	79.56
281.662	79.56
281.894	72.56
282.125	80.56
282.356	81.56
282.588	92.56
282.819	83.56
283.051	85.56
283.282	90.56
283.513	85.56
283.745	89.56
283.976	93.56
284.207	92.56
284.439	93.56
284.67	93.56
284.901	80.56
285.132	75.56
285.364	82.56
285.595	72.56
285.826	89.56
286.057	92.56
286.288	88.56
286.52	92.56
286.751	106.56
286.982	81.56
287.213	78.56
287.444	73.56
287.675	79.56
287.906	104.56
288.138	85.56
288.369	75.56
288.6	96.56
288.831	87.56
289.062	79.56
289.293	79.56
289.524	94.56
289.755	96.56
289.986	95.56
290.217	83.56
290.448	92.56
290.679	87.56
290.91	84.56
291.141	74.56
291.371	72.56
291.602	73.56
291.833	82.56
292.064	95.56
292.295	84.56
292.526	84.56
292.757	96.56
292.987	80.56
293.218	88.56
293.449	87.56
293.68	80.56
293.91	84.56
294.141	76.56
294.372	88.56
294.603	89.56
294.833	90.56
295.064	89.56
295.295	75.56
295.525	79.56
295.756	77.56
295.987	82.56
296.217	79.56
296.448	77.56
296.679	89.56
296.909	97.56
297.14	95.56
297.37	85.56
297.601	90.56
297.831	88.56
298.062	82.56
298.292	102.56
298.523	83.56
298.753	81.56
298.984	82.56
299.214	85.56
299.445	80.56
299.675	79.56
299.905	91.56
300.136	79.56
300.366	92.56
300.597	95.56
300.827	75.56
301.057	61.56
301.288	79.56
301.518	69.56
301.748	98.56
301.979	95.56
302.209	75.56
302.439	93.56
302.669	90.56
302.9	73.56
303.13	85.56
303.36	85.56
303.59	79.56
303.82	92.56
304.051	81.56
304.281	85.56
304.511	87.56
304.741	98.56
304.971	83.56
305.201	91.56
305.431	77.56
305.661	92.56
305.891	84.56
306.121	89.56
306.352	83.56
306.582	76.56
306.812	83.56
307.042	83.56
307.272	85.56
307.502	77.56
307.731	88.56
307.961	89.56
308.191	96.56
308.421	86.56
308.651	74.56
308.881	76.56
309.111	85.56
309.341	91.56
309.571	71.56
309.8	88.56
310.03	81.56
310.26	81.56
310.49	82.56
310.72	96.56
310.949	86.56
311.179	76.56
311.409	94.56
311.639	91.56
311.868	87.56
312.098	77.56
312.328	90.56
312.557	82.56
312.787	92.56
313.017	86.56
313.246	87.56
313.476	81.56
313.706	88.56
313.935	89.56
314.165	107.56
314.394	88.56
314.624	83.56
314.853	78.56
315.083	68.56
315.312	95.56
315.542	97.56
315.771	85.56
316.001	82.56
316.23	87.56
316.46	86.56
316.689	84.56
316.919	66.56
317.148	85.56
317.377	73.56
317.607	80.56
317.836	96.56
318.065	89.56
318.295	91.56
318.524	92.56
318.753	72.56
318.983	79.56
319.212	81.56
319.441	81.56
319.67	96.56
319.9	77.56
320.129	95.56
320.358	87.56
320.587	85.56
320.816	82.56
321.046	96.56
321.275	72.56
321.504	89.56
321.733	79.56
321.962	84.56
322.191	96.56
322.42	94.56
322.649	80.56
322.878	65.56
323.108	69.56
323.337	82.56
323.566	76.56
323.795	91.56
324.024	79.56
324.253	103.56
324.482	85.56
324.71	81.56
324.939	87.56
325.168	84.56
325.397	84.56
325.626	88.56
325.855	87.56
326.084	82.56
326.313	103.56
326.542	79.56
326.77	92.56
326.999	79.56
327.228	80.56
327.457	91.56
327.686	85.56
327.914	92.56
328.143	90.56
328.372	82.56
328.6	85.56
328.829	82.56
329.058	73.56
329.287	78.56
329.515	87.56
329.744	89.56
329.972	86.56
330.201	84.56
330.43	84.56
330.658	77.56
330.887	99.56
331.115	88.56
331.344	79.56
331.572	84.56
331.801	94.56
332.03	80.56
332.258	84.56
332.486	96.56
332.715	87.56
332.943	87.56
333.172	80.56
333.4	87.56
333.629	78.56
333.857	84.56
334.085	92.56
334.314	89.56
334.542	86.56
334.771	90.56
334.999	91.56
335.227	99.56
335.455	88.56
335.684	89.56
335.912	93.56
336.14	93.56
336.369	77.56
336.597	69.56
336.825	74.56
337.053	82.56
337.281	76.56
337.51	88.56
337.738	92.56
337.966	94.56
338.194	77.56
338.422	86.56
338.65	82.56
338.878	79.56
339.106	85.56
339.334	79.56
339.562	75.56
339.79	87.56
340.018	69.56
340.246	76.56
340.474	79.56
340.702	86.56
340.93	88.56
341.158	88.56
341.386	81.56
341.614	83.56
341.842	84.56
342.07	78.56
342.298	87.56
342.526	75.56
342.754	91.56
342.981	84.56
343.209	80.56
343.437	87.56
343.665	69.56
343.893	83.56
344.12	86.56
344.348	83.56
344.576	79.56
344.804	85.56
345.031	83.56
345.259	92.56
345.487	76.56
345.714	79.56
345.942	82.56
346.17	87.56
346.397	98.56
346.625	93.56
346.853	81.56
347.08	78.56
347.308	89.56
347.535	71.56
347.763	79.56
347.99	100.56
348.218	75.56
348.445	84.56
348.673	92.56
348.9	70.56
349.128	89.56
349.355	88.56
349.583	85.56
349.81	83.56
350.037	93.56
350.265	92.56
350.492	82.56
350.72	87.56
350.947	73.56
351.174	74.56
351.402	80.56
351.629	100.56
351.856	82.56
352.083	87.56
352.311	75.56
352.538	91.56
352.765	72.56
352.992	97.56
353.22	78.56
353.447	88.56
353.674	79.56
353.901	78.56
354.128	87.56
354.355	80.56
354.583	87.56
354.81	77.56
355.037	80.56
355.264	89.56
355.491	70.56
355.718	81.56
355.945	74.56
356.172	73.56
356.399	84.56
356.626	85.56
356.853	74.56
357.08	91.56
357.307	85.56
357.534	87.56
357.761	84.56
357.988	72.56
358.215	77.56
358.441	79.56
358.668	81.56
358.895	89.56
359.122	89.56
359.349	78.56
359.576	79.56
359.802	80.56
360.029	83.56
360.256	78.56
360.483	85.56
360.709	80.56
360.936	89.56
361.163	93.56
361.39	67.56
361.616	82.56
361.843	87.56
362.07	93.56
362.296	72.56
362.523	71.56
362.749	79.56
362.976	84.56
363.203	85.56
363.429	83.56
363.656	85.56
363.882	77.56
364.109	92.56
364.335	91.56
364.562	93.56
364.788	74.56
365.015	94.56
365.241	90.56
365.468	87.56
365.694	82.56
365.92	74.56
366.147	73.56
366.373	82.56
366.599	81.56
366.826	82.56
367.052	92.56
367.278	92.56
367.505	91.56
367.731	94.56
367.957	80.56
368.184	82.56
368.41	82.56
368.636	65.56
368.862	92.56
369.089	81.56
369.315	100.56
369.541	70.56
369.767	75.56
369.993	88.56
370.219	87.56
370.445	64.56
370.672	74.56
370.898	87.56
371.124	95.56
371.35	75.56
371.576	76.56
371.802	78.56
372.028	74.56
372.254	81.56
372.48	70.56
372.706	75.56
372.932	55.56
373.158	85.56
373.384	83.56
373.61	80.56
373.835	91.56
374.061	91.56
374.287	92.56
374.513	88.56
374.739	81.56
374.965	79.56
375.191	72.56
375.416	97.56
375.642	82.56
375.868	76.56
376.094	82.56
376.319	76.56
376.545	80.56
376.771	79.56
376.997	82.56
377.222	80.56
377.448	74.56
377.674	81.56
377.899	75.56
378.125	84.56
378.35	80.56
378.576	88.56
378.802	85.56
379.027	83.56
379.253	82.56
379.478	82.56
379.704	70.56
379.929	72.56
380.155	103.56
380.38	87.56
380.606	85.56
380.831	90.56
381.057	91.56
381.282	87.56
381.507	80.56
381.733	81.56
381.958	77.56
382.184	74.56
382.409	82.56
382.634	79.56
382.86	79.56
383.085	89.56
383.31	84.56
383.535	72.56
383.761	80.56
383.986	78.56
384.211	61.56
384.436	78.56
384.662	87.56
384.887	92.56
385.112	83.56
385.337	84.56
385.562	79.56
385.787	80.56
386.013	77.56
386.238	83.56
386.463	80.56
386.688	95.56
386.913	87.56
387.138	90.56
387.363	82.56
387.588	87.56
387.813	79.56
388.038	74.56
388.263	81.56
388.488	73.56
388.713	78.56
388.938	91.56
389.163	84.56
389.387	89.56
389.612	79.56
389.837	70.56
390.062	76.56
390.287	75.56
390.512	65.56
390.736	77.56
390.961	70.56
391.186	76.56
391.411	77.56
391.636	82.56
391.86	60.56
392.085	73.56
392.31	57.56
392.534	89.56
392.759	90.56
392.984	84.56
393.208	83.56
393.433	74.56
393.658	80.56
393.882	85.56
394.107	76.56
394.331	75.56
394.556	89.56
394.78	68.56
395.005	91.56
395.229	80.56
395.454	77.56
395.678	77.56
395.903	84.56
396.127	85.56
396.352	77.56
396.576	96.56
396.801	82.56
397.025	72.56
397.249	82.56
397.474	86.56
397.698	89.56
397.922	90.56
398.147	84.56
398.371	88.56
398.595	81.56
398.82	80.56
399.044	76.56
399.268	85.56
399.492	88.56
399.717	79.56
399.941	73.56
400.165	95.56
400.389	75.56
400.613	89.56
400.837	84.56
401.062	75.56
401.286	86.56
401.51	80.56
401.734	81.56
401.958	73.56
402.182	75.56
402.406	80.56
402.63	83.56
402.854	84.56
403.078	80.56
403.302	91.56
403.526	79.56
403.75	81.56
403.974	95.56
404.198	80.56
404.422	77.56
404.645	89.56
404.869	91.56
405.093	72.56
405.317	77.56
405.541	88.56
405.765	87.56
405.988	81.56
406.212	81.56
406.436	77.56
406.66	77.56
406.883	93.56
407.107	81.56
407.331	78.56
407.555	65.56
407.778	69.56
408.002	91.56
408.226	72.56
408.449	69.56
408.673	91.56
408.896	77.56
409.12	89.56
409.344	82.56
409.567	65.56
409.791	70.56
410.014	81.56
410.238	91.56
410.461	77.56
410.685	88.56
410.908	81.56
411.132	86.56
411.355	71.56
411.578	79.56
411.802	84.56
412.025	80.56
412.249	75.56
412.472	71.56
412.695	79.56
412.919	76.56
413.142	89.56
413.365	88.56
413.589	76.56
413.812	77.56
414.035	78.56
414.258	73.56
414.482	79.56
414.705	80.56
414.928	88.56
415.151	83.56
415.374	84.56
415.597	97.56
415.821	85.56
416.044	83.56
416.267	73.56
416.49	89.56
416.713	82.56
416.936	59.56
417.159	84.56
417.382	77.56
417.605	68.56
417.828	80.56
418.051	71.56
418.274	82.56
418.497	83.56
418.72	84.56
418.943	79.56
419.166	81.56
419.389	89.56
419.611	66.56
419.834	81.56
420.057	95.56
420.28	72.56
420.503	85.56
420.726	81.56
420.948	80.56
421.171	80.56
421.394	81.56
421.617	61.56
421.839	77.56
422.062	70.56
422.285	83.56
422.507	80.56
422.73	78.56
422.953	77.56
423.175	69.56
423.398	76.56
423.621	76.56
423.843	81.56
424.066	77.56
424.288	92.56
424.511	78.56
424.733	84.56
424.956	81.56
425.178	84.56
425.401	75.56
425.623	83.56
425.846	86.56
426.068	81.56
426.291	90.56
426.513	85.56
426.735	81.56
426.958	81.56
427.18	76.56
427.402	80.56
427.625	72.56
427.847	72.56
428.069	84.56
428.292	73.56
428.514	77.56
428.736	78.56
428.958	83.56
429.181	75.56
429.403	75.56
429.625	87.56
429.847	80.56
430.069	95.56
430.292	87.56
430.514	95.56
430.736	90.56
430.958	75.56
431.18	85.56
431.402	84.56
431.624	75.56
431.846	72.56
432.068	88.56
432.29	86.56
432.512	78.56
432.734	76.56
432.956	79.56
433.178	91.56
433.4	88.56
433.622	64.56
433.844	79.56
434.066	81.56
434.287	87.56
434.509	85.56
434.731	72.56
434.953	67.56
435.175	77.56
435.397	91.56
435.618	94.56
435.84	92.56
436.062	79.56
436.284	77.56
436.505	88.56
436.727	77.56
436.949	86.56
437.17	79.56
437.392	82.56
437.614	64.56
437.835	87.56
438.057	91.56
438.278	69.56
438.5	83.56
438.721	88.56
438.943	87.56
439.165	93.56
439.386	91.56
439.608	74.56
439.829	86.56
440.05	87.56
440.272	76.56
440.493	83.56
440.715	79.56
440.936	92.56
441.158	82.56
441.379	76.56
441.6	47.56
441.822	76.56
442.043	77.56
442.264	82.56
442.486	77.56
442.707	70.56
442.928	88.56
443.149	75.56
443.371	92.56
443.592	87.56
443.813	71.56
444.034	81.56
444.255	77.56
444.476	97.56
444.698	83.56
444.919	97.56
445.14	154.56
445.361	116.56
445.582	85.56
445.803	69.56
446.024	90.56
446.245	91.56
446.466	91.56
446.687	74.56
446.908	84.56
447.129	89.56
447.35	89.56
447.571	87.56
447.792	59.56
448.013	79.56
448.234	87.56
448.455	77.56
448.675	77.56
448.896	85.56
449.117	73.56
449.338	87.56
449.559	92.56
449.779	79.56
450	79.56
450.221	72.56
450.442	83.56
450.662	79.56
450.883	77.56
451.104	79.56
451.324	81.56
451.545	69.56
451.766	80.56
451.986	69.56
452.207	69.56
452.428	93.56
452.648	82.56
452.869	76.56
453.089	74.56
453.31	75.56
453.53	76.56
453.751	79.56
453.971	67.56
454.192	69.56
454.412	75.56
454.633	80.56
454.853	82.56
455.073	75.56
455.294	84.56
455.514	74.56
455.734	70.56
455.955	78.56
456.175	84.56
456.395	87.56
456.616	89.56
456.836	91.56
457.056	78.56
457.276	81.56
457.497	82.56
457.717	75.56
457.937	71.56
458.157	80.56
458.377	76.56
458.598	85.56
458.818	87.56
459.038	81.56
459.258	83.56
459.478	70.56
459.698	79.56
459.918	83.56
460.138	83.56
460.358	92.56
460.578	78.56
460.798	89.56
461.018	84.56
461.238	63.56
461.458	81.56
461.678	94.56
461.898	83.56
462.118	82.56
462.338	73.56
462.558	68.56
462.777	75.56
462.997	83.56
463.217	67.56
463.437	87.56
463.657	75.56
463.876	74.56
464.096	74.56
464.316	74.56
464.536	88.56
464.755	76.56
464.975	77.56
465.195	79.56
465.414	83.56
465.634	80.56
465.854	76.56
466.073	86.56
466.293	84.56
466.512	78.56
466.732	84.56
466.951	68.56
467.171	79.56
467.391	63.56
467.61	77.56
467.829	77.56
468.049	74.56
468.268	81.56
468.488	82.56
468.707	66.56
468.927	81.56
469.146	77.56
469.365	77.56
469.585	77.56
469.804	83.56
470.023	91.56
470.243	79.56
470.462	80.56
470.681	83.56
470.901	92.56
471.12	77.56
471.339	87.56
471.558	84.56
471.777	88.56
471.997	73.56
472.216	89.56
472.435	90.56
472.654	87.56
472.873	68.56
473.092	79.56
473.311	64.56
473.53	85.56
473.749	75.56
473.968	92.56
474.187	68.56
474.406	88.56
474.625	75.56
474.844	85.56
475.063	81.56
475.282	87.56
475.501	90.56
475.72	84.56
475.939	79.56
476.158	79.56
476.377	95.56
476.596	80.56
476.814	70.56
477.033	77.56
477.252	69.56
477.471	75.56
477.69	80.56
477.908	80.56
478.127	77.56
478.346	68.56
478.564	81.56
478.783	78.56
479.002	68.56
479.22	74.56
479.439	76.56
479.658	72.56
479.876	88.56
480.095	80.56
480.313	85.56
480.532	91.56
480.751	91.56
480.969	85.56
481.188	81.56
481.406	79.56
481.624	86.56
481.843	72.56
482.061	76.56
482.28	77.56
482.498	66.56
482.717	79.56
482.935	79.56
483.153	72.56
483.372	73.56
483.59	80.56
483.808	84.56
484.027	79.56
484.245	90.56
484.463	76.56
484.681	89.56
484.9	82.56
485.118	90.56
485.336	78.56
485.554	93.56
485.772	73.56
485.99	94.56
486.209	91.56
486.427	89.56
486.645	69.56
486.863	75.56
487.081	75.56
487.299	78.56
487.517	81.56
487.735	84.56
487.953	69.56
488.171	80.56
488.389	77.56
488.607	78.56
488.825	89.56
489.043	87.56
489.261	88.56
489.479	99.56
489.696	73.56
489.914	107.56
490.132	93.56
490.35	64.56
490.568	55.56
490.786	77.56
491.003	80.56
491.221	81.56
491.439	92.56
491.657	81.56
491.874	91.56
492.092	87.56
492.31	92.56
492.527	77.56
492.745	78.56
492.963	88.56
493.18	76.56
493.398	80.56
493.615	82.56
493.833	77.56
494.05	96.56
494.268	73.56
494.485	66.56
494.703	77.56
494.92	90.56
495.138	91.56
495.355	89.56
495.573	88.56
495.79	75.56
496.008	98.56
496.225	90.56
496.442	85.56
496.66	87.56
496.877	64.56
497.094	81.56
497.312	91.56
497.529	82.56
497.746	95.56
497.963	79.56
498.181	85.56
498.398	75.56
498.615	87.56
498.832	87.56
499.049	88.56
499.267	92.56
499.484	78.56
499.701	86.56
499.918	91.56
500.135	76.56
500.352	80.56
500.569	84.56
500.786	92.56
501.003	84.56
501.22	80.56
501.437	87.56
501.654	79.56
501.871	83.56
502.088	90.56
502.305	80.56
502.522	81.56
502.739	84.56
502.956	77.56
503.172	81.56
503.389	91.56
503.606	80.56
503.823	73.56
504.04	85.56
504.256	78.56
504.473	93.56
504.69	85.56
504.907	91.56
505.123	61.56
505.34	83.56
505.557	98.56
505.773	73.56
505.99	82.56
506.207	63.56
506.423	79.56
506.64	90.56
506.856	87.56
507.073	79.56
507.289	83.56
507.506	68.56
507.722	67.56
507.939	84.56
508.155	73.56
508.372	74.56
508.588	82.56
508.805	90.56
509.021	91.56
509.238	88.56
509.454	84.56
509.67	75.56
509.887	80.56
510.103	93.56
510.319	88.56
510.536	84.56
510.752	86.56
510.968	94.56
511.184	98.56
511.401	84.56
511.617	83.56
511.833	94.56
512.049	76.56
512.265	80.56
512.481	76.56
512.698	83.56
512.914	85.56
513.13	92.56
513.346	84.56
513.562	86.56
513.778	80.56
513.994	89.56
514.21	99.56
514.426	79.56
514.642	87.56
514.858	84.56
515.074	80.56
515.29	87.56
515.506	67.56
515.721	77.56
515.937	88.56
516.153	88.56
516.369	77.56
516.585	78.56
516.801	89.56
517.016	83.56
517.232	78.56
517.448	64.56
517.664	61.56
517.879	84.56
518.095	79.56
518.311	81.56
518.527	96.56
518.742	84.56
518.958	89.56
519.173	77.56
519.389	75.56
519.605	78.56
519.82	91.56
520.036	90.56
520.251	90.56
