Data from BG_HRD10591_023.txt Node
Date: Fri May 16 15:33:18 EDT 2025
User: Yrep
Spectrometer: HR+D1059
Trigger mode: 1
Integration Time (sec): 1.000000E-1
Scans to average: 1
Electric dark correction enabled: true
Nonlinearity correction enabled: false
Boxcar width: 0
XAxis mode: Wavelengths
Number of Pixels in Spectrum: 2048
>>>>>Begin Spectral Data<<<<<
223.165	-19.38
223.4	-19.38
223.635	-19.38
223.869	-6.38
224.104	-32.38
224.338	-22.38
224.573	-10.38
224.808	-16.38
225.042	1.62
225.277	6.62
225.511	-1.38
225.746	5.62
225.98	6.62
226.215	8.62
226.449	5.62
226.683	19.62
226.918	19.62
227.152	34.62
227.387	33.62
227.621	44.62
227.856	57.62
228.09	47.62
228.324	67.62
228.559	63.62
228.793	68.62
229.027	66.62
229.262	65.62
229.496	75.62
229.73	68.62
229.964	69.62
230.199	72.62
230.433	80.62
230.667	70.62
230.901	72.62
231.136	63.62
231.37	92.62
231.604	83.62
231.838	77.62
232.072	79.62
232.306	76.62
232.541	91.62
232.775	79.62
233.009	84.62
233.243	75.62
233.477	81.62
233.711	75.62
233.945	87.62
234.179	76.62
234.413	78.62
234.647	76.62
234.881	82.62
235.115	77.62
235.349	67.62
235.583	84.62
235.817	80.62
236.051	74.62
236.285	88.62
236.519	84.62
236.753	79.62
236.987	83.62
237.221	77.62
237.455	76.62
237.689	69.62
237.922	74.62
238.156	72.62
238.39	76.62
238.624	81.62
238.858	82.62
239.091	76.62
239.325	74.62
239.559	69.62
239.793	76.62
240.027	87.62
240.26	67.62
240.494	67.62
240.728	67.62
240.961	75.62
241.195	83.62
241.429	73.62
241.662	73.62
241.896	72.62
242.13	81.62
242.363	80.62
242.597	77.62
242.83	73.62
243.064	85.62
243.298	83.62
243.531	81.62
243.765	83.62
243.998	80.62
244.232	75.62
244.465	74.62
244.699	91.62
244.932	72.62
245.166	58.62
245.399	63.62
245.633	91.62
245.866	78.62
246.099	86.62
246.333	76.62
246.566	76.62
246.8	72.62
247.033	70.62
247.266	82.62
247.5	81.62
247.733	103.62
247.966	93.62
248.2	76.62
248.433	75.62
248.666	94.62
248.899	75.62
249.133	79.62
249.366	87.62
249.599	64.62
249.832	87.62
250.066	68.62
250.299	101.62
250.532	77.62
250.765	71.62
250.998	69.62
251.231	73.62
251.465	97.62
251.698	73.62
251.931	80.62
252.164	79.62
252.397	82.62
252.63	82.62
252.863	79.62
253.096	100.62
253.329	86.62
253.562	75.62
253.795	75.62
254.028	100.62
254.261	78.62
254.494	83.62
254.727	72.62
254.96	70.62
255.193	71.62
255.426	82.62
255.659	81.62
255.892	79.62
256.124	77.62
256.357	77.62
256.59	69.62
256.823	93.62
257.056	78.62
257.289	76.62
257.521	79.62
257.754	81.62
257.987	76.62
258.22	91.62
258.452	83.62
258.685	99.62
258.918	80.62
259.151	95.62
259.383	83.62
259.616	76.62
259.849	87.62
260.081	75.62
260.314	95.62
260.547	90.62
260.779	70.62
261.012	88.62
261.244	82.62
261.477	90.62
261.71	88.62
261.942	89.62
262.175	83.62
262.407	73.62
262.64	94.62
262.872	75.62
263.105	77.62
263.337	81.62
263.57	85.62
263.802	72.62
264.035	87.62
264.267	77.62
264.499	75.62
264.732	82.62
264.964	82.62
265.197	105.62
265.429	91.62
265.661	78.62
265.894	61.62
266.126	96.62
266.358	83.62
266.591	82.62
266.823	88.62
267.055	73.62
267.287	82.62
267.52	87.62
267.752	86.62
267.984	91.62
268.216	71.62
268.448	82.62
268.681	95.62
268.913	88.62
269.145	79.62
269.377	92.62
269.609	76.62
269.841	89.62
270.073	84.62
270.306	87.62
270.538	91.62
270.77	76.62
271.002	76.62
271.234	86.62
271.466	84.62
271.698	67.62
271.93	91.62
272.162	82.62
272.394	93.62
272.626	76.62
272.858	83.62
273.09	85.62
273.322	78.62
273.553	81.62
273.785	81.62
274.017	87.62
274.249	81.62
274.481	87.62
274.713	69.62
274.945	86.62
275.176	82.62
275.408	79.62
275.64	97.62
275.872	77.62
276.104	86.62
276.335	73.62
276.567	89.62
276.799	80.62
277.031	84.62
277.262	92.62
277.494	82.62
277.726	89.62
277.957	81.62
278.189	81.62
278.421	69.62
278.652	75.62
278.884	87.62
279.115	88.62
279.347	85.62
279.579	84.62
279.81	91.62
280.042	73.62
280.273	82.62
280.505	85.62
280.736	86.62
280.968	97.62
281.199	88.62
281.431	77.62
281.662	76.62
281.894	85.62
282.125	79.62
282.356	78.62
282.588	79.62
282.819	91.62
283.051	80.62
283.282	87.62
283.513	97.62
283.745	81.62
283.976	72.62
284.207	84.62
284.439	88.62
284.67	82.62
284.901	92.62
285.132	99.62
285.364	83.62
285.595	87.62
285.826	79.62
286.057	77.62
286.288	86.62
286.52	87.62
286.751	79.62
286.982	88.62
287.213	74.62
287.444	87.62
287.675	90.62
287.906	88.62
288.138	76.62
288.369	82.62
288.6	79.62
288.831	80.62
289.062	91.62
289.293	89.62
289.524	82.62
289.755	83.62
289.986	92.62
290.217	87.62
290.448	76.62
290.679	94.62
290.91	81.62
291.141	83.62
291.371	71.62
291.602	77.62
291.833	75.62
292.064	91.62
292.295	77.62
292.526	82.62
292.757	93.62
292.987	79.62
293.218	82.62
293.449	77.62
293.68	87.62
293.91	68.62
294.141	84.62
294.372	84.62
294.603	75.62
294.833	88.62
295.064	95.62
295.295	85.62
295.525	90.62
295.756	75.62
295.987	92.62
296.217	85.62
296.448	78.62
296.679	84.62
296.909	69.62
297.14	78.62
297.37	82.62
297.601	91.62
297.831	81.62
298.062	84.62
298.292	87.62
298.523	95.62
298.753	83.62
298.984	83.62
299.214	79.62
299.445	89.62
299.675	89.62
299.905	89.62
300.136	87.62
300.366	95.62
300.597	84.62
300.827	87.62
301.057	83.62
301.288	94.62
301.518	88.62
301.748	93.62
301.979	94.62
302.209	80.62
302.439	91.62
302.669	77.62
302.9	98.62
303.13	79.62
303.36	73.62
303.59	87.62
303.82	92.62
304.051	97.62
304.281	90.62
304.511	93.62
304.741	79.62
304.971	83.62
305.201	89.62
305.431	80.62
305.661	87.62
305.891	90.62
306.121	92.62
306.352	76.62
306.582	85.62
306.812	92.62
307.042	99.62
307.272	79.62
307.502	77.62
307.731	87.62
307.961	86.62
308.191	95.62
308.421	99.62
308.651	88.62
308.881	72.62
309.111	72.62
309.341	84.62
309.571	83.62
309.8	78.62
310.03	74.62
310.26	93.62
310.49	85.62
310.72	95.62
310.949	85.62
311.179	76.62
311.409	92.62
311.639	82.62
311.868	69.62
312.098	84.62
312.328	95.62
312.557	84.62
312.787	73.62
313.017	86.62
313.246	74.62
313.476	71.62
313.706	87.62
313.935	78.62
314.165	91.62
314.394	77.62
314.624	81.62
314.853	82.62
315.083	90.62
315.312	79.62
315.542	64.62
315.771	74.62
316.001	81.62
316.23	91.62
316.46	92.62
316.689	97.62
316.919	96.62
317.148	91.62
317.377	81.62
317.607	90.62
317.836	93.62
318.065	76.62
318.295	85.62
318.524	73.62
318.753	104.62
318.983	92.62
319.212	88.62
319.441	93.62
319.67	87.62
319.9	92.62
320.129	89.62
320.358	85.62
320.587	94.62
320.816	96.62
321.046	88.62
321.275	91.62
321.504	79.62
321.733	84.62
321.962	80.62
322.191	93.62
322.42	72.62
322.649	85.62
322.878	79.62
323.108	86.62
323.337	77.62
323.566	84.62
323.795	89.62
324.024	91.62
324.253	74.62
324.482	70.62
324.71	94.62
324.939	92.62
325.168	74.62
325.397	79.62
325.626	69.62
325.855	90.62
326.084	77.62
326.313	89.62
326.542	69.62
326.77	81.62
326.999	83.62
327.228	97.62
327.457	93.62
327.686	90.62
327.914	97.62
328.143	78.62
328.372	80.62
328.6	78.62
328.829	73.62
329.058	97.62
329.287	79.62
329.515	79.62
329.744	82.62
329.972	93.62
330.201	77.62
330.43	92.62
330.658	66.62
330.887	91.62
331.115	79.62
331.344	79.62
331.572	83.62
331.801	86.62
332.03	74.62
332.258	94.62
332.486	81.62
332.715	76.62
332.943	96.62
333.172	75.62
333.4	83.62
333.629	82.62
333.857	99.62
334.085	75.62
334.314	81.62
334.542	81.62
334.771	81.62
334.999	90.62
335.227	88.62
335.455	87.62
335.684	71.62
335.912	82.62
336.14	72.62
336.369	83.62
336.597	81.62
336.825	87.62
337.053	82.62
337.281	86.62
337.51	88.62
337.738	74.62
337.966	79.62
338.194	77.62
338.422	75.62
338.65	93.62
338.878	85.62
339.106	98.62
339.334	92.62
339.562	75.62
339.79	93.62
340.018	87.62
340.246	83.62
340.474	90.62
340.702	79.62
340.93	93.62
341.158	80.62
341.386	77.62
341.614	73.62
341.842	91.62
342.07	89.62
342.298	86.62
342.526	81.62
342.754	85.62
342.981	74.62
343.209	89.62
343.437	96.62
343.665	89.62
343.893	91.62
344.12	91.62
344.348	107.62
344.576	90.62
344.804	86.62
345.031	92.62
345.259	87.62
345.487	83.62
345.714	95.62
345.942	82.62
346.17	79.62
346.397	94.62
346.625	90.62
346.853	88.62
347.08	85.62
347.308	98.62
347.535	89.62
347.763	84.62
347.99	92.62
348.218	81.62
348.445	94.62
348.673	91.62
348.9	76.62
349.128	83.62
349.355	91.62
349.583	69.62
349.81	77.62
350.037	85.62
350.265	82.62
350.492	77.62
350.72	71.62
350.947	75.62
351.174	79.62
351.402	83.62
351.629	83.62
351.856	92.62
352.083	96.62
352.311	92.62
352.538	72.62
352.765	81.62
352.992	82.62
353.22	85.62
353.447	84.62
353.674	82.62
353.901	72.62
354.128	81.62
354.355	76.62
354.583	89.62
354.81	92.62
355.037	88.62
355.264	74.62
355.491	85.62
355.718	82.62
355.945	88.62
356.172	91.62
356.399	85.62
356.626	83.62
356.853	92.62
357.08	86.62
357.307	87.62
357.534	83.62
357.761	73.62
357.988	95.62
358.215	80.62
358.441	77.62
358.668	93.62
358.895	92.62
359.122	63.62
359.349	79.62
359.576	76.62
359.802	78.62
360.029	79.62
360.256	77.62
360.483	82.62
360.709	88.62
360.936	94.62
361.163	87.62
361.39	81.62
361.616	80.62
361.843	88.62
362.07	83.62
362.296	94.62
362.523	103.62
362.749	96.62
362.976	85.62
363.203	74.62
363.429	86.62
363.656	86.62
363.882	89.62
364.109	64.62
364.335	78.62
364.562	76.62
364.788	94.62
365.015	80.62
365.241	87.62
365.468	100.62
365.694	80.62
365.92	85.62
366.147	84.62
366.373	87.62
366.599	82.62
366.826	80.62
367.052	90.62
367.278	89.62
367.505	68.62
367.731	84.62
367.957	87.62
368.184	76.62
368.41	76.62
368.636	80.62
368.862	93.62
369.089	85.62
369.315	92.62
369.541	74.62
369.767	84.62
369.993	76.62
370.219	96.62
370.445	76.62
370.672	84.62
370.898	69.62
371.124	75.62
371.35	80.62
371.576	90.62
371.802	76.62
372.028	84.62
372.254	78.62
372.48	101.62
372.706	75.62
372.932	92.62
373.158	84.62
373.384	88.62
373.61	80.62
373.835	67.62
374.061	85.62
374.287	81.62
374.513	81.62
374.739	75.62
374.965	78.62
375.191	78.62
375.416	78.62
375.642	79.62
375.868	84.62
376.094	89.62
376.319	66.62
376.545	81.62
376.771	75.62
376.997	95.62
377.222	83.62
377.448	83.62
377.674	67.62
377.899	70.62
378.125	77.62
378.35	71.62
378.576	84.62
378.802	79.62
379.027	72.62
379.253	67.62
379.478	79.62
379.704	76.62
379.929	84.62
380.155	85.62
380.38	70.62
380.606	88.62
380.831	81.62
381.057	77.62
381.282	76.62
381.507	92.62
381.733	87.62
381.958	88.62
382.184	85.62
382.409	72.62
382.634	74.62
382.86	74.62
383.085	79.62
383.31	76.62
383.535	71.62
383.761	79.62
383.986	80.62
384.211	80.62
384.436	90.62
384.662	80.62
384.887	93.62
385.112	81.62
385.337	75.62
385.562	75.62
385.787	77.62
386.013	80.62
386.238	89.62
386.463	72.62
386.688	84.62
386.913	80.62
387.138	73.62
387.363	70.62
387.588	87.62
387.813	90.62
388.038	70.62
388.263	77.62
388.488	90.62
388.713	84.62
388.938	83.62
389.163	75.62
389.387	100.62
389.612	73.62
389.837	76.62
390.062	92.62
390.287	75.62
390.512	85.62
390.736	79.62
390.961	84.62
391.186	102.62
391.411	76.62
391.636	92.62
391.86	75.62
392.085	85.62
392.31	77.62
392.534	81.62
392.759	67.62
392.984	83.62
393.208	79.62
393.433	80.62
393.658	97.62
393.882	91.62
394.107	70.62
394.331	82.62
394.556	82.62
394.78	80.62
395.005	75.62
395.229	96.62
395.454	69.62
395.678	61.62
395.903	77.62
396.127	78.62
396.352	74.62
396.576	87.62
396.801	83.62
397.025	85.62
397.249	90.62
397.474	86.62
397.698	81.62
397.922	95.62
398.147	84.62
398.371	76.62
398.595	73.62
398.82	75.62
399.044	90.62
399.268	84.62
399.492	67.62
399.717	87.62
399.941	86.62
400.165	74.62
400.389	90.62
400.613	76.62
400.837	83.62
401.062	77.62
401.286	87.62
401.51	89.62
401.734	85.62
401.958	79.62
402.182	86.62
402.406	91.62
402.63	78.62
402.854	74.62
403.078	77.62
403.302	67.62
403.526	78.62
403.75	82.62
403.974	85.62
404.198	83.62
404.422	81.62
404.645	74.62
404.869	95.62
405.093	84.62
405.317	77.62
405.541	86.62
405.765	68.62
405.988	79.62
406.212	77.62
406.436	67.62
406.66	88.62
406.883	79.62
407.107	96.62
407.331	89.62
407.555	79.62
407.778	73.62
408.002	91.62
408.226	81.62
408.449	81.62
408.673	81.62
408.896	79.62
409.12	92.62
409.344	77.62
409.567	82.62
409.791	89.62
410.014	75.62
410.238	89.62
410.461	72.62
410.685	77.62
410.908	67.62
411.132	79.62
411.355	69.62
411.578	79.62
411.802	68.62
412.025	75.62
412.249	83.62
412.472	90.62
412.695	71.62
412.919	68.62
413.142	85.62
413.365	78.62
413.589	77.62
413.812	87.62
414.035	94.62
414.258	84.62
414.482	76.62
414.705	84.62
414.928	73.62
415.151	92.62
415.374	57.62
415.597	76.62
415.821	80.62
416.044	75.62
416.267	78.62
416.49	81.62
416.713	77.62
416.936	88.62
417.159	98.62
417.382	76.62
417.605	77.62
417.828	80.62
418.051	77.62
418.274	72.62
418.497	65.62
418.72	73.62
418.943	87.62
419.166	77.62
419.389	71.62
419.611	85.62
419.834	92.62
420.057	83.62
420.28	79.62
420.503	77.62
420.726	86.62
420.948	85.62
421.171	85.62
421.394	81.62
421.617	85.62
421.839	79.62
422.062	83.62
422.285	66.62
422.507	79.62
422.73	82.62
422.953	81.62
423.175	82.62
423.398	84.62
423.621	81.62
423.843	72.62
424.066	90.62
424.288	81.62
424.511	83.62
424.733	86.62
424.956	89.62
425.178	88.62
425.401	90.62
425.623	76.62
425.846	75.62
426.068	85.62
426.291	66.62
426.513	81.62
426.735	69.62
426.958	69.62
427.18	77.62
427.402	72.62
427.625	67.62
427.847	82.62
428.069	81.62
428.292	74.62
428.514	81.62
428.736	73.62
428.958	78.62
429.181	66.62
429.403	83.62
429.625	81.62
429.847	80.62
430.069	87.62
430.292	74.62
430.514	78.62
430.736	78.62
430.958	85.62
431.18	91.62
431.402	86.62
431.624	85.62
431.846	83.62
432.068	73.62
432.29	79.62
432.512	81.62
432.734	94.62
432.956	77.62
433.178	83.62
433.4	77.62
433.622	80.62
433.844	76.62
434.066	82.62
434.287	66.62
434.509	78.62
434.731	80.62
434.953	83.62
435.175	79.62
435.397	88.62
435.618	88.62
435.84	76.62
436.062	81.62
436.284	67.62
436.505	89.62
436.727	59.62
436.949	61.62
437.17	95.62
437.392	87.62
437.614	90.62
437.835	70.62
438.057	88.62
438.278	79.62
438.5	79.62
438.721	66.62
438.943	90.62
439.165	88.62
439.386	88.62
439.608	87.62
439.829	68.62
440.05	97.62
440.272	95.62
440.493	79.62
440.715	81.62
440.936	76.62
441.158	88.62
441.379	69.62
441.6	76.62
441.822	83.62
442.043	90.62
442.264	80.62
442.486	79.62
442.707	81.62
442.928	82.62
443.149	81.62
443.371	89.62
443.592	77.62
443.813	74.62
444.034	76.62
444.255	85.62
444.476	76.62
444.698	65.62
444.919	79.62
445.14	156.62
445.361	129.62
445.582	85.62
445.803	75.62
446.024	75.62
446.245	86.62
446.466	92.62
446.687	76.62
446.908	84.62
447.129	85.62
447.35	82.62
447.571	70.62
447.792	85.62
448.013	82.62
448.234	83.62
448.455	75.62
448.675	82.62
448.896	72.62
449.117	61.62
449.338	79.62
449.559	91.62
449.779	86.62
450	87.62
450.221	73.62
450.442	82.62
450.662	74.62
450.883	71.62
451.104	89.62
451.324	87.62
451.545	77.62
451.766	73.62
451.986	77.62
452.207	70.62
452.428	77.62
452.648	74.62
452.869	85.62
453.089	79.62
453.31	87.62
453.53	99.62
453.751	81.62
453.971	80.62
454.192	87.62
454.412	74.62
454.633	81.62
454.853	79.62
455.073	82.62
455.294	87.62
455.514	76.62
455.734	95.62
455.955	94.62
456.175	77.62
456.395	93.62
456.616	76.62
456.836	89.62
457.056	77.62
457.276	92.62
457.497	84.62
457.717	70.62
457.937	83.62
458.157	77.62
458.377	78.62
458.598	80.62
458.818	81.62
459.038	79.62
459.258	82.62
459.478	77.62
459.698	86.62
459.918	83.62
460.138	77.62
460.358	79.62
460.578	92.62
460.798	86.62
461.018	90.62
461.238	84.62
461.458	91.62
461.678	77.62
461.898	80.62
462.118	81.62
462.338	87.62
462.558	83.62
462.777	87.62
462.997	86.62
463.217	77.62
463.437	76.62
463.657	64.62
463.876	89.62
464.096	75.62
464.316	91.62
464.536	78.62
464.755	75.62
464.975	67.62
465.195	83.62
465.414	88.62
465.634	83.62
465.854	85.62
466.073	78.62
466.293	84.62
466.512	95.62
466.732	85.62
466.951	86.62
467.171	84.62
467.391	85.62
467.61	76.62
467.829	88.62
468.049	92.62
468.268	76.62
468.488	88.62
468.707	87.62
468.927	82.62
469.146	66.62
469.365	78.62
469.585	82.62
469.804	81.62
470.023	80.62
470.243	80.62
470.462	85.62
470.681	83.62
470.901	78.62
471.12	85.62
471.339	84.62
471.558	64.62
471.777	81.62
471.997	60.62
472.216	76.62
472.435	91.62
472.654	81.62
472.873	87.62
473.092	82.62
473.311	81.62
473.53	89.62
473.749	75.62
473.968	85.62
474.187	83.62
474.406	72.62
474.625	83.62
474.844	88.62
475.063	83.62
475.282	84.62
475.501	66.62
475.72	91.62
475.939	89.62
476.158	84.62
476.377	80.62
476.596	87.62
476.814	78.62
477.033	86.62
477.252	74.62
477.471	72.62
477.69	76.62
477.908	77.62
478.127	79.62
478.346	80.62
478.564	76.62
478.783	61.62
479.002	85.62
479.22	69.62
479.439	84.62
479.658	87.62
479.876	81.62
480.095	77.62
480.313	101.62
480.532	69.62
480.751	88.62
480.969	76.62
481.188	70.62
481.406	79.62
481.624	74.62
481.843	73.62
482.061	80.62
482.28	87.62
482.498	82.62
482.717	83.62
482.935	95.62
483.153	80.62
483.372	84.62
483.59	85.62
483.808	83.62
484.027	81.62
484.245	81.62
484.463	90.62
484.681	83.62
484.9	71.62
485.118	90.62
485.336	86.62
485.554	81.62
485.772	83.62
485.99	76.62
486.209	85.62
486.427	92.62
486.645	87.62
486.863	57.62
487.081	79.62
487.299	85.62
487.517	79.62
487.735	93.62
487.953	77.62
488.171	66.62
488.389	98.62
488.607	95.62
488.825	69.62
489.043	72.62
489.261	80.62
489.479	83.62
489.696	100.62
489.914	84.62
490.132	88.62
490.35	78.62
490.568	96.62
490.786	83.62
491.003	63.62
491.221	80.62
491.439	77.62
491.657	89.62
491.874	88.62
492.092	89.62
492.31	77.62
492.527	87.62
492.745	83.62
492.963	76.62
493.18	85.62
493.398	77.62
493.615	85.62
493.833	85.62
494.05	75.62
494.268	77.62
494.485	85.62
494.703	75.62
494.92	74.62
495.138	82.62
495.355	80.62
495.573	83.62
495.79	63.62
496.008	86.62
496.225	89.62
496.442	74.62
496.66	88.62
496.877	82.62
497.094	82.62
497.312	86.62
497.529	83.62
497.746	79.62
497.963	76.62
498.181	78.62
498.398	97.62
498.615	87.62
498.832	86.62
499.049	69.62
499.267	75.62
499.484	97.62
499.701	81.62
499.918	74.62
500.135	77.62
500.352	83.62
500.569	80.62
500.786	94.62
501.003	87.62
501.22	99.62
501.437	75.62
501.654	86.62
501.871	82.62
502.088	74.62
502.305	80.62
502.522	84.62
502.739	97.62
502.956	65.62
503.172	76.62
503.389	91.62
503.606	87.62
503.823	99.62
504.04	82.62
504.256	84.62
504.473	85.62
504.69	88.62
504.907	95.62
505.123	82.62
505.34	73.62
505.557	78.62
505.773	83.62
505.99	81.62
506.207	81.62
506.423	80.62
506.64	86.62
506.856	83.62
507.073	92.62
507.289	89.62
507.506	79.62
507.722	80.62
507.939	81.62
508.155	89.62
508.372	79.62
508.588	88.62
508.805	87.62
509.021	92.62
509.238	87.62
509.454	87.62
509.67	72.62
509.887	87.62
510.103	81.62
510.319	82.62
510.536	77.62
510.752	79.62
510.968	85.62
511.184	91.62
511.401	90.62
511.617	83.62
511.833	94.62
512.049	93.62
512.265	74.62
512.481	87.62
512.698	77.62
512.914	88.62
513.13	90.62
513.346	79.62
513.562	76.62
513.778	71.62
513.994	80.62
514.21	80.62
514.426	70.62
514.642	90.62
514.858	87.62
515.074	73.62
515.29	72.62
515.506	98.62
515.721	78.62
515.937	80.62
516.153	72.62
516.369	80.62
516.585	77.62
516.801	74.62
517.016	88.62
517.232	69.62
517.448	78.62
517.664	84.62
517.879	82.62
518.095	95.62
518.311	79.62
518.527	100.62
518.742	80.62
518.958	86.62
519.173	89.62
519.389	81.62
519.605	87.62
519.82	80.62
520.036	79.62
520.251	88.62
