Data from BG_HRD10591_029.txt Node
Date: Fri May 16 15:33:21 EDT 2025
User: Yrep
Spectrometer: HR+D1059
Trigger mode: 1
Integration Time (sec): 1.000000E-1
Scans to average: 1
Electric dark correction enabled: true
Nonlinearity correction enabled: false
Boxcar width: 0
XAxis mode: Wavelengths
Number of Pixels in Spectrum: 2048
>>>>>Begin Spectral Data<<<<<
223.165	-12.62
223.4	-12.62
223.635	-12.62
223.869	-21.62
224.104	-15.62
224.338	-11.62
224.573	-19.62
224.808	-10.62
225.042	1.38
225.277	-6.62
225.511	-2.62
225.746	11.38
225.98	0.38
226.215	11.38
226.449	6.38
226.683	8.38
226.918	27.38
227.152	34.38
227.387	29.38
227.621	32.38
227.856	47.38
228.09	39.38
228.324	52.38
228.559	54.38
228.793	56.38
229.027	60.38
229.262	63.38
229.496	66.38
229.73	64.38
229.964	73.38
230.199	61.38
230.433	71.38
230.667	80.38
230.901	69.38
231.136	76.38
231.37	73.38
231.604	85.38
231.838	72.38
232.072	70.38
232.306	74.38
232.541	69.38
232.775	77.38
233.009	78.38
233.243	85.38
233.477	85.38
233.711	84.38
233.945	81.38
234.179	86.38
234.413	64.38
234.647	73.38
234.881	82.38
235.115	64.38
235.349	71.38
235.583	84.38
235.817	83.38
236.051	86.38
236.285	78.38
236.519	65.38
236.753	74.38
236.987	74.38
237.221	69.38
237.455	73.38
237.689	73.38
237.922	71.38
238.156	79.38
238.39	86.38
238.624	71.38
238.858	74.38
239.091	62.38
239.325	68.38
239.559	76.38
239.793	73.38
240.027	87.38
240.26	77.38
240.494	65.38
240.728	72.38
240.961	77.38
241.195	71.38
241.429	60.38
241.662	84.38
241.896	79.38
242.13	73.38
242.363	87.38
242.597	87.38
242.83	64.38
243.064	75.38
243.298	78.38
243.531	78.38
243.765	77.38
243.998	77.38
244.232	69.38
244.465	71.38
244.699	66.38
244.932	66.38
245.166	70.38
245.399	76.38
245.633	83.38
245.866	78.38
246.099	92.38
246.333	55.38
246.566	68.38
246.8	70.38
247.033	75.38
247.266	67.38
247.5	82.38
247.733	82.38
247.966	79.38
248.2	84.38
248.433	65.38
248.666	62.38
248.899	70.38
249.133	87.38
249.366	81.38
249.599	75.38
249.832	70.38
250.066	77.38
250.299	73.38
250.532	87.38
250.765	76.38
250.998	81.38
251.231	73.38
251.465	77.38
251.698	94.38
251.931	74.38
252.164	74.38
252.397	75.38
252.63	95.38
252.863	75.38
253.096	79.38
253.329	72.38
253.562	74.38
253.795	71.38
254.028	89.38
254.261	77.38
254.494	68.38
254.727	89.38
254.96	85.38
255.193	79.38
255.426	70.38
255.659	52.38
255.892	86.38
256.124	69.38
256.357	76.38
256.59	85.38
256.823	86.38
257.056	73.38
257.289	65.38
257.521	77.38
257.754	70.38
257.987	84.38
258.22	75.38
258.452	86.38
258.685	82.38
258.918	78.38
259.151	74.38
259.383	93.38
259.616	77.38
259.849	57.38
260.081	83.38
260.314	80.38
260.547	83.38
260.779	86.38
261.012	92.38
261.244	74.38
261.477	94.38
261.71	76.38
261.942	84.38
262.175	73.38
262.407	87.38
262.64	74.38
262.872	82.38
263.105	81.38
263.337	77.38
263.57	73.38
263.802	79.38
264.035	70.38
264.267	75.38
264.499	89.38
264.732	93.38
264.964	77.38
265.197	71.38
265.429	79.38
265.661	78.38
265.894	81.38
266.126	80.38
266.358	82.38
266.591	72.38
266.823	82.38
267.055	79.38
267.287	84.38
267.52	78.38
267.752	78.38
267.984	88.38
268.216	98.38
268.448	70.38
268.681	86.38
268.913	74.38
269.145	85.38
269.377	82.38
269.609	79.38
269.841	70.38
270.073	78.38
270.306	92.38
270.538	88.38
270.77	88.38
271.002	96.38
271.234	95.38
271.466	81.38
271.698	70.38
271.93	78.38
272.162	82.38
272.394	79.38
272.626	76.38
272.858	86.38
273.09	84.38
273.322	88.38
273.553	82.38
273.785	77.38
274.017	77.38
274.249	83.38
274.481	98.38
274.713	86.38
274.945	83.38
275.176	70.38
275.408	82.38
275.64	83.38
275.872	58.38
276.104	77.38
276.335	84.38
276.567	76.38
276.799	84.38
277.031	69.38
277.262	77.38
277.494	67.38
277.726	83.38
277.957	60.38
278.189	84.38
278.421	80.38
278.652	81.38
278.884	87.38
279.115	87.38
279.347	84.38
279.579	87.38
279.81	84.38
280.042	62.38
280.273	77.38
280.505	82.38
280.736	80.38
280.968	70.38
281.199	81.38
281.431	91.38
281.662	89.38
281.894	84.38
282.125	87.38
282.356	82.38
282.588	82.38
282.819	81.38
283.051	87.38
283.282	70.38
283.513	88.38
283.745	95.38
283.976	84.38
284.207	78.38
284.439	78.38
284.67	78.38
284.901	80.38
285.132	89.38
285.364	82.38
285.595	84.38
285.826	74.38
286.057	74.38
286.288	78.38
286.52	91.38
286.751	82.38
286.982	78.38
287.213	88.38
287.444	95.38
287.675	87.38
287.906	95.38
288.138	92.38
288.369	59.38
288.6	77.38
288.831	77.38
289.062	79.38
289.293	84.38
289.524	75.38
289.755	67.38
289.986	77.38
290.217	78.38
290.448	66.38
290.679	86.38
290.91	96.38
291.141	67.38
291.371	77.38
291.602	88.38
291.833	83.38
292.064	86.38
292.295	87.38
292.526	85.38
292.757	92.38
292.987	66.38
293.218	94.38
293.449	84.38
293.68	90.38
293.91	86.38
294.141	90.38
294.372	86.38
294.603	91.38
294.833	100.38
295.064	83.38
295.295	66.38
295.525	75.38
295.756	81.38
295.987	85.38
296.217	82.38
296.448	89.38
296.679	82.38
296.909	90.38
297.14	79.38
297.37	76.38
297.601	86.38
297.831	88.38
298.062	92.38
298.292	82.38
298.523	87.38
298.753	88.38
298.984	86.38
299.214	82.38
299.445	80.38
299.675	80.38
299.905	77.38
300.136	91.38
300.366	93.38
300.597	84.38
300.827	93.38
301.057	82.38
301.288	83.38
301.518	82.38
301.748	85.38
301.979	95.38
302.209	76.38
302.439	85.38
302.669	76.38
302.9	70.38
303.13	77.38
303.36	72.38
303.59	91.38
303.82	73.38
304.051	80.38
304.281	100.38
304.511	94.38
304.741	80.38
304.971	90.38
305.201	94.38
305.431	85.38
305.661	75.38
305.891	104.38
306.121	94.38
306.352	82.38
306.582	79.38
306.812	78.38
307.042	77.38
307.272	78.38
307.502	87.38
307.731	82.38
307.961	74.38
308.191	73.38
308.421	85.38
308.651	85.38
308.881	94.38
309.111	76.38
309.341	85.38
309.571	81.38
309.8	90.38
310.03	100.38
310.26	92.38
310.49	85.38
310.72	86.38
310.949	88.38
311.179	86.38
311.409	91.38
311.639	89.38
311.868	83.38
312.098	89.38
312.328	81.38
312.557	88.38
312.787	76.38
313.017	76.38
313.246	85.38
313.476	74.38
313.706	73.38
313.935	77.38
314.165	98.38
314.394	84.38
314.624	83.38
314.853	88.38
315.083	82.38
315.312	87.38
315.542	88.38
315.771	75.38
316.001	84.38
316.23	73.38
316.46	78.38
316.689	78.38
316.919	73.38
317.148	82.38
317.377	80.38
317.607	89.38
317.836	84.38
318.065	81.38
318.295	85.38
318.524	88.38
318.753	95.38
318.983	78.38
319.212	92.38
319.441	80.38
319.67	86.38
319.9	80.38
320.129	86.38
320.358	88.38
320.587	86.38
320.816	88.38
321.046	66.38
321.275	67.38
321.504	73.38
321.733	71.38
321.962	61.38
322.191	90.38
322.42	78.38
322.649	71.38
322.878	84.38
323.108	92.38
323.337	80.38
323.566	88.38
323.795	96.38
324.024	85.38
324.253	76.38
324.482	84.38
324.71	96.38
324.939	88.38
325.168	78.38
325.397	85.38
325.626	88.38
325.855	72.38
326.084	93.38
326.313	94.38
326.542	90.38
326.77	85.38
326.999	94.38
327.228	75.38
327.457	88.38
327.686	86.38
327.914	78.38
328.143	97.38
328.372	77.38
328.6	79.38
328.829	85.38
329.058	89.38
329.287	78.38
329.515	98.38
329.744	92.38
329.972	78.38
330.201	89.38
330.43	87.38
330.658	96.38
330.887	80.38
331.115	75.38
331.344	92.38
331.572	76.38
331.801	87.38
332.03	94.38
332.258	91.38
332.486	86.38
332.715	84.38
332.943	87.38
333.172	78.38
333.4	86.38
333.629	100.38
333.857	86.38
334.085	84.38
334.314	82.38
334.542	88.38
334.771	79.38
334.999	84.38
335.227	77.38
335.455	78.38
335.684	99.38
335.912	78.38
336.14	76.38
336.369	85.38
336.597	88.38
336.825	88.38
337.053	99.38
337.281	94.38
337.51	89.38
337.738	95.38
337.966	88.38
338.194	93.38
338.422	95.38
338.65	82.38
338.878	81.38
339.106	89.38
339.334	85.38
339.562	72.38
339.79	80.38
340.018	71.38
340.246	87.38
340.474	89.38
340.702	96.38
340.93	77.38
341.158	87.38
341.386	92.38
341.614	86.38
341.842	82.38
342.07	81.38
342.298	83.38
342.526	87.38
342.754	87.38
342.981	72.38
343.209	76.38
343.437	91.38
343.665	83.38
343.893	88.38
344.12	74.38
344.348	94.38
344.576	65.38
344.804	90.38
345.031	74.38
345.259	95.38
345.487	87.38
345.714	70.38
345.942	79.38
346.17	89.38
346.397	78.38
346.625	76.38
346.853	83.38
347.08	86.38
347.308	89.38
347.535	92.38
347.763	71.38
347.99	94.38
348.218	78.38
348.445	94.38
348.673	96.38
348.9	91.38
349.128	93.38
349.355	80.38
349.583	76.38
349.81	89.38
350.037	79.38
350.265	84.38
350.492	86.38
350.72	75.38
350.947	83.38
351.174	74.38
351.402	81.38
351.629	82.38
351.856	90.38
352.083	61.38
352.311	82.38
352.538	91.38
352.765	91.38
352.992	79.38
353.22	89.38
353.447	82.38
353.674	86.38
353.901	98.38
354.128	65.38
354.355	90.38
354.583	70.38
354.81	88.38
355.037	85.38
355.264	74.38
355.491	88.38
355.718	86.38
355.945	84.38
356.172	71.38
356.399	68.38
356.626	80.38
356.853	68.38
357.08	80.38
357.307	73.38
357.534	96.38
357.761	82.38
357.988	72.38
358.215	80.38
358.441	87.38
358.668	77.38
358.895	84.38
359.122	90.38
359.349	90.38
359.576	92.38
359.802	70.38
360.029	84.38
360.256	73.38
360.483	76.38
360.709	88.38
360.936	85.38
361.163	82.38
361.39	75.38
361.616	101.38
361.843	92.38
362.07	84.38
362.296	75.38
362.523	74.38
362.749	77.38
362.976	75.38
363.203	88.38
363.429	74.38
363.656	78.38
363.882	86.38
364.109	76.38
364.335	82.38
364.562	69.38
364.788	86.38
365.015	88.38
365.241	77.38
365.468	85.38
365.694	69.38
365.92	92.38
366.147	84.38
366.373	83.38
366.599	85.38
366.826	78.38
367.052	72.38
367.278	82.38
367.505	86.38
367.731	75.38
367.957	84.38
368.184	90.38
368.41	87.38
368.636	65.38
368.862	88.38
369.089	87.38
369.315	79.38
369.541	82.38
369.767	86.38
369.993	77.38
370.219	70.38
370.445	87.38
370.672	86.38
370.898	76.38
371.124	80.38
371.35	79.38
371.576	81.38
371.802	86.38
372.028	84.38
372.254	80.38
372.48	80.38
372.706	78.38
372.932	81.38
373.158	85.38
373.384	107.38
373.61	96.38
373.835	83.38
374.061	72.38
374.287	74.38
374.513	82.38
374.739	84.38
374.965	74.38
375.191	64.38
375.416	71.38
375.642	70.38
375.868	86.38
376.094	79.38
376.319	84.38
376.545	74.38
376.771	87.38
376.997	98.38
377.222	76.38
377.448	106.38
377.674	74.38
377.899	71.38
378.125	82.38
378.35	86.38
378.576	98.38
378.802	72.38
379.027	86.38
379.253	82.38
379.478	72.38
379.704	80.38
379.929	85.38
380.155	79.38
380.38	76.38
380.606	83.38
380.831	91.38
381.057	95.38
381.282	85.38
381.507	86.38
381.733	83.38
381.958	78.38
382.184	76.38
382.409	80.38
382.634	72.38
382.86	93.38
383.085	83.38
383.31	79.38
383.535	101.38
383.761	74.38
383.986	80.38
384.211	90.38
384.436	92.38
384.662	84.38
384.887	89.38
385.112	90.38
385.337	78.38
385.562	83.38
385.787	80.38
386.013	72.38
386.238	97.38
386.463	79.38
386.688	87.38
386.913	77.38
387.138	83.38
387.363	71.38
387.588	94.38
387.813	98.38
388.038	79.38
388.263	100.38
388.488	79.38
388.713	91.38
388.938	76.38
389.163	75.38
389.387	79.38
389.612	90.38
389.837	88.38
390.062	85.38
390.287	86.38
390.512	71.38
390.736	76.38
390.961	79.38
391.186	90.38
391.411	84.38
391.636	79.38
391.86	76.38
392.085	81.38
392.31	77.38
392.534	77.38
392.759	73.38
392.984	71.38
393.208	81.38
393.433	79.38
393.658	89.38
393.882	78.38
394.107	86.38
394.331	91.38
394.556	82.38
394.78	76.38
395.005	95.38
395.229	80.38
395.454	91.38
395.678	77.38
395.903	78.38
396.127	86.38
396.352	73.38
396.576	92.38
396.801	82.38
397.025	79.38
397.249	72.38
397.474	72.38
397.698	80.38
397.922	69.38
398.147	87.38
398.371	83.38
398.595	90.38
398.82	80.38
399.044	95.38
399.268	84.38
399.492	94.38
399.717	89.38
399.941	90.38
400.165	94.38
400.389	85.38
400.613	80.38
400.837	73.38
401.062	84.38
401.286	70.38
401.51	80.38
401.734	92.38
401.958	85.38
402.182	75.38
402.406	94.38
402.63	79.38
402.854	84.38
403.078	86.38
403.302	86.38
403.526	78.38
403.75	91.38
403.974	102.38
404.198	76.38
404.422	63.38
404.645	76.38
404.869	82.38
405.093	76.38
405.317	79.38
405.541	91.38
405.765	88.38
405.988	94.38
406.212	71.38
406.436	92.38
406.66	80.38
406.883	83.38
407.107	101.38
407.331	84.38
407.555	90.38
407.778	95.38
408.002	89.38
408.226	85.38
408.449	79.38
408.673	85.38
408.896	96.38
409.12	85.38
409.344	91.38
409.567	83.38
409.791	100.38
410.014	86.38
410.238	87.38
410.461	76.38
410.685	97.38
410.908	78.38
411.132	89.38
411.355	79.38
411.578	87.38
411.802	78.38
412.025	88.38
412.249	96.38
412.472	101.38
412.695	90.38
412.919	82.38
413.142	87.38
413.365	90.38
413.589	87.38
413.812	84.38
414.035	80.38
414.258	74.38
414.482	76.38
414.705	103.38
414.928	93.38
415.151	85.38
415.374	83.38
415.597	77.38
415.821	80.38
416.044	96.38
416.267	74.38
416.49	73.38
416.713	77.38
416.936	96.38
417.159	94.38
417.382	80.38
417.605	93.38
417.828	88.38
418.051	96.38
418.274	100.38
418.497	68.38
418.72	79.38
418.943	93.38
419.166	84.38
419.389	92.38
419.611	83.38
419.834	81.38
420.057	76.38
420.28	87.38
420.503	88.38
420.726	92.38
420.948	82.38
421.171	78.38
421.394	88.38
421.617	80.38
421.839	79.38
422.062	66.38
422.285	74.38
422.507	81.38
422.73	75.38
422.953	95.38
423.175	90.38
423.398	84.38
423.621	78.38
423.843	93.38
424.066	86.38
424.288	72.38
424.511	87.38
424.733	91.38
424.956	81.38
425.178	76.38
425.401	88.38
425.623	85.38
425.846	80.38
426.068	85.38
426.291	90.38
426.513	80.38
426.735	89.38
426.958	75.38
427.18	83.38
427.402	74.38
427.625	69.38
427.847	75.38
428.069	86.38
428.292	77.38
428.514	72.38
428.736	86.38
428.958	71.38
429.181	92.38
429.403	110.38
429.625	86.38
429.847	74.38
430.069	72.38
430.292	97.38
430.514	81.38
430.736	91.38
430.958	93.38
431.18	86.38
431.402	90.38
431.624	83.38
431.846	88.38
432.068	80.38
432.29	82.38
432.512	87.38
432.734	84.38
432.956	79.38
433.178	76.38
433.4	93.38
433.622	82.38
433.844	85.38
434.066	80.38
434.287	91.38
434.509	85.38
434.731	98.38
434.953	90.38
435.175	93.38
435.397	82.38
435.618	98.38
435.84	74.38
436.062	77.38
436.284	79.38
436.505	89.38
436.727	88.38
436.949	86.38
437.17	81.38
437.392	87.38
437.614	78.38
437.835	86.38
438.057	83.38
438.278	85.38
438.5	78.38
438.721	94.38
438.943	73.38
439.165	80.38
439.386	88.38
439.608	94.38
439.829	76.38
440.05	86.38
440.272	82.38
440.493	79.38
440.715	86.38
440.936	85.38
441.158	72.38
441.379	81.38
441.6	79.38
441.822	82.38
442.043	88.38
442.264	74.38
442.486	92.38
442.707	88.38
442.928	91.38
443.149	81.38
443.371	77.38
443.592	93.38
443.813	61.38
444.034	74.38
444.255	81.38
444.476	90.38
444.698	86.38
444.919	85.38
445.14	161.38
445.361	128.38
445.582	95.38
445.803	105.38
446.024	85.38
446.245	94.38
446.466	83.38
446.687	90.38
446.908	87.38
447.129	72.38
447.35	81.38
447.571	82.38
447.792	76.38
448.013	74.38
448.234	72.38
448.455	82.38
448.675	83.38
448.896	83.38
449.117	76.38
449.338	75.38
449.559	80.38
449.779	85.38
450	87.38
450.221	84.38
450.442	77.38
450.662	88.38
450.883	75.38
451.104	86.38
451.324	98.38
451.545	68.38
451.766	70.38
451.986	78.38
452.207	87.38
452.428	80.38
452.648	77.38
452.869	90.38
453.089	88.38
453.31	79.38
453.53	84.38
453.751	85.38
453.971	83.38
454.192	88.38
454.412	73.38
454.633	70.38
454.853	79.38
455.073	82.38
455.294	78.38
455.514	91.38
455.734	83.38
455.955	91.38
456.175	89.38
456.395	82.38
456.616	79.38
456.836	68.38
457.056	90.38
457.276	83.38
457.497	82.38
457.717	74.38
457.937	92.38
458.157	73.38
458.377	79.38
458.598	91.38
458.818	81.38
459.038	72.38
459.258	58.38
459.478	76.38
459.698	82.38
459.918	87.38
460.138	99.38
460.358	91.38
460.578	82.38
460.798	91.38
461.018	86.38
461.238	91.38
461.458	80.38
461.678	74.38
461.898	84.38
462.118	92.38
462.338	79.38
462.558	80.38
462.777	89.38
462.997	90.38
463.217	86.38
463.437	82.38
463.657	103.38
463.876	98.38
464.096	81.38
464.316	90.38
464.536	98.38
464.755	85.38
464.975	75.38
465.195	83.38
465.414	86.38
465.634	77.38
465.854	85.38
466.073	89.38
466.293	92.38
466.512	93.38
466.732	72.38
466.951	90.38
467.171	72.38
467.391	100.38
467.61	84.38
467.829	82.38
468.049	82.38
468.268	78.38
468.488	92.38
468.707	85.38
468.927	95.38
469.146	65.38
469.365	85.38
469.585	81.38
469.804	91.38
470.023	74.38
470.243	86.38
470.462	75.38
470.681	94.38
470.901	87.38
471.12	81.38
471.339	71.38
471.558	85.38
471.777	86.38
471.997	83.38
472.216	70.38
472.435	87.38
472.654	77.38
472.873	85.38
473.092	83.38
473.311	80.38
473.53	87.38
473.749	99.38
473.968	74.38
474.187	79.38
474.406	84.38
474.625	75.38
474.844	81.38
475.063	85.38
475.282	78.38
475.501	86.38
475.72	82.38
475.939	102.38
476.158	83.38
476.377	87.38
476.596	87.38
476.814	78.38
477.033	83.38
477.252	84.38
477.471	92.38
477.69	65.38
477.908	86.38
478.127	98.38
478.346	79.38
478.564	85.38
478.783	80.38
479.002	73.38
479.22	92.38
479.439	75.38
479.658	85.38
479.876	78.38
480.095	90.38
480.313	101.38
480.532	92.38
480.751	88.38
480.969	85.38
481.188	83.38
481.406	80.38
481.624	79.38
481.843	82.38
482.061	76.38
482.28	75.38
482.498	80.38
482.717	82.38
482.935	92.38
483.153	87.38
483.372	83.38
483.59	90.38
483.808	92.38
484.027	83.38
484.245	86.38
484.463	82.38
484.681	111.38
484.9	71.38
485.118	95.38
485.336	80.38
485.554	84.38
485.772	103.38
485.99	81.38
486.209	82.38
486.427	83.38
486.645	94.38
486.863	93.38
487.081	88.38
487.299	77.38
487.517	81.38
487.735	87.38
487.953	95.38
488.171	79.38
488.389	80.38
488.607	94.38
488.825	79.38
489.043	92.38
489.261	87.38
489.479	86.38
489.696	90.38
489.914	91.38
490.132	82.38
490.35	92.38
490.568	87.38
490.786	92.38
491.003	82.38
491.221	95.38
491.439	84.38
491.657	98.38
491.874	88.38
492.092	75.38
492.31	86.38
492.527	83.38
492.745	80.38
492.963	104.38
493.18	73.38
493.398	80.38
493.615	86.38
493.833	94.38
494.05	83.38
494.268	76.38
494.485	80.38
494.703	92.38
494.92	93.38
495.138	100.38
495.355	70.38
495.573	86.38
495.79	74.38
496.008	80.38
496.225	79.38
496.442	88.38
496.66	85.38
496.877	83.38
497.094	91.38
497.312	85.38
497.529	89.38
497.746	86.38
497.963	89.38
498.181	87.38
498.398	90.38
498.615	79.38
498.832	82.38
499.049	98.38
499.267	96.38
499.484	83.38
499.701	102.38
499.918	98.38
500.135	99.38
500.352	103.38
500.569	108.38
500.786	105.38
501.003	100.38
501.22	87.38
501.437	107.38
501.654	105.38
501.871	101.38
502.088	101.38
502.305	98.38
502.522	88.38
502.739	83.38
502.956	93.38
503.172	81.38
503.389	82.38
503.606	87.38
503.823	94.38
504.04	70.38
504.256	85.38
504.473	91.38
504.69	80.38
504.907	99.38
505.123	73.38
505.34	86.38
505.557	89.38
505.773	90.38
505.99	91.38
506.207	92.38
506.423	81.38
506.64	91.38
506.856	100.38
507.073	91.38
507.289	82.38
507.506	88.38
507.722	86.38
507.939	72.38
508.155	82.38
508.372	84.38
508.588	77.38
508.805	75.38
509.021	79.38
509.238	84.38
509.454	74.38
509.67	77.38
509.887	92.38
510.103	90.38
510.319	82.38
510.536	65.38
510.752	80.38
510.968	72.38
511.184	74.38
511.401	90.38
511.617	82.38
511.833	74.38
512.049	76.38
512.265	91.38
512.481	90.38
512.698	87.38
512.914	86.38
513.13	91.38
513.346	91.38
513.562	87.38
513.778	82.38
513.994	69.38
514.21	86.38
514.426	90.38
514.642	96.38
514.858	92.38
515.074	83.38
515.29	74.38
515.506	91.38
515.721	78.38
515.937	78.38
516.153	81.38
516.369	96.38
516.585	81.38
516.801	85.38
517.016	82.38
517.232	83.38
517.448	92.38
517.664	92.38
517.879	102.38
518.095	87.38
518.311	76.38
518.527	92.38
518.742	86.38
518.958	87.38
519.173	88.38
519.389	93.38
519.605	92.38
519.82	94.38
