Data from BG_HRD10591_063.txt Node
Date: Fri May 16 15:33:38 EDT 2025
User: Yrep
Spectrometer: HR+D1059
Trigger mode: 1
Integration Time (sec): 1.000000E-1
Scans to average: 1
Electric dark correction enabled: true
Nonlinearity correction enabled: false
Boxcar width: 0
XAxis mode: Wavelengths
Number of Pixels in Spectrum: 2048
>>>>>Begin Spectral Data<<<<<
223.165	-25.62
223.4	-25.62
223.635	-25.62
223.869	-23.62
224.104	-18.62
224.338	-9.62
224.573	-13.62
224.808	-23.62
225.042	-19.62
225.277	-4.62
225.511	-11.62
225.746	-0.62
225.98	11.38
226.215	21.38
226.449	18.38
226.683	17.38
226.918	39.38
227.152	43.38
227.387	29.38
227.621	49.38
227.856	46.38
228.09	42.38
228.324	51.38
228.559	53.38
228.793	49.38
229.027	63.38
229.262	65.38
229.496	56.38
229.73	68.38
229.964	72.38
230.199	80.38
230.433	65.38
230.667	73.38
230.901	77.38
231.136	79.38
231.37	67.38
231.604	81.38
231.838	85.38
232.072	77.38
232.306	76.38
232.541	74.38
232.775	77.38
233.009	77.38
233.243	75.38
233.477	81.38
233.711	86.38
233.945	85.38
234.179	81.38
234.413	80.38
234.647	78.38
234.881	79.38
235.115	91.38
235.349	80.38
235.583	85.38
235.817	90.38
236.051	75.38
236.285	64.38
236.519	79.38
236.753	80.38
236.987	60.38
237.221	71.38
237.455	56.38
237.689	82.38
237.922	80.38
238.156	73.38
238.39	75.38
238.624	77.38
238.858	73.38
239.091	60.38
239.325	73.38
239.559	85.38
239.793	63.38
240.027	95.38
240.26	81.38
240.494	73.38
240.728	64.38
240.961	67.38
241.195	87.38
241.429	67.38
241.662	81.38
241.896	70.38
242.13	68.38
242.363	67.38
242.597	71.38
242.83	75.38
243.064	67.38
243.298	78.38
243.531	73.38
243.765	67.38
243.998	72.38
244.232	67.38
244.465	72.38
244.699	79.38
244.932	70.38
245.166	77.38
245.399	70.38
245.633	58.38
245.866	74.38
246.099	63.38
246.333	65.38
246.566	88.38
246.8	71.38
247.033	73.38
247.266	70.38
247.5	91.38
247.733	85.38
247.966	87.38
248.2	70.38
248.433	71.38
248.666	85.38
248.899	82.38
249.133	80.38
249.366	75.38
249.599	78.38
249.832	77.38
250.066	79.38
250.299	79.38
250.532	79.38
250.765	90.38
250.998	71.38
251.231	73.38
251.465	82.38
251.698	75.38
251.931	73.38
252.164	89.38
252.397	65.38
252.63	83.38
252.863	87.38
253.096	90.38
253.329	86.38
253.562	81.38
253.795	97.38
254.028	84.38
254.261	88.38
254.494	77.38
254.727	89.38
254.96	79.38
255.193	73.38
255.426	82.38
255.659	91.38
255.892	77.38
256.124	77.38
256.357	89.38
256.59	86.38
256.823	78.38
257.056	82.38
257.289	85.38
257.521	80.38
257.754	75.38
257.987	74.38
258.22	87.38
258.452	78.38
258.685	79.38
258.918	73.38
259.151	70.38
259.383	81.38
259.616	74.38
259.849	85.38
260.081	78.38
260.314	83.38
260.547	75.38
260.779	72.38
261.012	74.38
261.244	83.38
261.477	82.38
261.71	80.38
261.942	86.38
262.175	86.38
262.407	83.38
262.64	89.38
262.872	71.38
263.105	82.38
263.337	86.38
263.57	88.38
263.802	78.38
264.035	77.38
264.267	75.38
264.499	75.38
264.732	83.38
264.964	92.38
265.197	89.38
265.429	82.38
265.661	71.38
265.894	73.38
266.126	85.38
266.358	92.38
266.591	71.38
266.823	77.38
267.055	82.38
267.287	88.38
267.52	76.38
267.752	73.38
267.984	85.38
268.216	85.38
268.448	78.38
268.681	81.38
268.913	94.38
269.145	81.38
269.377	91.38
269.609	82.38
269.841	81.38
270.073	88.38
270.306	78.38
270.538	75.38
270.77	82.38
271.002	82.38
271.234	80.38
271.466	65.38
271.698	81.38
271.93	80.38
272.162	94.38
272.394	80.38
272.626	83.38
272.858	87.38
273.09	74.38
273.322	77.38
273.553	84.38
273.785	79.38
274.017	85.38
274.249	76.38
274.481	69.38
274.713	80.38
274.945	82.38
275.176	95.38
275.408	81.38
275.64	90.38
275.872	84.38
276.104	81.38
276.335	90.38
276.567	98.38
276.799	92.38
277.031	95.38
277.262	82.38
277.494	101.38
277.726	92.38
277.957	97.38
278.189	81.38
278.421	91.38
278.652	72.38
278.884	86.38
279.115	92.38
279.347	103.38
279.579	90.38
279.81	81.38
280.042	82.38
280.273	88.38
280.505	70.38
280.736	66.38
280.968	79.38
281.199	89.38
281.431	81.38
281.662	89.38
281.894	90.38
282.125	91.38
282.356	82.38
282.588	71.38
282.819	88.38
283.051	87.38
283.282	94.38
283.513	93.38
283.745	86.38
283.976	86.38
284.207	92.38
284.439	85.38
284.67	83.38
284.901	73.38
285.132	85.38
285.364	81.38
285.595	88.38
285.826	89.38
286.057	88.38
286.288	82.38
286.52	72.38
286.751	73.38
286.982	99.38
287.213	72.38
287.444	86.38
287.675	83.38
287.906	83.38
288.138	96.38
288.369	94.38
288.6	72.38
288.831	92.38
289.062	89.38
289.293	85.38
289.524	89.38
289.755	79.38
289.986	81.38
290.217	98.38
290.448	82.38
290.679	97.38
290.91	91.38
291.141	90.38
291.371	82.38
291.602	86.38
291.833	81.38
292.064	92.38
292.295	96.38
292.526	79.38
292.757	83.38
292.987	90.38
293.218	85.38
293.449	78.38
293.68	90.38
293.91	97.38
294.141	90.38
294.372	101.38
294.603	111.38
294.833	84.38
295.064	82.38
295.295	78.38
295.525	93.38
295.756	79.38
295.987	88.38
296.217	80.38
296.448	77.38
296.679	71.38
296.909	97.38
297.14	90.38
297.37	89.38
297.601	86.38
297.831	77.38
298.062	73.38
298.292	79.38
298.523	96.38
298.753	79.38
298.984	93.38
299.214	81.38
299.445	84.38
299.675	90.38
299.905	74.38
300.136	77.38
300.366	91.38
300.597	95.38
300.827	90.38
301.057	84.38
301.288	78.38
301.518	73.38
301.748	76.38
301.979	106.38
302.209	85.38
302.439	89.38
302.669	91.38
302.9	83.38
303.13	86.38
303.36	76.38
303.59	91.38
303.82	85.38
304.051	89.38
304.281	91.38
304.511	82.38
304.741	89.38
304.971	76.38
305.201	95.38
305.431	85.38
305.661	88.38
305.891	83.38
306.121	87.38
306.352	91.38
306.582	75.38
306.812	86.38
307.042	79.38
307.272	85.38
307.502	87.38
307.731	91.38
307.961	79.38
308.191	85.38
308.421	93.38
308.651	91.38
308.881	93.38
309.111	85.38
309.341	79.38
309.571	80.38
309.8	85.38
310.03	73.38
310.26	85.38
310.49	97.38
310.72	82.38
310.949	78.38
311.179	85.38
311.409	82.38
311.639	85.38
311.868	99.38
312.098	85.38
312.328	101.38
312.557	86.38
312.787	91.38
313.017	103.38
313.246	81.38
313.476	78.38
313.706	90.38
313.935	81.38
314.165	77.38
314.394	101.38
314.624	91.38
314.853	75.38
315.083	71.38
315.312	85.38
315.542	83.38
315.771	89.38
316.001	93.38
316.23	81.38
316.46	87.38
316.689	80.38
316.919	77.38
317.148	78.38
317.377	88.38
317.607	77.38
317.836	84.38
318.065	87.38
318.295	92.38
318.524	89.38
318.753	96.38
318.983	80.38
319.212	85.38
319.441	85.38
319.67	98.38
319.9	89.38
320.129	85.38
320.358	91.38
320.587	115.38
320.816	76.38
321.046	94.38
321.275	87.38
321.504	82.38
321.733	74.38
321.962	97.38
322.191	82.38
322.42	78.38
322.649	86.38
322.878	87.38
323.108	81.38
323.337	91.38
323.566	89.38
323.795	102.38
324.024	93.38
324.253	95.38
324.482	97.38
324.71	89.38
324.939	84.38
325.168	82.38
325.397	95.38
325.626	79.38
325.855	80.38
326.084	93.38
326.313	71.38
326.542	89.38
326.77	73.38
326.999	79.38
327.228	83.38
327.457	84.38
327.686	89.38
327.914	78.38
328.143	102.38
328.372	83.38
328.6	89.38
328.829	103.38
329.058	96.38
329.287	89.38
329.515	83.38
329.744	80.38
329.972	83.38
330.201	90.38
330.43	91.38
330.658	91.38
330.887	86.38
331.115	86.38
331.344	89.38
331.572	89.38
331.801	89.38
332.03	86.38
332.258	86.38
332.486	91.38
332.715	87.38
332.943	98.38
333.172	96.38
333.4	87.38
333.629	89.38
333.857	93.38
334.085	73.38
334.314	96.38
334.542	89.38
334.771	74.38
334.999	85.38
335.227	97.38
335.455	85.38
335.684	104.38
335.912	85.38
336.14	90.38
336.369	79.38
336.597	101.38
336.825	87.38
337.053	75.38
337.281	82.38
337.51	96.38
337.738	91.38
337.966	100.38
338.194	85.38
338.422	86.38
338.65	77.38
338.878	91.38
339.106	86.38
339.334	86.38
339.562	80.38
339.79	68.38
340.018	78.38
340.246	93.38
340.474	87.38
340.702	97.38
340.93	71.38
341.158	85.38
341.386	88.38
341.614	85.38
341.842	79.38
342.07	93.38
342.298	82.38
342.526	95.38
342.754	97.38
342.981	94.38
343.209	96.38
343.437	111.38
343.665	85.38
343.893	101.38
344.12	87.38
344.348	96.38
344.576	94.38
344.804	77.38
345.031	75.38
345.259	89.38
345.487	94.38
345.714	91.38
345.942	95.38
346.17	89.38
346.397	89.38
346.625	73.38
346.853	85.38
347.08	86.38
347.308	81.38
347.535	86.38
347.763	87.38
347.99	93.38
348.218	89.38
348.445	85.38
348.673	92.38
348.9	89.38
349.128	89.38
349.355	70.38
349.583	86.38
349.81	70.38
350.037	79.38
350.265	67.38
350.492	93.38
350.72	85.38
350.947	103.38
351.174	89.38
351.402	95.38
351.629	87.38
351.856	87.38
352.083	70.38
352.311	87.38
352.538	85.38
352.765	90.38
352.992	89.38
353.22	86.38
353.447	80.38
353.674	81.38
353.901	79.38
354.128	86.38
354.355	95.38
354.583	86.38
354.81	87.38
355.037	97.38
355.264	80.38
355.491	81.38
355.718	85.38
355.945	81.38
356.172	81.38
356.399	83.38
356.626	79.38
356.853	99.38
357.08	85.38
357.307	111.38
357.534	85.38
357.761	83.38
357.988	90.38
358.215	83.38
358.441	84.38
358.668	81.38
358.895	94.38
359.122	86.38
359.349	66.38
359.576	89.38
359.802	93.38
360.029	80.38
360.256	100.38
360.483	75.38
360.709	86.38
360.936	82.38
361.163	87.38
361.39	73.38
361.616	69.38
361.843	78.38
362.07	86.38
362.296	84.38
362.523	73.38
362.749	88.38
362.976	73.38
363.203	73.38
363.429	92.38
363.656	79.38
363.882	75.38
364.109	89.38
364.335	87.38
364.562	89.38
364.788	75.38
365.015	78.38
365.241	91.38
365.468	92.38
365.694	82.38
365.92	82.38
366.147	74.38
366.373	89.38
366.599	104.38
366.826	91.38
367.052	90.38
367.278	88.38
367.505	90.38
367.731	73.38
367.957	85.38
368.184	78.38
368.41	76.38
368.636	83.38
368.862	81.38
369.089	87.38
369.315	81.38
369.541	72.38
369.767	67.38
369.993	93.38
370.219	82.38
370.445	83.38
370.672	79.38
370.898	86.38
371.124	75.38
371.35	84.38
371.576	82.38
371.802	95.38
372.028	76.38
372.254	75.38
372.48	79.38
372.706	87.38
372.932	93.38
373.158	76.38
373.384	90.38
373.61	74.38
373.835	81.38
374.061	77.38
374.287	92.38
374.513	85.38
374.739	95.38
374.965	75.38
375.191	86.38
375.416	87.38
375.642	83.38
375.868	81.38
376.094	92.38
376.319	71.38
376.545	85.38
376.771	80.38
376.997	69.38
377.222	78.38
377.448	95.38
377.674	92.38
377.899	93.38
378.125	90.38
378.35	103.38
378.576	78.38
378.802	89.38
379.027	95.38
379.253	95.38
379.478	86.38
379.704	96.38
379.929	97.38
380.155	93.38
380.38	96.38
380.606	77.38
380.831	89.38
381.057	92.38
381.282	87.38
381.507	85.38
381.733	93.38
381.958	85.38
382.184	76.38
382.409	74.38
382.634	75.38
382.86	74.38
383.085	77.38
383.31	79.38
383.535	95.38
383.761	90.38
383.986	96.38
384.211	93.38
384.436	80.38
384.662	75.38
384.887	80.38
385.112	74.38
385.337	82.38
385.562	80.38
385.787	85.38
386.013	96.38
386.238	88.38
386.463	84.38
386.688	94.38
386.913	92.38
387.138	93.38
387.363	77.38
387.588	81.38
387.813	98.38
388.038	87.38
388.263	86.38
388.488	85.38
388.713	78.38
388.938	80.38
389.163	85.38
389.387	94.38
389.612	81.38
389.837	75.38
390.062	85.38
390.287	90.38
390.512	92.38
390.736	90.38
390.961	75.38
391.186	82.38
391.411	88.38
391.636	91.38
391.86	95.38
392.085	94.38
392.31	73.38
392.534	93.38
392.759	107.38
392.984	90.38
393.208	97.38
393.433	82.38
393.658	85.38
393.882	83.38
394.107	90.38
394.331	87.38
394.556	83.38
394.78	69.38
395.005	82.38
395.229	94.38
395.454	86.38
395.678	83.38
395.903	88.38
396.127	85.38
396.352	97.38
396.576	85.38
396.801	71.38
397.025	82.38
397.249	89.38
397.474	84.38
397.698	87.38
397.922	92.38
398.147	101.38
398.371	76.38
398.595	85.38
398.82	71.38
399.044	97.38
399.268	87.38
399.492	99.38
399.717	102.38
399.941	90.38
400.165	87.38
400.389	87.38
400.613	86.38
400.837	76.38
401.062	92.38
401.286	87.38
401.51	81.38
401.734	91.38
401.958	98.38
402.182	94.38
402.406	87.38
402.63	91.38
402.854	95.38
403.078	92.38
403.302	93.38
403.526	80.38
403.75	98.38
403.974	79.38
404.198	80.38
404.422	84.38
404.645	75.38
404.869	85.38
405.093	103.38
405.317	85.38
405.541	105.38
405.765	101.38
405.988	92.38
406.212	91.38
406.436	91.38
406.66	94.38
406.883	88.38
407.107	76.38
407.331	77.38
407.555	95.38
407.778	86.38
408.002	84.38
408.226	86.38
408.449	96.38
408.673	88.38
408.896	89.38
409.12	99.38
409.344	92.38
409.567	99.38
409.791	86.38
410.014	88.38
410.238	85.38
410.461	92.38
410.685	87.38
410.908	80.38
411.132	77.38
411.355	70.38
411.578	77.38
411.802	97.38
412.025	73.38
412.249	82.38
412.472	97.38
412.695	71.38
412.919	85.38
413.142	81.38
413.365	71.38
413.589	94.38
413.812	83.38
414.035	97.38
414.258	89.38
414.482	90.38
414.705	87.38
414.928	96.38
415.151	83.38
415.374	82.38
415.597	77.38
415.821	74.38
416.044	94.38
416.267	90.38
416.49	76.38
416.713	101.38
416.936	103.38
417.159	87.38
417.382	87.38
417.605	81.38
417.828	90.38
418.051	99.38
418.274	87.38
418.497	90.38
418.72	83.38
418.943	84.38
419.166	87.38
419.389	75.38
419.611	95.38
419.834	82.38
420.057	85.38
420.28	87.38
420.503	80.38
420.726	77.38
420.948	90.38
421.171	95.38
421.394	90.38
421.617	79.38
421.839	88.38
422.062	94.38
422.285	90.38
422.507	88.38
422.73	90.38
422.953	76.38
423.175	89.38
423.398	94.38
423.621	92.38
423.843	85.38
424.066	105.38
424.288	81.38
424.511	95.38
424.733	85.38
424.956	92.38
425.178	86.38
425.401	75.38
425.623	103.38
425.846	85.38
426.068	82.38
426.291	88.38
426.513	85.38
426.735	91.38
426.958	93.38
427.18	81.38
427.402	87.38
427.625	89.38
427.847	78.38
428.069	99.38
428.292	90.38
428.514	91.38
428.736	79.38
428.958	79.38
429.181	81.38
429.403	83.38
429.625	86.38
429.847	80.38
430.069	92.38
430.292	92.38
430.514	81.38
430.736	80.38
430.958	97.38
431.18	81.38
431.402	77.38
431.624	76.38
431.846	82.38
432.068	92.38
432.29	102.38
432.512	85.38
432.734	78.38
432.956	90.38
433.178	93.38
433.4	89.38
433.622	94.38
433.844	90.38
434.066	78.38
434.287	74.38
434.509	75.38
434.731	87.38
434.953	84.38
435.175	87.38
435.397	82.38
435.618	80.38
435.84	81.38
436.062	87.38
436.284	81.38
436.505	87.38
436.727	76.38
436.949	84.38
437.17	67.38
437.392	91.38
437.614	95.38
437.835	90.38
438.057	102.38
438.278	83.38
438.5	85.38
438.721	75.38
438.943	91.38
439.165	95.38
439.386	91.38
439.608	87.38
439.829	74.38
440.05	94.38
440.272	86.38
440.493	82.38
440.715	82.38
440.936	87.38
441.158	87.38
441.379	92.38
441.6	70.38
441.822	99.38
442.043	93.38
442.264	88.38
442.486	82.38
442.707	92.38
442.928	93.38
443.149	103.38
443.371	89.38
443.592	79.38
443.813	81.38
444.034	95.38
444.255	91.38
444.476	72.38
444.698	79.38
444.919	89.38
445.14	180.38
445.361	127.38
445.582	102.38
445.803	73.38
446.024	77.38
446.245	94.38
446.466	85.38
446.687	91.38
446.908	79.38
447.129	90.38
447.35	77.38
447.571	103.38
447.792	91.38
448.013	97.38
448.234	93.38
448.455	90.38
448.675	92.38
448.896	89.38
449.117	70.38
449.338	93.38
449.559	91.38
449.779	82.38
450	81.38
450.221	91.38
450.442	83.38
450.662	98.38
450.883	88.38
451.104	81.38
451.324	79.38
451.545	90.38
451.766	93.38
451.986	75.38
452.207	85.38
452.428	92.38
452.648	89.38
452.869	82.38
453.089	91.38
453.31	87.38
453.53	89.38
453.751	80.38
453.971	83.38
454.192	87.38
454.412	91.38
454.633	81.38
454.853	81.38
455.073	79.38
455.294	96.38
455.514	79.38
455.734	85.38
455.955	72.38
456.175	77.38
456.395	89.38
456.616	80.38
456.836	96.38
457.056	87.38
457.276	88.38
457.497	77.38
457.717	81.38
457.937	77.38
458.157	76.38
458.377	89.38
458.598	78.38
458.818	94.38
459.038	89.38
459.258	81.38
459.478	81.38
459.698	78.38
459.918	88.38
460.138	88.38
460.358	110.38
460.578	88.38
460.798	99.38
461.018	85.38
461.238	80.38
461.458	84.38
461.678	82.38
461.898	88.38
462.118	90.38
462.338	98.38
462.558	93.38
462.777	86.38
462.997	88.38
463.217	95.38
463.437	90.38
463.657	102.38
463.876	89.38
464.096	95.38
464.316	93.38
464.536	99.38
464.755	86.38
464.975	96.38
465.195	88.38
465.414	87.38
465.634	83.38
465.854	78.38
466.073	75.38
466.293	74.38
466.512	96.38
466.732	87.38
466.951	85.38
467.171	63.38
467.391	81.38
467.61	97.38
467.829	82.38
468.049	90.38
468.268	78.38
468.488	85.38
468.707	80.38
468.927	95.38
469.146	68.38
469.365	84.38
469.585	97.38
469.804	89.38
470.023	87.38
470.243	82.38
470.462	63.38
470.681	95.38
470.901	103.38
471.12	83.38
471.339	95.38
471.558	86.38
471.777	71.38
471.997	83.38
472.216	78.38
472.435	92.38
472.654	86.38
472.873	98.38
473.092	82.38
473.311	83.38
473.53	104.38
473.749	81.38
473.968	84.38
474.187	91.38
474.406	79.38
474.625	81.38
474.844	78.38
475.063	85.38
475.282	81.38
475.501	80.38
475.72	86.38
475.939	102.38
476.158	99.38
476.377	86.38
476.596	73.38
476.814	86.38
477.033	98.38
477.252	103.38
477.471	93.38
477.69	94.38
477.908	93.38
478.127	90.38
478.346	103.38
478.564	93.38
478.783	82.38
479.002	94.38
479.22	74.38
479.439	87.38
479.658	90.38
479.876	87.38
480.095	84.38
480.313	101.38
480.532	87.38
480.751	94.38
480.969	89.38
481.188	94.38
481.406	92.38
481.624	89.38
481.843	81.38
482.061	95.38
482.28	84.38
482.498	91.38
482.717	81.38
482.935	86.38
483.153	87.38
483.372	91.38
483.59	73.38
483.808	87.38
484.027	88.38
484.245	92.38
484.463	91.38
484.681	86.38
484.9	95.38
485.118	92.38
485.336	95.38
485.554	87.38
485.772	82.38
485.99	97.38
486.209	86.38
486.427	84.38
486.645	101.38
486.863	87.38
487.081	93.38
487.299	83.38
487.517	88.38
487.735	94.38
487.953	91.38
488.171	105.38
488.389	85.38
488.607	86.38
488.825	83.38
489.043	80.38
489.261	78.38
489.479	101.38
489.696	81.38
489.914	87.38
490.132	75.38
490.35	81.38
490.568	92.38
490.786	90.38
491.003	93.38
491.221	95.38
491.439	83.38
491.657	85.38
491.874	80.38
492.092	88.38
492.31	91.38
492.527	93.38
492.745	82.38
492.963	64.38
493.18	84.38
493.398	91.38
493.615	82.38
493.833	98.38
494.05	70.38
494.268	76.38
494.485	103.38
494.703	98.38
494.92	91.38
495.138	83.38
495.355	90.38
495.573	94.38
495.79	97.38
496.008	90.38
496.225	93.38
496.442	80.38
496.66	90.38
496.877	88.38
497.094	94.38
497.312	85.38
497.529	99.38
497.746	94.38
497.963	78.38
498.181	94.38
498.398	97.38
498.615	102.38
498.832	78.38
499.049	101.38
499.267	89.38
499.484	102.38
499.701	113.38
499.918	102.38
500.135	99.38
500.352	106.38
500.569	99.38
500.786	96.38
501.003	96.38
501.22	89.38
501.437	91.38
501.654	109.38
501.871	90.38
502.088	93.38
502.305	97.38
502.522	97.38
502.739	74.38
502.956	94.38
503.172	93.38
503.389	88.38
503.606	77.38
503.823	97.38
504.04	81.38
504.256	83.38
504.473	89.38
504.69	83.38
504.907	84.38
505.123	73.38
505.34	95.38
505.557	94.38
505.773	96.38
505.99	76.38
506.207	78.38
506.423	94.38
506.64	75.38
506.856	81.38
507.073	82.38
507.289	82.38
507.506	84.38
507.722	86.38
507.939	89.38
508.155	93.38
508.372	96.38
508.588	85.38
508.805	90.38
509.021	81.38
509.238	81.38
509.454	81.38
509.67	73.38
509.887	101.38
510.103	79.38
510.319	81.38
510.536	73.38
510.752	62.38
510.968	85.38
511.184	88.38
511.401	75.38
511.617	89.38
511.833	101.38
512.049	83.38
512.265	78.38
512.481	71.38
512.698	89.38
512.914	70.38
513.13	82.38
513.346	74.38
513.562	78.38
513.778	78.38
513.994	71.38
514.21	85.38
514.426	89.38
514.642	110.38
514.858	91.38
515.074	76.38
515.29	96.38
515.506	78.38
515.721	87.38
515.937	85.38
516.153	93.38
516.369	79.38
516.585	98.38
516.801	85.38
517.016	91.38
517.232	84.38
517.448	94.38
517.664	101.38
517.879	88.38
518.095	95.38
518.311	94.38
518.527	96.38
518.742	83.38
518.958	71.38
519.173	80.38
519.389	90.38
