Data from BG_HRD10591_039.txt Node
Date: Fri May 16 15:33:26 EDT 2025
User: Yrep
Spectrometer: HR+D1059
Trigger mode: 1
Integration Time (sec): 1.000000E-1
Scans to average: 1
Electric dark correction enabled: true
Nonlinearity correction enabled: false
Boxcar width: 0
XAxis mode: Wavelengths
Number of Pixels in Spectrum: 2048
>>>>>Begin Spectral Data<<<<<
223.165	-15
223.4	-15
223.635	-15
223.869	-19
224.104	-19
224.338	-12
224.573	-14
224.808	-13
225.042	-15
225.277	-7
225.511	-11
225.746	16
225.98	5
226.215	3
226.449	22
226.683	13
226.918	25
227.152	41
227.387	46
227.621	47
227.856	56
228.09	51
228.324	55
228.559	55
228.793	60
229.027	55
229.262	55
229.496	58
229.73	73
229.964	70
230.199	77
230.433	76
230.667	69
230.901	79
231.136	76
231.37	73
231.604	83
231.838	79
232.072	74
232.306	79
232.541	83
232.775	92
233.009	71
233.243	91
233.477	90
233.711	82
233.945	80
234.179	73
234.413	90
234.647	74
234.881	77
235.115	80
235.349	68
235.583	73
235.817	78
236.051	77
236.285	78
236.519	91
236.753	85
236.987	81
237.221	77
237.455	70
237.689	77
237.922	82
238.156	85
238.39	85
238.624	73
238.858	83
239.091	87
239.325	77
239.559	84
239.793	88
240.027	83
240.26	72
240.494	81
240.728	72
240.961	69
241.195	77
241.429	76
241.662	74
241.896	82
242.13	73
242.363	84
242.597	76
242.83	89
243.064	72
243.298	82
243.531	81
243.765	78
243.998	75
244.232	67
244.465	62
244.699	70
244.932	78
245.166	76
245.399	71
245.633	96
245.866	90
246.099	70
246.333	79
246.566	83
246.8	58
247.033	82
247.266	77
247.5	76
247.733	82
247.966	83
248.2	79
248.433	83
248.666	88
248.899	83
249.133	86
249.366	101
249.599	78
249.832	79
250.066	76
250.299	85
250.532	80
250.765	80
250.998	86
251.231	86
251.465	83
251.698	69
251.931	73
252.164	73
252.397	75
252.63	75
252.863	77
253.096	91
253.329	89
253.562	82
253.795	78
254.028	73
254.261	81
254.494	62
254.727	74
254.96	82
255.193	78
255.426	77
255.659	93
255.892	96
256.124	62
256.357	70
256.59	86
256.823	81
257.056	79
257.289	77
257.521	80
257.754	81
257.987	84
258.22	86
258.452	78
258.685	75
258.918	73
259.151	88
259.383	80
259.616	74
259.849	85
260.081	74
260.314	71
260.547	74
260.779	89
261.012	82
261.244	76
261.477	102
261.71	81
261.942	80
262.175	81
262.407	87
262.64	78
262.872	90
263.105	84
263.337	69
263.57	76
263.802	85
264.035	82
264.267	67
264.499	85
264.732	79
264.964	81
265.197	82
265.429	79
265.661	81
265.894	83
266.126	81
266.358	89
266.591	80
266.823	72
267.055	94
267.287	89
267.52	81
267.752	84
267.984	99
268.216	74
268.448	82
268.681	83
268.913	75
269.145	85
269.377	93
269.609	75
269.841	89
270.073	90
270.306	88
270.538	93
270.77	76
271.002	81
271.234	82
271.466	90
271.698	87
271.93	81
272.162	87
272.394	84
272.626	87
272.858	101
273.09	94
273.322	90
273.553	67
273.785	96
274.017	83
274.249	75
274.481	83
274.713	65
274.945	87
275.176	83
275.408	75
275.64	86
275.872	91
276.104	88
276.335	95
276.567	79
276.799	91
277.031	85
277.262	89
277.494	76
277.726	84
277.957	86
278.189	71
278.421	87
278.652	80
278.884	77
279.115	81
279.347	77
279.579	79
279.81	89
280.042	92
280.273	75
280.505	77
280.736	76
280.968	85
281.199	82
281.431	74
281.662	77
281.894	79
282.125	81
282.356	83
282.588	88
282.819	79
283.051	83
283.282	79
283.513	82
283.745	88
283.976	88
284.207	92
284.439	87
284.67	71
284.901	79
285.132	85
285.364	82
285.595	96
285.826	81
286.057	78
286.288	83
286.52	94
286.751	83
286.982	81
287.213	91
287.444	71
287.675	94
287.906	83
288.138	85
288.369	74
288.6	83
288.831	89
289.062	91
289.293	84
289.524	109
289.755	81
289.986	91
290.217	92
290.448	80
290.679	82
290.91	86
291.141	89
291.371	94
291.602	93
291.833	78
292.064	88
292.295	67
292.526	81
292.757	91
292.987	91
293.218	92
293.449	85
293.68	75
293.91	87
294.141	82
294.372	111
294.603	101
294.833	80
295.064	85
295.295	82
295.525	67
295.756	72
295.987	85
296.217	94
296.448	89
296.679	91
296.909	88
297.14	89
297.37	89
297.601	66
297.831	89
298.062	93
298.292	80
298.523	87
298.753	78
298.984	75
299.214	89
299.445	89
299.675	90
299.905	94
300.136	84
300.366	96
300.597	91
300.827	87
301.057	85
301.288	82
301.518	82
301.748	77
301.979	93
302.209	82
302.439	96
302.669	70
302.9	69
303.13	76
303.36	90
303.59	83
303.82	84
304.051	83
304.281	77
304.511	78
304.741	88
304.971	80
305.201	90
305.431	83
305.661	68
305.891	73
306.121	95
306.352	89
306.582	81
306.812	83
307.042	85
307.272	93
307.502	87
307.731	83
307.961	72
308.191	85
308.421	95
308.651	80
308.881	80
309.111	87
309.341	99
309.571	90
309.8	86
310.03	66
310.26	87
310.49	82
310.72	80
310.949	78
311.179	96
311.409	75
311.639	89
311.868	84
312.098	78
312.328	88
312.557	75
312.787	102
313.017	91
313.246	95
313.476	78
313.706	90
313.935	80
314.165	78
314.394	87
314.624	85
314.853	81
315.083	80
315.312	87
315.542	89
315.771	86
316.001	82
316.23	81
316.46	77
316.689	65
316.919	96
317.148	98
317.377	75
317.607	82
317.836	82
318.065	92
318.295	83
318.524	94
318.753	77
318.983	85
319.212	96
319.441	98
319.67	93
319.9	95
320.129	81
320.358	95
320.587	89
320.816	90
321.046	77
321.275	81
321.504	64
321.733	80
321.962	79
322.191	73
322.42	82
322.649	80
322.878	74
323.108	93
323.337	91
323.566	104
323.795	83
324.024	74
324.253	91
324.482	80
324.71	94
324.939	98
325.168	91
325.397	90
325.626	97
325.855	88
326.084	95
326.313	83
326.542	70
326.77	77
326.999	86
327.228	99
327.457	82
327.686	82
327.914	95
328.143	91
328.372	93
328.6	77
328.829	91
329.058	81
329.287	74
329.515	82
329.744	86
329.972	82
330.201	92
330.43	93
330.658	78
330.887	97
331.115	88
331.344	91
331.572	89
331.801	77
332.03	73
332.258	90
332.486	88
332.715	102
332.943	103
333.172	96
333.4	75
333.629	90
333.857	89
334.085	101
334.314	93
334.542	87
334.771	85
334.999	89
335.227	67
335.455	89
335.684	94
335.912	83
336.14	84
336.369	79
336.597	79
336.825	88
337.053	73
337.281	91
337.51	96
337.738	83
337.966	82
338.194	77
338.422	84
338.65	86
338.878	94
339.106	88
339.334	99
339.562	91
339.79	76
340.018	95
340.246	83
340.474	97
340.702	87
340.93	86
341.158	78
341.386	106
341.614	89
341.842	103
342.07	98
342.298	85
342.526	87
342.754	82
342.981	81
343.209	88
343.437	84
343.665	93
343.893	74
344.12	89
344.348	90
344.576	75
344.804	96
345.031	94
345.259	74
345.487	96
345.714	77
345.942	81
346.17	87
346.397	87
346.625	88
346.853	76
347.08	93
347.308	89
347.535	80
347.763	85
347.99	91
348.218	90
348.445	78
348.673	85
348.9	83
349.128	79
349.355	91
349.583	91
349.81	94
350.037	77
350.265	85
350.492	86
350.72	95
350.947	86
351.174	79
351.402	83
351.629	98
351.856	85
352.083	92
352.311	79
352.538	89
352.765	94
352.992	87
353.22	85
353.447	85
353.674	103
353.901	89
354.128	76
354.355	97
354.583	94
354.81	63
355.037	76
355.264	94
355.491	89
355.718	89
355.945	80
356.172	94
356.399	93
356.626	87
356.853	80
357.08	71
357.307	88
357.534	78
357.761	93
357.988	87
358.215	89
358.441	90
358.668	81
358.895	93
359.122	84
359.349	86
359.576	80
359.802	79
360.029	88
360.256	82
360.483	80
360.709	78
360.936	87
361.163	85
361.39	95
361.616	95
361.843	81
362.07	79
362.296	88
362.523	83
362.749	82
362.976	88
363.203	81
363.429	90
363.656	87
363.882	94
364.109	105
364.335	90
364.562	95
364.788	77
365.015	104
365.241	78
365.468	90
365.694	85
365.92	82
366.147	78
366.373	78
366.599	78
366.826	87
367.052	82
367.278	92
367.505	88
367.731	72
367.957	87
368.184	81
368.41	83
368.636	88
368.862	85
369.089	89
369.315	94
369.541	84
369.767	77
369.993	73
370.219	83
370.445	89
370.672	86
370.898	81
371.124	90
371.35	85
371.576	93
371.802	85
372.028	100
372.254	83
372.48	85
372.706	106
372.932	101
373.158	74
373.384	94
373.61	80
373.835	88
374.061	87
374.287	92
374.513	79
374.739	80
374.965	97
375.191	83
375.416	73
375.642	93
375.868	81
376.094	76
376.319	95
376.545	91
376.771	75
376.997	92
377.222	88
377.448	76
377.674	92
377.899	66
378.125	78
378.35	88
378.576	81
378.802	87
379.027	72
379.253	72
379.478	88
379.704	83
379.929	85
380.155	82
380.38	89
380.606	89
380.831	82
381.057	80
381.282	74
381.507	90
381.733	91
381.958	83
382.184	85
382.409	81
382.634	93
382.86	91
383.085	75
383.31	89
383.535	74
383.761	87
383.986	90
384.211	73
384.436	90
384.662	87
384.887	81
385.112	69
385.337	76
385.562	78
385.787	85
386.013	84
386.238	90
386.463	80
386.688	95
386.913	97
387.138	91
387.363	79
387.588	80
387.813	80
388.038	74
388.263	95
388.488	89
388.713	77
388.938	76
389.163	89
389.387	89
389.612	91
389.837	93
390.062	109
390.287	92
390.512	89
390.736	83
390.961	95
391.186	82
391.411	97
391.636	90
391.86	90
392.085	98
392.31	82
392.534	80
392.759	94
392.984	91
393.208	107
393.433	87
393.658	81
393.882	89
394.107	90
394.331	78
394.556	95
394.78	93
395.005	91
395.229	97
395.454	76
395.678	90
395.903	81
396.127	92
396.352	80
396.576	76
396.801	80
397.025	81
397.249	76
397.474	86
397.698	78
397.922	90
398.147	92
398.371	81
398.595	93
398.82	86
399.044	74
399.268	86
399.492	94
399.717	86
399.941	95
400.165	99
400.389	81
400.613	77
400.837	93
401.062	94
401.286	89
401.51	79
401.734	104
401.958	89
402.182	77
402.406	83
402.63	99
402.854	93
403.078	86
403.302	81
403.526	92
403.75	85
403.974	86
404.198	95
404.422	104
404.645	81
404.869	83
405.093	84
405.317	66
405.541	85
405.765	85
405.988	85
406.212	77
406.436	102
406.66	85
406.883	82
407.107	88
407.331	80
407.555	77
407.778	88
408.002	91
408.226	98
408.449	89
408.673	89
408.896	99
409.12	89
409.344	77
409.567	87
409.791	82
410.014	97
410.238	103
410.461	110
410.685	92
410.908	93
411.132	88
411.355	67
411.578	82
411.802	81
412.025	81
412.249	94
412.472	97
412.695	73
412.919	85
413.142	77
413.365	97
413.589	84
413.812	85
414.035	87
414.258	89
414.482	89
414.705	85
414.928	87
415.151	82
415.374	82
415.597	92
415.821	79
416.044	91
416.267	81
416.49	76
416.713	92
416.936	86
417.159	81
417.382	96
417.605	77
417.828	86
418.051	96
418.274	89
418.497	106
418.72	96
418.943	95
419.166	81
419.389	78
419.611	83
419.834	81
420.057	77
420.28	79
420.503	93
420.726	81
420.948	75
421.171	91
421.394	91
421.617	87
421.839	88
422.062	94
422.285	88
422.507	105
422.73	90
422.953	76
423.175	80
423.398	92
423.621	94
423.843	81
424.066	87
424.288	104
424.511	99
424.733	89
424.956	90
425.178	81
425.401	91
425.623	87
425.846	104
426.068	106
426.291	86
426.513	91
426.735	86
426.958	89
427.18	79
427.402	81
427.625	79
427.847	71
428.069	78
428.292	86
428.514	87
428.736	88
428.958	90
429.181	77
429.403	81
429.625	89
429.847	85
430.069	90
430.292	83
430.514	79
430.736	90
430.958	78
431.18	85
431.402	84
431.624	103
431.846	96
432.068	77
432.29	97
432.512	75
432.734	92
432.956	97
433.178	85
433.4	93
433.622	81
433.844	74
434.066	98
434.287	82
434.509	94
434.731	83
434.953	81
435.175	93
435.397	91
435.618	87
435.84	83
436.062	69
436.284	77
436.505	81
436.727	78
436.949	82
437.17	70
437.392	83
437.614	84
437.835	84
438.057	95
438.278	86
438.5	86
438.721	81
438.943	96
439.165	90
439.386	98
439.608	90
439.829	73
440.05	81
440.272	76
440.493	77
440.715	79
440.936	97
441.158	81
441.379	89
441.6	94
441.822	68
442.043	101
442.264	97
442.486	91
442.707	89
442.928	97
443.149	87
443.371	86
443.592	91
443.813	90
444.034	85
444.255	91
444.476	78
444.698	82
444.919	96
445.14	147
445.361	117
445.582	79
445.803	89
446.024	103
446.245	98
446.466	86
446.687	77
446.908	81
447.129	78
447.35	75
447.571	103
447.792	98
448.013	75
448.234	86
448.455	76
448.675	82
448.896	72
449.117	91
449.338	82
449.559	94
449.779	80
450	95
450.221	79
450.442	79
450.662	70
450.883	90
451.104	74
451.324	87
451.545	86
451.766	86
451.986	89
452.207	80
452.428	85
452.648	89
452.869	90
453.089	79
453.31	77
453.53	77
453.751	88
453.971	87
454.192	80
454.412	77
454.633	73
454.853	77
455.073	86
455.294	90
455.514	81
455.734	97
455.955	94
456.175	77
456.395	77
456.616	81
456.836	86
457.056	103
457.276	71
457.497	72
457.717	82
457.937	85
458.157	68
458.377	88
458.598	79
458.818	91
459.038	84
459.258	89
459.478	81
459.698	87
459.918	75
460.138	102
460.358	98
460.578	95
460.798	81
461.018	95
461.238	82
461.458	93
461.678	105
461.898	93
462.118	85
462.338	96
462.558	78
462.777	72
462.997	81
463.217	91
463.437	84
463.657	101
463.876	79
464.096	89
464.316	113
464.536	87
464.755	78
464.975	94
465.195	88
465.414	92
465.634	77
465.854	91
466.073	88
466.293	108
466.512	69
466.732	78
466.951	94
467.171	88
467.391	84
467.61	86
467.829	88
468.049	86
468.268	88
468.488	96
468.707	80
468.927	95
469.146	86
469.365	87
469.585	82
469.804	93
470.023	79
470.243	98
470.462	86
470.681	88
470.901	98
471.12	69
471.339	87
471.558	93
471.777	91
471.997	97
472.216	83
472.435	82
472.654	81
472.873	87
473.092	71
473.311	81
473.53	90
473.749	90
473.968	89
474.187	83
474.406	88
474.625	74
474.844	84
475.063	79
475.282	81
475.501	82
475.72	86
475.939	79
476.158	98
476.377	82
476.596	73
476.814	70
477.033	67
477.252	86
477.471	88
477.69	80
477.908	82
478.127	93
478.346	76
478.564	98
478.783	87
479.002	91
479.22	90
479.439	76
479.658	90
479.876	92
480.095	92
480.313	98
480.532	91
480.751	115
480.969	86
481.188	91
481.406	80
481.624	73
481.843	72
482.061	95
482.28	92
482.498	83
482.717	96
482.935	94
483.153	91
483.372	88
483.59	79
483.808	71
484.027	87
484.245	90
484.463	82
484.681	96
484.9	90
485.118	94
485.336	97
485.554	91
485.772	85
485.99	102
486.209	91
486.427	84
486.645	82
486.863	85
487.081	89
487.299	86
487.517	87
487.735	101
487.953	90
488.171	103
488.389	87
488.607	87
488.825	83
489.043	81
489.261	79
489.479	75
489.696	80
489.914	86
490.132	96
490.35	88
490.568	87
490.786	83
491.003	81
491.221	86
491.439	84
491.657	82
491.874	91
492.092	72
492.31	101
492.527	91
492.745	98
492.963	96
493.18	99
493.398	81
493.615	95
493.833	89
494.05	90
494.268	88
494.485	102
494.703	92
494.92	87
495.138	89
495.355	96
495.573	87
495.79	86
496.008	85
496.225	85
496.442	81
496.66	95
496.877	77
497.094	90
497.312	108
497.529	86
497.746	97
497.963	85
498.181	88
498.398	87
498.615	83
498.832	89
499.049	92
499.267	84
499.484	95
499.701	90
499.918	103
500.135	97
500.352	101
500.569	111
500.786	117
501.003	94
501.22	94
501.437	94
501.654	98
501.871	79
502.088	91
502.305	94
502.522	103
502.739	101
502.956	79
503.172	81
503.389	94
503.606	87
503.823	81
504.04	70
504.256	92
504.473	90
504.69	85
504.907	98
505.123	81
505.34	90
505.557	83
505.773	90
505.99	89
506.207	90
506.423	87
506.64	89
506.856	89
507.073	89
507.289	89
507.506	78
507.722	81
507.939	87
508.155	91
508.372	93
508.588	87
508.805	81
509.021	95
509.238	93
509.454	95
509.67	102
509.887	85
510.103	92
510.319	79
510.536	79
510.752	87
510.968	78
511.184	89
511.401	89
511.617	90
511.833	92
512.049	85
512.265	96
512.481	82
512.698	95
512.914	74
513.13	87
513.346	102
513.562	80
513.778	75
513.994	77
514.21	106
514.426	75
514.642	83
514.858	76
515.074	84
515.29	92
515.506	83
515.721	96
515.937	97
516.153	98
516.369	77
516.585	89
516.801	86
517.016	82
517.232	74
517.448	88
517.664	99
517.879	95
518.095	85
518.311	102
518.527	94
518.742	90
518.958	83
519.173	90
519.389	88
519.605	77
519.82	91
520.036	89
520.251	109
520.467	100
520.682	83
520.898	81
521.113	95
521.329	90
521.544	76
521.76	77
521.975	98
522.19	80
522.406	87
522.621	90
522.836	84
523.052	106
523.267	82
523.482	102
523.698	91
523.913	97
524.128	89
524.343	85
524.559	81
524.774	93
524.989	81
525.204	82
525.419	85
525.634	91
525.849	93
526.064	83
526.28	109
526.495	89
526.71	92
526.925	88
527.14	80
527.355	92
527.57	78
527.785	92
527.999	90
528.214	87
528.429	91
528.644	87
528.859	85
529.074	81
529.289	93
529.503	79
529.718	83
529.933	88
530.148	85
530.363	91
530.577	87
530.792	78
531.007	77
531.221	90
531.436	89
531.651	93
531.865	79
532.08	94
532.295	89
532.509	81
532.724	75
532.938	82
533.153	97
533.367	85
533.582	108
533.796	88
534.011	83
534.225	90
534.44	91
534.654	77
534.868	98
535.083	96
535.297	96
535.511	88
535.726	98
535.94	101
536.154	87
536.369	73
536.583	82
536.797	89
537.011	79
537.225	93
537.44	89
537.654	86
537.868	74
538.082	81
538.296	76
538.51	94
538.724	92
538.938	94
539.153	92
539.367	85
539.581	88
539.795	92
540.009	82
540.222	88
540.436	89
540.65	91
540.864	81
541.078	85
541.292	89
541.506	94
541.72	85
541.934	96
542.147	81
542.361	96
542.575	78
542.789	95
543.002	85
543.216	90
543.43	75
543.644	83
543.857	111
544.071	96
544.285	79
544.498	79
544.712	90
544.925	94
545.139	82
545.352	74
545.566	91
545.779	95
545.993	91
546.206	87
546.42	107
546.633	92
546.847	94
547.06	92
547.274	72
547.487	94
547.7	71
547.914	88
548.127	84
548.34	92
548.554	84
548.767	81
548.98	97
549.193	97
549.407	85
549.62	82
549.833	103
550.046	90
550.259	92
550.473	90
550.686	90
550.899	103
551.112	81
551.325	92
551.538	82
551.751	92
551.964	97
552.177	87
552.39	97
552.603	95
552.816	87
553.029	81
553.242	87
553.455	91
553.667	100
553.88	89
554.093	88
554.306	93
554.519	89
554.732	91
554.944	102
555.157	88
555.37	96
555.583	77
555.795	79
556.008	96
556.221	93
556.433	84
556.646	86
556.859	99
557.071	79
557.284	79
557.496	85
557.709	76
557.921	86
558.134	85
558.346	94
558.559	85
558.771	80
558.984	74
559.196	90
559.409	97
559.621	88
559.833	96
560.046	80
560.258	79
560.47	83
560.683	91
560.895	87
561.107	93
561.32	92
561.532	98
561.744	82
561.956	89
562.168	92
562.381	98
562.593	90
562.805	73
563.017	80
563.229	87
563.441	102
563.653	91
563.865	97
564.077	90
564.289	91
564.501	87
564.713	80
564.925	87
565.137	91
565.349	84
565.561	105
565.773	99
565.985	90
566.197	86
566.408	96
566.62	98
566.832	93
567.044	86
567.255	85
567.467	86
567.679	78
567.891	94
568.102	103
568.314	98
568.526	81
568.737	91
568.949	89
569.161	87
569.372	83
569.584	99
569.795	88
570.007	96
570.218	90
570.43	84
570.641	96
570.853	89
571.064	101
571.276	94
571.487	85
571.698	96
571.91	89
572.121	82
572.333	80
572.544	89
572.755	85
572.966	88
573.178	84
573.389	93
573.6	90
573.811	76
574.023	77
574.234	85
574.445	79
574.656	89
574.867	84
575.078	88
575.289	96
575.501	94
575.712	86
575.923	80
576.134	89
576.345	82
576.556	69
576.767	89
576.978	82
577.188	89
577.399	95
577.61	89
577.821	86
578.032	87
578.243	88
578.454	83
578.665	83
578.875	93
579.086	81
579.297	79
579.508	85
579.718	86
579.929	90
580.14	93
580.35	97
580.561	89
580.772	90
580.982	80
581.193	85
581.403	95
581.614	90
581.825	90
582.035	94
582.246	98
582.456	103
582.667	79
582.877	79
583.087	62
583.298	79
583.508	78
583.719	86
583.929	109
584.139	89
584.35	83
584.56	81
584.77	103
584.981	84
585.191	92
585.401	92
585.611	84
585.821	92
586.032	82
586.242	89
586.452	105
586.662	101
586.872	77
587.082	91
587.292	85
587.502	86
587.713	87
587.923	83
588.133	75
588.343	90
588.553	75
588.762	89
588.972	74
589.182	89
589.392	82
589.602	92
589.812	94
