Data from BG_HRD10591_069.txt Node
Date: Fri May 16 15:33:41 EDT 2025
User: Yrep
Spectrometer: HR+D1059
Trigger mode: 1
Integration Time (sec): 1.000000E-1
Scans to average: 1
Electric dark correction enabled: true
Nonlinearity correction enabled: false
Boxcar width: 0
XAxis mode: Wavelengths
Number of Pixels in Spectrum: 2048
>>>>>Begin Spectral Data<<<<<
223.165	-31.31
223.4	-31.31
223.635	-31.31
223.869	-8.31
224.104	-21.31
224.338	-10.31
224.573	-16.31
224.808	-15.31
225.042	10.69
225.277	-5.31
225.511	-16.31
225.746	-8.31
225.98	1.69
226.215	12.69
226.449	16.69
226.683	16.69
226.918	30.69
227.152	43.69
227.387	45.69
227.621	35.69
227.856	35.69
228.09	40.69
228.324	57.69
228.559	51.69
228.793	49.69
229.027	46.69
229.262	67.69
229.496	62.69
229.73	55.69
229.964	77.69
230.199	74.69
230.433	61.69
230.667	87.69
230.901	73.69
231.136	86.69
231.37	63.69
231.604	64.69
231.838	76.69
232.072	80.69
232.306	70.69
232.541	71.69
232.775	78.69
233.009	91.69
233.243	70.69
233.477	82.69
233.711	78.69
233.945	72.69
234.179	85.69
234.413	75.69
234.647	81.69
234.881	72.69
235.115	78.69
235.349	88.69
235.583	76.69
235.817	78.69
236.051	80.69
236.285	64.69
236.519	80.69
236.753	73.69
236.987	77.69
237.221	80.69
237.455	83.69
237.689	69.69
237.922	66.69
238.156	65.69
238.39	88.69
238.624	79.69
238.858	71.69
239.091	74.69
239.325	80.69
239.559	74.69
239.793	73.69
240.027	73.69
240.26	74.69
240.494	77.69
240.728	80.69
240.961	72.69
241.195	72.69
241.429	71.69
241.662	83.69
241.896	60.69
242.13	77.69
242.363	75.69
242.597	79.69
242.83	83.69
243.064	69.69
243.298	75.69
243.531	69.69
243.765	77.69
243.998	84.69
244.232	80.69
244.465	79.69
244.699	71.69
244.932	72.69
245.166	74.69
245.399	68.69
245.633	90.69
245.866	72.69
246.099	78.69
246.333	81.69
246.566	70.69
246.8	77.69
247.033	71.69
247.266	65.69
247.5	66.69
247.733	61.69
247.966	63.69
248.2	77.69
248.433	78.69
248.666	72.69
248.899	71.69
249.133	73.69
249.366	89.69
249.599	92.69
249.832	83.69
250.066	72.69
250.299	72.69
250.532	81.69
250.765	81.69
250.998	81.69
251.231	70.69
251.465	77.69
251.698	85.69
251.931	82.69
252.164	86.69
252.397	85.69
252.63	79.69
252.863	86.69
253.096	79.69
253.329	68.69
253.562	72.69
253.795	88.69
254.028	78.69
254.261	71.69
254.494	82.69
254.727	74.69
254.96	78.69
255.193	86.69
255.426	91.69
255.659	71.69
255.892	85.69
256.124	87.69
256.357	88.69
256.59	79.69
256.823	83.69
257.056	74.69
257.289	83.69
257.521	83.69
257.754	85.69
257.987	95.69
258.22	79.69
258.452	87.69
258.685	71.69
258.918	70.69
259.151	75.69
259.383	88.69
259.616	85.69
259.849	73.69
260.081	89.69
260.314	78.69
260.547	73.69
260.779	84.69
261.012	81.69
261.244	88.69
261.477	85.69
261.71	87.69
261.942	73.69
262.175	74.69
262.407	83.69
262.64	84.69
262.872	87.69
263.105	86.69
263.337	74.69
263.57	82.69
263.802	61.69
264.035	76.69
264.267	68.69
264.499	82.69
264.732	74.69
264.964	76.69
265.197	76.69
265.429	86.69
265.661	88.69
265.894	74.69
266.126	86.69
266.358	97.69
266.591	82.69
266.823	80.69
267.055	76.69
267.287	73.69
267.52	78.69
267.752	91.69
267.984	71.69
268.216	82.69
268.448	83.69
268.681	78.69
268.913	81.69
269.145	85.69
269.377	81.69
269.609	71.69
269.841	72.69
270.073	67.69
270.306	95.69
270.538	75.69
270.77	71.69
271.002	89.69
271.234	94.69
271.466	83.69
271.698	79.69
271.93	65.69
272.162	81.69
272.394	70.69
272.626	79.69
272.858	79.69
273.09	77.69
273.322	78.69
273.553	73.69
273.785	75.69
274.017	64.69
274.249	85.69
274.481	92.69
274.713	75.69
274.945	78.69
275.176	87.69
275.408	83.69
275.64	88.69
275.872	66.69
276.104	73.69
276.335	75.69
276.567	86.69
276.799	79.69
277.031	78.69
277.262	81.69
277.494	77.69
277.726	99.69
277.957	83.69
278.189	96.69
278.421	86.69
278.652	79.69
278.884	79.69
279.115	92.69
279.347	82.69
279.579	85.69
279.81	74.69
280.042	91.69
280.273	82.69
280.505	85.69
280.736	90.69
280.968	83.69
281.199	85.69
281.431	82.69
281.662	80.69
281.894	80.69
282.125	78.69
282.356	80.69
282.588	87.69
282.819	78.69
283.051	93.69
283.282	83.69
283.513	87.69
283.745	81.69
283.976	90.69
284.207	77.69
284.439	77.69
284.67	80.69
284.901	71.69
285.132	75.69
285.364	83.69
285.595	80.69
285.826	82.69
286.057	74.69
286.288	81.69
286.52	82.69
286.751	74.69
286.982	76.69
287.213	81.69
287.444	89.69
287.675	75.69
287.906	80.69
288.138	87.69
288.369	92.69
288.6	85.69
288.831	85.69
289.062	93.69
289.293	98.69
289.524	91.69
289.755	89.69
289.986	78.69
290.217	87.69
290.448	84.69
290.679	75.69
290.91	82.69
291.141	99.69
291.371	89.69
291.602	98.69
291.833	73.69
292.064	79.69
292.295	82.69
292.526	94.69
292.757	81.69
292.987	63.69
293.218	73.69
293.449	77.69
293.68	89.69
293.91	93.69
294.141	81.69
294.372	89.69
294.603	69.69
294.833	75.69
295.064	99.69
295.295	95.69
295.525	81.69
295.756	92.69
295.987	72.69
296.217	83.69
296.448	83.69
296.679	78.69
296.909	92.69
297.14	78.69
297.37	82.69
297.601	62.69
297.831	81.69
298.062	71.69
298.292	71.69
298.523	81.69
298.753	76.69
298.984	79.69
299.214	76.69
299.445	81.69
299.675	71.69
299.905	84.69
300.136	73.69
300.366	82.69
300.597	78.69
300.827	87.69
301.057	90.69
301.288	89.69
301.518	83.69
301.748	94.69
301.979	105.69
302.209	84.69
302.439	97.69
302.669	59.69
302.9	80.69
303.13	77.69
303.36	83.69
303.59	87.69
303.82	82.69
304.051	87.69
304.281	85.69
304.511	85.69
304.741	90.69
304.971	87.69
305.201	83.69
305.431	66.69
305.661	90.69
305.891	85.69
306.121	75.69
306.352	94.69
306.582	84.69
306.812	78.69
307.042	74.69
307.272	82.69
307.502	88.69
307.731	82.69
307.961	85.69
308.191	83.69
308.421	81.69
308.651	90.69
308.881	98.69
309.111	92.69
309.341	86.69
309.571	87.69
309.8	75.69
310.03	86.69
310.26	90.69
310.49	76.69
310.72	87.69
310.949	74.69
311.179	82.69
311.409	81.69
311.639	90.69
311.868	93.69
312.098	88.69
312.328	75.69
312.557	63.69
312.787	85.69
313.017	74.69
313.246	82.69
313.476	80.69
313.706	99.69
313.935	78.69
314.165	97.69
314.394	87.69
314.624	88.69
314.853	81.69
315.083	86.69
315.312	80.69
315.542	98.69
315.771	89.69
316.001	96.69
316.23	81.69
316.46	93.69
316.689	97.69
316.919	86.69
317.148	80.69
317.377	99.69
317.607	87.69
317.836	80.69
318.065	81.69
318.295	76.69
318.524	80.69
318.753	85.69
318.983	74.69
319.212	79.69
319.441	85.69
319.67	79.69
319.9	81.69
320.129	83.69
320.358	83.69
320.587	83.69
320.816	85.69
321.046	83.69
321.275	71.69
321.504	92.69
321.733	85.69
321.962	86.69
322.191	81.69
322.42	95.69
322.649	87.69
322.878	73.69
323.108	96.69
323.337	79.69
323.566	66.69
323.795	79.69
324.024	80.69
324.253	90.69
324.482	85.69
324.71	91.69
324.939	89.69
325.168	83.69
325.397	65.69
325.626	96.69
325.855	87.69
326.084	80.69
326.313	79.69
326.542	81.69
326.77	74.69
326.999	89.69
327.228	85.69
327.457	77.69
327.686	93.69
327.914	75.69
328.143	81.69
328.372	81.69
328.6	68.69
328.829	75.69
329.058	84.69
329.287	103.69
329.515	92.69
329.744	85.69
329.972	81.69
330.201	84.69
330.43	97.69
330.658	64.69
330.887	78.69
331.115	75.69
331.344	84.69
331.572	81.69
331.801	86.69
332.03	77.69
332.258	80.69
332.486	85.69
332.715	75.69
332.943	89.69
333.172	82.69
333.4	88.69
333.629	87.69
333.857	93.69
334.085	94.69
334.314	75.69
334.542	84.69
334.771	82.69
334.999	83.69
335.227	75.69
335.455	79.69
335.684	109.69
335.912	80.69
336.14	91.69
336.369	84.69
336.597	91.69
336.825	72.69
337.053	83.69
337.281	90.69
337.51	71.69
337.738	95.69
337.966	86.69
338.194	83.69
338.422	71.69
338.65	65.69
338.878	82.69
339.106	86.69
339.334	85.69
339.562	86.69
339.79	83.69
340.018	77.69
340.246	87.69
340.474	89.69
340.702	82.69
340.93	81.69
341.158	84.69
341.386	89.69
341.614	87.69
341.842	90.69
342.07	93.69
342.298	87.69
342.526	85.69
342.754	83.69
342.981	65.69
343.209	82.69
343.437	93.69
343.665	76.69
343.893	81.69
344.12	74.69
344.348	92.69
344.576	76.69
344.804	98.69
345.031	90.69
345.259	81.69
345.487	79.69
345.714	89.69
345.942	81.69
346.17	77.69
346.397	82.69
346.625	85.69
346.853	81.69
347.08	74.69
347.308	82.69
347.535	78.69
347.763	74.69
347.99	89.69
348.218	81.69
348.445	87.69
348.673	84.69
348.9	75.69
349.128	84.69
349.355	83.69
349.583	77.69
349.81	75.69
350.037	79.69
350.265	84.69
350.492	78.69
350.72	74.69
350.947	87.69
351.174	80.69
351.402	82.69
351.629	78.69
351.856	77.69
352.083	87.69
352.311	76.69
352.538	61.69
352.765	87.69
352.992	88.69
353.22	90.69
353.447	72.69
353.674	81.69
353.901	93.69
354.128	91.69
354.355	96.69
354.583	90.69
354.81	86.69
355.037	81.69
355.264	77.69
355.491	90.69
355.718	75.69
355.945	67.69
356.172	86.69
356.399	79.69
356.626	85.69
356.853	77.69
357.08	89.69
357.307	83.69
357.534	79.69
357.761	77.69
357.988	68.69
358.215	75.69
358.441	77.69
358.668	83.69
358.895	94.69
359.122	77.69
359.349	78.69
359.576	83.69
359.802	83.69
360.029	83.69
360.256	73.69
360.483	85.69
360.709	79.69
360.936	76.69
361.163	77.69
361.39	78.69
361.616	79.69
361.843	86.69
362.07	79.69
362.296	79.69
362.523	68.69
362.749	79.69
362.976	86.69
363.203	85.69
363.429	77.69
363.656	78.69
363.882	85.69
364.109	91.69
364.335	88.69
364.562	70.69
364.788	82.69
365.015	82.69
365.241	86.69
365.468	96.69
365.694	79.69
365.92	75.69
366.147	74.69
366.373	81.69
366.599	73.69
366.826	80.69
367.052	83.69
367.278	91.69
367.505	82.69
367.731	88.69
367.957	80.69
368.184	93.69
368.41	89.69
368.636	80.69
368.862	77.69
369.089	85.69
369.315	82.69
369.541	69.69
369.767	89.69
369.993	74.69
370.219	82.69
370.445	85.69
370.672	78.69
370.898	82.69
371.124	75.69
371.35	61.69
371.576	73.69
371.802	86.69
372.028	74.69
372.254	69.69
372.48	66.69
372.706	79.69
372.932	79.69
373.158	73.69
373.384	86.69
373.61	81.69
373.835	78.69
374.061	101.69
374.287	86.69
374.513	93.69
374.739	89.69
374.965	90.69
375.191	80.69
375.416	77.69
375.642	75.69
375.868	81.69
376.094	81.69
376.319	77.69
376.545	84.69
376.771	84.69
376.997	76.69
377.222	65.69
377.448	83.69
377.674	83.69
377.899	82.69
378.125	77.69
378.35	74.69
378.576	73.69
378.802	79.69
379.027	101.69
379.253	73.69
379.478	81.69
379.704	78.69
379.929	78.69
380.155	88.69
380.38	86.69
380.606	84.69
380.831	95.69
381.057	95.69
381.282	82.69
381.507	84.69
381.733	81.69
381.958	91.69
382.184	79.69
382.409	85.69
382.634	81.69
382.86	77.69
383.085	92.69
383.31	78.69
383.535	86.69
383.761	80.69
383.986	86.69
384.211	88.69
384.436	79.69
384.662	76.69
384.887	76.69
385.112	88.69
385.337	75.69
385.562	94.69
385.787	98.69
386.013	86.69
386.238	81.69
386.463	75.69
386.688	79.69
386.913	97.69
387.138	83.69
387.363	68.69
387.588	83.69
387.813	85.69
388.038	80.69
388.263	109.69
388.488	87.69
388.713	84.69
388.938	89.69
389.163	82.69
389.387	70.69
389.612	85.69
389.837	71.69
390.062	81.69
390.287	96.69
390.512	85.69
390.736	84.69
390.961	88.69
391.186	85.69
391.411	78.69
391.636	73.69
391.86	74.69
392.085	89.69
392.31	88.69
392.534	65.69
392.759	78.69
392.984	70.69
393.208	77.69
393.433	78.69
393.658	92.69
393.882	79.69
394.107	88.69
394.331	88.69
394.556	96.69
394.78	85.69
395.005	81.69
395.229	66.69
395.454	97.69
395.678	83.69
395.903	88.69
396.127	79.69
396.352	80.69
396.576	76.69
396.801	89.69
397.025	101.69
397.249	74.69
397.474	71.69
397.698	94.69
397.922	82.69
398.147	74.69
398.371	78.69
398.595	81.69
398.82	74.69
399.044	80.69
399.268	82.69
399.492	78.69
399.717	77.69
399.941	65.69
400.165	91.69
400.389	77.69
400.613	83.69
400.837	81.69
401.062	84.69
401.286	82.69
401.51	69.69
401.734	89.69
401.958	75.69
402.182	85.69
402.406	67.69
402.63	62.69
402.854	75.69
403.078	75.69
403.302	86.69
403.526	92.69
403.75	90.69
403.974	89.69
404.198	89.69
404.422	68.69
404.645	74.69
404.869	78.69
405.093	80.69
405.317	83.69
405.541	84.69
405.765	86.69
405.988	92.69
406.212	91.69
406.436	64.69
406.66	82.69
406.883	86.69
407.107	88.69
407.331	73.69
407.555	80.69
407.778	78.69
408.002	76.69
408.226	76.69
408.449	91.69
408.673	80.69
408.896	82.69
409.12	72.69
409.344	80.69
409.567	78.69
409.791	71.69
410.014	86.69
410.238	79.69
410.461	89.69
410.685	97.69
410.908	86.69
411.132	71.69
411.355	76.69
411.578	93.69
411.802	82.69
412.025	70.69
412.249	71.69
412.472	65.69
412.695	74.69
412.919	89.69
413.142	78.69
413.365	83.69
413.589	77.69
413.812	81.69
414.035	63.69
414.258	69.69
414.482	73.69
414.705	74.69
414.928	87.69
415.151	73.69
415.374	75.69
415.597	83.69
415.821	90.69
416.044	68.69
416.267	87.69
416.49	86.69
416.713	70.69
416.936	84.69
417.159	66.69
417.382	77.69
417.605	57.69
417.828	81.69
418.051	69.69
418.274	72.69
418.497	85.69
418.72	78.69
418.943	73.69
419.166	77.69
419.389	89.69
419.611	73.69
419.834	74.69
420.057	77.69
420.28	77.69
420.503	75.69
420.726	78.69
420.948	75.69
421.171	86.69
421.394	70.69
421.617	80.69
421.839	79.69
422.062	70.69
422.285	70.69
422.507	82.69
422.73	75.69
422.953	79.69
423.175	81.69
423.398	94.69
423.621	79.69
423.843	65.69
424.066	71.69
424.288	74.69
424.511	86.69
424.733	90.69
424.956	86.69
425.178	77.69
425.401	67.69
425.623	77.69
425.846	85.69
426.068	80.69
426.291	79.69
426.513	83.69
426.735	85.69
426.958	79.69
427.18	91.69
427.402	100.69
427.625	87.69
427.847	77.69
428.069	87.69
428.292	79.69
428.514	72.69
428.736	101.69
428.958	91.69
429.181	87.69
429.403	93.69
429.625	75.69
429.847	82.69
430.069	83.69
430.292	76.69
430.514	80.69
430.736	85.69
430.958	95.69
431.18	77.69
431.402	75.69
431.624	75.69
431.846	69.69
432.068	86.69
432.29	62.69
432.512	78.69
432.734	80.69
432.956	85.69
433.178	88.69
433.4	79.69
433.622	69.69
433.844	78.69
434.066	96.69
434.287	77.69
434.509	81.69
434.731	95.69
434.953	71.69
435.175	73.69
435.397	75.69
435.618	71.69
435.84	85.69
436.062	89.69
436.284	76.69
436.505	73.69
436.727	84.69
436.949	66.69
437.17	66.69
437.392	86.69
437.614	74.69
437.835	78.69
438.057	88.69
438.278	87.69
438.5	86.69
438.721	92.69
438.943	78.69
439.165	80.69
439.386	81.69
439.608	94.69
439.829	86.69
440.05	74.69
440.272	77.69
440.493	76.69
440.715	85.69
440.936	82.69
441.158	80.69
441.379	77.69
441.6	85.69
441.822	89.69
442.043	76.69
442.264	75.69
442.486	99.69
442.707	72.69
442.928	81.69
443.149	83.69
443.371	80.69
443.592	81.69
443.813	75.69
444.034	80.69
444.255	78.69
444.476	76.69
444.698	82.69
444.919	77.69
445.14	150.69
445.361	117.69
445.582	96.69
445.803	75.69
446.024	88.69
446.245	83.69
446.466	84.69
446.687	83.69
446.908	83.69
447.129	73.69
447.35	75.69
447.571	72.69
447.792	86.69
448.013	73.69
448.234	80.69
448.455	83.69
448.675	90.69
448.896	84.69
449.117	71.69
449.338	83.69
449.559	92.69
449.779	85.69
450	87.69
450.221	73.69
450.442	81.69
450.662	82.69
450.883	101.69
451.104	85.69
451.324	83.69
451.545	81.69
451.766	86.69
451.986	89.69
452.207	77.69
452.428	90.69
452.648	81.69
452.869	81.69
453.089	82.69
453.31	69.69
453.53	82.69
453.751	71.69
453.971	87.69
454.192	80.69
454.412	83.69
454.633	87.69
454.853	81.69
455.073	86.69
455.294	82.69
455.514	81.69
455.734	86.69
455.955	72.69
456.175	86.69
456.395	84.69
456.616	69.69
456.836	93.69
457.056	78.69
457.276	88.69
457.497	72.69
457.717	76.69
457.937	79.69
458.157	87.69
458.377	95.69
458.598	77.69
458.818	74.69
459.038	73.69
459.258	89.69
459.478	86.69
459.698	83.69
459.918	82.69
460.138	89.69
460.358	73.69
460.578	79.69
460.798	80.69
461.018	81.69
461.238	86.69
461.458	84.69
461.678	81.69
461.898	87.69
462.118	76.69
462.338	69.69
462.558	88.69
462.777	82.69
462.997	72.69
463.217	87.69
463.437	71.69
463.657	73.69
463.876	82.69
464.096	83.69
464.316	71.69
464.536	80.69
464.755	90.69
464.975	76.69
465.195	95.69
465.414	81.69
465.634	79.69
465.854	74.69
466.073	89.69
466.293	80.69
466.512	75.69
466.732	85.69
466.951	70.69
467.171	91.69
467.391	88.69
467.61	81.69
467.829	85.69
468.049	82.69
468.268	81.69
468.488	78.69
468.707	92.69
468.927	72.69
469.146	88.69
469.365	71.69
469.585	97.69
469.804	86.69
470.023	68.69
470.243	86.69
470.462	82.69
470.681	94.69
470.901	74.69
471.12	90.69
471.339	93.69
471.558	79.69
471.777	83.69
471.997	86.69
472.216	82.69
472.435	86.69
472.654	85.69
472.873	80.69
473.092	94.69
473.311	94.69
473.53	87.69
473.749	83.69
473.968	80.69
474.187	81.69
474.406	82.69
474.625	89.69
474.844	97.69
475.063	65.69
475.282	68.69
475.501	81.69
475.72	89.69
475.939	89.69
476.158	64.69
476.377	83.69
476.596	76.69
476.814	71.69
477.033	89.69
477.252	72.69
477.471	80.69
477.69	69.69
477.908	78.69
478.127	82.69
478.346	97.69
478.564	77.69
478.783	78.69
479.002	77.69
479.22	83.69
479.439	82.69
479.658	84.69
479.876	75.69
480.095	77.69
480.313	73.69
480.532	105.69
480.751	86.69
480.969	71.69
481.188	75.69
481.406	72.69
481.624	88.69
481.843	74.69
482.061	74.69
482.28	82.69
482.498	73.69
482.717	71.69
482.935	72.69
483.153	85.69
483.372	91.69
483.59	93.69
483.808	88.69
484.027	84.69
484.245	82.69
484.463	81.69
484.681	83.69
484.9	75.69
485.118	82.69
485.336	83.69
485.554	79.69
485.772	85.69
485.99	83.69
486.209	90.69
486.427	77.69
486.645	81.69
486.863	77.69
487.081	74.69
487.299	81.69
487.517	81.69
487.735	76.69
487.953	86.69
488.171	80.69
488.389	94.69
488.607	73.69
488.825	82.69
489.043	58.69
489.261	73.69
489.479	74.69
489.696	75.69
489.914	74.69
490.132	81.69
490.35	74.69
490.568	73.69
490.786	76.69
491.003	83.69
491.221	83.69
491.439	77.69
491.657	73.69
491.874	65.69
492.092	68.69
492.31	83.69
492.527	87.69
492.745	85.69
492.963	79.69
493.18	85.69
493.398	93.69
493.615	86.69
493.833	81.69
494.05	85.69
494.268	87.69
494.485	71.69
494.703	79.69
494.92	86.69
495.138	75.69
495.355	80.69
495.573	86.69
495.79	69.69
496.008	81.69
496.225	80.69
496.442	89.69
496.66	80.69
496.877	80.69
497.094	76.69
497.312	78.69
497.529	81.69
497.746	86.69
497.963	83.69
498.181	68.69
498.398	69.69
498.615	83.69
498.832	70.69
499.049	84.69
499.267	90.69
499.484	75.69
499.701	89.69
499.918	75.69
500.135	65.69
500.352	88.69
500.569	78.69
500.786	104.69
501.003	89.69
501.22	63.69
501.437	79.69
501.654	88.69
501.871	66.69
502.088	69.69
502.305	92.69
502.522	88.69
502.739	90.69
502.956	80.69
503.172	90.69
503.389	77.69
503.606	92.69
503.823	77.69
504.04	85.69
504.256	73.69
504.473	70.69
504.69	89.69
504.907	85.69
505.123	78.69
505.34	92.69
505.557	85.69
505.773	73.69
505.99	79.69
506.207	90.69
506.423	81.69
506.64	90.69
506.856	76.69
507.073	79.69
507.289	88.69
507.506	85.69
507.722	75.69
507.939	87.69
508.155	88.69
508.372	70.69
508.588	71.69
508.805	89.69
509.021	77.69
509.238	91.69
509.454	83.69
509.67	68.69
509.887	79.69
510.103	70.69
510.319	79.69
510.536	80.69
510.752	83.69
510.968	80.69
511.184	72.69
511.401	89.69
511.617	73.69
511.833	80.69
512.049	83.69
512.265	85.69
512.481	85.69
512.698	76.69
512.914	65.69
513.13	85.69
513.346	71.69
513.562	79.69
513.778	80.69
513.994	71.69
514.21	89.69
514.426	70.69
514.642	86.69
514.858	83.69
515.074	93.69
515.29	90.69
515.506	65.69
515.721	79.69
515.937	73.69
516.153	96.69
516.369	66.69
516.585	75.69
516.801	85.69
517.016	84.69
517.232	82.69
517.448	73.69
517.664	82.69
517.879	103.69
518.095	78.69
518.311	75.69
518.527	84.69
518.742	81.69
518.958	71.69
519.173	69.69
519.389	82.69
519.605	80.69
519.82	68.69
520.036	75.69
520.251	82.69
