Data from BG_HRD10591_055.txt Node
Date: Fri May 16 15:33:34 EDT 2025
User: Yrep
Spectrometer: HR+D1059
Trigger mode: 1
Integration Time (sec): 1.000000E-1
Scans to average: 1
Electric dark correction enabled: true
Nonlinearity correction enabled: false
Boxcar width: 0
XAxis mode: Wavelengths
Number of Pixels in Spectrum: 2048
>>>>>Begin Spectral Data<<<<<
223.165	-0.06
223.4	-0.06
223.635	-0.06
223.869	-17.06
224.104	-19.06
224.338	-28.06
224.573	-18.06
224.808	-15.06
225.042	-10.06
225.277	-7.06
225.511	-12.06
225.746	8.94
225.98	16.94
226.215	23.94
226.449	15.94
226.683	14.94
226.918	16.94
227.152	28.94
227.387	39.94
227.621	41.94
227.856	45.94
228.09	47.94
228.324	54.94
228.559	73.94
228.793	62.94
229.027	67.94
229.262	56.94
229.496	51.94
229.73	65.94
229.964	70.94
230.199	68.94
230.433	71.94
230.667	59.94
230.901	81.94
231.136	79.94
231.37	93.94
231.604	81.94
231.838	89.94
232.072	75.94
232.306	75.94
232.541	72.94
232.775	75.94
233.009	75.94
233.243	90.94
233.477	73.94
233.711	80.94
233.945	95.94
234.179	79.94
234.413	83.94
234.647	72.94
234.881	77.94
235.115	84.94
235.349	74.94
235.583	73.94
235.817	84.94
236.051	84.94
236.285	64.94
236.519	88.94
236.753	81.94
236.987	90.94
237.221	82.94
237.455	68.94
237.689	74.94
237.922	72.94
238.156	72.94
238.39	72.94
238.624	75.94
238.858	67.94
239.091	72.94
239.325	64.94
239.559	69.94
239.793	73.94
240.027	64.94
240.26	67.94
240.494	82.94
240.728	75.94
240.961	79.94
241.195	72.94
241.429	85.94
241.662	54.94
241.896	78.94
242.13	71.94
242.363	83.94
242.597	76.94
242.83	84.94
243.064	63.94
243.298	74.94
243.531	81.94
243.765	86.94
243.998	75.94
244.232	85.94
244.465	74.94
244.699	57.94
244.932	75.94
245.166	75.94
245.399	72.94
245.633	73.94
245.866	85.94
246.099	79.94
246.333	87.94
246.566	88.94
246.8	78.94
247.033	82.94
247.266	80.94
247.5	74.94
247.733	80.94
247.966	85.94
248.2	83.94
248.433	75.94
248.666	61.94
248.899	72.94
249.133	75.94
249.366	79.94
249.599	72.94
249.832	69.94
250.066	84.94
250.299	71.94
250.532	74.94
250.765	83.94
250.998	87.94
251.231	77.94
251.465	85.94
251.698	75.94
251.931	71.94
252.164	71.94
252.397	88.94
252.63	75.94
252.863	88.94
253.096	84.94
253.329	88.94
253.562	84.94
253.795	85.94
254.028	89.94
254.261	76.94
254.494	69.94
254.727	82.94
254.96	87.94
255.193	79.94
255.426	77.94
255.659	76.94
255.892	75.94
256.124	70.94
256.357	67.94
256.59	77.94
256.823	76.94
257.056	71.94
257.289	67.94
257.521	75.94
257.754	66.94
257.987	71.94
258.22	80.94
258.452	80.94
258.685	77.94
258.918	81.94
259.151	89.94
259.383	80.94
259.616	84.94
259.849	91.94
260.081	72.94
260.314	69.94
260.547	72.94
260.779	94.94
261.012	76.94
261.244	77.94
261.477	79.94
261.71	87.94
261.942	82.94
262.175	74.94
262.407	79.94
262.64	58.94
262.872	83.94
263.105	78.94
263.337	85.94
263.57	82.94
263.802	78.94
264.035	77.94
264.267	72.94
264.499	71.94
264.732	69.94
264.964	97.94
265.197	88.94
265.429	101.94
265.661	75.94
265.894	77.94
266.126	81.94
266.358	78.94
266.591	92.94
266.823	81.94
267.055	83.94
267.287	83.94
267.52	76.94
267.752	88.94
267.984	88.94
268.216	88.94
268.448	80.94
268.681	85.94
268.913	83.94
269.145	80.94
269.377	72.94
269.609	70.94
269.841	82.94
270.073	86.94
270.306	83.94
270.538	84.94
270.77	71.94
271.002	76.94
271.234	87.94
271.466	92.94
271.698	75.94
271.93	94.94
272.162	83.94
272.394	99.94
272.626	69.94
272.858	80.94
273.09	81.94
273.322	72.94
273.553	76.94
273.785	90.94
274.017	87.94
274.249	89.94
274.481	83.94
274.713	79.94
274.945	85.94
275.176	71.94
275.408	79.94
275.64	81.94
275.872	84.94
276.104	80.94
276.335	74.94
276.567	91.94
276.799	77.94
277.031	88.94
277.262	80.94
277.494	83.94
277.726	81.94
277.957	88.94
278.189	85.94
278.421	93.94
278.652	77.94
278.884	82.94
279.115	76.94
279.347	69.94
279.579	85.94
279.81	92.94
280.042	89.94
280.273	85.94
280.505	81.94
280.736	87.94
280.968	73.94
281.199	96.94
281.431	85.94
281.662	85.94
281.894	79.94
282.125	73.94
282.356	76.94
282.588	86.94
282.819	83.94
283.051	78.94
283.282	75.94
283.513	79.94
283.745	96.94
283.976	88.94
284.207	76.94
284.439	79.94
284.67	80.94
284.901	83.94
285.132	90.94
285.364	83.94
285.595	80.94
285.826	91.94
286.057	90.94
286.288	79.94
286.52	76.94
286.751	89.94
286.982	86.94
287.213	89.94
287.444	85.94
287.675	87.94
287.906	104.94
288.138	87.94
288.369	101.94
288.6	92.94
288.831	71.94
289.062	88.94
289.293	96.94
289.524	74.94
289.755	88.94
289.986	94.94
290.217	77.94
290.448	85.94
290.679	78.94
290.91	81.94
291.141	92.94
291.371	89.94
291.602	74.94
291.833	81.94
292.064	77.94
292.295	83.94
292.526	86.94
292.757	77.94
292.987	84.94
293.218	80.94
293.449	82.94
293.68	88.94
293.91	83.94
294.141	83.94
294.372	84.94
294.603	96.94
294.833	87.94
295.064	71.94
295.295	79.94
295.525	93.94
295.756	90.94
295.987	79.94
296.217	83.94
296.448	88.94
296.679	96.94
296.909	79.94
297.14	83.94
297.37	63.94
297.601	81.94
297.831	75.94
298.062	88.94
298.292	77.94
298.523	83.94
298.753	96.94
298.984	71.94
299.214	77.94
299.445	94.94
299.675	89.94
299.905	70.94
300.136	80.94
300.366	83.94
300.597	98.94
300.827	91.94
301.057	87.94
301.288	81.94
301.518	86.94
301.748	61.94
301.979	98.94
302.209	92.94
302.439	63.94
302.669	87.94
302.9	81.94
303.13	82.94
303.36	83.94
303.59	84.94
303.82	92.94
304.051	94.94
304.281	78.94
304.511	83.94
304.741	88.94
304.971	85.94
305.201	74.94
305.431	101.94
305.661	91.94
305.891	94.94
306.121	92.94
306.352	88.94
306.582	75.94
306.812	88.94
307.042	92.94
307.272	98.94
307.502	80.94
307.731	86.94
307.961	80.94
308.191	82.94
308.421	91.94
308.651	86.94
308.881	85.94
309.111	97.94
309.341	78.94
309.571	86.94
309.8	104.94
310.03	73.94
310.26	90.94
310.49	93.94
310.72	72.94
310.949	89.94
311.179	69.94
311.409	84.94
311.639	76.94
311.868	93.94
312.098	80.94
312.328	85.94
312.557	84.94
312.787	99.94
313.017	95.94
313.246	96.94
313.476	94.94
313.706	87.94
313.935	101.94
314.165	80.94
314.394	83.94
314.624	77.94
314.853	81.94
315.083	85.94
315.312	98.94
315.542	85.94
315.771	80.94
316.001	83.94
316.23	93.94
316.46	90.94
316.689	86.94
316.919	83.94
317.148	79.94
317.377	80.94
317.607	86.94
317.836	89.94
318.065	77.94
318.295	81.94
318.524	87.94
318.753	99.94
318.983	82.94
319.212	85.94
319.441	91.94
319.67	80.94
319.9	77.94
320.129	77.94
320.358	81.94
320.587	88.94
320.816	79.94
321.046	82.94
321.275	77.94
321.504	95.94
321.733	89.94
321.962	74.94
322.191	81.94
322.42	88.94
322.649	96.94
322.878	84.94
323.108	99.94
323.337	87.94
323.566	78.94
323.795	95.94
324.024	85.94
324.253	82.94
324.482	79.94
324.71	84.94
324.939	88.94
325.168	95.94
325.397	94.94
325.626	92.94
325.855	79.94
326.084	71.94
326.313	67.94
326.542	82.94
326.77	81.94
326.999	104.94
327.228	87.94
327.457	93.94
327.686	87.94
327.914	72.94
328.143	90.94
328.372	84.94
328.6	88.94
328.829	81.94
329.058	83.94
329.287	81.94
329.515	87.94
329.744	88.94
329.972	92.94
330.201	81.94
330.43	93.94
330.658	85.94
330.887	100.94
331.115	76.94
331.344	78.94
331.572	82.94
331.801	79.94
332.03	89.94
332.258	75.94
332.486	85.94
332.715	82.94
332.943	88.94
333.172	82.94
333.4	88.94
333.629	85.94
333.857	90.94
334.085	87.94
334.314	89.94
334.542	89.94
334.771	81.94
334.999	79.94
335.227	89.94
335.455	89.94
335.684	85.94
335.912	89.94
336.14	75.94
336.369	102.94
336.597	88.94
336.825	83.94
337.053	74.94
337.281	70.94
337.51	90.94
337.738	87.94
337.966	78.94
338.194	84.94
338.422	94.94
338.65	95.94
338.878	88.94
339.106	93.94
339.334	79.94
339.562	99.94
339.79	95.94
340.018	86.94
340.246	83.94
340.474	76.94
340.702	79.94
340.93	83.94
341.158	82.94
341.386	82.94
341.614	97.94
341.842	78.94
342.07	93.94
342.298	78.94
342.526	74.94
342.754	77.94
342.981	88.94
343.209	85.94
343.437	108.94
343.665	72.94
343.893	80.94
344.12	93.94
344.348	86.94
344.576	89.94
344.804	73.94
345.031	88.94
345.259	81.94
345.487	88.94
345.714	73.94
345.942	84.94
346.17	80.94
346.397	79.94
346.625	79.94
346.853	88.94
347.08	97.94
347.308	89.94
347.535	86.94
347.763	96.94
347.99	87.94
348.218	91.94
348.445	87.94
348.673	78.94
348.9	81.94
349.128	98.94
349.355	80.94
349.583	67.94
349.81	94.94
350.037	85.94
350.265	84.94
350.492	84.94
350.72	74.94
350.947	81.94
351.174	79.94
351.402	72.94
351.629	82.94
351.856	96.94
352.083	86.94
352.311	88.94
352.538	83.94
352.765	80.94
352.992	90.94
353.22	100.94
353.447	91.94
353.674	85.94
353.901	76.94
354.128	86.94
354.355	76.94
354.583	95.94
354.81	80.94
355.037	97.94
355.264	103.94
355.491	77.94
355.718	85.94
355.945	83.94
356.172	83.94
356.399	86.94
356.626	86.94
356.853	74.94
357.08	77.94
357.307	88.94
357.534	78.94
357.761	89.94
357.988	83.94
358.215	90.94
358.441	85.94
358.668	83.94
358.895	73.94
359.122	80.94
359.349	90.94
359.576	75.94
359.802	77.94
360.029	96.94
360.256	86.94
360.483	87.94
360.709	76.94
360.936	75.94
361.163	84.94
361.39	90.94
361.616	79.94
361.843	88.94
362.07	92.94
362.296	91.94
362.523	91.94
362.749	72.94
362.976	78.94
363.203	90.94
363.429	73.94
363.656	91.94
363.882	96.94
364.109	97.94
364.335	81.94
364.562	86.94
364.788	87.94
365.015	88.94
365.241	89.94
365.468	89.94
365.694	71.94
365.92	91.94
366.147	87.94
366.373	83.94
366.599	85.94
366.826	81.94
367.052	84.94
367.278	75.94
367.505	87.94
367.731	95.94
367.957	84.94
368.184	83.94
368.41	82.94
368.636	81.94
368.862	87.94
369.089	75.94
369.315	89.94
369.541	81.94
369.767	80.94
369.993	91.94
370.219	96.94
370.445	80.94
370.672	83.94
370.898	79.94
371.124	76.94
371.35	87.94
371.576	89.94
371.802	93.94
372.028	83.94
372.254	78.94
372.48	85.94
372.706	68.94
372.932	86.94
373.158	80.94
373.384	84.94
373.61	76.94
373.835	88.94
374.061	80.94
374.287	89.94
374.513	75.94
374.739	79.94
374.965	80.94
375.191	96.94
375.416	83.94
375.642	87.94
375.868	88.94
376.094	93.94
376.319	85.94
376.545	74.94
376.771	85.94
376.997	81.94
377.222	72.94
377.448	80.94
377.674	84.94
377.899	86.94
378.125	90.94
378.35	91.94
378.576	88.94
378.802	69.94
379.027	78.94
379.253	69.94
379.478	85.94
379.704	97.94
379.929	82.94
380.155	81.94
380.38	85.94
380.606	86.94
380.831	89.94
381.057	92.94
381.282	77.94
381.507	82.94
381.733	94.94
381.958	90.94
382.184	72.94
382.409	71.94
382.634	76.94
382.86	94.94
383.085	92.94
383.31	93.94
383.535	94.94
383.761	88.94
383.986	73.94
384.211	76.94
384.436	75.94
384.662	89.94
384.887	94.94
385.112	87.94
385.337	94.94
385.562	82.94
385.787	87.94
386.013	81.94
386.238	81.94
386.463	94.94
386.688	98.94
386.913	99.94
387.138	91.94
387.363	94.94
387.588	89.94
387.813	85.94
388.038	98.94
388.263	93.94
388.488	83.94
388.713	81.94
388.938	95.94
389.163	74.94
389.387	79.94
389.612	81.94
389.837	81.94
390.062	84.94
390.287	91.94
390.512	93.94
390.736	97.94
390.961	77.94
391.186	91.94
391.411	99.94
391.636	80.94
391.86	93.94
392.085	104.94
392.31	79.94
392.534	87.94
392.759	80.94
392.984	83.94
393.208	75.94
393.433	81.94
393.658	94.94
393.882	76.94
394.107	81.94
394.331	91.94
394.556	76.94
394.78	87.94
395.005	99.94
395.229	89.94
395.454	89.94
395.678	93.94
395.903	84.94
396.127	84.94
396.352	83.94
396.576	73.94
396.801	83.94
397.025	81.94
397.249	85.94
397.474	83.94
397.698	87.94
397.922	62.94
398.147	78.94
398.371	82.94
398.595	82.94
398.82	97.94
399.044	86.94
399.268	90.94
399.492	89.94
399.717	104.94
399.941	84.94
400.165	76.94
400.389	90.94
400.613	75.94
400.837	79.94
401.062	83.94
401.286	88.94
401.51	86.94
401.734	75.94
401.958	84.94
402.182	92.94
402.406	82.94
402.63	81.94
402.854	80.94
403.078	92.94
403.302	82.94
403.526	85.94
403.75	92.94
403.974	92.94
404.198	84.94
404.422	75.94
404.645	93.94
404.869	93.94
405.093	95.94
405.317	98.94
405.541	89.94
405.765	90.94
405.988	81.94
406.212	83.94
406.436	73.94
406.66	93.94
406.883	93.94
407.107	78.94
407.331	85.94
407.555	92.94
407.778	92.94
408.002	82.94
408.226	97.94
408.449	91.94
408.673	70.94
408.896	83.94
409.12	83.94
409.344	91.94
409.567	85.94
409.791	88.94
410.014	87.94
410.238	92.94
410.461	84.94
410.685	92.94
410.908	87.94
411.132	87.94
411.355	80.94
411.578	107.94
411.802	76.94
412.025	80.94
412.249	93.94
412.472	92.94
412.695	78.94
412.919	94.94
413.142	94.94
413.365	91.94
413.589	88.94
413.812	86.94
414.035	81.94
414.258	76.94
414.482	91.94
414.705	80.94
414.928	101.94
415.151	80.94
415.374	77.94
415.597	88.94
415.821	83.94
416.044	85.94
416.267	91.94
416.49	94.94
416.713	74.94
416.936	93.94
417.159	78.94
417.382	67.94
417.605	89.94
417.828	89.94
418.051	88.94
418.274	91.94
418.497	81.94
418.72	77.94
418.943	83.94
419.166	79.94
419.389	71.94
419.611	99.94
419.834	80.94
420.057	85.94
420.28	79.94
420.503	81.94
420.726	88.94
420.948	67.94
421.171	88.94
421.394	83.94
421.617	103.94
421.839	81.94
422.062	76.94
422.285	81.94
422.507	86.94
422.73	90.94
422.953	96.94
423.175	87.94
423.398	75.94
423.621	87.94
423.843	82.94
424.066	78.94
424.288	78.94
424.511	79.94
424.733	79.94
424.956	87.94
425.178	92.94
425.401	92.94
425.623	88.94
425.846	105.94
426.068	80.94
426.291	79.94
426.513	81.94
426.735	81.94
426.958	93.94
427.18	90.94
427.402	91.94
427.625	81.94
427.847	80.94
428.069	86.94
428.292	73.94
428.514	88.94
428.736	83.94
428.958	71.94
429.181	92.94
429.403	82.94
429.625	109.94
429.847	87.94
430.069	70.94
430.292	72.94
430.514	76.94
430.736	78.94
430.958	95.94
431.18	105.94
431.402	93.94
431.624	92.94
431.846	79.94
432.068	93.94
432.29	88.94
432.512	100.94
432.734	79.94
432.956	79.94
433.178	111.94
433.4	81.94
433.622	87.94
433.844	99.94
434.066	84.94
434.287	93.94
434.509	75.94
434.731	80.94
434.953	91.94
435.175	77.94
435.397	89.94
435.618	85.94
435.84	77.94
436.062	90.94
436.284	101.94
436.505	91.94
436.727	84.94
436.949	81.94
437.17	73.94
437.392	80.94
437.614	91.94
437.835	89.94
438.057	82.94
438.278	83.94
438.5	93.94
438.721	80.94
438.943	89.94
439.165	85.94
439.386	96.94
439.608	92.94
439.829	78.94
440.05	79.94
440.272	81.94
440.493	88.94
440.715	92.94
440.936	86.94
441.158	83.94
441.379	94.94
441.6	79.94
441.822	75.94
442.043	95.94
442.264	74.94
442.486	84.94
442.707	96.94
442.928	81.94
443.149	89.94
443.371	73.94
443.592	78.94
443.813	81.94
444.034	99.94
444.255	83.94
444.476	79.94
444.698	83.94
444.919	79.94
445.14	170.94
445.361	138.94
445.582	88.94
445.803	89.94
446.024	91.94
446.245	98.94
446.466	75.94
446.687	88.94
446.908	94.94
447.129	99.94
447.35	92.94
447.571	83.94
447.792	77.94
448.013	95.94
448.234	82.94
448.455	91.94
448.675	84.94
448.896	84.94
449.117	94.94
449.338	79.94
449.559	85.94
449.779	81.94
450	88.94
450.221	82.94
450.442	75.94
450.662	62.94
450.883	82.94
451.104	87.94
451.324	96.94
451.545	79.94
451.766	86.94
451.986	82.94
452.207	96.94
452.428	87.94
452.648	87.94
452.869	96.94
453.089	85.94
453.31	81.94
453.53	79.94
453.751	80.94
453.971	84.94
454.192	82.94
454.412	93.94
454.633	97.94
454.853	86.94
455.073	81.94
455.294	82.94
455.514	92.94
455.734	92.94
455.955	83.94
456.175	65.94
456.395	88.94
456.616	83.94
456.836	85.94
457.056	90.94
457.276	78.94
457.497	69.94
457.717	85.94
457.937	77.94
458.157	92.94
458.377	88.94
458.598	92.94
458.818	74.94
459.038	85.94
459.258	78.94
459.478	85.94
459.698	80.94
459.918	96.94
460.138	84.94
460.358	88.94
460.578	87.94
460.798	89.94
461.018	95.94
461.238	87.94
461.458	83.94
461.678	95.94
461.898	81.94
462.118	103.94
462.338	75.94
462.558	86.94
462.777	96.94
462.997	91.94
463.217	89.94
463.437	87.94
463.657	77.94
463.876	94.94
464.096	84.94
464.316	86.94
464.536	87.94
464.755	85.94
464.975	101.94
465.195	96.94
465.414	79.94
465.634	84.94
465.854	82.94
466.073	95.94
466.293	89.94
466.512	85.94
466.732	94.94
466.951	81.94
467.171	91.94
467.391	68.94
467.61	76.94
467.829	78.94
468.049	92.94
468.268	76.94
468.488	85.94
468.707	93.94
468.927	76.94
469.146	89.94
469.365	77.94
469.585	83.94
469.804	81.94
470.023	91.94
470.243	91.94
470.462	84.94
470.681	91.94
470.901	87.94
471.12	83.94
471.339	82.94
471.558	104.94
471.777	77.94
471.997	80.94
472.216	88.94
472.435	78.94
472.654	87.94
472.873	89.94
473.092	96.94
473.311	72.94
473.53	81.94
473.749	79.94
473.968	80.94
474.187	89.94
474.406	85.94
474.625	76.94
474.844	86.94
475.063	81.94
475.282	78.94
475.501	82.94
475.72	78.94
475.939	92.94
476.158	78.94
476.377	91.94
476.596	81.94
476.814	81.94
477.033	88.94
477.252	79.94
477.471	80.94
477.69	89.94
477.908	66.94
478.127	88.94
478.346	89.94
478.564	97.94
478.783	82.94
479.002	78.94
479.22	82.94
479.439	91.94
479.658	93.94
479.876	86.94
480.095	87.94
480.313	90.94
480.532	84.94
480.751	91.94
480.969	78.94
481.188	92.94
481.406	107.94
481.624	92.94
481.843	76.94
482.061	85.94
482.28	99.94
482.498	79.94
482.717	84.94
482.935	92.94
483.153	87.94
483.372	85.94
483.59	77.94
483.808	80.94
484.027	87.94
484.245	96.94
484.463	96.94
484.681	95.94
484.9	95.94
485.118	93.94
485.336	84.94
485.554	87.94
485.772	87.94
485.99	100.94
486.209	85.94
486.427	82.94
486.645	83.94
486.863	73.94
487.081	91.94
487.299	75.94
487.517	81.94
487.735	79.94
487.953	101.94
488.171	95.94
488.389	87.94
488.607	88.94
488.825	88.94
489.043	100.94
489.261	72.94
489.479	91.94
489.696	87.94
489.914	104.94
490.132	82.94
490.35	86.94
490.568	75.94
490.786	89.94
491.003	85.94
491.221	81.94
491.439	87.94
491.657	87.94
491.874	92.94
492.092	101.94
492.31	88.94
492.527	99.94
492.745	89.94
492.963	101.94
493.18	91.94
493.398	99.94
493.615	90.94
493.833	91.94
494.05	83.94
494.268	92.94
494.485	89.94
494.703	86.94
494.92	80.94
495.138	90.94
495.355	90.94
495.573	91.94
495.79	77.94
496.008	88.94
496.225	83.94
496.442	87.94
496.66	97.94
496.877	88.94
497.094	105.94
497.312	99.94
497.529	75.94
497.746	72.94
497.963	83.94
498.181	96.94
498.398	85.94
498.615	97.94
498.832	86.94
499.049	91.94
499.267	111.94
499.484	95.94
499.701	101.94
499.918	110.94
500.135	100.94
500.352	112.94
500.569	113.94
500.786	103.94
501.003	92.94
501.22	95.94
501.437	103.94
501.654	96.94
501.871	93.94
502.088	103.94
502.305	87.94
502.522	88.94
502.739	76.94
502.956	89.94
503.172	81.94
503.389	78.94
503.606	92.94
503.823	89.94
504.04	92.94
504.256	90.94
504.473	93.94
504.69	107.94
504.907	91.94
505.123	94.94
505.34	90.94
505.557	96.94
505.773	91.94
505.99	73.94
506.207	86.94
506.423	95.94
506.64	80.94
506.856	83.94
507.073	91.94
507.289	81.94
507.506	84.94
507.722	87.94
507.939	75.94
508.155	85.94
508.372	91.94
508.588	97.94
508.805	82.94
509.021	66.94
509.238	97.94
509.454	79.94
509.67	94.94
509.887	77.94
510.103	83.94
510.319	83.94
510.536	93.94
510.752	88.94
510.968	83.94
511.184	84.94
511.401	72.94
511.617	91.94
511.833	94.94
512.049	84.94
512.265	81.94
512.481	101.94
512.698	91.94
512.914	88.94
513.13	74.94
513.346	95.94
513.562	85.94
513.778	87.94
513.994	90.94
514.21	88.94
514.426	95.94
514.642	74.94
514.858	92.94
515.074	93.94
515.29	100.94
515.506	85.94
515.721	84.94
515.937	112.94
516.153	90.94
516.369	91.94
516.585	90.94
516.801	92.94
517.016	85.94
517.232	84.94
517.448	86.94
517.664	83.94
517.879	92.94
518.095	109.94
518.311	99.94
518.527	77.94
518.742	85.94
518.958	89.94
519.173	80.94
519.389	97.94
519.605	97.94
