Data from BG_HRD10591_099.txt Node
Date: Fri May 16 15:33:56 EDT 2025
User: Yrep
Spectrometer: HR+D1059
Trigger mode: 1
Integration Time (sec): 1.000000E-1
Scans to average: 1
Electric dark correction enabled: true
Nonlinearity correction enabled: false
Boxcar width: 0
XAxis mode: Wavelengths
Number of Pixels in Spectrum: 2048
>>>>>Begin Spectral Data<<<<<
223.165	-16.5
223.4	-16.5
223.635	-16.5
223.869	-19.5
224.104	-18.5
224.338	-15.5
224.573	-14.5
224.808	-11.5
225.042	-22.5
225.277	0.5
225.511	-7.5
225.746	8.5
225.98	6.5
226.215	15.5
226.449	26.5
226.683	24.5
226.918	31.5
227.152	12.5
227.387	33.5
227.621	42.5
227.856	59.5
228.09	56.5
228.324	59.5
228.559	59.5
228.793	60.5
229.027	64.5
229.262	75.5
229.496	67.5
229.73	72.5
229.964	73.5
230.199	70.5
230.433	76.5
230.667	83.5
230.901	68.5
231.136	76.5
231.37	68.5
231.604	78.5
231.838	77.5
232.072	83.5
232.306	91.5
232.541	88.5
232.775	73.5
233.009	83.5
233.243	78.5
233.477	75.5
233.711	71.5
233.945	82.5
234.179	75.5
234.413	59.5
234.647	82.5
234.881	79.5
235.115	75.5
235.349	73.5
235.583	66.5
235.817	79.5
236.051	83.5
236.285	81.5
236.519	67.5
236.753	77.5
236.987	72.5
237.221	64.5
237.455	76.5
237.689	69.5
237.922	75.5
238.156	80.5
238.39	67.5
238.624	94.5
238.858	87.5
239.091	81.5
239.325	79.5
239.559	90.5
239.793	77.5
240.027	74.5
240.26	76.5
240.494	82.5
240.728	79.5
240.961	82.5
241.195	66.5
241.429	71.5
241.662	59.5
241.896	76.5
242.13	78.5
242.363	73.5
242.597	84.5
242.83	81.5
243.064	81.5
243.298	84.5
243.531	78.5
243.765	76.5
243.998	80.5
244.232	85.5
244.465	70.5
244.699	82.5
244.932	75.5
245.166	78.5
245.399	76.5
245.633	76.5
245.866	87.5
246.099	76.5
246.333	78.5
246.566	79.5
246.8	86.5
247.033	81.5
247.266	82.5
247.5	79.5
247.733	87.5
247.966	87.5
248.2	61.5
248.433	66.5
248.666	81.5
248.899	92.5
249.133	69.5
249.366	78.5
249.599	75.5
249.832	89.5
250.066	76.5
250.299	93.5
250.532	89.5
250.765	80.5
250.998	86.5
251.231	78.5
251.465	68.5
251.698	77.5
251.931	86.5
252.164	83.5
252.397	79.5
252.63	87.5
252.863	91.5
253.096	79.5
253.329	69.5
253.562	61.5
253.795	86.5
254.028	87.5
254.261	76.5
254.494	78.5
254.727	87.5
254.96	81.5
255.193	66.5
255.426	76.5
255.659	81.5
255.892	81.5
256.124	75.5
256.357	87.5
256.59	82.5
256.823	88.5
257.056	73.5
257.289	85.5
257.521	87.5
257.754	79.5
257.987	84.5
258.22	85.5
258.452	90.5
258.685	76.5
258.918	90.5
259.151	80.5
259.383	80.5
259.616	81.5
259.849	86.5
260.081	96.5
260.314	72.5
260.547	80.5
260.779	84.5
261.012	79.5
261.244	73.5
261.477	80.5
261.71	78.5
261.942	67.5
262.175	83.5
262.407	72.5
262.64	95.5
262.872	81.5
263.105	66.5
263.337	71.5
263.57	67.5
263.802	83.5
264.035	78.5
264.267	83.5
264.499	75.5
264.732	83.5
264.964	65.5
265.197	78.5
265.429	87.5
265.661	80.5
265.894	84.5
266.126	86.5
266.358	78.5
266.591	75.5
266.823	84.5
267.055	69.5
267.287	79.5
267.52	91.5
267.752	75.5
267.984	74.5
268.216	81.5
268.448	91.5
268.681	91.5
268.913	96.5
269.145	81.5
269.377	70.5
269.609	85.5
269.841	92.5
270.073	79.5
270.306	67.5
270.538	87.5
270.77	80.5
271.002	63.5
271.234	88.5
271.466	79.5
271.698	82.5
271.93	80.5
272.162	80.5
272.394	94.5
272.626	77.5
272.858	73.5
273.09	76.5
273.322	80.5
273.553	77.5
273.785	84.5
274.017	95.5
274.249	75.5
274.481	91.5
274.713	89.5
274.945	68.5
275.176	79.5
275.408	104.5
275.64	90.5
275.872	95.5
276.104	81.5
276.335	84.5
276.567	98.5
276.799	80.5
277.031	88.5
277.262	87.5
277.494	91.5
277.726	71.5
277.957	100.5
278.189	75.5
278.421	74.5
278.652	81.5
278.884	83.5
279.115	71.5
279.347	89.5
279.579	77.5
279.81	87.5
280.042	90.5
280.273	76.5
280.505	81.5
280.736	90.5
280.968	80.5
281.199	83.5
281.431	83.5
281.662	95.5
281.894	69.5
282.125	90.5
282.356	89.5
282.588	88.5
282.819	81.5
283.051	88.5
283.282	58.5
283.513	93.5
283.745	88.5
283.976	81.5
284.207	80.5
284.439	89.5
284.67	87.5
284.901	88.5
285.132	83.5
285.364	79.5
285.595	87.5
285.826	92.5
286.057	74.5
286.288	95.5
286.52	93.5
286.751	87.5
286.982	81.5
287.213	76.5
287.444	78.5
287.675	79.5
287.906	76.5
288.138	91.5
288.369	73.5
288.6	82.5
288.831	89.5
289.062	87.5
289.293	76.5
289.524	76.5
289.755	96.5
289.986	87.5
290.217	73.5
290.448	92.5
290.679	93.5
290.91	84.5
291.141	89.5
291.371	76.5
291.602	99.5
291.833	84.5
292.064	97.5
292.295	91.5
292.526	80.5
292.757	99.5
292.987	88.5
293.218	74.5
293.449	87.5
293.68	93.5
293.91	82.5
294.141	89.5
294.372	87.5
294.603	81.5
294.833	78.5
295.064	92.5
295.295	80.5
295.525	90.5
295.756	90.5
295.987	77.5
296.217	83.5
296.448	84.5
296.679	94.5
296.909	92.5
297.14	89.5
297.37	76.5
297.601	78.5
297.831	83.5
298.062	86.5
298.292	92.5
298.523	84.5
298.753	75.5
298.984	88.5
299.214	81.5
299.445	77.5
299.675	88.5
299.905	82.5
300.136	95.5
300.366	81.5
300.597	83.5
300.827	84.5
301.057	91.5
301.288	82.5
301.518	79.5
301.748	88.5
301.979	95.5
302.209	82.5
302.439	81.5
302.669	97.5
302.9	78.5
303.13	71.5
303.36	86.5
303.59	66.5
303.82	75.5
304.051	95.5
304.281	77.5
304.511	97.5
304.741	84.5
304.971	87.5
305.201	80.5
305.431	91.5
305.661	85.5
305.891	100.5
306.121	75.5
306.352	86.5
306.582	97.5
306.812	87.5
307.042	94.5
307.272	90.5
307.502	83.5
307.731	83.5
307.961	86.5
308.191	96.5
308.421	104.5
308.651	70.5
308.881	91.5
309.111	91.5
309.341	77.5
309.571	77.5
309.8	86.5
310.03	89.5
310.26	96.5
310.49	92.5
310.72	87.5
310.949	88.5
311.179	81.5
311.409	91.5
311.639	75.5
311.868	98.5
312.098	87.5
312.328	77.5
312.557	75.5
312.787	94.5
313.017	80.5
313.246	97.5
313.476	79.5
313.706	77.5
313.935	65.5
314.165	79.5
314.394	85.5
314.624	88.5
314.853	94.5
315.083	91.5
315.312	91.5
315.542	103.5
315.771	81.5
316.001	81.5
316.23	77.5
316.46	88.5
316.689	65.5
316.919	84.5
317.148	95.5
317.377	91.5
317.607	87.5
317.836	80.5
318.065	88.5
318.295	70.5
318.524	76.5
318.753	83.5
318.983	79.5
319.212	87.5
319.441	78.5
319.67	89.5
319.9	83.5
320.129	86.5
320.358	77.5
320.587	78.5
320.816	73.5
321.046	87.5
321.275	90.5
321.504	89.5
321.733	89.5
321.962	91.5
322.191	83.5
322.42	88.5
322.649	96.5
322.878	78.5
323.108	97.5
323.337	90.5
323.566	87.5
323.795	82.5
324.024	86.5
324.253	98.5
324.482	98.5
324.71	83.5
324.939	80.5
325.168	90.5
325.397	75.5
325.626	84.5
325.855	65.5
326.084	72.5
326.313	65.5
326.542	87.5
326.77	68.5
326.999	82.5
327.228	84.5
327.457	96.5
327.686	91.5
327.914	86.5
328.143	87.5
328.372	90.5
328.6	88.5
328.829	87.5
329.058	88.5
329.287	89.5
329.515	83.5
329.744	86.5
329.972	82.5
330.201	84.5
330.43	78.5
330.658	96.5
330.887	81.5
331.115	87.5
331.344	81.5
331.572	89.5
331.801	90.5
332.03	79.5
332.258	87.5
332.486	72.5
332.715	81.5
332.943	89.5
333.172	88.5
333.4	94.5
333.629	89.5
333.857	84.5
334.085	99.5
334.314	78.5
334.542	80.5
334.771	95.5
334.999	78.5
335.227	75.5
335.455	93.5
335.684	99.5
335.912	81.5
336.14	89.5
336.369	93.5
336.597	75.5
336.825	83.5
337.053	84.5
337.281	87.5
337.51	79.5
337.738	95.5
337.966	96.5
338.194	77.5
338.422	80.5
338.65	82.5
338.878	92.5
339.106	81.5
339.334	80.5
339.562	91.5
339.79	79.5
340.018	84.5
340.246	78.5
340.474	75.5
340.702	73.5
340.93	89.5
341.158	88.5
341.386	80.5
341.614	84.5
341.842	100.5
342.07	80.5
342.298	89.5
342.526	88.5
342.754	87.5
342.981	88.5
343.209	73.5
343.437	92.5
343.665	82.5
343.893	75.5
344.12	76.5
344.348	77.5
344.576	83.5
344.804	94.5
345.031	82.5
345.259	88.5
345.487	87.5
345.714	81.5
345.942	75.5
346.17	83.5
346.397	87.5
346.625	89.5
346.853	76.5
347.08	92.5
347.308	87.5
347.535	91.5
347.763	80.5
347.99	93.5
348.218	77.5
348.445	85.5
348.673	82.5
348.9	86.5
349.128	75.5
349.355	76.5
349.583	89.5
349.81	74.5
350.037	93.5
350.265	81.5
350.492	90.5
350.72	77.5
350.947	69.5
351.174	85.5
351.402	95.5
351.629	97.5
351.856	72.5
352.083	79.5
352.311	89.5
352.538	81.5
352.765	76.5
352.992	78.5
353.22	88.5
353.447	93.5
353.674	85.5
353.901	75.5
354.128	76.5
354.355	74.5
354.583	94.5
354.81	84.5
355.037	80.5
355.264	89.5
355.491	82.5
355.718	82.5
355.945	92.5
356.172	85.5
356.399	82.5
356.626	88.5
356.853	87.5
357.08	86.5
357.307	95.5
357.534	83.5
357.761	81.5
357.988	92.5
358.215	72.5
358.441	82.5
358.668	80.5
358.895	65.5
359.122	84.5
359.349	89.5
359.576	92.5
359.802	82.5
360.029	79.5
360.256	92.5
360.483	89.5
360.709	88.5
360.936	81.5
361.163	81.5
361.39	82.5
361.616	91.5
361.843	81.5
362.07	72.5
362.296	93.5
362.523	75.5
362.749	76.5
362.976	96.5
363.203	91.5
363.429	82.5
363.656	92.5
363.882	92.5
364.109	85.5
364.335	84.5
364.562	88.5
364.788	69.5
365.015	88.5
365.241	73.5
365.468	96.5
365.694	89.5
365.92	86.5
366.147	87.5
366.373	70.5
366.599	81.5
366.826	96.5
367.052	80.5
367.278	83.5
367.505	80.5
367.731	91.5
367.957	85.5
368.184	73.5
368.41	69.5
368.636	65.5
368.862	59.5
369.089	81.5
369.315	78.5
369.541	89.5
369.767	82.5
369.993	88.5
370.219	76.5
370.445	85.5
370.672	68.5
370.898	84.5
371.124	74.5
371.35	68.5
371.576	69.5
371.802	95.5
372.028	83.5
372.254	81.5
372.48	89.5
372.706	98.5
372.932	85.5
373.158	82.5
373.384	77.5
373.61	82.5
373.835	91.5
374.061	75.5
374.287	78.5
374.513	73.5
374.739	91.5
374.965	73.5
375.191	79.5
375.416	88.5
375.642	84.5
375.868	84.5
376.094	86.5
376.319	82.5
376.545	87.5
376.771	78.5
376.997	90.5
377.222	108.5
377.448	69.5
377.674	92.5
377.899	80.5
378.125	85.5
378.35	81.5
378.576	95.5
378.802	81.5
379.027	88.5
379.253	89.5
379.478	92.5
379.704	75.5
379.929	72.5
380.155	77.5
380.38	75.5
380.606	79.5
380.831	94.5
381.057	80.5
381.282	93.5
381.507	72.5
381.733	81.5
381.958	81.5
382.184	84.5
382.409	80.5
382.634	87.5
382.86	80.5
383.085	76.5
383.31	88.5
383.535	71.5
383.761	73.5
383.986	81.5
384.211	78.5
384.436	89.5
384.662	77.5
384.887	89.5
385.112	80.5
385.337	83.5
385.562	93.5
385.787	85.5
386.013	83.5
386.238	76.5
386.463	78.5
386.688	106.5
386.913	77.5
387.138	66.5
387.363	66.5
387.588	99.5
387.813	90.5
388.038	78.5
388.263	83.5
388.488	89.5
388.713	86.5
388.938	83.5
389.163	73.5
389.387	89.5
389.612	71.5
389.837	88.5
390.062	87.5
390.287	84.5
390.512	83.5
390.736	76.5
390.961	84.5
391.186	82.5
391.411	83.5
391.636	80.5
391.86	88.5
392.085	77.5
392.31	80.5
392.534	87.5
392.759	93.5
392.984	92.5
393.208	90.5
393.433	82.5
393.658	68.5
393.882	88.5
394.107	77.5
394.331	82.5
394.556	74.5
394.78	82.5
395.005	88.5
395.229	85.5
395.454	80.5
395.678	91.5
395.903	77.5
396.127	96.5
396.352	83.5
396.576	79.5
396.801	99.5
397.025	78.5
397.249	74.5
397.474	82.5
397.698	81.5
397.922	92.5
398.147	88.5
398.371	80.5
398.595	75.5
398.82	79.5
399.044	72.5
399.268	91.5
399.492	72.5
399.717	75.5
399.941	88.5
400.165	81.5
400.389	76.5
400.613	91.5
400.837	79.5
401.062	76.5
401.286	68.5
401.51	85.5
401.734	77.5
401.958	85.5
402.182	88.5
402.406	75.5
402.63	84.5
402.854	93.5
403.078	80.5
403.302	84.5
403.526	80.5
403.75	78.5
403.974	80.5
404.198	85.5
404.422	90.5
404.645	70.5
404.869	76.5
405.093	69.5
405.317	65.5
405.541	96.5
405.765	73.5
405.988	83.5
406.212	76.5
406.436	74.5
406.66	83.5
406.883	75.5
407.107	81.5
407.331	59.5
407.555	78.5
407.778	80.5
408.002	78.5
408.226	84.5
408.449	84.5
408.673	91.5
408.896	80.5
409.12	72.5
409.344	70.5
409.567	90.5
409.791	82.5
410.014	80.5
410.238	89.5
410.461	82.5
410.685	84.5
410.908	79.5
411.132	74.5
411.355	87.5
411.578	81.5
411.802	90.5
412.025	82.5
412.249	74.5
412.472	71.5
412.695	92.5
412.919	70.5
413.142	69.5
413.365	92.5
413.589	89.5
413.812	78.5
414.035	88.5
414.258	85.5
414.482	77.5
414.705	76.5
414.928	69.5
415.151	75.5
415.374	89.5
415.597	73.5
415.821	84.5
416.044	71.5
416.267	73.5
416.49	88.5
416.713	85.5
416.936	97.5
417.159	73.5
417.382	76.5
417.605	85.5
417.828	70.5
418.051	81.5
418.274	72.5
418.497	77.5
418.72	84.5
418.943	81.5
419.166	68.5
419.389	83.5
419.611	86.5
419.834	77.5
420.057	87.5
420.28	79.5
420.503	66.5
420.726	92.5
420.948	88.5
421.171	71.5
421.394	79.5
421.617	82.5
421.839	88.5
422.062	89.5
422.285	76.5
422.507	73.5
422.73	84.5
422.953	83.5
423.175	75.5
423.398	82.5
423.621	70.5
423.843	78.5
424.066	85.5
424.288	73.5
424.511	74.5
424.733	82.5
424.956	87.5
425.178	88.5
425.401	88.5
425.623	78.5
425.846	81.5
426.068	96.5
426.291	93.5
426.513	90.5
426.735	73.5
426.958	80.5
427.18	79.5
427.402	81.5
427.625	93.5
427.847	76.5
428.069	87.5
428.292	82.5
428.514	77.5
428.736	84.5
428.958	79.5
429.181	78.5
429.403	76.5
429.625	83.5
429.847	79.5
430.069	86.5
430.292	96.5
430.514	91.5
430.736	81.5
430.958	87.5
431.18	83.5
431.402	89.5
431.624	92.5
431.846	87.5
432.068	69.5
432.29	83.5
432.512	100.5
432.734	89.5
432.956	84.5
433.178	88.5
433.4	92.5
433.622	89.5
433.844	82.5
434.066	83.5
434.287	77.5
434.509	83.5
434.731	78.5
434.953	83.5
435.175	95.5
435.397	81.5
435.618	76.5
435.84	84.5
436.062	70.5
436.284	85.5
436.505	86.5
436.727	75.5
436.949	90.5
437.17	69.5
437.392	67.5
437.614	84.5
437.835	76.5
438.057	63.5
438.278	92.5
438.5	80.5
438.721	87.5
438.943	91.5
439.165	82.5
439.386	79.5
439.608	92.5
439.829	81.5
440.05	79.5
440.272	81.5
440.493	80.5
440.715	81.5
440.936	88.5
441.158	82.5
441.379	87.5
441.6	79.5
441.822	77.5
442.043	96.5
442.264	80.5
442.486	87.5
442.707	81.5
442.928	71.5
443.149	80.5
443.371	81.5
443.592	82.5
443.813	73.5
444.034	74.5
444.255	86.5
444.476	79.5
444.698	68.5
444.919	79.5
445.14	117.5
445.361	111.5
445.582	91.5
445.803	79.5
446.024	69.5
446.245	88.5
446.466	66.5
446.687	88.5
446.908	73.5
447.129	87.5
447.35	80.5
447.571	86.5
447.792	81.5
448.013	89.5
448.234	85.5
448.455	80.5
448.675	87.5
448.896	83.5
449.117	84.5
449.338	100.5
449.559	88.5
449.779	88.5
450	63.5
450.221	91.5
450.442	68.5
450.662	92.5
450.883	72.5
451.104	80.5
451.324	72.5
451.545	73.5
451.766	83.5
451.986	77.5
452.207	75.5
452.428	72.5
452.648	84.5
452.869	86.5
453.089	87.5
453.31	74.5
453.53	74.5
453.751	68.5
453.971	83.5
454.192	72.5
454.412	85.5
454.633	97.5
454.853	69.5
455.073	66.5
455.294	88.5
455.514	97.5
455.734	77.5
455.955	78.5
456.175	71.5
456.395	77.5
456.616	77.5
456.836	96.5
457.056	83.5
457.276	82.5
457.497	73.5
457.717	77.5
457.937	83.5
458.157	80.5
458.377	79.5
458.598	67.5
458.818	82.5
459.038	91.5
459.258	73.5
459.478	81.5
459.698	70.5
459.918	77.5
460.138	81.5
460.358	63.5
460.578	87.5
460.798	79.5
461.018	97.5
461.238	86.5
461.458	73.5
461.678	76.5
461.898	84.5
462.118	81.5
462.338	68.5
462.558	84.5
462.777	63.5
462.997	72.5
463.217	61.5
463.437	81.5
463.657	76.5
463.876	80.5
464.096	73.5
464.316	84.5
464.536	72.5
464.755	73.5
464.975	83.5
465.195	93.5
465.414	78.5
465.634	77.5
465.854	71.5
466.073	76.5
466.293	83.5
466.512	75.5
466.732	84.5
466.951	84.5
467.171	80.5
467.391	62.5
467.61	78.5
467.829	73.5
468.049	81.5
468.268	88.5
468.488	78.5
468.707	73.5
468.927	79.5
469.146	65.5
469.365	76.5
469.585	88.5
469.804	79.5
470.023	95.5
470.243	85.5
470.462	87.5
470.681	83.5
470.901	79.5
471.12	77.5
471.339	93.5
471.558	86.5
471.777	89.5
471.997	76.5
472.216	83.5
472.435	76.5
472.654	73.5
472.873	85.5
473.092	85.5
473.311	76.5
473.53	96.5
473.749	91.5
473.968	78.5
474.187	70.5
474.406	67.5
474.625	77.5
474.844	80.5
475.063	95.5
475.282	84.5
475.501	82.5
475.72	72.5
475.939	79.5
476.158	70.5
476.377	91.5
476.596	87.5
476.814	91.5
477.033	79.5
477.252	72.5
477.471	82.5
477.69	87.5
477.908	84.5
478.127	87.5
478.346	87.5
478.564	63.5
478.783	78.5
479.002	88.5
479.22	90.5
479.439	96.5
479.658	83.5
479.876	73.5
480.095	75.5
480.313	90.5
480.532	74.5
480.751	83.5
480.969	75.5
481.188	71.5
481.406	87.5
481.624	82.5
481.843	90.5
482.061	74.5
482.28	79.5
482.498	75.5
482.717	88.5
482.935	93.5
483.153	74.5
483.372	75.5
483.59	88.5
483.808	87.5
484.027	81.5
484.245	88.5
484.463	83.5
484.681	97.5
484.9	79.5
485.118	75.5
485.336	74.5
485.554	82.5
485.772	84.5
485.99	95.5
486.209	71.5
486.427	80.5
486.645	77.5
486.863	95.5
487.081	87.5
487.299	83.5
487.517	79.5
487.735	81.5
487.953	69.5
488.171	89.5
488.389	77.5
488.607	73.5
488.825	74.5
489.043	84.5
489.261	85.5
489.479	79.5
489.696	77.5
489.914	78.5
490.132	87.5
490.35	90.5
490.568	85.5
490.786	93.5
491.003	94.5
491.221	83.5
491.439	91.5
491.657	85.5
491.874	87.5
492.092	81.5
492.31	83.5
492.527	68.5
492.745	69.5
492.963	90.5
493.18	84.5
493.398	73.5
493.615	77.5
493.833	64.5
494.05	82.5
494.268	79.5
494.485	87.5
494.703	82.5
494.92	79.5
495.138	91.5
495.355	81.5
495.573	82.5
495.79	64.5
496.008	83.5
496.225	81.5
496.442	61.5
496.66	76.5
496.877	77.5
497.094	87.5
497.312	80.5
497.529	78.5
497.746	77.5
497.963	93.5
498.181	86.5
498.398	82.5
498.615	86.5
498.832	93.5
499.049	97.5
499.267	90.5
499.484	90.5
499.701	83.5
499.918	88.5
500.135	94.5
500.352	92.5
500.569	92.5
500.786	84.5
501.003	88.5
501.22	80.5
501.437	89.5
501.654	68.5
501.871	82.5
502.088	85.5
502.305	101.5
502.522	96.5
502.739	88.5
502.956	89.5
503.172	87.5
503.389	66.5
503.606	87.5
503.823	84.5
504.04	84.5
504.256	76.5
504.473	83.5
504.69	80.5
504.907	73.5
505.123	80.5
505.34	67.5
505.557	78.5
505.773	75.5
505.99	69.5
506.207	81.5
506.423	84.5
506.64	86.5
506.856	81.5
507.073	84.5
507.289	76.5
507.506	67.5
507.722	84.5
507.939	81.5
508.155	92.5
508.372	82.5
508.588	80.5
508.805	69.5
509.021	80.5
509.238	83.5
509.454	80.5
509.67	71.5
509.887	98.5
510.103	80.5
510.319	92.5
510.536	76.5
510.752	73.5
510.968	82.5
511.184	76.5
511.401	97.5
511.617	93.5
511.833	90.5
512.049	92.5
512.265	90.5
512.481	75.5
512.698	85.5
512.914	79.5
513.13	79.5
513.346	83.5
513.562	96.5
513.778	95.5
513.994	89.5
514.21	75.5
514.426	85.5
514.642	83.5
514.858	76.5
515.074	89.5
515.29	87.5
515.506	77.5
515.721	81.5
515.937	88.5
516.153	88.5
516.369	98.5
516.585	84.5
516.801	73.5
517.016	92.5
517.232	71.5
517.448	76.5
517.664	79.5
517.879	86.5
518.095	75.5
518.311	75.5
518.527	98.5
518.742	73.5
518.958	81.5
519.173	89.5
519.389	87.5
519.605	74.5
519.82	86.5
520.036	90.5
520.251	80.5
520.467	85.5
520.682	81.5
520.898	89.5
521.113	73.5
521.329	80.5
521.544	77.5
521.76	89.5
521.975	87.5
522.19	85.5
522.406	81.5
522.621	80.5
522.836	80.5
523.052	76.5
523.267	98.5
523.482	79.5
523.698	84.5
523.913	83.5
524.128	78.5
524.343	72.5
524.559	97.5
524.774	83.5
524.989	96.5
525.204	93.5
525.419	80.5
525.634	73.5
525.849	84.5
526.064	93.5
526.28	83.5
526.495	95.5
526.71	93.5
526.925	79.5
527.14	83.5
527.355	87.5
527.57	97.5
527.785	95.5
527.999	89.5
528.214	85.5
528.429	84.5
528.644	88.5
528.859	76.5
529.074	66.5
529.289	92.5
529.503	87.5
529.718	74.5
529.933	73.5
530.148	91.5
530.363	86.5
530.577	75.5
530.792	70.5
531.007	95.5
531.221	88.5
531.436	100.5
531.651	79.5
531.865	99.5
532.08	95.5
532.295	70.5
532.509	89.5
532.724	78.5
532.938	81.5
533.153	78.5
533.367	88.5
533.582	76.5
533.796	90.5
534.011	96.5
534.225	80.5
534.44	80.5
534.654	89.5
534.868	87.5
535.083	80.5
535.297	96.5
535.511	90.5
535.726	92.5
535.94	82.5
536.154	77.5
536.369	90.5
536.583	84.5
536.797	79.5
537.011	78.5
537.225	101.5
537.44	96.5
537.654	93.5
537.868	106.5
538.082	94.5
538.296	87.5
538.51	82.5
538.724	86.5
538.938	96.5
539.153	84.5
539.367	89.5
539.581	88.5
539.795	87.5
540.009	93.5
540.222	77.5
540.436	69.5
540.65	76.5
