Data from BG_HRD10591_035.txt Node
Date: Fri May 16 15:33:24 EDT 2025
User: Yrep
Spectrometer: HR+D1059
Trigger mode: 1
Integration Time (sec): 1.000000E-1
Scans to average: 1
Electric dark correction enabled: true
Nonlinearity correction enabled: false
Boxcar width: 0
XAxis mode: Wavelengths
Number of Pixels in Spectrum: 2048
>>>>>Begin Spectral Data<<<<<
223.165	-13
223.4	-13
223.635	-13
223.869	-17
224.104	-19
224.338	-17
224.573	-21
224.808	-11
225.042	-11
225.277	-15
225.511	-4
225.746	2
225.98	5
226.215	17
226.449	25
226.683	27
226.918	19
227.152	33
227.387	48
227.621	38
227.856	46
228.09	46
228.324	39
228.559	48
228.793	57
229.027	64
229.262	62
229.496	61
229.73	49
229.964	65
230.199	77
230.433	84
230.667	83
230.901	70
231.136	86
231.37	80
231.604	82
231.838	69
232.072	79
232.306	87
232.541	80
232.775	92
233.009	87
233.243	94
233.477	75
233.711	86
233.945	56
234.179	85
234.413	75
234.647	78
234.881	86
235.115	86
235.349	95
235.583	85
235.817	64
236.051	71
236.285	81
236.519	77
236.753	81
236.987	72
237.221	74
237.455	73
237.689	85
237.922	80
238.156	69
238.39	63
238.624	70
238.858	79
239.091	72
239.325	72
239.559	84
239.793	79
240.027	76
240.26	63
240.494	77
240.728	80
240.961	73
241.195	76
241.429	75
241.662	77
241.896	58
242.13	61
242.363	58
242.597	80
242.83	79
243.064	70
243.298	80
243.531	81
243.765	68
243.998	75
244.232	74
244.465	67
244.699	77
244.932	71
245.166	73
245.399	76
245.633	73
245.866	72
246.099	84
246.333	78
246.566	76
246.8	72
247.033	68
247.266	72
247.5	61
247.733	71
247.966	67
248.2	64
248.433	79
248.666	61
248.899	81
249.133	78
249.366	63
249.599	73
249.832	71
250.066	87
250.299	69
250.532	80
250.765	71
250.998	72
251.231	74
251.465	80
251.698	75
251.931	84
252.164	79
252.397	67
252.63	76
252.863	67
253.096	80
253.329	78
253.562	68
253.795	83
254.028	83
254.261	65
254.494	81
254.727	87
254.96	81
255.193	74
255.426	79
255.659	84
255.892	78
256.124	76
256.357	84
256.59	70
256.823	90
257.056	69
257.289	88
257.521	76
257.754	77
257.987	77
258.22	78
258.452	79
258.685	78
258.918	81
259.151	86
259.383	85
259.616	76
259.849	77
260.081	102
260.314	76
260.547	75
260.779	71
261.012	73
261.244	79
261.477	83
261.71	83
261.942	90
262.175	82
262.407	74
262.64	81
262.872	79
263.105	77
263.337	81
263.57	85
263.802	90
264.035	86
264.267	77
264.499	74
264.732	71
264.964	80
265.197	77
265.429	83
265.661	93
265.894	78
266.126	100
266.358	89
266.591	61
266.823	81
267.055	79
267.287	83
267.52	78
267.752	57
267.984	88
268.216	78
268.448	95
268.681	91
268.913	92
269.145	73
269.377	89
269.609	82
269.841	69
270.073	83
270.306	95
270.538	80
270.77	73
271.002	82
271.234	78
271.466	72
271.698	85
271.93	83
272.162	89
272.394	87
272.626	79
272.858	79
273.09	86
273.322	93
273.553	73
273.785	74
274.017	83
274.249	72
274.481	93
274.713	91
274.945	77
275.176	72
275.408	89
275.64	84
275.872	81
276.104	81
276.335	81
276.567	94
276.799	101
277.031	86
277.262	85
277.494	71
277.726	92
277.957	84
278.189	82
278.421	79
278.652	81
278.884	75
279.115	87
279.347	78
279.579	82
279.81	96
280.042	88
280.273	80
280.505	85
280.736	64
280.968	81
281.199	90
281.431	86
281.662	87
281.894	86
282.125	96
282.356	76
282.588	86
282.819	84
283.051	74
283.282	77
283.513	88
283.745	71
283.976	75
284.207	85
284.439	93
284.67	93
284.901	91
285.132	87
285.364	86
285.595	87
285.826	84
286.057	96
286.288	74
286.52	91
286.751	83
286.982	85
287.213	74
287.444	84
287.675	76
287.906	83
288.138	83
288.369	103
288.6	90
288.831	83
289.062	76
289.293	81
289.524	79
289.755	80
289.986	78
290.217	73
290.448	91
290.679	87
290.91	92
291.141	80
291.371	99
291.602	96
291.833	99
292.064	75
292.295	87
292.526	91
292.757	76
292.987	78
293.218	81
293.449	94
293.68	82
293.91	78
294.141	87
294.372	83
294.603	83
294.833	79
295.064	90
295.295	81
295.525	92
295.756	82
295.987	80
296.217	85
296.448	89
296.679	91
296.909	95
297.14	75
297.37	85
297.601	82
297.831	77
298.062	88
298.292	75
298.523	83
298.753	75
298.984	78
299.214	86
299.445	101
299.675	83
299.905	88
300.136	84
300.366	89
300.597	84
300.827	85
301.057	92
301.288	88
301.518	78
301.748	79
301.979	97
302.209	78
302.439	79
302.669	92
302.9	85
303.13	85
303.36	96
303.59	95
303.82	89
304.051	93
304.281	91
304.511	77
304.741	80
304.971	86
305.201	76
305.431	95
305.661	88
305.891	81
306.121	83
306.352	92
306.582	88
306.812	90
307.042	83
307.272	76
307.502	92
307.731	87
307.961	75
308.191	87
308.421	78
308.651	85
308.881	89
309.111	81
309.341	99
309.571	85
309.8	84
310.03	86
310.26	76
310.49	96
310.72	84
310.949	88
311.179	91
311.409	69
311.639	95
311.868	99
312.098	99
312.328	80
312.557	73
312.787	82
313.017	92
313.246	100
313.476	78
313.706	97
313.935	78
314.165	93
314.394	86
314.624	99
314.853	95
315.083	85
315.312	95
315.542	88
315.771	91
316.001	111
316.23	72
316.46	85
316.689	84
316.919	84
317.148	92
317.377	99
317.607	82
317.836	86
318.065	99
318.295	83
318.524	84
318.753	83
318.983	79
319.212	90
319.441	95
319.67	95
319.9	86
320.129	84
320.358	89
320.587	78
320.816	92
321.046	80
321.275	81
321.504	93
321.733	77
321.962	79
322.191	89
322.42	93
322.649	92
322.878	71
323.108	92
323.337	86
323.566	91
323.795	87
324.024	88
324.253	83
324.482	88
324.71	93
324.939	85
325.168	85
325.397	76
325.626	85
325.855	73
326.084	80
326.313	78
326.542	101
326.77	86
326.999	87
327.228	80
327.457	79
327.686	80
327.914	90
328.143	104
328.372	84
328.6	72
328.829	81
329.058	88
329.287	85
329.515	81
329.744	81
329.972	90
330.201	81
330.43	95
330.658	86
330.887	86
331.115	85
331.344	69
331.572	83
331.801	79
332.03	77
332.258	88
332.486	89
332.715	89
332.943	83
333.172	79
333.4	85
333.629	89
333.857	95
334.085	83
334.314	89
334.542	94
334.771	85
334.999	98
335.227	84
335.455	86
335.684	83
335.912	89
336.14	86
336.369	91
336.597	85
336.825	92
337.053	79
337.281	94
337.51	89
337.738	79
337.966	89
338.194	73
338.422	86
338.65	80
338.878	91
339.106	75
339.334	96
339.562	93
339.79	81
340.018	85
340.246	75
340.474	76
340.702	78
340.93	91
341.158	81
341.386	74
341.614	83
341.842	90
342.07	83
342.298	77
342.526	90
342.754	82
342.981	91
343.209	92
343.437	103
343.665	89
343.893	90
344.12	87
344.348	82
344.576	99
344.804	80
345.031	76
345.259	99
345.487	100
345.714	88
345.942	80
346.17	88
346.397	88
346.625	75
346.853	84
347.08	81
347.308	92
347.535	91
347.763	83
347.99	86
348.218	76
348.445	84
348.673	89
348.9	81
349.128	85
349.355	77
349.583	70
349.81	79
350.037	89
350.265	79
350.492	79
350.72	82
350.947	85
351.174	92
351.402	78
351.629	83
351.856	99
352.083	88
352.311	85
352.538	74
352.765	83
352.992	85
353.22	76
353.447	79
353.674	88
353.901	88
354.128	85
354.355	71
354.583	87
354.81	97
355.037	88
355.264	69
355.491	75
355.718	93
355.945	87
356.172	80
356.399	82
356.626	93
356.853	80
357.08	79
357.307	93
357.534	71
357.761	82
357.988	75
358.215	91
358.441	83
358.668	97
358.895	90
359.122	95
359.349	97
359.576	74
359.802	91
360.029	70
360.256	80
360.483	88
360.709	91
360.936	100
361.163	78
361.39	91
361.616	75
361.843	85
362.07	75
362.296	99
362.523	83
362.749	85
362.976	88
363.203	87
363.429	77
363.656	91
363.882	92
364.109	80
364.335	83
364.562	82
364.788	77
365.015	81
365.241	87
365.468	87
365.694	84
365.92	96
366.147	95
366.373	82
366.599	86
366.826	88
367.052	80
367.278	84
367.505	81
367.731	88
367.957	95
368.184	80
368.41	78
368.636	83
368.862	76
369.089	80
369.315	83
369.541	91
369.767	91
369.993	87
370.219	78
370.445	86
370.672	83
370.898	86
371.124	84
371.35	85
371.576	85
371.802	91
372.028	62
372.254	98
372.48	94
372.706	82
372.932	80
373.158	90
373.384	83
373.61	89
373.835	82
374.061	91
374.287	94
374.513	78
374.739	81
374.965	87
375.191	69
375.416	91
375.642	83
375.868	97
376.094	72
376.319	86
376.545	77
376.771	87
376.997	99
377.222	69
377.448	87
377.674	93
377.899	83
378.125	91
378.35	84
378.576	95
378.802	85
379.027	81
379.253	78
379.478	77
379.704	79
379.929	84
380.155	84
380.38	86
380.606	87
380.831	81
381.057	103
381.282	90
381.507	87
381.733	79
381.958	81
382.184	94
382.409	100
382.634	104
382.86	100
383.085	97
383.31	89
383.535	80
383.761	76
383.986	82
384.211	93
384.436	86
384.662	89
384.887	82
385.112	71
385.337	80
385.562	77
385.787	69
386.013	94
386.238	95
386.463	92
386.688	99
386.913	93
387.138	85
387.363	92
387.588	83
387.813	86
388.038	93
388.263	87
388.488	95
388.713	79
388.938	83
389.163	97
389.387	77
389.612	81
389.837	96
390.062	73
390.287	89
390.512	80
390.736	95
390.961	79
391.186	94
391.411	84
391.636	69
391.86	70
392.085	78
392.31	84
392.534	83
392.759	82
392.984	78
393.208	95
393.433	76
393.658	87
393.882	75
394.107	96
394.331	92
394.556	85
394.78	88
395.005	73
395.229	83
395.454	88
395.678	63
395.903	92
396.127	79
396.352	90
396.576	73
396.801	91
397.025	72
397.249	83
397.474	83
397.698	86
397.922	87
398.147	95
398.371	88
398.595	82
398.82	87
399.044	77
399.268	83
399.492	71
399.717	88
399.941	88
400.165	80
400.389	96
400.613	99
400.837	87
401.062	85
401.286	74
401.51	103
401.734	78
401.958	82
402.182	81
402.406	76
402.63	79
402.854	83
403.078	100
403.302	83
403.526	99
403.75	87
403.974	88
404.198	79
404.422	82
404.645	80
404.869	88
405.093	91
405.317	83
405.541	65
405.765	84
405.988	85
406.212	77
406.436	91
406.66	79
406.883	88
407.107	85
407.331	94
407.555	89
407.778	71
408.002	89
408.226	83
408.449	85
408.673	90
408.896	86
409.12	86
409.344	77
409.567	84
409.791	95
410.014	103
410.238	90
410.461	99
410.685	85
410.908	96
411.132	91
411.355	84
411.578	95
411.802	89
412.025	77
412.249	83
412.472	84
412.695	89
412.919	91
413.142	91
413.365	91
413.589	88
413.812	81
414.035	97
414.258	86
414.482	86
414.705	83
414.928	87
415.151	76
415.374	81
415.597	104
415.821	79
416.044	73
416.267	92
416.49	92
416.713	91
416.936	87
417.159	105
417.382	83
417.605	79
417.828	95
418.051	94
418.274	95
418.497	77
418.72	88
418.943	93
419.166	99
419.389	82
419.611	91
419.834	88
420.057	77
420.28	75
420.503	86
420.726	87
420.948	91
421.171	92
421.394	88
421.617	89
421.839	81
422.062	90
422.285	88
422.507	92
422.73	83
422.953	75
423.175	79
423.398	93
423.621	80
423.843	79
424.066	86
424.288	79
424.511	93
424.733	84
424.956	86
425.178	93
425.401	88
425.623	78
425.846	89
426.068	100
426.291	87
426.513	83
426.735	80
426.958	79
427.18	71
427.402	73
427.625	76
427.847	72
428.069	82
428.292	93
428.514	102
428.736	87
428.958	93
429.181	84
429.403	87
429.625	90
429.847	85
430.069	84
430.292	80
430.514	85
430.736	85
430.958	90
431.18	76
431.402	84
431.624	92
431.846	78
432.068	89
432.29	92
432.512	77
432.734	89
432.956	82
433.178	86
433.4	89
433.622	85
433.844	80
434.066	96
434.287	107
434.509	100
434.731	86
434.953	73
435.175	75
435.397	66
435.618	63
435.84	86
436.062	81
436.284	87
436.505	79
436.727	79
436.949	80
437.17	85
437.392	86
437.614	82
437.835	70
438.057	82
438.278	83
438.5	92
438.721	79
438.943	88
439.165	91
439.386	80
439.608	81
439.829	78
440.05	100
440.272	78
440.493	87
440.715	81
440.936	87
441.158	87
441.379	77
441.6	75
441.822	80
442.043	80
442.264	90
442.486	95
442.707	76
442.928	83
443.149	92
443.371	68
443.592	87
443.813	90
444.034	87
444.255	83
444.476	97
444.698	88
444.919	93
445.14	148
445.361	112
445.582	105
445.803	89
446.024	81
446.245	105
446.466	81
446.687	97
446.908	78
447.129	82
447.35	92
447.571	86
447.792	95
448.013	91
448.234	85
448.455	87
448.675	92
448.896	84
449.117	93
449.338	77
449.559	92
449.779	89
450	83
450.221	96
450.442	84
450.662	79
450.883	82
451.104	89
451.324	91
451.545	88
451.766	81
451.986	69
452.207	91
452.428	82
452.648	78
452.869	69
453.089	83
453.31	91
453.53	88
453.751	83
453.971	79
454.192	75
454.412	66
454.633	86
454.853	61
455.073	91
455.294	86
455.514	88
455.734	92
455.955	91
456.175	72
456.395	78
456.616	83
456.836	99
457.056	72
457.276	79
457.497	84
457.717	81
457.937	89
458.157	84
458.377	93
458.598	85
458.818	81
459.038	79
459.258	86
459.478	78
459.698	92
459.918	87
460.138	75
460.358	91
460.578	82
460.798	79
461.018	86
461.238	84
461.458	82
461.678	85
461.898	79
462.118	88
462.338	95
462.558	103
462.777	90
462.997	85
463.217	83
463.437	78
463.657	102
463.876	90
464.096	92
464.316	85
464.536	93
464.755	91
464.975	97
465.195	101
465.414	98
465.634	85
465.854	94
466.073	112
466.293	82
466.512	88
466.732	72
466.951	84
467.171	79
467.391	93
467.61	95
467.829	85
468.049	92
468.268	88
468.488	80
468.707	107
468.927	79
469.146	84
469.365	83
469.585	86
469.804	79
470.023	83
470.243	91
470.462	73
470.681	89
470.901	83
471.12	92
471.339	91
471.558	84
471.777	79
471.997	78
472.216	96
472.435	88
472.654	99
472.873	76
473.092	75
473.311	83
473.53	79
473.749	80
473.968	85
474.187	104
474.406	80
474.625	80
474.844	86
475.063	66
475.282	86
475.501	89
475.72	75
475.939	97
476.158	89
476.377	79
476.596	76
476.814	89
477.033	75
477.252	69
477.471	95
477.69	77
477.908	87
478.127	85
478.346	85
478.564	84
478.783	93
479.002	81
479.22	103
479.439	91
479.658	83
479.876	88
480.095	87
480.313	88
480.532	81
480.751	87
480.969	94
481.188	80
481.406	92
481.624	91
481.843	76
482.061	89
482.28	83
482.498	82
482.717	90
482.935	90
483.153	80
483.372	78
483.59	101
483.808	87
484.027	89
484.245	95
484.463	84
484.681	97
484.9	101
485.118	94
485.336	101
485.554	80
485.772	91
485.99	94
486.209	93
486.427	74
486.645	90
486.863	85
487.081	81
487.299	84
487.517	101
487.735	81
487.953	87
488.171	94
488.389	76
488.607	83
488.825	99
489.043	89
489.261	83
489.479	79
489.696	90
489.914	96
490.132	92
490.35	79
490.568	84
490.786	87
491.003	89
491.221	83
491.439	81
491.657	92
491.874	77
492.092	84
492.31	87
492.527	92
492.745	95
492.963	87
493.18	78
493.398	92
493.615	94
493.833	95
494.05	78
494.268	90
494.485	89
494.703	92
494.92	84
495.138	89
495.355	97
495.573	84
495.79	89
496.008	97
496.225	88
496.442	79
496.66	92
496.877	87
497.094	81
497.312	99
497.529	91
497.746	93
497.963	93
498.181	74
498.398	77
498.615	92
498.832	100
499.049	95
499.267	96
499.484	86
499.701	95
499.918	96
500.135	106
500.352	116
500.569	117
500.786	103
501.003	99
501.22	95
501.437	105
501.654	86
501.871	95
502.088	83
502.305	78
502.522	83
502.739	99
502.956	89
503.172	78
503.389	78
503.606	88
503.823	75
504.04	80
504.256	74
504.473	91
504.69	89
504.907	85
505.123	98
505.34	93
505.557	93
505.773	81
505.99	87
506.207	87
506.423	86
506.64	92
506.856	60
507.073	82
507.289	88
507.506	80
507.722	103
507.939	99
508.155	84
508.372	77
508.588	76
508.805	102
509.021	93
509.238	91
509.454	85
509.67	89
509.887	78
510.103	77
510.319	99
510.536	99
510.752	86
510.968	87
511.184	86
511.401	97
511.617	80
511.833	85
512.049	69
512.265	79
512.481	81
512.698	96
512.914	108
513.13	85
513.346	88
513.562	88
513.778	92
513.994	82
514.21	87
514.426	84
514.642	76
514.858	79
515.074	79
515.29	102
515.506	70
515.721	62
515.937	95
516.153	76
516.369	88
516.585	96
516.801	76
517.016	85
517.232	96
517.448	95
517.664	99
517.879	105
518.095	86
518.311	97
518.527	105
518.742	101
518.958	83
519.173	100
519.389	76
519.605	94
519.82	95
520.036	87
520.251	99
520.467	82
520.682	89
520.898	88
521.113	87
521.329	86
521.544	85
521.76	91
521.975	94
522.19	97
522.406	88
522.621	102
522.836	87
523.052	85
523.267	85
523.482	85
523.698	101
523.913	77
524.128	91
524.343	88
524.559	95
524.774	87
524.989	94
525.204	94
525.419	81
525.634	79
525.849	91
526.064	88
526.28	102
526.495	85
526.71	79
526.925	68
527.14	81
527.355	86
527.57	86
527.785	85
527.999	89
528.214	85
528.429	96
528.644	80
528.859	86
529.074	87
529.289	83
529.503	92
529.718	103
529.933	95
530.148	91
530.363	94
530.577	83
530.792	88
531.007	76
531.221	77
531.436	75
531.651	83
531.865	97
532.08	84
532.295	92
532.509	94
532.724	87
532.938	85
533.153	92
533.367	99
533.582	77
533.796	91
534.011	97
534.225	88
534.44	87
534.654	93
534.868	84
535.083	75
535.297	89
535.511	87
535.726	94
535.94	94
536.154	67
536.369	75
536.583	74
536.797	83
537.011	80
537.225	85
537.44	83
537.654	77
537.868	94
538.082	81
538.296	91
538.51	83
538.724	84
538.938	84
539.153	93
539.367	87
539.581	85
539.795	80
540.009	87
540.222	95
540.436	94
540.65	59
540.864	85
541.078	87
541.292	96
541.506	83
541.72	85
541.934	81
542.147	92
542.361	95
542.575	82
542.789	71
543.002	89
543.216	84
543.43	84
543.644	81
543.857	81
544.071	87
544.285	89
544.498	86
544.712	83
544.925	87
545.139	74
545.352	90
545.566	92
545.779	77
545.993	74
546.206	70
546.42	90
546.633	72
546.847	101
547.06	89
547.274	100
547.487	78
547.7	86
547.914	87
548.127	88
548.34	103
548.554	91
548.767	79
548.98	86
549.193	92
549.407	89
549.62	96
549.833	83
550.046	91
550.259	94
550.473	85
550.686	86
550.899	77
551.112	65
551.325	79
551.538	79
551.751	86
551.964	86
552.177	87
552.39	79
552.603	86
552.816	91
553.029	94
553.242	96
553.455	100
553.667	90
553.88	83
554.093	88
554.306	83
554.519	81
554.732	97
554.944	95
555.157	104
555.37	88
555.583	86
555.795	82
556.008	79
556.221	77
556.433	86
556.646	83
556.859	86
557.071	112
557.284	85
557.496	95
557.709	95
557.921	85
558.134	90
558.346	83
558.559	83
558.771	87
558.984	88
559.196	109
559.409	84
559.621	80
559.833	85
560.046	80
560.258	95
560.47	79
560.683	84
560.895	89
561.107	80
561.32	79
561.532	74
561.744	96
561.956	88
562.168	89
562.381	91
562.593	73
562.805	78
563.017	88
563.229	77
563.441	87
563.653	96
563.865	78
564.077	83
564.289	87
564.501	77
564.713	83
564.925	102
565.137	83
565.349	66
565.561	80
565.773	80
565.985	100
566.197	94
566.408	87
566.62	102
566.832	73
567.044	85
567.255	101
567.467	85
567.679	84
567.891	97
568.102	86
568.314	73
568.526	85
568.737	82
568.949	103
569.161	96
569.372	77
569.584	86
569.795	85
570.007	87
570.218	90
570.43	80
570.641	73
570.853	77
571.064	89
571.276	93
571.487	104
571.698	96
571.91	82
572.121	84
572.333	91
572.544	86
572.755	80
572.966	75
573.178	100
573.389	97
573.6	87
573.811	76
574.023	78
574.234	83
574.445	76
574.656	94
574.867	83
575.078	76
575.289	101
575.501	97
575.712	85
575.923	70
576.134	81
576.345	100
576.556	88
576.767	86
576.978	77
577.188	95
577.399	89
577.61	92
577.821	91
578.032	83
578.243	84
578.454	92
578.665	87
578.875	84
579.086	88
579.297	79
579.508	90
579.718	93
579.929	81
580.14	84
580.35	75
580.561	83
580.772	79
580.982	89
581.193	88
581.403	83
581.614	75
581.825	85
582.035	63
582.246	82
582.456	79
582.667	70
582.877	91
583.087	88
583.298	81
583.508	84
583.719	86
583.929	84
584.139	88
584.35	91
584.56	99
584.77	92
584.981	89
585.191	89
585.401	83
585.611	83
585.821	93
586.032	85
586.242	87
586.452	83
586.662	95
586.872	93
587.082	85
587.292	86
587.502	72
587.713	86
587.923	81
588.133	83
588.343	87
588.553	72
588.762	86
588.972	89
589.182	81
589.392	82
589.602	67
589.812	85
