Data from BG_HRD10591_075.txt Node
Date: Fri May 16 15:33:44 EDT 2025
User: Yrep
Spectrometer: HR+D1059
Trigger mode: 1
Integration Time (sec): 1.000000E-1
Scans to average: 1
Electric dark correction enabled: true
Nonlinearity correction enabled: false
Boxcar width: 0
XAxis mode: Wavelengths
Number of Pixels in Spectrum: 2048
>>>>>Begin Spectral Data<<<<<
223.165	-21.75
223.4	-21.75
223.635	-21.75
223.869	-15.75
224.104	-19.75
224.338	-28.75
224.573	-8.75
224.808	-4.75
225.042	-1.75
225.277	-2.75
225.511	2.25
225.746	6.25
225.98	6.25
226.215	4.25
226.449	17.25
226.683	16.25
226.918	26.25
227.152	25.25
227.387	43.25
227.621	34.25
227.856	44.25
228.09	46.25
228.324	61.25
228.559	61.25
228.793	35.25
229.027	61.25
229.262	71.25
229.496	59.25
229.73	63.25
229.964	76.25
230.199	76.25
230.433	82.25
230.667	74.25
230.901	84.25
231.136	71.25
231.37	74.25
231.604	76.25
231.838	80.25
232.072	86.25
232.306	74.25
232.541	95.25
232.775	89.25
233.009	82.25
233.243	79.25
233.477	74.25
233.711	74.25
233.945	73.25
234.179	86.25
234.413	83.25
234.647	92.25
234.881	83.25
235.115	56.25
235.349	80.25
235.583	76.25
235.817	87.25
236.051	77.25
236.285	77.25
236.519	72.25
236.753	84.25
236.987	89.25
237.221	73.25
237.455	68.25
237.689	66.25
237.922	72.25
238.156	94.25
238.39	84.25
238.624	88.25
238.858	81.25
239.091	78.25
239.325	64.25
239.559	78.25
239.793	77.25
240.027	66.25
240.26	54.25
240.494	72.25
240.728	81.25
240.961	77.25
241.195	74.25
241.429	82.25
241.662	78.25
241.896	68.25
242.13	67.25
242.363	87.25
242.597	72.25
242.83	75.25
243.064	76.25
243.298	78.25
243.531	66.25
243.765	77.25
243.998	80.25
244.232	75.25
244.465	80.25
244.699	78.25
244.932	69.25
245.166	68.25
245.399	84.25
245.633	78.25
245.866	82.25
246.099	83.25
246.333	67.25
246.566	75.25
246.8	79.25
247.033	84.25
247.266	93.25
247.5	88.25
247.733	88.25
247.966	75.25
248.2	70.25
248.433	68.25
248.666	73.25
248.899	78.25
249.133	76.25
249.366	93.25
249.599	85.25
249.832	90.25
250.066	87.25
250.299	79.25
250.532	77.25
250.765	71.25
250.998	93.25
251.231	79.25
251.465	71.25
251.698	84.25
251.931	81.25
252.164	72.25
252.397	74.25
252.63	79.25
252.863	82.25
253.096	77.25
253.329	89.25
253.562	78.25
253.795	94.25
254.028	86.25
254.261	85.25
254.494	84.25
254.727	65.25
254.96	77.25
255.193	86.25
255.426	80.25
255.659	87.25
255.892	93.25
256.124	79.25
256.357	71.25
256.59	74.25
256.823	85.25
257.056	80.25
257.289	87.25
257.521	88.25
257.754	83.25
257.987	78.25
258.22	79.25
258.452	86.25
258.685	78.25
258.918	94.25
259.151	87.25
259.383	80.25
259.616	77.25
259.849	75.25
260.081	72.25
260.314	64.25
260.547	78.25
260.779	65.25
261.012	68.25
261.244	89.25
261.477	80.25
261.71	88.25
261.942	80.25
262.175	79.25
262.407	87.25
262.64	86.25
262.872	84.25
263.105	66.25
263.337	89.25
263.57	74.25
263.802	81.25
264.035	99.25
264.267	79.25
264.499	72.25
264.732	84.25
264.964	81.25
265.197	92.25
265.429	88.25
265.661	98.25
265.894	73.25
266.126	90.25
266.358	68.25
266.591	82.25
266.823	86.25
267.055	86.25
267.287	77.25
267.52	83.25
267.752	86.25
267.984	88.25
268.216	86.25
268.448	82.25
268.681	88.25
268.913	85.25
269.145	92.25
269.377	82.25
269.609	80.25
269.841	88.25
270.073	103.25
270.306	67.25
270.538	80.25
270.77	82.25
271.002	85.25
271.234	82.25
271.466	84.25
271.698	93.25
271.93	85.25
272.162	90.25
272.394	84.25
272.626	87.25
272.858	83.25
273.09	71.25
273.322	87.25
273.553	70.25
273.785	75.25
274.017	88.25
274.249	80.25
274.481	82.25
274.713	88.25
274.945	87.25
275.176	74.25
275.408	86.25
275.64	81.25
275.872	90.25
276.104	94.25
276.335	104.25
276.567	96.25
276.799	88.25
277.031	89.25
277.262	99.25
277.494	99.25
277.726	85.25
277.957	79.25
278.189	76.25
278.421	89.25
278.652	84.25
278.884	74.25
279.115	91.25
279.347	94.25
279.579	93.25
279.81	83.25
280.042	76.25
280.273	83.25
280.505	82.25
280.736	76.25
280.968	94.25
281.199	95.25
281.431	82.25
281.662	90.25
281.894	94.25
282.125	83.25
282.356	83.25
282.588	86.25
282.819	76.25
283.051	79.25
283.282	77.25
283.513	88.25
283.745	80.25
283.976	91.25
284.207	90.25
284.439	92.25
284.67	98.25
284.901	89.25
285.132	97.25
285.364	82.25
285.595	91.25
285.826	97.25
286.057	81.25
286.288	59.25
286.52	85.25
286.751	79.25
286.982	60.25
287.213	81.25
287.444	92.25
287.675	95.25
287.906	87.25
288.138	78.25
288.369	80.25
288.6	92.25
288.831	76.25
289.062	91.25
289.293	93.25
289.524	88.25
289.755	85.25
289.986	67.25
290.217	89.25
290.448	88.25
290.679	85.25
290.91	87.25
291.141	83.25
291.371	100.25
291.602	77.25
291.833	66.25
292.064	89.25
292.295	83.25
292.526	80.25
292.757	93.25
292.987	83.25
293.218	78.25
293.449	94.25
293.68	84.25
293.91	70.25
294.141	70.25
294.372	92.25
294.603	77.25
294.833	91.25
295.064	101.25
295.295	76.25
295.525	79.25
295.756	88.25
295.987	81.25
296.217	86.25
296.448	95.25
296.679	80.25
296.909	97.25
297.14	79.25
297.37	86.25
297.601	88.25
297.831	82.25
298.062	85.25
298.292	89.25
298.523	87.25
298.753	76.25
298.984	75.25
299.214	84.25
299.445	88.25
299.675	80.25
299.905	91.25
300.136	91.25
300.366	91.25
300.597	94.25
300.827	86.25
301.057	75.25
301.288	77.25
301.518	79.25
301.748	87.25
301.979	103.25
302.209	77.25
302.439	86.25
302.669	92.25
302.9	80.25
303.13	79.25
303.36	96.25
303.59	79.25
303.82	96.25
304.051	78.25
304.281	98.25
304.511	91.25
304.741	95.25
304.971	89.25
305.201	99.25
305.431	85.25
305.661	82.25
305.891	78.25
306.121	80.25
306.352	96.25
306.582	83.25
306.812	90.25
307.042	80.25
307.272	86.25
307.502	82.25
307.731	86.25
307.961	92.25
308.191	84.25
308.421	88.25
308.651	87.25
308.881	92.25
309.111	88.25
309.341	72.25
309.571	77.25
309.8	86.25
310.03	83.25
310.26	97.25
310.49	79.25
310.72	86.25
310.949	78.25
311.179	99.25
311.409	100.25
311.639	87.25
311.868	87.25
312.098	80.25
312.328	86.25
312.557	80.25
312.787	96.25
313.017	85.25
313.246	87.25
313.476	94.25
313.706	88.25
313.935	82.25
314.165	103.25
314.394	94.25
314.624	70.25
314.853	83.25
315.083	85.25
315.312	80.25
315.542	95.25
315.771	81.25
316.001	78.25
316.23	82.25
316.46	82.25
316.689	89.25
316.919	77.25
317.148	97.25
317.377	103.25
317.607	93.25
317.836	94.25
318.065	79.25
318.295	97.25
318.524	91.25
318.753	91.25
318.983	87.25
319.212	89.25
319.441	81.25
319.67	90.25
319.9	81.25
320.129	89.25
320.358	74.25
320.587	93.25
320.816	91.25
321.046	86.25
321.275	94.25
321.504	83.25
321.733	92.25
321.962	81.25
322.191	108.25
322.42	89.25
322.649	92.25
322.878	95.25
323.108	83.25
323.337	78.25
323.566	83.25
323.795	82.25
324.024	79.25
324.253	87.25
324.482	79.25
324.71	86.25
324.939	87.25
325.168	92.25
325.397	79.25
325.626	80.25
325.855	87.25
326.084	77.25
326.313	91.25
326.542	82.25
326.77	92.25
326.999	103.25
327.228	89.25
327.457	66.25
327.686	92.25
327.914	85.25
328.143	96.25
328.372	66.25
328.6	86.25
328.829	91.25
329.058	91.25
329.287	95.25
329.515	88.25
329.744	87.25
329.972	95.25
330.201	83.25
330.43	96.25
330.658	82.25
330.887	101.25
331.115	83.25
331.344	77.25
331.572	88.25
331.801	88.25
332.03	89.25
332.258	84.25
332.486	83.25
332.715	92.25
332.943	105.25
333.172	98.25
333.4	94.25
333.629	86.25
333.857	83.25
334.085	72.25
334.314	95.25
334.542	85.25
334.771	94.25
334.999	83.25
335.227	77.25
335.455	80.25
335.684	106.25
335.912	80.25
336.14	104.25
336.369	90.25
336.597	83.25
336.825	81.25
337.053	81.25
337.281	96.25
337.51	88.25
337.738	79.25
337.966	90.25
338.194	82.25
338.422	84.25
338.65	92.25
338.878	93.25
339.106	85.25
339.334	98.25
339.562	94.25
339.79	96.25
340.018	98.25
340.246	86.25
340.474	94.25
340.702	88.25
340.93	73.25
341.158	77.25
341.386	91.25
341.614	87.25
341.842	82.25
342.07	75.25
342.298	79.25
342.526	85.25
342.754	94.25
342.981	83.25
343.209	80.25
343.437	83.25
343.665	88.25
343.893	95.25
344.12	88.25
344.348	82.25
344.576	109.25
344.804	76.25
345.031	91.25
345.259	100.25
345.487	92.25
345.714	89.25
345.942	88.25
346.17	81.25
346.397	74.25
346.625	87.25
346.853	95.25
347.08	81.25
347.308	91.25
347.535	93.25
347.763	82.25
347.99	82.25
348.218	91.25
348.445	72.25
348.673	89.25
348.9	94.25
349.128	79.25
349.355	69.25
349.583	102.25
349.81	84.25
350.037	90.25
350.265	85.25
350.492	82.25
350.72	87.25
350.947	83.25
351.174	83.25
351.402	78.25
351.629	85.25
351.856	91.25
352.083	85.25
352.311	94.25
352.538	89.25
352.765	79.25
352.992	102.25
353.22	89.25
353.447	79.25
353.674	97.25
353.901	94.25
354.128	75.25
354.355	95.25
354.583	98.25
354.81	93.25
355.037	81.25
355.264	78.25
355.491	80.25
355.718	84.25
355.945	92.25
356.172	78.25
356.399	76.25
356.626	73.25
356.853	64.25
357.08	83.25
357.307	87.25
357.534	83.25
357.761	82.25
357.988	81.25
358.215	96.25
358.441	77.25
358.668	93.25
358.895	89.25
359.122	89.25
359.349	92.25
359.576	75.25
359.802	96.25
360.029	82.25
360.256	74.25
360.483	82.25
360.709	81.25
360.936	84.25
361.163	84.25
361.39	84.25
361.616	79.25
361.843	83.25
362.07	78.25
362.296	89.25
362.523	90.25
362.749	82.25
362.976	80.25
363.203	93.25
363.429	93.25
363.656	76.25
363.882	83.25
364.109	72.25
364.335	86.25
364.562	81.25
364.788	65.25
365.015	96.25
365.241	94.25
365.468	82.25
365.694	82.25
365.92	81.25
366.147	72.25
366.373	81.25
366.599	71.25
366.826	78.25
367.052	81.25
367.278	83.25
367.505	91.25
367.731	76.25
367.957	96.25
368.184	79.25
368.41	91.25
368.636	87.25
368.862	93.25
369.089	90.25
369.315	76.25
369.541	79.25
369.767	78.25
369.993	83.25
370.219	81.25
370.445	87.25
370.672	84.25
370.898	76.25
371.124	83.25
371.35	81.25
371.576	91.25
371.802	98.25
372.028	95.25
372.254	78.25
372.48	81.25
372.706	86.25
372.932	90.25
373.158	91.25
373.384	78.25
373.61	89.25
373.835	83.25
374.061	98.25
374.287	82.25
374.513	97.25
374.739	78.25
374.965	77.25
375.191	69.25
375.416	96.25
375.642	91.25
375.868	86.25
376.094	86.25
376.319	79.25
376.545	96.25
376.771	92.25
376.997	90.25
377.222	87.25
377.448	95.25
377.674	80.25
377.899	88.25
378.125	89.25
378.35	83.25
378.576	80.25
378.802	84.25
379.027	92.25
379.253	78.25
379.478	92.25
379.704	94.25
379.929	97.25
380.155	89.25
380.38	80.25
380.606	84.25
380.831	93.25
381.057	83.25
381.282	69.25
381.507	89.25
381.733	87.25
381.958	80.25
382.184	92.25
382.409	104.25
382.634	80.25
382.86	85.25
383.085	97.25
383.31	87.25
383.535	83.25
383.761	94.25
383.986	83.25
384.211	79.25
384.436	89.25
384.662	83.25
384.887	86.25
385.112	86.25
385.337	83.25
385.562	80.25
385.787	78.25
386.013	84.25
386.238	76.25
386.463	82.25
386.688	97.25
386.913	76.25
387.138	73.25
387.363	88.25
387.588	91.25
387.813	86.25
388.038	81.25
388.263	92.25
388.488	88.25
388.713	74.25
388.938	83.25
389.163	83.25
389.387	90.25
389.612	85.25
389.837	95.25
390.062	88.25
390.287	81.25
390.512	98.25
390.736	78.25
390.961	94.25
391.186	79.25
391.411	82.25
391.636	95.25
391.86	93.25
392.085	90.25
392.31	82.25
392.534	86.25
392.759	90.25
392.984	75.25
393.208	94.25
393.433	89.25
393.658	86.25
393.882	87.25
394.107	87.25
394.331	106.25
394.556	98.25
394.78	76.25
395.005	86.25
395.229	89.25
395.454	95.25
395.678	90.25
395.903	81.25
396.127	83.25
396.352	74.25
396.576	93.25
396.801	84.25
397.025	79.25
397.249	93.25
397.474	97.25
397.698	94.25
397.922	95.25
398.147	98.25
398.371	89.25
398.595	102.25
398.82	91.25
399.044	104.25
399.268	95.25
399.492	81.25
399.717	88.25
399.941	89.25
400.165	90.25
400.389	79.25
400.613	97.25
400.837	89.25
401.062	92.25
401.286	87.25
401.51	96.25
401.734	82.25
401.958	90.25
402.182	98.25
402.406	75.25
402.63	82.25
402.854	90.25
403.078	85.25
403.302	80.25
403.526	98.25
403.75	84.25
403.974	95.25
404.198	89.25
404.422	80.25
404.645	85.25
404.869	91.25
405.093	85.25
405.317	82.25
405.541	83.25
405.765	82.25
405.988	80.25
406.212	89.25
406.436	87.25
406.66	96.25
406.883	87.25
407.107	96.25
407.331	83.25
407.555	99.25
407.778	83.25
408.002	93.25
408.226	96.25
408.449	83.25
408.673	90.25
408.896	88.25
409.12	86.25
409.344	91.25
409.567	94.25
409.791	94.25
410.014	89.25
410.238	83.25
410.461	78.25
410.685	74.25
410.908	83.25
411.132	85.25
411.355	88.25
411.578	78.25
411.802	91.25
412.025	99.25
412.249	73.25
412.472	88.25
412.695	86.25
412.919	102.25
413.142	92.25
413.365	87.25
413.589	82.25
413.812	81.25
414.035	96.25
414.258	78.25
414.482	100.25
414.705	84.25
414.928	93.25
415.151	92.25
415.374	82.25
415.597	88.25
415.821	78.25
416.044	88.25
416.267	99.25
416.49	88.25
416.713	98.25
416.936	85.25
417.159	73.25
417.382	88.25
417.605	87.25
417.828	78.25
418.051	89.25
418.274	98.25
418.497	86.25
418.72	81.25
418.943	81.25
419.166	96.25
419.389	88.25
419.611	81.25
419.834	82.25
420.057	97.25
420.28	106.25
420.503	91.25
420.726	96.25
420.948	72.25
421.171	86.25
421.394	72.25
421.617	80.25
421.839	88.25
422.062	88.25
422.285	100.25
422.507	80.25
422.73	84.25
422.953	88.25
423.175	92.25
423.398	80.25
423.621	98.25
423.843	80.25
424.066	81.25
424.288	70.25
424.511	79.25
424.733	96.25
424.956	76.25
425.178	86.25
425.401	88.25
425.623	88.25
425.846	72.25
426.068	82.25
426.291	81.25
426.513	91.25
426.735	73.25
426.958	95.25
427.18	76.25
427.402	90.25
427.625	94.25
427.847	83.25
428.069	86.25
428.292	84.25
428.514	96.25
428.736	86.25
428.958	87.25
429.181	95.25
429.403	102.25
429.625	89.25
429.847	83.25
430.069	94.25
430.292	86.25
430.514	88.25
430.736	83.25
430.958	85.25
431.18	80.25
431.402	88.25
431.624	106.25
431.846	88.25
432.068	83.25
432.29	94.25
432.512	91.25
432.734	83.25
432.956	79.25
433.178	94.25
433.4	91.25
433.622	84.25
433.844	88.25
434.066	88.25
434.287	83.25
434.509	83.25
434.731	82.25
434.953	72.25
435.175	91.25
435.397	87.25
435.618	94.25
435.84	82.25
436.062	103.25
436.284	78.25
436.505	90.25
436.727	73.25
436.949	90.25
437.17	87.25
437.392	105.25
437.614	89.25
437.835	87.25
438.057	80.25
438.278	81.25
438.5	90.25
438.721	77.25
438.943	87.25
439.165	80.25
439.386	90.25
439.608	101.25
439.829	86.25
440.05	91.25
440.272	88.25
440.493	83.25
440.715	82.25
440.936	69.25
441.158	96.25
441.379	86.25
441.6	96.25
441.822	89.25
442.043	89.25
442.264	84.25
442.486	73.25
442.707	77.25
442.928	78.25
443.149	96.25
443.371	84.25
443.592	104.25
443.813	91.25
444.034	81.25
444.255	92.25
444.476	81.25
444.698	80.25
444.919	84.25
445.14	153.25
445.361	129.25
445.582	99.25
445.803	80.25
446.024	83.25
446.245	89.25
446.466	73.25
446.687	92.25
446.908	94.25
447.129	96.25
447.35	90.25
447.571	82.25
447.792	80.25
448.013	79.25
448.234	89.25
448.455	81.25
448.675	102.25
448.896	98.25
449.117	90.25
449.338	85.25
449.559	89.25
449.779	80.25
450	79.25
450.221	77.25
450.442	80.25
450.662	82.25
450.883	74.25
451.104	81.25
451.324	103.25
451.545	92.25
451.766	87.25
451.986	98.25
452.207	91.25
452.428	100.25
452.648	99.25
452.869	78.25
453.089	89.25
453.31	93.25
453.53	87.25
453.751	81.25
453.971	86.25
454.192	86.25
454.412	84.25
454.633	89.25
454.853	88.25
455.073	92.25
455.294	97.25
455.514	83.25
455.734	94.25
455.955	90.25
456.175	80.25
456.395	92.25
456.616	94.25
456.836	95.25
457.056	83.25
457.276	91.25
457.497	90.25
457.717	96.25
457.937	81.25
458.157	94.25
458.377	92.25
458.598	75.25
458.818	81.25
459.038	89.25
459.258	80.25
459.478	96.25
459.698	87.25
459.918	90.25
460.138	74.25
460.358	87.25
460.578	86.25
460.798	81.25
461.018	92.25
461.238	94.25
461.458	86.25
461.678	82.25
461.898	88.25
462.118	95.25
462.338	86.25
462.558	95.25
462.777	92.25
462.997	85.25
463.217	87.25
463.437	93.25
463.657	102.25
463.876	79.25
464.096	78.25
464.316	89.25
464.536	99.25
464.755	89.25
464.975	103.25
465.195	76.25
465.414	81.25
465.634	89.25
465.854	88.25
466.073	88.25
466.293	85.25
466.512	87.25
466.732	78.25
466.951	97.25
467.171	98.25
467.391	92.25
467.61	92.25
467.829	81.25
468.049	76.25
468.268	87.25
468.488	95.25
468.707	86.25
468.927	83.25
469.146	71.25
469.365	89.25
469.585	88.25
469.804	82.25
470.023	75.25
470.243	80.25
470.462	105.25
470.681	106.25
470.901	90.25
471.12	83.25
471.339	94.25
471.558	87.25
471.777	87.25
471.997	84.25
472.216	84.25
472.435	74.25
472.654	80.25
472.873	101.25
473.092	91.25
473.311	79.25
473.53	94.25
473.749	91.25
473.968	90.25
474.187	90.25
474.406	75.25
474.625	92.25
474.844	95.25
475.063	92.25
475.282	97.25
475.501	90.25
475.72	81.25
475.939	90.25
476.158	79.25
476.377	87.25
476.596	80.25
476.814	80.25
477.033	90.25
477.252	84.25
477.471	96.25
477.69	86.25
477.908	90.25
478.127	97.25
478.346	98.25
478.564	95.25
478.783	96.25
479.002	84.25
479.22	89.25
479.439	102.25
479.658	84.25
479.876	80.25
480.095	82.25
480.313	90.25
480.532	86.25
480.751	93.25
480.969	96.25
481.188	94.25
481.406	92.25
481.624	78.25
481.843	78.25
482.061	87.25
482.28	90.25
482.498	83.25
482.717	85.25
482.935	87.25
483.153	89.25
483.372	90.25
483.59	93.25
483.808	82.25
484.027	86.25
484.245	84.25
484.463	99.25
484.681	92.25
484.9	91.25
485.118	74.25
485.336	86.25
485.554	93.25
485.772	89.25
485.99	91.25
486.209	84.25
486.427	97.25
486.645	82.25
486.863	89.25
487.081	92.25
487.299	93.25
487.517	94.25
487.735	86.25
487.953	92.25
488.171	87.25
488.389	82.25
488.607	95.25
488.825	75.25
489.043	102.25
489.261	88.25
489.479	75.25
489.696	82.25
489.914	88.25
490.132	89.25
490.35	89.25
490.568	95.25
490.786	92.25
491.003	93.25
491.221	86.25
491.439	87.25
491.657	77.25
491.874	77.25
492.092	87.25
492.31	83.25
492.527	90.25
492.745	82.25
492.963	91.25
493.18	98.25
493.398	87.25
493.615	80.25
493.833	106.25
494.05	90.25
494.268	73.25
494.485	104.25
494.703	96.25
494.92	90.25
495.138	87.25
495.355	78.25
495.573	99.25
495.79	91.25
496.008	88.25
496.225	91.25
496.442	90.25
496.66	106.25
496.877	91.25
497.094	86.25
497.312	88.25
497.529	79.25
497.746	99.25
497.963	96.25
498.181	98.25
498.398	81.25
498.615	91.25
498.832	79.25
499.049	90.25
499.267	97.25
499.484	108.25
499.701	114.25
499.918	106.25
500.135	108.25
500.352	121.25
500.569	104.25
500.786	117.25
501.003	108.25
501.22	92.25
501.437	117.25
501.654	98.25
501.871	92.25
502.088	78.25
502.305	86.25
502.522	92.25
502.739	93.25
502.956	106.25
503.172	87.25
503.389	92.25
503.606	84.25
503.823	96.25
504.04	95.25
504.256	88.25
504.473	88.25
504.69	94.25
504.907	114.25
505.123	86.25
505.34	102.25
505.557	78.25
505.773	92.25
505.99	88.25
506.207	87.25
506.423	81.25
506.64	78.25
506.856	81.25
507.073	86.25
507.289	89.25
507.506	110.25
507.722	78.25
507.939	86.25
508.155	98.25
508.372	87.25
508.588	92.25
508.805	98.25
509.021	74.25
509.238	90.25
509.454	80.25
509.67	67.25
509.887	77.25
510.103	83.25
510.319	82.25
510.536	96.25
510.752	90.25
510.968	75.25
511.184	95.25
511.401	100.25
511.617	108.25
511.833	88.25
512.049	82.25
512.265	81.25
512.481	87.25
512.698	100.25
512.914	95.25
513.13	92.25
513.346	85.25
513.562	104.25
513.778	98.25
513.994	78.25
514.21	91.25
514.426	86.25
514.642	90.25
514.858	87.25
515.074	81.25
515.29	92.25
515.506	77.25
515.721	106.25
515.937	99.25
516.153	79.25
516.369	77.25
516.585	91.25
516.801	78.25
517.016	88.25
517.232	110.25
517.448	82.25
517.664	86.25
517.879	80.25
518.095	108.25
518.311	89.25
518.527	91.25
518.742	86.25
518.958	95.25
519.173	99.25
519.389	92.25
