Data from BG_HRD10591_045.txt Node
Date: Fri May 16 15:33:29 EDT 2025
User: Yrep
Spectrometer: HR+D1059
Trigger mode: 1
Integration Time (sec): 1.000000E-1
Scans to average: 1
Electric dark correction enabled: true
Nonlinearity correction enabled: false
Boxcar width: 0
XAxis mode: Wavelengths
Number of Pixels in Spectrum: 2048
>>>>>Begin Spectral Data<<<<<
223.165	-19.62
223.4	-19.62
223.635	-19.62
223.869	-18.62
224.104	-29.62
224.338	-13.62
224.573	-18.62
224.808	-9.62
225.042	3.38
225.277	-1.62
225.511	1.38
225.746	9.38
225.98	-7.62
226.215	12.38
226.449	13.38
226.683	21.38
226.918	31.38
227.152	26.38
227.387	23.38
227.621	40.38
227.856	51.38
228.09	57.38
228.324	55.38
228.559	62.38
228.793	46.38
229.027	72.38
229.262	61.38
229.496	68.38
229.73	62.38
229.964	80.38
230.199	62.38
230.433	78.38
230.667	64.38
230.901	74.38
231.136	71.38
231.37	77.38
231.604	73.38
231.838	83.38
232.072	75.38
232.306	79.38
232.541	88.38
232.775	87.38
233.009	78.38
233.243	75.38
233.477	85.38
233.711	84.38
233.945	74.38
234.179	73.38
234.413	71.38
234.647	90.38
234.881	97.38
235.115	74.38
235.349	80.38
235.583	70.38
235.817	83.38
236.051	82.38
236.285	70.38
236.519	71.38
236.753	83.38
236.987	79.38
237.221	78.38
237.455	86.38
237.689	81.38
237.922	75.38
238.156	64.38
238.39	83.38
238.624	63.38
238.858	74.38
239.091	81.38
239.325	72.38
239.559	65.38
239.793	86.38
240.027	79.38
240.26	68.38
240.494	71.38
240.728	79.38
240.961	83.38
241.195	66.38
241.429	86.38
241.662	73.38
241.896	71.38
242.13	80.38
242.363	77.38
242.597	75.38
242.83	68.38
243.064	71.38
243.298	80.38
243.531	65.38
243.765	86.38
243.998	77.38
244.232	85.38
244.465	75.38
244.699	60.38
244.932	74.38
245.166	74.38
245.399	83.38
245.633	77.38
245.866	86.38
246.099	79.38
246.333	86.38
246.566	68.38
246.8	81.38
247.033	82.38
247.266	77.38
247.5	87.38
247.733	79.38
247.966	62.38
248.2	74.38
248.433	91.38
248.666	75.38
248.899	78.38
249.133	88.38
249.366	91.38
249.599	99.38
249.832	82.38
250.066	83.38
250.299	96.38
250.532	85.38
250.765	74.38
250.998	80.38
251.231	87.38
251.465	97.38
251.698	91.38
251.931	68.38
252.164	73.38
252.397	90.38
252.63	81.38
252.863	70.38
253.096	75.38
253.329	88.38
253.562	78.38
253.795	87.38
254.028	85.38
254.261	81.38
254.494	82.38
254.727	82.38
254.96	62.38
255.193	75.38
255.426	73.38
255.659	82.38
255.892	86.38
256.124	59.38
256.357	67.38
256.59	84.38
256.823	73.38
257.056	80.38
257.289	71.38
257.521	79.38
257.754	73.38
257.987	89.38
258.22	81.38
258.452	77.38
258.685	79.38
258.918	91.38
259.151	85.38
259.383	78.38
259.616	73.38
259.849	84.38
260.081	91.38
260.314	67.38
260.547	68.38
260.779	79.38
261.012	75.38
261.244	90.38
261.477	78.38
261.71	73.38
261.942	77.38
262.175	77.38
262.407	90.38
262.64	80.38
262.872	77.38
263.105	74.38
263.337	75.38
263.57	77.38
263.802	84.38
264.035	72.38
264.267	70.38
264.499	97.38
264.732	77.38
264.964	89.38
265.197	77.38
265.429	73.38
265.661	74.38
265.894	78.38
266.126	89.38
266.358	86.38
266.591	75.38
266.823	77.38
267.055	85.38
267.287	83.38
267.52	88.38
267.752	79.38
267.984	78.38
268.216	74.38
268.448	87.38
268.681	78.38
268.913	87.38
269.145	87.38
269.377	86.38
269.609	102.38
269.841	82.38
270.073	81.38
270.306	91.38
270.538	80.38
270.77	88.38
271.002	87.38
271.234	90.38
271.466	89.38
271.698	73.38
271.93	81.38
272.162	75.38
272.394	66.38
272.626	80.38
272.858	93.38
273.09	90.38
273.322	82.38
273.553	85.38
273.785	77.38
274.017	78.38
274.249	85.38
274.481	81.38
274.713	81.38
274.945	82.38
275.176	72.38
275.408	90.38
275.64	86.38
275.872	80.38
276.104	78.38
276.335	72.38
276.567	74.38
276.799	80.38
277.031	81.38
277.262	83.38
277.494	89.38
277.726	85.38
277.957	74.38
278.189	89.38
278.421	82.38
278.652	94.38
278.884	75.38
279.115	82.38
279.347	86.38
279.579	89.38
279.81	86.38
280.042	89.38
280.273	76.38
280.505	79.38
280.736	87.38
280.968	79.38
281.199	91.38
281.431	88.38
281.662	101.38
281.894	89.38
282.125	81.38
282.356	82.38
282.588	89.38
282.819	80.38
283.051	86.38
283.282	81.38
283.513	65.38
283.745	94.38
283.976	71.38
284.207	78.38
284.439	87.38
284.67	77.38
284.901	84.38
285.132	72.38
285.364	83.38
285.595	75.38
285.826	90.38
286.057	79.38
286.288	77.38
286.52	86.38
286.751	72.38
286.982	89.38
287.213	84.38
287.444	74.38
287.675	90.38
287.906	81.38
288.138	86.38
288.369	82.38
288.6	72.38
288.831	90.38
289.062	82.38
289.293	84.38
289.524	73.38
289.755	82.38
289.986	89.38
290.217	105.38
290.448	88.38
290.679	80.38
290.91	78.38
291.141	83.38
291.371	81.38
291.602	89.38
291.833	104.38
292.064	98.38
292.295	85.38
292.526	86.38
292.757	76.38
292.987	89.38
293.218	90.38
293.449	77.38
293.68	92.38
293.91	79.38
294.141	89.38
294.372	80.38
294.603	79.38
294.833	75.38
295.064	85.38
295.295	87.38
295.525	81.38
295.756	87.38
295.987	82.38
296.217	92.38
296.448	82.38
296.679	76.38
296.909	82.38
297.14	82.38
297.37	77.38
297.601	69.38
297.831	88.38
298.062	80.38
298.292	81.38
298.523	83.38
298.753	82.38
298.984	101.38
299.214	91.38
299.445	82.38
299.675	88.38
299.905	82.38
300.136	93.38
300.366	73.38
300.597	78.38
300.827	82.38
301.057	83.38
301.288	75.38
301.518	64.38
301.748	81.38
301.979	96.38
302.209	78.38
302.439	77.38
302.669	86.38
302.9	98.38
303.13	71.38
303.36	103.38
303.59	98.38
303.82	92.38
304.051	86.38
304.281	87.38
304.511	91.38
304.741	78.38
304.971	90.38
305.201	89.38
305.431	103.38
305.661	81.38
305.891	77.38
306.121	79.38
306.352	93.38
306.582	85.38
306.812	80.38
307.042	87.38
307.272	87.38
307.502	80.38
307.731	81.38
307.961	113.38
308.191	87.38
308.421	94.38
308.651	96.38
308.881	75.38
309.111	81.38
309.341	86.38
309.571	90.38
309.8	91.38
310.03	78.38
310.26	81.38
310.49	88.38
310.72	84.38
310.949	83.38
311.179	87.38
311.409	87.38
311.639	87.38
311.868	86.38
312.098	98.38
312.328	91.38
312.557	76.38
312.787	92.38
313.017	83.38
313.246	71.38
313.476	95.38
313.706	88.38
313.935	98.38
314.165	87.38
314.394	96.38
314.624	78.38
314.853	90.38
315.083	83.38
315.312	93.38
315.542	83.38
315.771	91.38
316.001	89.38
316.23	93.38
316.46	105.38
316.689	89.38
316.919	76.38
317.148	75.38
317.377	76.38
317.607	80.38
317.836	81.38
318.065	82.38
318.295	80.38
318.524	90.38
318.753	75.38
318.983	74.38
319.212	96.38
319.441	83.38
319.67	92.38
319.9	81.38
320.129	94.38
320.358	95.38
320.587	83.38
320.816	76.38
321.046	85.38
321.275	86.38
321.504	87.38
321.733	74.38
321.962	88.38
322.191	86.38
322.42	72.38
322.649	93.38
322.878	91.38
323.108	82.38
323.337	93.38
323.566	82.38
323.795	89.38
324.024	87.38
324.253	88.38
324.482	73.38
324.71	77.38
324.939	72.38
325.168	86.38
325.397	81.38
325.626	89.38
325.855	87.38
326.084	90.38
326.313	95.38
326.542	90.38
326.77	92.38
326.999	79.38
327.228	89.38
327.457	101.38
327.686	78.38
327.914	66.38
328.143	101.38
328.372	69.38
328.6	70.38
328.829	73.38
329.058	93.38
329.287	82.38
329.515	71.38
329.744	83.38
329.972	60.38
330.201	95.38
330.43	78.38
330.658	77.38
330.887	102.38
331.115	79.38
331.344	87.38
331.572	89.38
331.801	95.38
332.03	87.38
332.258	81.38
332.486	83.38
332.715	101.38
332.943	100.38
333.172	75.38
333.4	90.38
333.629	82.38
333.857	102.38
334.085	90.38
334.314	87.38
334.542	101.38
334.771	89.38
334.999	78.38
335.227	88.38
335.455	91.38
335.684	101.38
335.912	77.38
336.14	89.38
336.369	88.38
336.597	83.38
336.825	83.38
337.053	84.38
337.281	91.38
337.51	74.38
337.738	85.38
337.966	82.38
338.194	85.38
338.422	83.38
338.65	93.38
338.878	105.38
339.106	84.38
339.334	81.38
339.562	87.38
339.79	93.38
340.018	87.38
340.246	80.38
340.474	92.38
340.702	78.38
340.93	93.38
341.158	93.38
341.386	88.38
341.614	98.38
341.842	81.38
342.07	78.38
342.298	80.38
342.526	91.38
342.754	93.38
342.981	76.38
343.209	90.38
343.437	97.38
343.665	84.38
343.893	87.38
344.12	82.38
344.348	84.38
344.576	78.38
344.804	75.38
345.031	96.38
345.259	83.38
345.487	88.38
345.714	83.38
345.942	75.38
346.17	86.38
346.397	88.38
346.625	85.38
346.853	91.38
347.08	82.38
347.308	90.38
347.535	97.38
347.763	88.38
347.99	88.38
348.218	86.38
348.445	89.38
348.673	73.38
348.9	87.38
349.128	85.38
349.355	90.38
349.583	86.38
349.81	98.38
350.037	82.38
350.265	90.38
350.492	95.38
350.72	98.38
350.947	92.38
351.174	89.38
351.402	86.38
351.629	94.38
351.856	96.38
352.083	92.38
352.311	77.38
352.538	89.38
352.765	80.38
352.992	79.38
353.22	91.38
353.447	90.38
353.674	87.38
353.901	88.38
354.128	78.38
354.355	72.38
354.583	88.38
354.81	93.38
355.037	87.38
355.264	82.38
355.491	89.38
355.718	77.38
355.945	75.38
356.172	106.38
356.399	80.38
356.626	85.38
356.853	91.38
357.08	97.38
357.307	71.38
357.534	88.38
357.761	87.38
357.988	90.38
358.215	73.38
358.441	71.38
358.668	91.38
358.895	93.38
359.122	94.38
359.349	82.38
359.576	89.38
359.802	84.38
360.029	69.38
360.256	79.38
360.483	81.38
360.709	88.38
360.936	87.38
361.163	82.38
361.39	83.38
361.616	82.38
361.843	86.38
362.07	79.38
362.296	78.38
362.523	65.38
362.749	95.38
362.976	87.38
363.203	90.38
363.429	79.38
363.656	95.38
363.882	95.38
364.109	83.38
364.335	97.38
364.562	95.38
364.788	91.38
365.015	81.38
365.241	90.38
365.468	81.38
365.694	86.38
365.92	87.38
366.147	82.38
366.373	74.38
366.599	89.38
366.826	89.38
367.052	80.38
367.278	90.38
367.505	85.38
367.731	82.38
367.957	73.38
368.184	78.38
368.41	62.38
368.636	73.38
368.862	88.38
369.089	88.38
369.315	80.38
369.541	86.38
369.767	103.38
369.993	65.38
370.219	91.38
370.445	87.38
370.672	76.38
370.898	93.38
371.124	80.38
371.35	85.38
371.576	81.38
371.802	66.38
372.028	100.38
372.254	93.38
372.48	77.38
372.706	91.38
372.932	97.38
373.158	73.38
373.384	105.38
373.61	101.38
373.835	94.38
374.061	95.38
374.287	83.38
374.513	81.38
374.739	94.38
374.965	92.38
375.191	91.38
375.416	90.38
375.642	88.38
375.868	88.38
376.094	80.38
376.319	96.38
376.545	96.38
376.771	91.38
376.997	86.38
377.222	91.38
377.448	77.38
377.674	91.38
377.899	75.38
378.125	89.38
378.35	104.38
378.576	91.38
378.802	93.38
379.027	82.38
379.253	93.38
379.478	80.38
379.704	79.38
379.929	71.38
380.155	89.38
380.38	98.38
380.606	87.38
380.831	87.38
381.057	94.38
381.282	93.38
381.507	67.38
381.733	82.38
381.958	75.38
382.184	94.38
382.409	81.38
382.634	90.38
382.86	79.38
383.085	79.38
383.31	93.38
383.535	82.38
383.761	94.38
383.986	70.38
384.211	92.38
384.436	78.38
384.662	88.38
384.887	89.38
385.112	84.38
385.337	81.38
385.562	93.38
385.787	85.38
386.013	77.38
386.238	79.38
386.463	78.38
386.688	86.38
386.913	96.38
387.138	85.38
387.363	75.38
387.588	89.38
387.813	82.38
388.038	85.38
388.263	87.38
388.488	80.38
388.713	81.38
388.938	89.38
389.163	74.38
389.387	86.38
389.612	88.38
389.837	75.38
390.062	96.38
390.287	76.38
390.512	79.38
390.736	81.38
390.961	76.38
391.186	84.38
391.411	90.38
391.636	86.38
391.86	103.38
392.085	91.38
392.31	90.38
392.534	78.38
392.759	97.38
392.984	95.38
393.208	90.38
393.433	88.38
393.658	76.38
393.882	92.38
394.107	90.38
394.331	88.38
394.556	97.38
394.78	82.38
395.005	82.38
395.229	73.38
395.454	95.38
395.678	74.38
395.903	89.38
396.127	94.38
396.352	81.38
396.576	79.38
396.801	91.38
397.025	86.38
397.249	88.38
397.474	77.38
397.698	85.38
397.922	74.38
398.147	100.38
398.371	82.38
398.595	85.38
398.82	96.38
399.044	87.38
399.268	73.38
399.492	88.38
399.717	82.38
399.941	105.38
400.165	78.38
400.389	94.38
400.613	97.38
400.837	93.38
401.062	77.38
401.286	82.38
401.51	84.38
401.734	73.38
401.958	101.38
402.182	85.38
402.406	83.38
402.63	82.38
402.854	78.38
403.078	78.38
403.302	88.38
403.526	101.38
403.75	90.38
403.974	95.38
404.198	73.38
404.422	80.38
404.645	86.38
404.869	94.38
405.093	87.38
405.317	95.38
405.541	98.38
405.765	85.38
405.988	90.38
406.212	83.38
406.436	89.38
406.66	84.38
406.883	87.38
407.107	99.38
407.331	98.38
407.555	93.38
407.778	89.38
408.002	95.38
408.226	89.38
408.449	87.38
408.673	81.38
408.896	86.38
409.12	82.38
409.344	79.38
409.567	99.38
409.791	82.38
410.014	88.38
410.238	81.38
410.461	98.38
410.685	96.38
410.908	90.38
411.132	96.38
411.355	82.38
411.578	100.38
411.802	90.38
412.025	91.38
412.249	96.38
412.472	84.38
412.695	78.38
412.919	78.38
413.142	78.38
413.365	104.38
413.589	92.38
413.812	78.38
414.035	90.38
414.258	82.38
414.482	89.38
414.705	101.38
414.928	77.38
415.151	89.38
415.374	94.38
415.597	83.38
415.821	81.38
416.044	92.38
416.267	95.38
416.49	89.38
416.713	80.38
416.936	72.38
417.159	76.38
417.382	99.38
417.605	78.38
417.828	85.38
418.051	98.38
418.274	99.38
418.497	102.38
418.72	95.38
418.943	78.38
419.166	90.38
419.389	83.38
419.611	86.38
419.834	83.38
420.057	79.38
420.28	88.38
420.503	96.38
420.726	83.38
420.948	92.38
421.171	89.38
421.394	79.38
421.617	66.38
421.839	94.38
422.062	89.38
422.285	91.38
422.507	80.38
422.73	93.38
422.953	85.38
423.175	82.38
423.398	97.38
423.621	92.38
423.843	99.38
424.066	79.38
424.288	90.38
424.511	91.38
424.733	91.38
424.956	86.38
425.178	84.38
425.401	77.38
425.623	98.38
425.846	85.38
426.068	83.38
426.291	70.38
426.513	90.38
426.735	89.38
426.958	86.38
427.18	92.38
427.402	85.38
427.625	82.38
427.847	75.38
428.069	98.38
428.292	80.38
428.514	80.38
428.736	90.38
428.958	88.38
429.181	98.38
429.403	96.38
429.625	87.38
429.847	93.38
430.069	83.38
430.292	93.38
430.514	73.38
430.736	63.38
430.958	83.38
431.18	75.38
431.402	90.38
431.624	93.38
431.846	87.38
432.068	101.38
432.29	87.38
432.512	92.38
432.734	89.38
432.956	97.38
433.178	80.38
433.4	83.38
433.622	88.38
433.844	102.38
434.066	89.38
434.287	81.38
434.509	103.38
434.731	87.38
434.953	91.38
435.175	102.38
435.397	94.38
435.618	81.38
435.84	88.38
436.062	75.38
436.284	96.38
436.505	85.38
436.727	90.38
436.949	97.38
437.17	88.38
437.392	76.38
437.614	91.38
437.835	82.38
438.057	78.38
438.278	79.38
438.5	92.38
438.721	93.38
438.943	83.38
439.165	81.38
439.386	90.38
439.608	93.38
439.829	86.38
440.05	87.38
440.272	86.38
440.493	87.38
440.715	93.38
440.936	96.38
441.158	79.38
441.379	84.38
441.6	70.38
441.822	60.38
442.043	90.38
442.264	78.38
442.486	85.38
442.707	86.38
442.928	88.38
443.149	93.38
443.371	86.38
443.592	91.38
443.813	72.38
444.034	81.38
444.255	87.38
444.476	79.38
444.698	81.38
444.919	91.38
445.14	175.38
445.361	133.38
445.582	96.38
445.803	77.38
446.024	94.38
446.245	98.38
446.466	87.38
446.687	80.38
446.908	86.38
447.129	78.38
447.35	104.38
447.571	85.38
447.792	77.38
448.013	91.38
448.234	77.38
448.455	95.38
448.675	89.38
448.896	96.38
449.117	94.38
449.338	75.38
449.559	75.38
449.779	80.38
450	71.38
450.221	80.38
450.442	85.38
450.662	80.38
450.883	83.38
451.104	81.38
451.324	86.38
451.545	79.38
451.766	78.38
451.986	83.38
452.207	89.38
452.428	91.38
452.648	89.38
452.869	76.38
453.089	84.38
453.31	87.38
453.53	93.38
453.751	95.38
453.971	72.38
454.192	76.38
454.412	83.38
454.633	95.38
454.853	87.38
455.073	86.38
455.294	82.38
455.514	98.38
455.734	89.38
455.955	86.38
456.175	92.38
456.395	78.38
456.616	78.38
456.836	109.38
457.056	97.38
457.276	74.38
457.497	79.38
457.717	82.38
457.937	87.38
458.157	74.38
458.377	77.38
458.598	95.38
458.818	84.38
459.038	90.38
459.258	90.38
459.478	78.38
459.698	66.38
459.918	101.38
460.138	86.38
460.358	84.38
460.578	88.38
460.798	92.38
461.018	70.38
461.238	91.38
461.458	96.38
461.678	62.38
461.898	83.38
462.118	102.38
462.338	92.38
462.558	97.38
462.777	90.38
462.997	86.38
463.217	90.38
463.437	71.38
463.657	85.38
463.876	75.38
464.096	95.38
464.316	86.38
464.536	91.38
464.755	91.38
464.975	87.38
465.195	89.38
465.414	97.38
465.634	74.38
465.854	82.38
466.073	92.38
466.293	105.38
466.512	87.38
466.732	85.38
466.951	87.38
467.171	91.38
467.391	83.38
467.61	90.38
467.829	77.38
468.049	89.38
468.268	95.38
468.488	83.38
468.707	85.38
468.927	88.38
469.146	90.38
469.365	83.38
469.585	86.38
469.804	85.38
470.023	89.38
470.243	84.38
470.462	91.38
470.681	97.38
470.901	83.38
471.12	86.38
471.339	80.38
471.558	85.38
471.777	91.38
471.997	93.38
472.216	83.38
472.435	80.38
472.654	87.38
472.873	90.38
473.092	93.38
473.311	82.38
473.53	69.38
473.749	81.38
473.968	89.38
474.187	73.38
474.406	93.38
474.625	98.38
474.844	93.38
475.063	97.38
475.282	83.38
475.501	77.38
475.72	80.38
475.939	98.38
476.158	92.38
476.377	74.38
476.596	89.38
476.814	86.38
477.033	86.38
477.252	95.38
477.471	99.38
477.69	81.38
477.908	104.38
478.127	97.38
478.346	84.38
478.564	80.38
478.783	92.38
479.002	73.38
479.22	77.38
479.439	65.38
479.658	77.38
479.876	92.38
480.095	83.38
480.313	73.38
480.532	85.38
480.751	82.38
480.969	76.38
481.188	95.38
481.406	78.38
481.624	90.38
481.843	91.38
482.061	76.38
482.28	82.38
482.498	87.38
482.717	91.38
482.935	87.38
483.153	91.38
483.372	77.38
483.59	89.38
483.808	83.38
484.027	84.38
484.245	93.38
484.463	81.38
484.681	95.38
484.9	87.38
485.118	92.38
485.336	85.38
485.554	86.38
485.772	80.38
485.99	89.38
486.209	85.38
486.427	69.38
486.645	86.38
486.863	80.38
487.081	77.38
487.299	83.38
487.517	82.38
487.735	84.38
487.953	82.38
488.171	82.38
488.389	100.38
488.607	88.38
488.825	91.38
489.043	99.38
489.261	103.38
489.479	89.38
489.696	96.38
489.914	91.38
490.132	99.38
490.35	83.38
490.568	87.38
490.786	78.38
491.003	86.38
491.221	94.38
491.439	94.38
491.657	91.38
491.874	86.38
492.092	79.38
492.31	90.38
492.527	96.38
492.745	98.38
492.963	86.38
493.18	96.38
493.398	97.38
493.615	94.38
493.833	94.38
494.05	90.38
494.268	87.38
494.485	76.38
494.703	89.38
494.92	87.38
495.138	76.38
495.355	86.38
495.573	80.38
495.79	88.38
496.008	81.38
496.225	92.38
496.442	71.38
496.66	87.38
496.877	92.38
497.094	96.38
497.312	98.38
497.529	91.38
497.746	92.38
497.963	84.38
498.181	94.38
498.398	89.38
498.615	85.38
498.832	89.38
499.049	94.38
499.267	98.38
499.484	102.38
499.701	99.38
499.918	102.38
500.135	110.38
500.352	119.38
500.569	107.38
500.786	97.38
501.003	103.38
501.22	103.38
501.437	119.38
501.654	104.38
501.871	90.38
502.088	97.38
502.305	83.38
502.522	79.38
502.739	85.38
502.956	89.38
503.172	85.38
503.389	91.38
503.606	89.38
503.823	94.38
504.04	93.38
504.256	86.38
504.473	76.38
504.69	98.38
504.907	95.38
505.123	90.38
505.34	75.38
505.557	89.38
505.773	89.38
505.99	79.38
506.207	87.38
506.423	87.38
506.64	80.38
506.856	87.38
507.073	93.38
507.289	84.38
507.506	101.38
507.722	83.38
507.939	78.38
508.155	80.38
508.372	68.38
508.588	97.38
508.805	83.38
509.021	97.38
509.238	93.38
509.454	95.38
509.67	86.38
509.887	85.38
510.103	75.38
510.319	74.38
510.536	77.38
510.752	83.38
510.968	83.38
511.184	73.38
511.401	83.38
511.617	89.38
511.833	89.38
512.049	85.38
512.265	93.38
512.481	99.38
512.698	87.38
512.914	85.38
513.13	90.38
513.346	87.38
513.562	88.38
513.778	83.38
513.994	90.38
514.21	82.38
514.426	98.38
514.642	88.38
514.858	77.38
515.074	77.38
515.29	90.38
515.506	77.38
515.721	81.38
515.937	82.38
516.153	79.38
516.369	97.38
516.585	98.38
516.801	88.38
517.016	85.38
517.232	85.38
517.448	82.38
517.664	89.38
517.879	78.38
518.095	88.38
518.311	91.38
518.527	88.38
518.742	101.38
518.958	89.38
519.173	84.38
519.389	85.38
519.605	78.38
