Data from BG_HRD10591_010.txt Node
Date: Fri May 16 15:33:12 EDT 2025
User: Yrep
Spectrometer: HR+D1059
Trigger mode: 1
Integration Time (sec): 1.000000E-1
Scans to average: 1
Electric dark correction enabled: true
Nonlinearity correction enabled: false
Boxcar width: 0
XAxis mode: Wavelengths
Number of Pixels in Spectrum: 2048
>>>>>Begin Spectral Data<<<<<
223.165	-10.06
223.4	-10.06
223.635	-10.06
223.869	-20.06
224.104	-14.06
224.338	-17.06
224.573	-17.06
224.808	-11.06
225.042	-10.06
225.277	-12.06
225.511	-6.06
225.746	8.94
225.98	11.94
226.215	14.94
226.449	16.94
226.683	11.94
226.918	20.94
227.152	31.94
227.387	32.94
227.621	48.94
227.856	48.94
228.09	43.94
228.324	50.94
228.559	51.94
228.793	58.94
229.027	68.94
229.262	72.94
229.496	61.94
229.73	69.94
229.964	64.94
230.199	78.94
230.433	59.94
230.667	71.94
230.901	93.94
231.136	73.94
231.37	69.94
231.604	89.94
231.838	72.94
232.072	80.94
232.306	87.94
232.541	78.94
232.775	83.94
233.009	80.94
233.243	82.94
233.477	83.94
233.711	93.94
233.945	78.94
234.179	83.94
234.413	71.94
234.647	77.94
234.881	82.94
235.115	90.94
235.349	81.94
235.583	78.94
235.817	81.94
236.051	77.94
236.285	82.94
236.519	79.94
236.753	74.94
236.987	80.94
237.221	79.94
237.455	80.94
237.689	82.94
237.922	90.94
238.156	77.94
238.39	63.94
238.624	74.94
238.858	71.94
239.091	67.94
239.325	74.94
239.559	74.94
239.793	83.94
240.027	84.94
240.26	71.94
240.494	77.94
240.728	76.94
240.961	82.94
241.195	85.94
241.429	75.94
241.662	74.94
241.896	71.94
242.13	82.94
242.363	72.94
242.597	74.94
242.83	65.94
243.064	74.94
243.298	79.94
243.531	86.94
243.765	78.94
243.998	88.94
244.232	69.94
244.465	56.94
244.699	62.94
244.932	86.94
245.166	74.94
245.399	81.94
245.633	82.94
245.866	90.94
246.099	79.94
246.333	78.94
246.566	77.94
246.8	59.94
247.033	67.94
247.266	73.94
247.5	74.94
247.733	71.94
247.966	90.94
248.2	85.94
248.433	89.94
248.666	76.94
248.899	91.94
249.133	76.94
249.366	87.94
249.599	74.94
249.832	93.94
250.066	86.94
250.299	65.94
250.532	74.94
250.765	76.94
250.998	62.94
251.231	74.94
251.465	84.94
251.698	69.94
251.931	88.94
252.164	75.94
252.397	87.94
252.63	84.94
252.863	81.94
253.096	93.94
253.329	74.94
253.562	64.94
253.795	74.94
254.028	76.94
254.261	87.94
254.494	88.94
254.727	74.94
254.96	78.94
255.193	79.94
255.426	72.94
255.659	78.94
255.892	79.94
256.124	67.94
256.357	72.94
256.59	83.94
256.823	82.94
257.056	82.94
257.289	79.94
257.521	67.94
257.754	91.94
257.987	75.94
258.22	74.94
258.452	94.94
258.685	87.94
258.918	81.94
259.151	88.94
259.383	88.94
259.616	83.94
259.849	68.94
260.081	68.94
260.314	95.94
260.547	70.94
260.779	65.94
261.012	76.94
261.244	64.94
261.477	65.94
261.71	68.94
261.942	87.94
262.175	83.94
262.407	86.94
262.64	79.94
262.872	84.94
263.105	73.94
263.337	87.94
263.57	93.94
263.802	72.94
264.035	79.94
264.267	86.94
264.499	74.94
264.732	83.94
264.964	92.94
265.197	74.94
265.429	88.94
265.661	89.94
265.894	84.94
266.126	91.94
266.358	84.94
266.591	80.94
266.823	89.94
267.055	80.94
267.287	74.94
267.52	88.94
267.752	79.94
267.984	69.94
268.216	86.94
268.448	87.94
268.681	98.94
268.913	90.94
269.145	74.94
269.377	86.94
269.609	76.94
269.841	68.94
270.073	84.94
270.306	97.94
270.538	105.94
270.77	90.94
271.002	89.94
271.234	82.94
271.466	83.94
271.698	103.94
271.93	70.94
272.162	82.94
272.394	72.94
272.626	70.94
272.858	85.94
273.09	83.94
273.322	84.94
273.553	89.94
273.785	78.94
274.017	83.94
274.249	84.94
274.481	91.94
274.713	91.94
274.945	82.94
275.176	93.94
275.408	92.94
275.64	73.94
275.872	84.94
276.104	88.94
276.335	72.94
276.567	93.94
276.799	82.94
277.031	86.94
277.262	78.94
277.494	90.94
277.726	100.94
277.957	88.94
278.189	87.94
278.421	87.94
278.652	87.94
278.884	91.94
279.115	70.94
279.347	86.94
279.579	89.94
279.81	90.94
280.042	84.94
280.273	89.94
280.505	76.94
280.736	72.94
280.968	82.94
281.199	95.94
281.431	94.94
281.662	77.94
281.894	92.94
282.125	90.94
282.356	83.94
282.588	77.94
282.819	75.94
283.051	71.94
283.282	75.94
283.513	87.94
283.745	84.94
283.976	79.94
284.207	94.94
284.439	81.94
284.67	76.94
284.901	93.94
285.132	88.94
285.364	94.94
285.595	84.94
285.826	81.94
286.057	84.94
286.288	74.94
286.52	82.94
286.751	88.94
286.982	85.94
287.213	80.94
287.444	98.94
287.675	72.94
287.906	90.94
288.138	83.94
288.369	81.94
288.6	73.94
288.831	76.94
289.062	84.94
289.293	78.94
289.524	88.94
289.755	86.94
289.986	86.94
290.217	85.94
290.448	73.94
290.679	88.94
290.91	97.94
291.141	86.94
291.371	72.94
291.602	84.94
291.833	81.94
292.064	87.94
292.295	86.94
292.526	75.94
292.757	80.94
292.987	87.94
293.218	87.94
293.449	99.94
293.68	77.94
293.91	80.94
294.141	78.94
294.372	83.94
294.603	84.94
294.833	87.94
295.064	85.94
295.295	95.94
295.525	86.94
295.756	102.94
295.987	86.94
296.217	87.94
296.448	94.94
296.679	99.94
296.909	73.94
297.14	100.94
297.37	89.94
297.601	96.94
297.831	79.94
298.062	88.94
298.292	90.94
298.523	83.94
298.753	86.94
298.984	98.94
299.214	107.94
299.445	93.94
299.675	93.94
299.905	102.94
300.136	98.94
300.366	81.94
300.597	102.94
300.827	92.94
301.057	92.94
301.288	103.94
301.518	78.94
301.748	85.94
301.979	111.94
302.209	100.94
302.439	87.94
302.669	92.94
302.9	79.94
303.13	98.94
303.36	87.94
303.59	76.94
303.82	85.94
304.051	87.94
304.281	96.94
304.511	86.94
304.741	94.94
304.971	81.94
305.201	92.94
305.431	85.94
305.661	91.94
305.891	78.94
306.121	91.94
306.352	86.94
306.582	95.94
306.812	95.94
307.042	88.94
307.272	92.94
307.502	90.94
307.731	87.94
307.961	83.94
308.191	87.94
308.421	76.94
308.651	94.94
308.881	92.94
309.111	91.94
309.341	78.94
309.571	86.94
309.8	78.94
310.03	99.94
310.26	84.94
310.49	99.94
310.72	94.94
310.949	93.94
311.179	100.94
311.409	79.94
311.639	76.94
311.868	86.94
312.098	86.94
312.328	87.94
312.557	94.94
312.787	81.94
313.017	86.94
313.246	91.94
313.476	86.94
313.706	95.94
313.935	99.94
314.165	91.94
314.394	93.94
314.624	93.94
314.853	92.94
315.083	100.94
315.312	83.94
315.542	95.94
315.771	90.94
316.001	89.94
316.23	81.94
316.46	89.94
316.689	88.94
316.919	81.94
317.148	91.94
317.377	81.94
317.607	79.94
317.836	73.94
318.065	91.94
318.295	107.94
318.524	90.94
318.753	86.94
318.983	87.94
319.212	89.94
319.441	95.94
319.67	96.94
319.9	94.94
320.129	91.94
320.358	95.94
320.587	93.94
320.816	80.94
321.046	96.94
321.275	96.94
321.504	88.94
321.733	85.94
321.962	90.94
322.191	74.94
322.42	83.94
322.649	91.94
322.878	93.94
323.108	95.94
323.337	81.94
323.566	75.94
323.795	93.94
324.024	94.94
324.253	83.94
324.482	84.94
324.71	84.94
324.939	88.94
325.168	95.94
325.397	86.94
325.626	85.94
325.855	87.94
326.084	92.94
326.313	90.94
326.542	81.94
326.77	79.94
326.999	94.94
327.228	90.94
327.457	79.94
327.686	72.94
327.914	87.94
328.143	91.94
328.372	89.94
328.6	76.94
328.829	90.94
329.058	94.94
329.287	90.94
329.515	82.94
329.744	76.94
329.972	73.94
330.201	92.94
330.43	91.94
330.658	87.94
330.887	89.94
331.115	95.94
331.344	90.94
331.572	90.94
331.801	105.94
332.03	102.94
332.258	73.94
332.486	80.94
332.715	89.94
332.943	80.94
333.172	91.94
333.4	94.94
333.629	97.94
333.857	84.94
334.085	93.94
334.314	79.94
334.542	89.94
334.771	86.94
334.999	82.94
335.227	89.94
335.455	84.94
335.684	87.94
335.912	71.94
336.14	75.94
336.369	86.94
336.597	88.94
336.825	81.94
337.053	76.94
337.281	79.94
337.51	76.94
337.738	99.94
337.966	88.94
338.194	96.94
338.422	81.94
338.65	86.94
338.878	94.94
339.106	111.94
339.334	86.94
339.562	86.94
339.79	92.94
340.018	87.94
340.246	84.94
340.474	94.94
340.702	92.94
340.93	89.94
341.158	91.94
341.386	94.94
341.614	97.94
341.842	83.94
342.07	84.94
342.298	78.94
342.526	87.94
342.754	91.94
342.981	97.94
343.209	98.94
343.437	94.94
343.665	99.94
343.893	83.94
344.12	94.94
344.348	87.94
344.576	81.94
344.804	75.94
345.031	89.94
345.259	107.94
345.487	95.94
345.714	85.94
345.942	91.94
346.17	74.94
346.397	91.94
346.625	95.94
346.853	81.94
347.08	98.94
347.308	95.94
347.535	102.94
347.763	87.94
347.99	74.94
348.218	86.94
348.445	98.94
348.673	101.94
348.9	85.94
349.128	82.94
349.355	85.94
349.583	89.94
349.81	90.94
350.037	88.94
350.265	87.94
350.492	90.94
350.72	87.94
350.947	84.94
351.174	86.94
351.402	90.94
351.629	82.94
351.856	99.94
352.083	79.94
352.311	80.94
352.538	88.94
352.765	87.94
352.992	89.94
353.22	84.94
353.447	85.94
353.674	77.94
353.901	94.94
354.128	91.94
354.355	75.94
354.583	89.94
354.81	99.94
355.037	91.94
355.264	94.94
355.491	89.94
355.718	78.94
355.945	92.94
356.172	85.94
356.399	83.94
356.626	74.94
356.853	88.94
357.08	97.94
357.307	94.94
357.534	92.94
357.761	84.94
357.988	90.94
358.215	93.94
358.441	99.94
358.668	72.94
358.895	88.94
359.122	87.94
359.349	92.94
359.576	93.94
359.802	94.94
360.029	67.94
360.256	87.94
360.483	85.94
360.709	92.94
360.936	99.94
361.163	76.94
361.39	80.94
361.616	78.94
361.843	77.94
362.07	71.94
362.296	77.94
362.523	79.94
362.749	88.94
362.976	96.94
363.203	100.94
363.429	75.94
363.656	84.94
363.882	76.94
364.109	85.94
364.335	75.94
364.562	80.94
364.788	76.94
365.015	88.94
365.241	93.94
365.468	98.94
365.694	83.94
365.92	96.94
366.147	82.94
366.373	80.94
366.599	75.94
366.826	90.94
367.052	95.94
367.278	87.94
367.505	90.94
367.731	98.94
367.957	82.94
368.184	80.94
368.41	92.94
368.636	78.94
368.862	80.94
369.089	98.94
369.315	88.94
369.541	83.94
369.767	67.94
369.993	86.94
370.219	76.94
370.445	108.94
370.672	78.94
370.898	97.94
371.124	92.94
371.35	75.94
371.576	77.94
371.802	80.94
372.028	91.94
372.254	93.94
372.48	91.94
372.706	79.94
372.932	85.94
373.158	97.94
373.384	89.94
373.61	79.94
373.835	97.94
374.061	80.94
374.287	88.94
374.513	86.94
374.739	90.94
374.965	90.94
375.191	96.94
375.416	82.94
375.642	92.94
375.868	96.94
376.094	81.94
376.319	82.94
376.545	87.94
376.771	83.94
376.997	91.94
377.222	71.94
377.448	90.94
377.674	78.94
377.899	83.94
378.125	83.94
378.35	91.94
378.576	85.94
378.802	90.94
379.027	80.94
379.253	79.94
379.478	76.94
379.704	90.94
379.929	95.94
380.155	106.94
380.38	98.94
380.606	98.94
380.831	92.94
381.057	91.94
381.282	82.94
381.507	81.94
381.733	83.94
381.958	95.94
382.184	87.94
382.409	68.94
382.634	73.94
382.86	81.94
383.085	95.94
383.31	90.94
383.535	90.94
383.761	94.94
383.986	82.94
384.211	84.94
384.436	94.94
384.662	80.94
384.887	92.94
385.112	87.94
385.337	87.94
385.562	91.94
385.787	83.94
386.013	87.94
386.238	99.94
386.463	69.94
386.688	95.94
386.913	87.94
387.138	77.94
387.363	94.94
387.588	87.94
387.813	79.94
388.038	93.94
388.263	80.94
388.488	89.94
388.713	100.94
388.938	80.94
389.163	78.94
389.387	99.94
389.612	83.94
389.837	92.94
390.062	93.94
390.287	88.94
390.512	84.94
390.736	85.94
390.961	86.94
391.186	88.94
391.411	98.94
391.636	100.94
391.86	76.94
392.085	80.94
392.31	83.94
392.534	96.94
392.759	89.94
392.984	90.94
393.208	81.94
393.433	87.94
393.658	88.94
393.882	89.94
394.107	84.94
394.331	94.94
394.556	95.94
394.78	83.94
395.005	75.94
395.229	91.94
395.454	82.94
395.678	86.94
395.903	87.94
396.127	88.94
396.352	89.94
396.576	88.94
396.801	78.94
397.025	71.94
397.249	81.94
397.474	88.94
397.698	97.94
397.922	86.94
398.147	97.94
398.371	94.94
398.595	86.94
398.82	95.94
399.044	89.94
399.268	94.94
399.492	94.94
399.717	104.94
399.941	95.94
400.165	96.94
400.389	82.94
400.613	84.94
400.837	84.94
401.062	97.94
401.286	82.94
401.51	80.94
401.734	86.94
401.958	75.94
402.182	100.94
402.406	90.94
402.63	73.94
402.854	86.94
403.078	98.94
403.302	82.94
403.526	88.94
403.75	108.94
403.974	88.94
404.198	89.94
404.422	86.94
404.645	90.94
404.869	96.94
405.093	96.94
405.317	75.94
405.541	82.94
405.765	99.94
405.988	97.94
406.212	110.94
406.436	88.94
406.66	99.94
406.883	89.94
407.107	84.94
407.331	103.94
407.555	98.94
407.778	97.94
408.002	86.94
408.226	88.94
408.449	91.94
408.673	87.94
408.896	99.94
409.12	82.94
409.344	94.94
409.567	98.94
409.791	105.94
410.014	90.94
410.238	81.94
410.461	95.94
410.685	78.94
410.908	96.94
411.132	97.94
411.355	72.94
411.578	93.94
411.802	90.94
412.025	81.94
412.249	67.94
412.472	91.94
412.695	79.94
412.919	93.94
413.142	83.94
413.365	81.94
413.589	97.94
413.812	87.94
414.035	90.94
414.258	104.94
414.482	75.94
414.705	80.94
414.928	80.94
415.151	84.94
415.374	90.94
415.597	90.94
415.821	91.94
416.044	82.94
416.267	90.94
416.49	86.94
416.713	78.94
416.936	94.94
417.159	79.94
417.382	102.94
417.605	84.94
417.828	80.94
418.051	97.94
418.274	89.94
418.497	97.94
418.72	80.94
418.943	83.94
419.166	84.94
419.389	70.94
419.611	89.94
419.834	75.94
420.057	78.94
420.28	93.94
420.503	87.94
420.726	67.94
420.948	78.94
421.171	99.94
421.394	90.94
421.617	77.94
421.839	83.94
422.062	78.94
422.285	80.94
422.507	95.94
422.73	88.94
422.953	88.94
423.175	97.94
423.398	87.94
423.621	79.94
423.843	89.94
424.066	77.94
424.288	92.94
424.511	98.94
424.733	90.94
424.956	94.94
425.178	83.94
425.401	82.94
425.623	79.94
425.846	82.94
426.068	90.94
426.291	88.94
426.513	90.94
426.735	87.94
426.958	83.94
427.18	87.94
427.402	98.94
427.625	98.94
427.847	74.94
428.069	88.94
428.292	82.94
428.514	86.94
428.736	86.94
428.958	91.94
429.181	88.94
429.403	82.94
429.625	83.94
429.847	88.94
430.069	83.94
430.292	96.94
430.514	88.94
430.736	82.94
430.958	86.94
431.18	87.94
431.402	73.94
431.624	86.94
431.846	84.94
432.068	83.94
432.29	90.94
432.512	82.94
432.734	66.94
432.956	89.94
433.178	73.94
433.4	94.94
433.622	87.94
433.844	84.94
434.066	92.94
434.287	80.94
434.509	83.94
434.731	90.94
434.953	107.94
435.175	99.94
435.397	100.94
435.618	93.94
435.84	92.94
436.062	87.94
436.284	81.94
436.505	67.94
436.727	84.94
436.949	87.94
437.17	93.94
437.392	98.94
437.614	80.94
437.835	86.94
438.057	94.94
438.278	84.94
438.5	92.94
438.721	87.94
438.943	88.94
439.165	80.94
439.386	86.94
439.608	94.94
439.829	82.94
440.05	96.94
440.272	99.94
440.493	86.94
440.715	89.94
440.936	83.94
441.158	91.94
441.379	90.94
441.6	81.94
441.822	83.94
442.043	77.94
442.264	95.94
442.486	91.94
442.707	82.94
442.928	97.94
443.149	93.94
443.371	97.94
443.592	88.94
443.813	78.94
444.034	85.94
444.255	79.94
444.476	89.94
444.698	85.94
444.919	91.94
445.14	161.94
445.361	127.94
445.582	91.94
445.803	90.94
446.024	79.94
446.245	84.94
446.466	78.94
446.687	78.94
446.908	81.94
447.129	83.94
447.35	91.94
447.571	91.94
447.792	79.94
448.013	91.94
448.234	83.94
448.455	94.94
448.675	79.94
448.896	74.94
449.117	91.94
449.338	87.94
449.559	94.94
449.779	92.94
450	84.94
450.221	91.94
450.442	82.94
450.662	78.94
450.883	82.94
451.104	92.94
451.324	82.94
451.545	83.94
451.766	81.94
451.986	83.94
452.207	90.94
452.428	82.94
452.648	96.94
452.869	86.94
453.089	78.94
453.31	84.94
453.53	83.94
453.751	86.94
453.971	79.94
454.192	90.94
454.412	91.94
454.633	82.94
454.853	90.94
455.073	76.94
455.294	82.94
455.514	82.94
455.734	94.94
455.955	72.94
456.175	92.94
456.395	76.94
456.616	93.94
456.836	99.94
457.056	87.94
457.276	102.94
457.497	92.94
457.717	92.94
457.937	79.94
458.157	75.94
458.377	81.94
458.598	89.94
458.818	69.94
459.038	91.94
459.258	93.94
459.478	82.94
459.698	89.94
459.918	86.94
460.138	74.94
460.358	91.94
460.578	82.94
460.798	81.94
461.018	83.94
461.238	78.94
461.458	103.94
461.678	83.94
461.898	99.94
462.118	95.94
462.338	92.94
462.558	93.94
462.777	93.94
462.997	76.94
463.217	80.94
463.437	107.94
463.657	109.94
463.876	83.94
464.096	89.94
464.316	74.94
464.536	83.94
464.755	103.94
464.975	78.94
465.195	90.94
465.414	84.94
465.634	83.94
465.854	88.94
466.073	74.94
466.293	73.94
466.512	95.94
466.732	80.94
466.951	89.94
467.171	78.94
467.391	82.94
467.61	87.94
467.829	86.94
468.049	91.94
468.268	92.94
468.488	87.94
468.707	85.94
468.927	96.94
469.146	83.94
469.365	76.94
469.585	82.94
469.804	84.94
470.023	88.94
470.243	94.94
470.462	74.94
470.681	99.94
470.901	84.94
471.12	100.94
471.339	82.94
471.558	82.94
471.777	95.94
471.997	85.94
472.216	84.94
472.435	90.94
472.654	96.94
472.873	80.94
473.092	91.94
473.311	83.94
473.53	90.94
473.749	100.94
473.968	95.94
474.187	81.94
474.406	89.94
474.625	96.94
474.844	79.94
475.063	92.94
475.282	99.94
475.501	85.94
475.72	91.94
475.939	95.94
476.158	96.94
476.377	80.94
476.596	83.94
476.814	96.94
477.033	78.94
477.252	89.94
477.471	83.94
477.69	91.94
477.908	102.94
478.127	78.94
478.346	91.94
478.564	96.94
478.783	74.94
479.002	87.94
479.22	85.94
479.439	91.94
479.658	88.94
479.876	80.94
480.095	93.94
480.313	109.94
480.532	90.94
480.751	90.94
480.969	96.94
481.188	102.94
481.406	85.94
481.624	93.94
481.843	71.94
482.061	83.94
482.28	91.94
482.498	96.94
482.717	81.94
482.935	85.94
483.153	98.94
483.372	61.94
483.59	82.94
483.808	85.94
484.027	83.94
484.245	78.94
484.463	76.94
484.681	87.94
484.9	93.94
485.118	94.94
485.336	63.94
485.554	89.94
485.772	88.94
485.99	90.94
486.209	82.94
486.427	87.94
486.645	92.94
486.863	86.94
487.081	73.94
487.299	91.94
487.517	91.94
487.735	83.94
487.953	84.94
488.171	94.94
488.389	88.94
488.607	76.94
488.825	103.94
489.043	81.94
489.261	78.94
489.479	85.94
489.696	98.94
489.914	86.94
490.132	76.94
490.35	73.94
490.568	99.94
490.786	86.94
491.003	89.94
491.221	94.94
491.439	84.94
491.657	80.94
491.874	75.94
492.092	84.94
492.31	95.94
492.527	89.94
492.745	93.94
492.963	97.94
493.18	90.94
493.398	80.94
493.615	88.94
493.833	83.94
494.05	106.94
494.268	111.94
494.485	100.94
494.703	83.94
494.92	93.94
495.138	83.94
495.355	104.94
495.573	106.94
495.79	88.94
496.008	90.94
496.225	66.94
496.442	65.94
496.66	92.94
496.877	99.94
497.094	102.94
497.312	101.94
497.529	91.94
497.746	85.94
497.963	93.94
498.181	103.94
498.398	89.94
498.615	102.94
498.832	77.94
499.049	90.94
499.267	96.94
499.484	119.94
499.701	86.94
499.918	110.94
500.135	118.94
500.352	99.94
500.569	116.94
500.786	100.94
501.003	119.94
501.22	97.94
501.437	85.94
501.654	98.94
501.871	82.94
502.088	92.94
502.305	102.94
502.522	91.94
502.739	92.94
502.956	88.94
503.172	99.94
503.389	84.94
503.606	75.94
503.823	79.94
504.04	103.94
504.256	98.94
504.473	93.94
504.69	90.94
504.907	103.94
505.123	92.94
505.34	80.94
505.557	89.94
505.773	99.94
505.99	102.94
506.207	84.94
506.423	83.94
506.64	87.94
506.856	89.94
507.073	96.94
507.289	79.94
507.506	96.94
507.722	89.94
507.939	74.94
508.155	78.94
508.372	78.94
508.588	87.94
508.805	90.94
509.021	82.94
509.238	83.94
509.454	86.94
509.67	75.94
509.887	78.94
510.103	88.94
510.319	83.94
510.536	80.94
510.752	73.94
510.968	75.94
511.184	79.94
511.401	78.94
511.617	97.94
511.833	90.94
512.049	88.94
512.265	84.94
512.481	67.94
512.698	95.94
512.914	91.94
513.13	88.94
513.346	95.94
513.562	87.94
513.778	92.94
513.994	96.94
514.21	98.94
514.426	93.94
514.642	87.94
514.858	88.94
515.074	85.94
515.29	97.94
515.506	88.94
515.721	86.94
515.937	87.94
516.153	90.94
516.369	83.94
516.585	85.94
516.801	75.94
517.016	91.94
517.232	104.94
517.448	89.94
517.664	94.94
517.879	99.94
518.095	82.94
518.311	91.94
518.527	86.94
518.742	72.94
518.958	79.94
519.173	102.94
519.389	89.94
