Data from BG_HRD10591_011.txt Node
Date: Fri May 16 15:33:12 EDT 2025
User: Yrep
Spectrometer: HR+D1059
Trigger mode: 1
Integration Time (sec): 1.000000E-1
Scans to average: 1
Electric dark correction enabled: true
Nonlinearity correction enabled: false
Boxcar width: 0
XAxis mode: Wavelengths
Number of Pixels in Spectrum: 2048
>>>>>Begin Spectral Data<<<<<
223.165	-22.25
223.4	-22.25
223.635	-22.25
223.869	-20.25
224.104	-17.25
224.338	-17.25
224.573	-20.25
224.808	-8.25
225.042	-4.25
225.277	-15.25
225.511	-0.25
225.746	17.75
225.98	3.75
226.215	15.75
226.449	18.75
226.683	18.75
226.918	20.75
227.152	29.75
227.387	37.75
227.621	59.75
227.856	43.75
228.09	32.75
228.324	43.75
228.559	59.75
228.793	48.75
229.027	61.75
229.262	63.75
229.496	61.75
229.73	64.75
229.964	63.75
230.199	67.75
230.433	61.75
230.667	81.75
230.901	79.75
231.136	73.75
231.37	81.75
231.604	68.75
231.838	74.75
232.072	81.75
232.306	86.75
232.541	84.75
232.775	79.75
233.009	82.75
233.243	79.75
233.477	91.75
233.711	89.75
233.945	75.75
234.179	71.75
234.413	90.75
234.647	82.75
234.881	67.75
235.115	81.75
235.349	81.75
235.583	79.75
235.817	80.75
236.051	77.75
236.285	66.75
236.519	69.75
236.753	92.75
236.987	67.75
237.221	71.75
237.455	70.75
237.689	85.75
237.922	90.75
238.156	75.75
238.39	65.75
238.624	65.75
238.858	68.75
239.091	77.75
239.325	78.75
239.559	74.75
239.793	69.75
240.027	70.75
240.26	65.75
240.494	73.75
240.728	65.75
240.961	69.75
241.195	67.75
241.429	70.75
241.662	64.75
241.896	77.75
242.13	79.75
242.363	81.75
242.597	78.75
242.83	59.75
243.064	81.75
243.298	73.75
243.531	71.75
243.765	79.75
243.998	76.75
244.232	64.75
244.465	85.75
244.699	67.75
244.932	76.75
245.166	73.75
245.399	79.75
245.633	83.75
245.866	62.75
246.099	65.75
246.333	67.75
246.566	92.75
246.8	71.75
247.033	71.75
247.266	68.75
247.5	83.75
247.733	86.75
247.966	87.75
248.2	70.75
248.433	71.75
248.666	64.75
248.899	80.75
249.133	81.75
249.366	86.75
249.599	66.75
249.832	75.75
250.066	90.75
250.299	88.75
250.532	89.75
250.765	75.75
250.998	67.75
251.231	78.75
251.465	75.75
251.698	85.75
251.931	77.75
252.164	61.75
252.397	81.75
252.63	82.75
252.863	79.75
253.096	84.75
253.329	87.75
253.562	85.75
253.795	66.75
254.028	75.75
254.261	80.75
254.494	85.75
254.727	79.75
254.96	102.75
255.193	69.75
255.426	81.75
255.659	89.75
255.892	86.75
256.124	87.75
256.357	68.75
256.59	74.75
256.823	77.75
257.056	65.75
257.289	71.75
257.521	89.75
257.754	66.75
257.987	81.75
258.22	65.75
258.452	80.75
258.685	80.75
258.918	72.75
259.151	82.75
259.383	88.75
259.616	66.75
259.849	66.75
260.081	82.75
260.314	77.75
260.547	85.75
260.779	90.75
261.012	72.75
261.244	71.75
261.477	77.75
261.71	77.75
261.942	88.75
262.175	78.75
262.407	76.75
262.64	81.75
262.872	84.75
263.105	77.75
263.337	80.75
263.57	77.75
263.802	72.75
264.035	87.75
264.267	60.75
264.499	80.75
264.732	95.75
264.964	69.75
265.197	70.75
265.429	72.75
265.661	64.75
265.894	86.75
266.126	87.75
266.358	82.75
266.591	72.75
266.823	93.75
267.055	95.75
267.287	74.75
267.52	71.75
267.752	73.75
267.984	72.75
268.216	88.75
268.448	82.75
268.681	81.75
268.913	71.75
269.145	74.75
269.377	65.75
269.609	71.75
269.841	83.75
270.073	84.75
270.306	80.75
270.538	86.75
270.77	77.75
271.002	90.75
271.234	74.75
271.466	79.75
271.698	82.75
271.93	83.75
272.162	77.75
272.394	83.75
272.626	67.75
272.858	81.75
273.09	70.75
273.322	83.75
273.553	77.75
273.785	82.75
274.017	89.75
274.249	87.75
274.481	95.75
274.713	92.75
274.945	88.75
275.176	81.75
275.408	73.75
275.64	80.75
275.872	66.75
276.104	73.75
276.335	87.75
276.567	85.75
276.799	82.75
277.031	72.75
277.262	84.75
277.494	97.75
277.726	80.75
277.957	63.75
278.189	85.75
278.421	73.75
278.652	85.75
278.884	91.75
279.115	73.75
279.347	66.75
279.579	84.75
279.81	85.75
280.042	90.75
280.273	80.75
280.505	81.75
280.736	93.75
280.968	85.75
281.199	70.75
281.431	74.75
281.662	89.75
281.894	102.75
282.125	76.75
282.356	81.75
282.588	87.75
282.819	77.75
283.051	72.75
283.282	73.75
283.513	91.75
283.745	98.75
283.976	93.75
284.207	93.75
284.439	81.75
284.67	92.75
284.901	78.75
285.132	91.75
285.364	92.75
285.595	89.75
285.826	90.75
286.057	86.75
286.288	87.75
286.52	94.75
286.751	87.75
286.982	73.75
287.213	87.75
287.444	81.75
287.675	93.75
287.906	80.75
288.138	89.75
288.369	88.75
288.6	73.75
288.831	82.75
289.062	90.75
289.293	82.75
289.524	83.75
289.755	87.75
289.986	89.75
290.217	79.75
290.448	81.75
290.679	79.75
290.91	83.75
291.141	74.75
291.371	94.75
291.602	82.75
291.833	89.75
292.064	90.75
292.295	82.75
292.526	90.75
292.757	83.75
292.987	83.75
293.218	82.75
293.449	89.75
293.68	88.75
293.91	78.75
294.141	90.75
294.372	73.75
294.603	84.75
294.833	93.75
295.064	90.75
295.295	90.75
295.525	89.75
295.756	83.75
295.987	88.75
296.217	81.75
296.448	77.75
296.679	83.75
296.909	98.75
297.14	84.75
297.37	83.75
297.601	78.75
297.831	83.75
298.062	87.75
298.292	90.75
298.523	87.75
298.753	80.75
298.984	87.75
299.214	91.75
299.445	82.75
299.675	81.75
299.905	67.75
300.136	84.75
300.366	92.75
300.597	74.75
300.827	90.75
301.057	75.75
301.288	87.75
301.518	92.75
301.748	80.75
301.979	92.75
302.209	75.75
302.439	84.75
302.669	87.75
302.9	93.75
303.13	85.75
303.36	76.75
303.59	93.75
303.82	76.75
304.051	81.75
304.281	78.75
304.511	93.75
304.741	68.75
304.971	68.75
305.201	81.75
305.431	91.75
305.661	81.75
305.891	79.75
306.121	86.75
306.352	93.75
306.582	88.75
306.812	88.75
307.042	91.75
307.272	107.75
307.502	78.75
307.731	79.75
307.961	87.75
308.191	73.75
308.421	81.75
308.651	102.75
308.881	88.75
309.111	74.75
309.341	75.75
309.571	86.75
309.8	87.75
310.03	97.75
310.26	106.75
310.49	99.75
310.72	93.75
310.949	87.75
311.179	85.75
311.409	82.75
311.639	79.75
311.868	87.75
312.098	88.75
312.328	85.75
312.557	98.75
312.787	73.75
313.017	80.75
313.246	66.75
313.476	88.75
313.706	79.75
313.935	82.75
314.165	99.75
314.394	91.75
314.624	80.75
314.853	83.75
315.083	88.75
315.312	66.75
315.542	80.75
315.771	70.75
316.001	91.75
316.23	89.75
316.46	82.75
316.689	86.75
316.919	91.75
317.148	87.75
317.377	81.75
317.607	80.75
317.836	86.75
318.065	77.75
318.295	83.75
318.524	89.75
318.753	91.75
318.983	86.75
319.212	87.75
319.441	72.75
319.67	83.75
319.9	77.75
320.129	86.75
320.358	79.75
320.587	85.75
320.816	87.75
321.046	84.75
321.275	89.75
321.504	92.75
321.733	97.75
321.962	74.75
322.191	74.75
322.42	89.75
322.649	88.75
322.878	77.75
323.108	93.75
323.337	85.75
323.566	74.75
323.795	85.75
324.024	80.75
324.253	82.75
324.482	78.75
324.71	101.75
324.939	78.75
325.168	76.75
325.397	89.75
325.626	79.75
325.855	92.75
326.084	84.75
326.313	87.75
326.542	99.75
326.77	81.75
326.999	83.75
327.228	82.75
327.457	89.75
327.686	75.75
327.914	82.75
328.143	74.75
328.372	79.75
328.6	83.75
328.829	90.75
329.058	89.75
329.287	95.75
329.515	78.75
329.744	87.75
329.972	83.75
330.201	97.75
330.43	96.75
330.658	93.75
330.887	90.75
331.115	97.75
331.344	83.75
331.572	98.75
331.801	83.75
332.03	81.75
332.258	86.75
332.486	83.75
332.715	79.75
332.943	83.75
333.172	81.75
333.4	97.75
333.629	86.75
333.857	86.75
334.085	73.75
334.314	98.75
334.542	91.75
334.771	79.75
334.999	88.75
335.227	88.75
335.455	80.75
335.684	106.75
335.912	110.75
336.14	79.75
336.369	90.75
336.597	88.75
336.825	86.75
337.053	84.75
337.281	98.75
337.51	93.75
337.738	97.75
337.966	87.75
338.194	81.75
338.422	98.75
338.65	92.75
338.878	85.75
339.106	83.75
339.334	88.75
339.562	87.75
339.79	88.75
340.018	80.75
340.246	73.75
340.474	77.75
340.702	70.75
340.93	70.75
341.158	80.75
341.386	80.75
341.614	74.75
341.842	79.75
342.07	80.75
342.298	86.75
342.526	96.75
342.754	89.75
342.981	89.75
343.209	85.75
343.437	90.75
343.665	92.75
343.893	79.75
344.12	82.75
344.348	86.75
344.576	87.75
344.804	86.75
345.031	78.75
345.259	75.75
345.487	87.75
345.714	90.75
345.942	82.75
346.17	73.75
346.397	83.75
346.625	96.75
346.853	89.75
347.08	78.75
347.308	89.75
347.535	92.75
347.763	78.75
347.99	93.75
348.218	93.75
348.445	80.75
348.673	80.75
348.9	77.75
349.128	95.75
349.355	95.75
349.583	75.75
349.81	86.75
350.037	76.75
350.265	81.75
350.492	75.75
350.72	80.75
350.947	81.75
351.174	83.75
351.402	81.75
351.629	93.75
351.856	73.75
352.083	91.75
352.311	83.75
352.538	89.75
352.765	71.75
352.992	84.75
353.22	79.75
353.447	97.75
353.674	78.75
353.901	96.75
354.128	89.75
354.355	78.75
354.583	92.75
354.81	80.75
355.037	77.75
355.264	80.75
355.491	81.75
355.718	71.75
355.945	88.75
356.172	83.75
356.399	70.75
356.626	77.75
356.853	79.75
357.08	97.75
357.307	81.75
357.534	82.75
357.761	83.75
357.988	92.75
358.215	79.75
358.441	83.75
358.668	99.75
358.895	94.75
359.122	82.75
359.349	72.75
359.576	77.75
359.802	94.75
360.029	87.75
360.256	90.75
360.483	75.75
360.709	86.75
360.936	93.75
361.163	79.75
361.39	82.75
361.616	101.75
361.843	70.75
362.07	65.75
362.296	87.75
362.523	94.75
362.749	89.75
362.976	75.75
363.203	87.75
363.429	76.75
363.656	82.75
363.882	86.75
364.109	92.75
364.335	80.75
364.562	79.75
364.788	76.75
365.015	98.75
365.241	82.75
365.468	90.75
365.694	88.75
365.92	88.75
366.147	93.75
366.373	79.75
366.599	84.75
366.826	87.75
367.052	82.75
367.278	81.75
367.505	89.75
367.731	94.75
367.957	85.75
368.184	81.75
368.41	90.75
368.636	86.75
368.862	74.75
369.089	97.75
369.315	83.75
369.541	91.75
369.767	85.75
369.993	70.75
370.219	76.75
370.445	82.75
370.672	90.75
370.898	94.75
371.124	89.75
371.35	73.75
371.576	91.75
371.802	77.75
372.028	85.75
372.254	101.75
372.48	91.75
372.706	90.75
372.932	91.75
373.158	88.75
373.384	95.75
373.61	82.75
373.835	100.75
374.061	79.75
374.287	72.75
374.513	85.75
374.739	85.75
374.965	86.75
375.191	80.75
375.416	95.75
375.642	93.75
375.868	80.75
376.094	92.75
376.319	74.75
376.545	77.75
376.771	79.75
376.997	95.75
377.222	81.75
377.448	90.75
377.674	85.75
377.899	79.75
378.125	78.75
378.35	82.75
378.576	70.75
378.802	78.75
379.027	76.75
379.253	90.75
379.478	97.75
379.704	86.75
379.929	71.75
380.155	91.75
380.38	76.75
380.606	81.75
380.831	89.75
381.057	93.75
381.282	81.75
381.507	78.75
381.733	82.75
381.958	90.75
382.184	72.75
382.409	87.75
382.634	84.75
382.86	81.75
383.085	93.75
383.31	81.75
383.535	82.75
383.761	77.75
383.986	85.75
384.211	88.75
384.436	89.75
384.662	86.75
384.887	87.75
385.112	91.75
385.337	86.75
385.562	82.75
385.787	79.75
386.013	73.75
386.238	86.75
386.463	85.75
386.688	87.75
386.913	83.75
387.138	85.75
387.363	81.75
387.588	88.75
387.813	94.75
388.038	77.75
388.263	76.75
388.488	83.75
388.713	89.75
388.938	78.75
389.163	79.75
389.387	79.75
389.612	86.75
389.837	81.75
390.062	81.75
390.287	79.75
390.512	80.75
390.736	83.75
390.961	85.75
391.186	93.75
391.411	74.75
391.636	78.75
391.86	81.75
392.085	84.75
392.31	86.75
392.534	90.75
392.759	95.75
392.984	89.75
393.208	86.75
393.433	84.75
393.658	90.75
393.882	91.75
394.107	82.75
394.331	88.75
394.556	81.75
394.78	83.75
395.005	74.75
395.229	83.75
395.454	87.75
395.678	81.75
395.903	72.75
396.127	73.75
396.352	85.75
396.576	90.75
396.801	101.75
397.025	91.75
397.249	82.75
397.474	80.75
397.698	90.75
397.922	88.75
398.147	91.75
398.371	85.75
398.595	90.75
398.82	77.75
399.044	89.75
399.268	89.75
399.492	80.75
399.717	103.75
399.941	97.75
400.165	97.75
400.389	87.75
400.613	79.75
400.837	85.75
401.062	97.75
401.286	91.75
401.51	90.75
401.734	86.75
401.958	77.75
402.182	80.75
402.406	89.75
402.63	86.75
402.854	88.75
403.078	79.75
403.302	85.75
403.526	78.75
403.75	76.75
403.974	83.75
404.198	80.75
404.422	92.75
404.645	83.75
404.869	81.75
405.093	84.75
405.317	92.75
405.541	87.75
405.765	84.75
405.988	88.75
406.212	78.75
406.436	87.75
406.66	92.75
406.883	75.75
407.107	85.75
407.331	77.75
407.555	90.75
407.778	73.75
408.002	82.75
408.226	97.75
408.449	87.75
408.673	82.75
408.896	83.75
409.12	81.75
409.344	93.75
409.567	101.75
409.791	83.75
410.014	89.75
410.238	82.75
410.461	80.75
410.685	81.75
410.908	81.75
411.132	86.75
411.355	102.75
411.578	92.75
411.802	93.75
412.025	91.75
412.249	83.75
412.472	87.75
412.695	85.75
412.919	112.75
413.142	88.75
413.365	86.75
413.589	86.75
413.812	90.75
414.035	95.75
414.258	65.75
414.482	84.75
414.705	94.75
414.928	89.75
415.151	91.75
415.374	73.75
415.597	85.75
415.821	88.75
416.044	79.75
416.267	82.75
416.49	89.75
416.713	86.75
416.936	86.75
417.159	85.75
417.382	85.75
417.605	78.75
417.828	98.75
418.051	80.75
418.274	85.75
418.497	88.75
418.72	103.75
418.943	76.75
419.166	81.75
419.389	81.75
419.611	85.75
419.834	79.75
420.057	98.75
420.28	73.75
420.503	79.75
420.726	81.75
420.948	93.75
421.171	84.75
421.394	71.75
421.617	90.75
421.839	88.75
422.062	87.75
422.285	68.75
422.507	87.75
422.73	71.75
422.953	78.75
423.175	84.75
423.398	89.75
423.621	80.75
423.843	87.75
424.066	90.75
424.288	88.75
424.511	79.75
424.733	87.75
424.956	90.75
425.178	88.75
425.401	98.75
425.623	91.75
425.846	68.75
426.068	71.75
426.291	88.75
426.513	89.75
426.735	94.75
426.958	85.75
427.18	88.75
427.402	92.75
427.625	74.75
427.847	80.75
428.069	100.75
428.292	78.75
428.514	73.75
428.736	79.75
428.958	86.75
429.181	80.75
429.403	97.75
429.625	82.75
429.847	96.75
430.069	70.75
430.292	91.75
430.514	78.75
430.736	79.75
430.958	86.75
431.18	87.75
431.402	80.75
431.624	73.75
431.846	90.75
432.068	101.75
432.29	79.75
432.512	77.75
432.734	88.75
432.956	80.75
433.178	89.75
433.4	93.75
433.622	87.75
433.844	87.75
434.066	87.75
434.287	81.75
434.509	82.75
434.731	78.75
434.953	85.75
435.175	82.75
435.397	74.75
435.618	89.75
435.84	75.75
436.062	79.75
436.284	74.75
436.505	74.75
436.727	86.75
436.949	86.75
437.17	84.75
437.392	87.75
437.614	86.75
437.835	73.75
438.057	66.75
438.278	75.75
438.5	89.75
438.721	84.75
438.943	82.75
439.165	78.75
439.386	83.75
439.608	87.75
439.829	77.75
440.05	81.75
440.272	99.75
440.493	96.75
440.715	97.75
440.936	95.75
441.158	97.75
441.379	86.75
441.6	71.75
441.822	75.75
442.043	82.75
442.264	75.75
442.486	81.75
442.707	82.75
442.928	90.75
443.149	78.75
443.371	79.75
443.592	76.75
443.813	72.75
444.034	86.75
444.255	91.75
444.476	89.75
444.698	86.75
444.919	74.75
445.14	152.75
445.361	125.75
445.582	91.75
445.803	74.75
446.024	78.75
446.245	91.75
446.466	94.75
446.687	85.75
446.908	64.75
447.129	87.75
447.35	82.75
447.571	90.75
447.792	77.75
448.013	85.75
448.234	77.75
448.455	82.75
448.675	79.75
448.896	87.75
449.117	80.75
449.338	81.75
449.559	75.75
449.779	87.75
450	80.75
450.221	93.75
450.442	75.75
450.662	66.75
450.883	89.75
451.104	85.75
451.324	87.75
451.545	84.75
451.766	96.75
451.986	66.75
452.207	77.75
452.428	83.75
452.648	103.75
452.869	81.75
453.089	88.75
453.31	86.75
453.53	79.75
453.751	79.75
453.971	85.75
454.192	83.75
454.412	94.75
454.633	78.75
454.853	86.75
455.073	81.75
455.294	83.75
455.514	84.75
455.734	91.75
455.955	80.75
456.175	79.75
456.395	91.75
456.616	76.75
456.836	81.75
457.056	71.75
457.276	72.75
457.497	92.75
457.717	65.75
457.937	100.75
458.157	74.75
458.377	80.75
458.598	95.75
458.818	101.75
459.038	77.75
459.258	99.75
459.478	94.75
459.698	70.75
459.918	79.75
460.138	82.75
460.358	65.75
460.578	83.75
460.798	71.75
461.018	90.75
461.238	101.75
461.458	78.75
461.678	74.75
461.898	105.75
462.118	85.75
462.338	89.75
462.558	86.75
462.777	86.75
462.997	81.75
463.217	85.75
463.437	92.75
463.657	85.75
463.876	95.75
464.096	91.75
464.316	96.75
464.536	91.75
464.755	87.75
464.975	83.75
465.195	92.75
465.414	85.75
465.634	79.75
465.854	85.75
466.073	89.75
466.293	83.75
466.512	90.75
466.732	87.75
466.951	74.75
467.171	87.75
467.391	79.75
467.61	73.75
467.829	71.75
468.049	78.75
468.268	86.75
468.488	91.75
468.707	73.75
468.927	73.75
469.146	88.75
469.365	78.75
469.585	73.75
469.804	77.75
470.023	81.75
470.243	82.75
470.462	99.75
470.681	83.75
470.901	99.75
471.12	81.75
471.339	94.75
471.558	99.75
471.777	83.75
471.997	83.75
472.216	85.75
472.435	91.75
472.654	83.75
472.873	92.75
473.092	82.75
473.311	71.75
473.53	65.75
473.749	85.75
473.968	83.75
474.187	78.75
474.406	82.75
474.625	94.75
474.844	78.75
475.063	69.75
475.282	83.75
475.501	77.75
475.72	93.75
475.939	94.75
476.158	81.75
476.377	81.75
476.596	79.75
476.814	76.75
477.033	91.75
477.252	79.75
477.471	68.75
477.69	71.75
477.908	98.75
478.127	90.75
478.346	87.75
478.564	91.75
478.783	86.75
479.002	104.75
479.22	85.75
479.439	94.75
479.658	76.75
479.876	85.75
480.095	94.75
480.313	87.75
480.532	89.75
480.751	84.75
480.969	80.75
481.188	79.75
481.406	97.75
481.624	85.75
481.843	70.75
482.061	81.75
482.28	93.75
482.498	87.75
482.717	78.75
482.935	74.75
483.153	92.75
483.372	81.75
483.59	72.75
483.808	91.75
484.027	84.75
484.245	75.75
484.463	85.75
484.681	97.75
484.9	85.75
485.118	81.75
485.336	82.75
485.554	81.75
485.772	87.75
485.99	105.75
486.209	73.75
486.427	106.75
486.645	87.75
486.863	91.75
487.081	86.75
487.299	93.75
487.517	89.75
487.735	89.75
487.953	83.75
488.171	83.75
488.389	93.75
488.607	85.75
488.825	78.75
489.043	106.75
489.261	73.75
489.479	77.75
489.696	83.75
489.914	89.75
490.132	89.75
490.35	87.75
490.568	93.75
490.786	96.75
491.003	85.75
491.221	80.75
491.439	79.75
491.657	88.75
491.874	79.75
492.092	64.75
492.31	97.75
492.527	91.75
492.745	80.75
492.963	62.75
493.18	98.75
493.398	102.75
493.615	83.75
493.833	88.75
494.05	80.75
494.268	78.75
494.485	83.75
494.703	96.75
494.92	85.75
495.138	91.75
495.355	93.75
495.573	91.75
495.79	73.75
496.008	85.75
496.225	71.75
496.442	71.75
496.66	83.75
496.877	70.75
497.094	78.75
497.312	100.75
497.529	98.75
497.746	98.75
497.963	108.75
498.181	88.75
498.398	74.75
498.615	67.75
498.832	88.75
499.049	82.75
499.267	82.75
499.484	102.75
499.701	94.75
499.918	111.75
500.135	105.75
500.352	111.75
500.569	94.75
500.786	105.75
501.003	103.75
501.22	103.75
501.437	101.75
501.654	93.75
501.871	94.75
502.088	101.75
502.305	88.75
502.522	94.75
502.739	87.75
502.956	83.75
503.172	89.75
503.389	96.75
503.606	97.75
503.823	93.75
504.04	101.75
504.256	89.75
504.473	90.75
504.69	87.75
504.907	98.75
505.123	83.75
505.34	94.75
505.557	98.75
505.773	77.75
505.99	97.75
506.207	77.75
506.423	99.75
506.64	71.75
506.856	81.75
507.073	86.75
507.289	93.75
507.506	72.75
507.722	75.75
507.939	86.75
508.155	79.75
508.372	75.75
508.588	87.75
508.805	102.75
509.021	101.75
509.238	90.75
509.454	87.75
509.67	89.75
509.887	72.75
510.103	82.75
510.319	88.75
510.536	93.75
510.752	78.75
510.968	87.75
511.184	90.75
511.401	78.75
511.617	74.75
511.833	78.75
512.049	75.75
512.265	89.75
512.481	87.75
512.698	87.75
512.914	86.75
513.13	85.75
513.346	74.75
513.562	96.75
513.778	92.75
513.994	92.75
514.21	78.75
514.426	93.75
514.642	90.75
514.858	92.75
515.074	82.75
515.29	103.75
515.506	86.75
515.721	86.75
515.937	81.75
516.153	90.75
516.369	76.75
516.585	74.75
516.801	83.75
517.016	62.75
517.232	82.75
517.448	95.75
517.664	95.75
517.879	71.75
518.095	85.75
518.311	85.75
518.527	91.75
518.742	78.75
518.958	92.75
519.173	80.75
519.389	89.75
519.605	78.75
519.82	72.75
