Data from BG_HRD10591_017.txt Node
Date: Fri May 16 15:33:15 EDT 2025
User: Yrep
Spectrometer: HR+D1059
Trigger mode: 1
Integration Time (sec): 1.000000E-1
Scans to average: 1
Electric dark correction enabled: true
Nonlinearity correction enabled: false
Boxcar width: 0
XAxis mode: Wavelengths
Number of Pixels in Spectrum: 2048
>>>>>Begin Spectral Data<<<<<
223.165	-12.19
223.4	-12.19
223.635	-12.19
223.869	-7.19
224.104	-18.19
224.338	-23.19
224.573	-22.19
224.808	-15.19
225.042	-11.19
225.277	-0.19
225.511	1.81
225.746	-4.19
225.98	22.81
226.215	6.81
226.449	25.81
226.683	19.81
226.918	4.81
227.152	31.81
227.387	44.81
227.621	42.81
227.856	44.81
228.09	39.81
228.324	43.81
228.559	43.81
228.793	62.81
229.027	56.81
229.262	73.81
229.496	60.81
229.73	69.81
229.964	87.81
230.199	71.81
230.433	71.81
230.667	75.81
230.901	86.81
231.136	78.81
231.37	79.81
231.604	76.81
231.838	68.81
232.072	83.81
232.306	81.81
232.541	76.81
232.775	80.81
233.009	66.81
233.243	68.81
233.477	66.81
233.711	63.81
233.945	72.81
234.179	84.81
234.413	72.81
234.647	74.81
234.881	75.81
235.115	78.81
235.349	80.81
235.583	89.81
235.817	62.81
236.051	74.81
236.285	72.81
236.519	72.81
236.753	89.81
236.987	86.81
237.221	82.81
237.455	80.81
237.689	77.81
237.922	76.81
238.156	85.81
238.39	74.81
238.624	68.81
238.858	67.81
239.091	81.81
239.325	78.81
239.559	81.81
239.793	77.81
240.027	81.81
240.26	85.81
240.494	74.81
240.728	72.81
240.961	79.81
241.195	86.81
241.429	90.81
241.662	79.81
241.896	76.81
242.13	66.81
242.363	82.81
242.597	97.81
242.83	76.81
243.064	88.81
243.298	71.81
243.531	80.81
243.765	88.81
243.998	77.81
244.232	82.81
244.465	79.81
244.699	81.81
244.932	68.81
245.166	78.81
245.399	75.81
245.633	81.81
245.866	68.81
246.099	80.81
246.333	59.81
246.566	80.81
246.8	70.81
247.033	90.81
247.266	78.81
247.5	68.81
247.733	71.81
247.966	89.81
248.2	72.81
248.433	89.81
248.666	85.81
248.899	80.81
249.133	74.81
249.366	83.81
249.599	79.81
249.832	80.81
250.066	79.81
250.299	93.81
250.532	78.81
250.765	79.81
250.998	90.81
251.231	85.81
251.465	78.81
251.698	78.81
251.931	71.81
252.164	69.81
252.397	85.81
252.63	79.81
252.863	66.81
253.096	68.81
253.329	82.81
253.562	79.81
253.795	85.81
254.028	96.81
254.261	73.81
254.494	76.81
254.727	89.81
254.96	83.81
255.193	86.81
255.426	67.81
255.659	86.81
255.892	83.81
256.124	88.81
256.357	69.81
256.59	84.81
256.823	80.81
257.056	94.81
257.289	71.81
257.521	74.81
257.754	75.81
257.987	84.81
258.22	92.81
258.452	78.81
258.685	80.81
258.918	75.81
259.151	88.81
259.383	93.81
259.616	76.81
259.849	79.81
260.081	81.81
260.314	88.81
260.547	84.81
260.779	86.81
261.012	95.81
261.244	78.81
261.477	78.81
261.71	68.81
261.942	86.81
262.175	81.81
262.407	82.81
262.64	88.81
262.872	86.81
263.105	82.81
263.337	92.81
263.57	81.81
263.802	67.81
264.035	95.81
264.267	93.81
264.499	97.81
264.732	78.81
264.964	77.81
265.197	77.81
265.429	86.81
265.661	78.81
265.894	79.81
266.126	89.81
266.358	76.81
266.591	72.81
266.823	80.81
267.055	94.81
267.287	79.81
267.52	76.81
267.752	81.81
267.984	83.81
268.216	83.81
268.448	75.81
268.681	76.81
268.913	74.81
269.145	81.81
269.377	76.81
269.609	86.81
269.841	83.81
270.073	78.81
270.306	89.81
270.538	82.81
270.77	88.81
271.002	92.81
271.234	84.81
271.466	94.81
271.698	80.81
271.93	80.81
272.162	78.81
272.394	87.81
272.626	69.81
272.858	87.81
273.09	86.81
273.322	84.81
273.553	89.81
273.785	92.81
274.017	80.81
274.249	86.81
274.481	78.81
274.713	81.81
274.945	82.81
275.176	86.81
275.408	94.81
275.64	86.81
275.872	85.81
276.104	82.81
276.335	96.81
276.567	74.81
276.799	79.81
277.031	67.81
277.262	81.81
277.494	80.81
277.726	90.81
277.957	79.81
278.189	77.81
278.421	93.81
278.652	87.81
278.884	81.81
279.115	91.81
279.347	90.81
279.579	77.81
279.81	90.81
280.042	84.81
280.273	78.81
280.505	76.81
280.736	86.81
280.968	90.81
281.199	76.81
281.431	79.81
281.662	67.81
281.894	88.81
282.125	92.81
282.356	81.81
282.588	74.81
282.819	88.81
283.051	99.81
283.282	83.81
283.513	88.81
283.745	99.81
283.976	87.81
284.207	92.81
284.439	91.81
284.67	75.81
284.901	94.81
285.132	96.81
285.364	72.81
285.595	83.81
285.826	91.81
286.057	82.81
286.288	78.81
286.52	69.81
286.751	97.81
286.982	91.81
287.213	75.81
287.444	90.81
287.675	83.81
287.906	87.81
288.138	91.81
288.369	96.81
288.6	93.81
288.831	81.81
289.062	86.81
289.293	96.81
289.524	80.81
289.755	78.81
289.986	89.81
290.217	97.81
290.448	85.81
290.679	91.81
290.91	79.81
291.141	83.81
291.371	90.81
291.602	86.81
291.833	84.81
292.064	91.81
292.295	93.81
292.526	95.81
292.757	77.81
292.987	87.81
293.218	88.81
293.449	85.81
293.68	82.81
293.91	89.81
294.141	88.81
294.372	103.81
294.603	79.81
294.833	94.81
295.064	95.81
295.295	68.81
295.525	88.81
295.756	99.81
295.987	82.81
296.217	84.81
296.448	79.81
296.679	99.81
296.909	93.81
297.14	77.81
297.37	81.81
297.601	82.81
297.831	99.81
298.062	72.81
298.292	93.81
298.523	79.81
298.753	90.81
298.984	91.81
299.214	95.81
299.445	83.81
299.675	74.81
299.905	92.81
300.136	89.81
300.366	90.81
300.597	77.81
300.827	90.81
301.057	86.81
301.288	81.81
301.518	89.81
301.748	100.81
301.979	111.81
302.209	89.81
302.439	83.81
302.669	81.81
302.9	104.81
303.13	94.81
303.36	81.81
303.59	90.81
303.82	85.81
304.051	83.81
304.281	92.81
304.511	83.81
304.741	89.81
304.971	83.81
305.201	94.81
305.431	88.81
305.661	87.81
305.891	83.81
306.121	87.81
306.352	78.81
306.582	92.81
306.812	85.81
307.042	84.81
307.272	80.81
307.502	107.81
307.731	91.81
307.961	99.81
308.191	103.81
308.421	85.81
308.651	87.81
308.881	75.81
309.111	78.81
309.341	80.81
309.571	93.81
309.8	90.81
310.03	84.81
310.26	89.81
310.49	90.81
310.72	86.81
310.949	85.81
311.179	84.81
311.409	87.81
311.639	78.81
311.868	94.81
312.098	76.81
312.328	102.81
312.557	86.81
312.787	82.81
313.017	98.81
313.246	79.81
313.476	97.81
313.706	89.81
313.935	91.81
314.165	86.81
314.394	89.81
314.624	87.81
314.853	98.81
315.083	91.81
315.312	82.81
315.542	82.81
315.771	93.81
316.001	81.81
316.23	93.81
316.46	89.81
316.689	83.81
316.919	90.81
317.148	96.81
317.377	90.81
317.607	98.81
317.836	83.81
318.065	103.81
318.295	95.81
318.524	91.81
318.753	83.81
318.983	90.81
319.212	82.81
319.441	98.81
319.67	93.81
319.9	83.81
320.129	94.81
320.358	90.81
320.587	83.81
320.816	84.81
321.046	89.81
321.275	80.81
321.504	79.81
321.733	76.81
321.962	88.81
322.191	95.81
322.42	88.81
322.649	101.81
322.878	91.81
323.108	84.81
323.337	82.81
323.566	90.81
323.795	94.81
324.024	88.81
324.253	92.81
324.482	86.81
324.71	88.81
324.939	90.81
325.168	89.81
325.397	98.81
325.626	81.81
325.855	87.81
326.084	69.81
326.313	95.81
326.542	92.81
326.77	88.81
326.999	83.81
327.228	86.81
327.457	91.81
327.686	94.81
327.914	92.81
328.143	94.81
328.372	88.81
328.6	92.81
328.829	97.81
329.058	100.81
329.287	87.81
329.515	88.81
329.744	89.81
329.972	83.81
330.201	92.81
330.43	73.81
330.658	89.81
330.887	96.81
331.115	96.81
331.344	87.81
331.572	84.81
331.801	88.81
332.03	92.81
332.258	103.81
332.486	81.81
332.715	92.81
332.943	95.81
333.172	96.81
333.4	106.81
333.629	95.81
333.857	94.81
334.085	83.81
334.314	90.81
334.542	92.81
334.771	82.81
334.999	92.81
335.227	95.81
335.455	92.81
335.684	76.81
335.912	91.81
336.14	83.81
336.369	90.81
336.597	86.81
336.825	68.81
337.053	88.81
337.281	108.81
337.51	78.81
337.738	83.81
337.966	84.81
338.194	82.81
338.422	91.81
338.65	93.81
338.878	95.81
339.106	88.81
339.334	91.81
339.562	80.81
339.79	97.81
340.018	92.81
340.246	95.81
340.474	99.81
340.702	97.81
340.93	96.81
341.158	91.81
341.386	98.81
341.614	97.81
341.842	85.81
342.07	81.81
342.298	91.81
342.526	79.81
342.754	82.81
342.981	86.81
343.209	104.81
343.437	100.81
343.665	93.81
343.893	88.81
344.12	87.81
344.348	85.81
344.576	90.81
344.804	82.81
345.031	90.81
345.259	96.81
345.487	87.81
345.714	94.81
345.942	97.81
346.17	73.81
346.397	91.81
346.625	82.81
346.853	84.81
347.08	81.81
347.308	91.81
347.535	97.81
347.763	73.81
347.99	84.81
348.218	86.81
348.445	82.81
348.673	80.81
348.9	86.81
349.128	81.81
349.355	90.81
349.583	90.81
349.81	79.81
350.037	104.81
350.265	79.81
350.492	88.81
350.72	81.81
350.947	80.81
351.174	82.81
351.402	87.81
351.629	84.81
351.856	75.81
352.083	86.81
352.311	81.81
352.538	78.81
352.765	94.81
352.992	102.81
353.22	92.81
353.447	99.81
353.674	77.81
353.901	93.81
354.128	94.81
354.355	85.81
354.583	83.81
354.81	91.81
355.037	89.81
355.264	89.81
355.491	105.81
355.718	94.81
355.945	82.81
356.172	88.81
356.399	75.81
356.626	88.81
356.853	98.81
357.08	83.81
357.307	83.81
357.534	91.81
357.761	96.81
357.988	82.81
358.215	94.81
358.441	85.81
358.668	77.81
358.895	73.81
359.122	78.81
359.349	83.81
359.576	91.81
359.802	86.81
360.029	88.81
360.256	88.81
360.483	89.81
360.709	90.81
360.936	97.81
361.163	94.81
361.39	81.81
361.616	84.81
361.843	92.81
362.07	96.81
362.296	107.81
362.523	77.81
362.749	93.81
362.976	87.81
363.203	91.81
363.429	80.81
363.656	95.81
363.882	81.81
364.109	80.81
364.335	93.81
364.562	74.81
364.788	87.81
365.015	92.81
365.241	85.81
365.468	86.81
365.694	88.81
365.92	90.81
366.147	93.81
366.373	99.81
366.599	90.81
366.826	99.81
367.052	93.81
367.278	85.81
367.505	81.81
367.731	108.81
367.957	86.81
368.184	84.81
368.41	86.81
368.636	100.81
368.862	94.81
369.089	92.81
369.315	78.81
369.541	91.81
369.767	81.81
369.993	90.81
370.219	82.81
370.445	79.81
370.672	96.81
370.898	81.81
371.124	89.81
371.35	92.81
371.576	73.81
371.802	79.81
372.028	68.81
372.254	64.81
372.48	97.81
372.706	80.81
372.932	78.81
373.158	82.81
373.384	97.81
373.61	96.81
373.835	90.81
374.061	85.81
374.287	81.81
374.513	83.81
374.739	76.81
374.965	79.81
375.191	88.81
375.416	79.81
375.642	84.81
375.868	81.81
376.094	102.81
376.319	78.81
376.545	74.81
376.771	82.81
376.997	90.81
377.222	95.81
377.448	97.81
377.674	111.81
377.899	94.81
378.125	87.81
378.35	90.81
378.576	84.81
378.802	82.81
379.027	98.81
379.253	82.81
379.478	87.81
379.704	90.81
379.929	74.81
380.155	80.81
380.38	76.81
380.606	90.81
380.831	91.81
381.057	83.81
381.282	91.81
381.507	92.81
381.733	97.81
381.958	85.81
382.184	81.81
382.409	86.81
382.634	81.81
382.86	84.81
383.085	93.81
383.31	85.81
383.535	89.81
383.761	88.81
383.986	80.81
384.211	76.81
384.436	77.81
384.662	88.81
384.887	74.81
385.112	84.81
385.337	99.81
385.562	95.81
385.787	86.81
386.013	94.81
386.238	81.81
386.463	90.81
386.688	106.81
386.913	82.81
387.138	89.81
387.363	75.81
387.588	82.81
387.813	85.81
388.038	68.81
388.263	103.81
388.488	74.81
388.713	89.81
388.938	81.81
389.163	82.81
389.387	98.81
389.612	87.81
389.837	84.81
390.062	85.81
390.287	86.81
390.512	81.81
390.736	74.81
390.961	90.81
391.186	98.81
391.411	79.81
391.636	85.81
391.86	91.81
392.085	86.81
392.31	91.81
392.534	81.81
392.759	83.81
392.984	102.81
393.208	90.81
393.433	99.81
393.658	88.81
393.882	74.81
394.107	86.81
394.331	76.81
394.556	83.81
394.78	94.81
395.005	99.81
395.229	79.81
395.454	87.81
395.678	91.81
395.903	83.81
396.127	86.81
396.352	88.81
396.576	89.81
396.801	90.81
397.025	80.81
397.249	86.81
397.474	91.81
397.698	83.81
397.922	78.81
398.147	80.81
398.371	96.81
398.595	87.81
398.82	85.81
399.044	91.81
399.268	101.81
399.492	83.81
399.717	98.81
399.941	92.81
400.165	88.81
400.389	78.81
400.613	86.81
400.837	100.81
401.062	90.81
401.286	90.81
401.51	79.81
401.734	86.81
401.958	91.81
402.182	86.81
402.406	78.81
402.63	73.81
402.854	83.81
403.078	88.81
403.302	98.81
403.526	91.81
403.75	98.81
403.974	84.81
404.198	81.81
404.422	88.81
404.645	103.81
404.869	93.81
405.093	96.81
405.317	90.81
405.541	91.81
405.765	99.81
405.988	83.81
406.212	84.81
406.436	87.81
406.66	81.81
406.883	91.81
407.107	94.81
407.331	91.81
407.555	89.81
407.778	97.81
408.002	96.81
408.226	102.81
408.449	90.81
408.673	80.81
408.896	86.81
409.12	93.81
409.344	104.81
409.567	83.81
409.791	80.81
410.014	91.81
410.238	72.81
410.461	81.81
410.685	100.81
410.908	92.81
411.132	87.81
411.355	91.81
411.578	85.81
411.802	90.81
412.025	87.81
412.249	72.81
412.472	93.81
412.695	94.81
412.919	102.81
413.142	100.81
413.365	90.81
413.589	67.81
413.812	100.81
414.035	84.81
414.258	99.81
414.482	87.81
414.705	91.81
414.928	90.81
415.151	97.81
415.374	86.81
415.597	81.81
415.821	89.81
416.044	75.81
416.267	78.81
416.49	102.81
416.713	96.81
416.936	91.81
417.159	98.81
417.382	93.81
417.605	95.81
417.828	76.81
418.051	84.81
418.274	95.81
418.497	91.81
418.72	80.81
418.943	87.81
419.166	98.81
419.389	93.81
419.611	86.81
419.834	97.81
420.057	90.81
420.28	76.81
420.503	94.81
420.726	90.81
420.948	90.81
421.171	87.81
421.394	87.81
421.617	83.81
421.839	92.81
422.062	97.81
422.285	87.81
422.507	96.81
422.73	85.81
422.953	98.81
423.175	95.81
423.398	108.81
423.621	84.81
423.843	92.81
424.066	77.81
424.288	90.81
424.511	88.81
424.733	91.81
424.956	96.81
425.178	91.81
425.401	94.81
425.623	96.81
425.846	89.81
426.068	76.81
426.291	88.81
426.513	83.81
426.735	73.81
426.958	92.81
427.18	96.81
427.402	83.81
427.625	85.81
427.847	90.81
428.069	91.81
428.292	83.81
428.514	88.81
428.736	82.81
428.958	82.81
429.181	79.81
429.403	93.81
429.625	95.81
429.847	94.81
430.069	88.81
430.292	83.81
430.514	85.81
430.736	80.81
430.958	76.81
431.18	89.81
431.402	96.81
431.624	80.81
431.846	78.81
432.068	72.81
432.29	72.81
432.512	90.81
432.734	87.81
432.956	90.81
433.178	86.81
433.4	85.81
433.622	97.81
433.844	81.81
434.066	85.81
434.287	81.81
434.509	84.81
434.731	91.81
434.953	77.81
435.175	79.81
435.397	83.81
435.618	74.81
435.84	76.81
436.062	83.81
436.284	70.81
436.505	93.81
436.727	92.81
436.949	84.81
437.17	106.81
437.392	83.81
437.614	109.81
437.835	88.81
438.057	84.81
438.278	86.81
438.5	103.81
438.721	85.81
438.943	78.81
439.165	89.81
439.386	72.81
439.608	80.81
439.829	88.81
440.05	73.81
440.272	81.81
440.493	90.81
440.715	90.81
440.936	81.81
441.158	81.81
441.379	89.81
441.6	83.81
441.822	93.81
442.043	89.81
442.264	92.81
442.486	98.81
442.707	86.81
442.928	85.81
443.149	83.81
443.371	96.81
443.592	85.81
443.813	78.81
444.034	85.81
444.255	77.81
444.476	82.81
444.698	76.81
444.919	89.81
445.14	176.81
445.361	130.81
445.582	93.81
445.803	90.81
446.024	104.81
446.245	87.81
446.466	85.81
446.687	74.81
446.908	83.81
447.129	90.81
447.35	90.81
447.571	85.81
447.792	75.81
448.013	94.81
448.234	91.81
448.455	83.81
448.675	89.81
448.896	90.81
449.117	89.81
449.338	76.81
449.559	92.81
449.779	88.81
450	88.81
450.221	76.81
450.442	99.81
450.662	93.81
450.883	107.81
451.104	90.81
451.324	97.81
451.545	75.81
451.766	99.81
451.986	78.81
452.207	73.81
452.428	81.81
452.648	91.81
452.869	84.81
453.089	99.81
453.31	88.81
453.53	75.81
453.751	87.81
453.971	80.81
454.192	72.81
454.412	74.81
454.633	82.81
454.853	89.81
455.073	84.81
455.294	76.81
455.514	78.81
455.734	78.81
455.955	77.81
456.175	81.81
456.395	86.81
456.616	88.81
456.836	79.81
457.056	79.81
457.276	90.81
457.497	90.81
457.717	91.81
457.937	88.81
458.157	72.81
458.377	81.81
458.598	92.81
458.818	91.81
459.038	97.81
459.258	92.81
459.478	93.81
459.698	71.81
459.918	74.81
460.138	91.81
460.358	93.81
460.578	102.81
460.798	91.81
461.018	98.81
461.238	98.81
461.458	96.81
461.678	97.81
461.898	86.81
462.118	90.81
462.338	79.81
462.558	83.81
462.777	107.81
462.997	82.81
463.217	90.81
463.437	94.81
463.657	82.81
463.876	78.81
464.096	82.81
464.316	71.81
464.536	91.81
464.755	79.81
464.975	85.81
465.195	99.81
465.414	89.81
465.634	88.81
465.854	91.81
466.073	82.81
466.293	91.81
466.512	68.81
466.732	91.81
466.951	78.81
467.171	90.81
467.391	82.81
467.61	97.81
467.829	89.81
468.049	82.81
468.268	93.81
468.488	104.81
468.707	84.81
468.927	87.81
469.146	101.81
469.365	75.81
469.585	68.81
469.804	78.81
470.023	80.81
470.243	92.81
470.462	80.81
470.681	86.81
470.901	85.81
471.12	83.81
471.339	96.81
471.558	68.81
471.777	107.81
471.997	88.81
472.216	87.81
472.435	87.81
472.654	89.81
472.873	90.81
473.092	80.81
473.311	82.81
473.53	76.81
473.749	90.81
473.968	76.81
474.187	79.81
474.406	92.81
474.625	86.81
474.844	79.81
475.063	86.81
475.282	100.81
475.501	74.81
475.72	87.81
475.939	74.81
476.158	94.81
476.377	82.81
476.596	86.81
476.814	87.81
477.033	86.81
477.252	85.81
477.471	72.81
477.69	78.81
477.908	92.81
478.127	93.81
478.346	79.81
478.564	92.81
478.783	97.81
479.002	92.81
479.22	84.81
479.439	99.81
479.658	95.81
479.876	85.81
480.095	81.81
480.313	86.81
480.532	96.81
480.751	98.81
480.969	75.81
481.188	70.81
481.406	93.81
481.624	92.81
481.843	81.81
482.061	82.81
482.28	96.81
482.498	87.81
482.717	95.81
482.935	83.81
483.153	80.81
483.372	98.81
483.59	92.81
483.808	88.81
484.027	94.81
484.245	91.81
484.463	102.81
484.681	82.81
484.9	82.81
485.118	94.81
485.336	90.81
485.554	88.81
485.772	92.81
485.99	98.81
486.209	77.81
486.427	80.81
486.645	79.81
486.863	104.81
487.081	86.81
487.299	98.81
487.517	95.81
487.735	105.81
487.953	79.81
488.171	98.81
488.389	84.81
488.607	87.81
488.825	102.81
489.043	82.81
489.261	80.81
489.479	92.81
489.696	93.81
489.914	97.81
490.132	93.81
490.35	94.81
490.568	95.81
490.786	83.81
491.003	91.81
491.221	67.81
491.439	85.81
491.657	91.81
491.874	86.81
492.092	92.81
492.31	85.81
492.527	84.81
492.745	80.81
492.963	94.81
493.18	81.81
493.398	93.81
493.615	86.81
493.833	88.81
494.05	75.81
494.268	95.81
494.485	96.81
494.703	93.81
494.92	89.81
495.138	92.81
495.355	81.81
495.573	89.81
495.79	94.81
496.008	87.81
496.225	82.81
496.442	95.81
496.66	80.81
496.877	80.81
497.094	90.81
497.312	92.81
497.529	82.81
497.746	93.81
497.963	97.81
498.181	93.81
498.398	88.81
498.615	93.81
498.832	94.81
499.049	99.81
499.267	97.81
499.484	114.81
499.701	84.81
499.918	110.81
500.135	99.81
500.352	112.81
500.569	120.81
500.786	114.81
501.003	114.81
501.22	89.81
501.437	107.81
501.654	107.81
501.871	82.81
502.088	88.81
502.305	97.81
502.522	76.81
502.739	102.81
502.956	92.81
503.172	95.81
503.389	94.81
503.606	90.81
503.823	91.81
504.04	113.81
504.256	96.81
504.473	78.81
504.69	88.81
504.907	96.81
505.123	105.81
505.34	86.81
505.557	92.81
505.773	88.81
505.99	75.81
506.207	98.81
506.423	78.81
506.64	83.81
506.856	100.81
507.073	93.81
507.289	91.81
507.506	89.81
507.722	87.81
507.939	81.81
508.155	83.81
508.372	75.81
508.588	88.81
508.805	77.81
509.021	86.81
509.238	96.81
509.454	83.81
509.67	94.81
509.887	80.81
510.103	94.81
510.319	84.81
510.536	92.81
510.752	97.81
510.968	89.81
511.184	89.81
511.401	87.81
511.617	93.81
511.833	90.81
512.049	75.81
512.265	74.81
512.481	95.81
512.698	94.81
512.914	89.81
513.13	88.81
513.346	83.81
513.562	84.81
513.778	85.81
513.994	88.81
514.21	71.81
514.426	85.81
514.642	87.81
514.858	88.81
515.074	73.81
515.29	98.81
515.506	92.81
515.721	97.81
515.937	97.81
516.153	99.81
516.369	78.81
516.585	91.81
516.801	102.81
517.016	89.81
517.232	99.81
517.448	88.81
517.664	99.81
517.879	93.81
518.095	94.81
518.311	93.81
518.527	100.81
518.742	90.81
518.958	72.81
519.173	93.81
519.389	80.81
