Data from BG_HRD10591_019.txt Node
Date: Fri May 16 15:33:16 EDT 2025
User: Yrep
Spectrometer: HR+D1059
Trigger mode: 1
Integration Time (sec): 1.000000E-1
Scans to average: 1
Electric dark correction enabled: true
Nonlinearity correction enabled: false
Boxcar width: 0
XAxis mode: Wavelengths
Number of Pixels in Spectrum: 2048
>>>>>Begin Spectral Data<<<<<
223.165	-22.25
223.4	-22.25
223.635	-22.25
223.869	-21.25
224.104	-19.25
224.338	-23.25
224.573	-8.25
224.808	-15.25
225.042	-13.25
225.277	10.75
225.511	-0.25
225.746	-3.25
225.98	7.75
226.215	8.75
226.449	16.75
226.683	20.75
226.918	21.75
227.152	39.75
227.387	40.75
227.621	21.75
227.856	36.75
228.09	48.75
228.324	66.75
228.559	61.75
228.793	60.75
229.027	65.75
229.262	58.75
229.496	60.75
229.73	63.75
229.964	62.75
230.199	74.75
230.433	62.75
230.667	71.75
230.901	84.75
231.136	70.75
231.37	65.75
231.604	68.75
231.838	78.75
232.072	87.75
232.306	94.75
232.541	85.75
232.775	74.75
233.009	68.75
233.243	70.75
233.477	75.75
233.711	80.75
233.945	80.75
234.179	85.75
234.413	89.75
234.647	67.75
234.881	75.75
235.115	71.75
235.349	76.75
235.583	76.75
235.817	58.75
236.051	76.75
236.285	78.75
236.519	87.75
236.753	70.75
236.987	80.75
237.221	76.75
237.455	70.75
237.689	73.75
237.922	72.75
238.156	80.75
238.39	67.75
238.624	62.75
238.858	66.75
239.091	67.75
239.325	70.75
239.559	78.75
239.793	70.75
240.027	77.75
240.26	81.75
240.494	79.75
240.728	66.75
240.961	74.75
241.195	74.75
241.429	75.75
241.662	81.75
241.896	74.75
242.13	83.75
242.363	89.75
242.597	78.75
242.83	64.75
243.064	70.75
243.298	91.75
243.531	76.75
243.765	74.75
243.998	73.75
244.232	85.75
244.465	93.75
244.699	84.75
244.932	79.75
245.166	79.75
245.399	74.75
245.633	63.75
245.866	93.75
246.099	83.75
246.333	81.75
246.566	97.75
246.8	78.75
247.033	70.75
247.266	73.75
247.5	76.75
247.733	80.75
247.966	68.75
248.2	84.75
248.433	68.75
248.666	80.75
248.899	77.75
249.133	62.75
249.366	80.75
249.599	67.75
249.832	77.75
250.066	73.75
250.299	72.75
250.532	86.75
250.765	68.75
250.998	77.75
251.231	73.75
251.465	75.75
251.698	73.75
251.931	67.75
252.164	79.75
252.397	72.75
252.63	71.75
252.863	81.75
253.096	86.75
253.329	86.75
253.562	81.75
253.795	70.75
254.028	89.75
254.261	78.75
254.494	92.75
254.727	78.75
254.96	80.75
255.193	79.75
255.426	77.75
255.659	82.75
255.892	74.75
256.124	87.75
256.357	79.75
256.59	75.75
256.823	76.75
257.056	64.75
257.289	75.75
257.521	74.75
257.754	81.75
257.987	93.75
258.22	79.75
258.452	98.75
258.685	88.75
258.918	71.75
259.151	64.75
259.383	82.75
259.616	76.75
259.849	74.75
260.081	76.75
260.314	86.75
260.547	78.75
260.779	77.75
261.012	81.75
261.244	89.75
261.477	80.75
261.71	73.75
261.942	74.75
262.175	76.75
262.407	80.75
262.64	77.75
262.872	81.75
263.105	66.75
263.337	88.75
263.57	69.75
263.802	78.75
264.035	77.75
264.267	87.75
264.499	85.75
264.732	95.75
264.964	81.75
265.197	76.75
265.429	99.75
265.661	96.75
265.894	82.75
266.126	84.75
266.358	72.75
266.591	78.75
266.823	94.75
267.055	80.75
267.287	73.75
267.52	92.75
267.752	81.75
267.984	78.75
268.216	81.75
268.448	98.75
268.681	79.75
268.913	90.75
269.145	86.75
269.377	67.75
269.609	80.75
269.841	84.75
270.073	97.75
270.306	87.75
270.538	99.75
270.77	76.75
271.002	84.75
271.234	74.75
271.466	83.75
271.698	94.75
271.93	77.75
272.162	73.75
272.394	87.75
272.626	90.75
272.858	94.75
273.09	82.75
273.322	84.75
273.553	78.75
273.785	87.75
274.017	76.75
274.249	76.75
274.481	71.75
274.713	80.75
274.945	69.75
275.176	78.75
275.408	93.75
275.64	89.75
275.872	81.75
276.104	82.75
276.335	84.75
276.567	88.75
276.799	84.75
277.031	98.75
277.262	80.75
277.494	85.75
277.726	85.75
277.957	86.75
278.189	73.75
278.421	88.75
278.652	94.75
278.884	84.75
279.115	86.75
279.347	89.75
279.579	80.75
279.81	88.75
280.042	79.75
280.273	83.75
280.505	74.75
280.736	79.75
280.968	78.75
281.199	90.75
281.431	91.75
281.662	66.75
281.894	82.75
282.125	90.75
282.356	78.75
282.588	86.75
282.819	86.75
283.051	93.75
283.282	83.75
283.513	92.75
283.745	85.75
283.976	81.75
284.207	76.75
284.439	82.75
284.67	73.75
284.901	79.75
285.132	84.75
285.364	80.75
285.595	78.75
285.826	96.75
286.057	107.75
286.288	96.75
286.52	96.75
286.751	90.75
286.982	92.75
287.213	79.75
287.444	73.75
287.675	90.75
287.906	90.75
288.138	88.75
288.369	93.75
288.6	84.75
288.831	66.75
289.062	96.75
289.293	83.75
289.524	97.75
289.755	84.75
289.986	89.75
290.217	79.75
290.448	86.75
290.679	80.75
290.91	78.75
291.141	98.75
291.371	90.75
291.602	89.75
291.833	84.75
292.064	80.75
292.295	81.75
292.526	79.75
292.757	83.75
292.987	87.75
293.218	93.75
293.449	87.75
293.68	92.75
293.91	81.75
294.141	84.75
294.372	90.75
294.603	75.75
294.833	74.75
295.064	94.75
295.295	70.75
295.525	75.75
295.756	76.75
295.987	86.75
296.217	86.75
296.448	75.75
296.679	82.75
296.909	76.75
297.14	70.75
297.37	88.75
297.601	91.75
297.831	82.75
298.062	86.75
298.292	88.75
298.523	75.75
298.753	82.75
298.984	89.75
299.214	74.75
299.445	75.75
299.675	93.75
299.905	81.75
300.136	87.75
300.366	86.75
300.597	87.75
300.827	77.75
301.057	88.75
301.288	96.75
301.518	92.75
301.748	95.75
301.979	100.75
302.209	80.75
302.439	90.75
302.669	89.75
302.9	90.75
303.13	94.75
303.36	86.75
303.59	88.75
303.82	80.75
304.051	83.75
304.281	82.75
304.511	101.75
304.741	93.75
304.971	86.75
305.201	82.75
305.431	97.75
305.661	101.75
305.891	96.75
306.121	94.75
306.352	96.75
306.582	83.75
306.812	87.75
307.042	77.75
307.272	102.75
307.502	86.75
307.731	87.75
307.961	95.75
308.191	74.75
308.421	88.75
308.651	90.75
308.881	95.75
309.111	72.75
309.341	87.75
309.571	82.75
309.8	87.75
310.03	84.75
310.26	78.75
310.49	91.75
310.72	87.75
310.949	89.75
311.179	88.75
311.409	85.75
311.639	72.75
311.868	80.75
312.098	71.75
312.328	73.75
312.557	80.75
312.787	88.75
313.017	86.75
313.246	95.75
313.476	88.75
313.706	87.75
313.935	85.75
314.165	80.75
314.394	83.75
314.624	84.75
314.853	78.75
315.083	95.75
315.312	62.75
315.542	83.75
315.771	94.75
316.001	89.75
316.23	80.75
316.46	81.75
316.689	86.75
316.919	85.75
317.148	103.75
317.377	92.75
317.607	86.75
317.836	95.75
318.065	84.75
318.295	77.75
318.524	86.75
318.753	84.75
318.983	77.75
319.212	79.75
319.441	78.75
319.67	90.75
319.9	85.75
320.129	90.75
320.358	88.75
320.587	84.75
320.816	96.75
321.046	84.75
321.275	88.75
321.504	91.75
321.733	99.75
321.962	71.75
322.191	82.75
322.42	102.75
322.649	90.75
322.878	88.75
323.108	104.75
323.337	87.75
323.566	84.75
323.795	84.75
324.024	85.75
324.253	91.75
324.482	69.75
324.71	89.75
324.939	98.75
325.168	98.75
325.397	64.75
325.626	102.75
325.855	78.75
326.084	80.75
326.313	86.75
326.542	80.75
326.77	87.75
326.999	84.75
327.228	84.75
327.457	90.75
327.686	73.75
327.914	94.75
328.143	92.75
328.372	82.75
328.6	77.75
328.829	68.75
329.058	76.75
329.287	96.75
329.515	90.75
329.744	98.75
329.972	92.75
330.201	94.75
330.43	81.75
330.658	81.75
330.887	92.75
331.115	70.75
331.344	84.75
331.572	76.75
331.801	98.75
332.03	82.75
332.258	86.75
332.486	77.75
332.715	88.75
332.943	83.75
333.172	89.75
333.4	96.75
333.629	104.75
333.857	90.75
334.085	80.75
334.314	88.75
334.542	84.75
334.771	76.75
334.999	91.75
335.227	77.75
335.455	84.75
335.684	91.75
335.912	95.75
336.14	91.75
336.369	83.75
336.597	97.75
336.825	84.75
337.053	91.75
337.281	86.75
337.51	96.75
337.738	96.75
337.966	87.75
338.194	89.75
338.422	81.75
338.65	76.75
338.878	90.75
339.106	97.75
339.334	96.75
339.562	88.75
339.79	98.75
340.018	96.75
340.246	89.75
340.474	88.75
340.702	82.75
340.93	80.75
341.158	95.75
341.386	83.75
341.614	88.75
341.842	79.75
342.07	76.75
342.298	92.75
342.526	73.75
342.754	71.75
342.981	85.75
343.209	88.75
343.437	101.75
343.665	96.75
343.893	88.75
344.12	86.75
344.348	85.75
344.576	82.75
344.804	90.75
345.031	94.75
345.259	90.75
345.487	85.75
345.714	100.75
345.942	86.75
346.17	105.75
346.397	90.75
346.625	96.75
346.853	81.75
347.08	84.75
347.308	81.75
347.535	87.75
347.763	89.75
347.99	90.75
348.218	94.75
348.445	77.75
348.673	85.75
348.9	94.75
349.128	80.75
349.355	84.75
349.583	87.75
349.81	91.75
350.037	95.75
350.265	82.75
350.492	73.75
350.72	87.75
350.947	68.75
351.174	84.75
351.402	73.75
351.629	86.75
351.856	87.75
352.083	79.75
352.311	98.75
352.538	89.75
352.765	88.75
352.992	74.75
353.22	94.75
353.447	96.75
353.674	102.75
353.901	79.75
354.128	90.75
354.355	91.75
354.583	84.75
354.81	91.75
355.037	97.75
355.264	96.75
355.491	89.75
355.718	82.75
355.945	84.75
356.172	84.75
356.399	79.75
356.626	79.75
356.853	92.75
357.08	80.75
357.307	90.75
357.534	90.75
357.761	90.75
357.988	87.75
358.215	91.75
358.441	81.75
358.668	87.75
358.895	87.75
359.122	81.75
359.349	86.75
359.576	67.75
359.802	94.75
360.029	93.75
360.256	85.75
360.483	91.75
360.709	90.75
360.936	89.75
361.163	74.75
361.39	76.75
361.616	81.75
361.843	79.75
362.07	85.75
362.296	80.75
362.523	92.75
362.749	96.75
362.976	78.75
363.203	90.75
363.429	100.75
363.656	97.75
363.882	84.75
364.109	76.75
364.335	109.75
364.562	81.75
364.788	80.75
365.015	81.75
365.241	78.75
365.468	91.75
365.694	94.75
365.92	84.75
366.147	86.75
366.373	85.75
366.599	85.75
366.826	80.75
367.052	90.75
367.278	88.75
367.505	92.75
367.731	106.75
367.957	92.75
368.184	81.75
368.41	101.75
368.636	102.75
368.862	85.75
369.089	90.75
369.315	82.75
369.541	78.75
369.767	88.75
369.993	89.75
370.219	84.75
370.445	70.75
370.672	87.75
370.898	85.75
371.124	88.75
371.35	96.75
371.576	90.75
371.802	88.75
372.028	88.75
372.254	80.75
372.48	93.75
372.706	80.75
372.932	80.75
373.158	91.75
373.384	79.75
373.61	84.75
373.835	99.75
374.061	93.75
374.287	92.75
374.513	87.75
374.739	78.75
374.965	88.75
375.191	88.75
375.416	85.75
375.642	94.75
375.868	93.75
376.094	84.75
376.319	82.75
376.545	89.75
376.771	102.75
376.997	69.75
377.222	84.75
377.448	97.75
377.674	93.75
377.899	102.75
378.125	96.75
378.35	76.75
378.576	87.75
378.802	82.75
379.027	78.75
379.253	78.75
379.478	80.75
379.704	84.75
379.929	73.75
380.155	73.75
380.38	85.75
380.606	82.75
380.831	88.75
381.057	88.75
381.282	79.75
381.507	88.75
381.733	81.75
381.958	85.75
382.184	88.75
382.409	84.75
382.634	91.75
382.86	104.75
383.085	86.75
383.31	81.75
383.535	92.75
383.761	77.75
383.986	96.75
384.211	85.75
384.436	90.75
384.662	93.75
384.887	86.75
385.112	79.75
385.337	90.75
385.562	77.75
385.787	91.75
386.013	85.75
386.238	74.75
386.463	82.75
386.688	92.75
386.913	88.75
387.138	79.75
387.363	79.75
387.588	81.75
387.813	85.75
388.038	101.75
388.263	80.75
388.488	90.75
388.713	87.75
388.938	93.75
389.163	68.75
389.387	88.75
389.612	84.75
389.837	87.75
390.062	89.75
390.287	87.75
390.512	87.75
390.736	90.75
390.961	80.75
391.186	92.75
391.411	92.75
391.636	106.75
391.86	98.75
392.085	86.75
392.31	82.75
392.534	81.75
392.759	88.75
392.984	80.75
393.208	71.75
393.433	92.75
393.658	88.75
393.882	83.75
394.107	83.75
394.331	83.75
394.556	86.75
394.78	84.75
395.005	89.75
395.229	85.75
395.454	87.75
395.678	84.75
395.903	87.75
396.127	93.75
396.352	95.75
396.576	88.75
396.801	87.75
397.025	86.75
397.249	79.75
397.474	94.75
397.698	77.75
397.922	74.75
398.147	101.75
398.371	80.75
398.595	93.75
398.82	95.75
399.044	84.75
399.268	99.75
399.492	95.75
399.717	104.75
399.941	79.75
400.165	84.75
400.389	100.75
400.613	91.75
400.837	88.75
401.062	82.75
401.286	79.75
401.51	93.75
401.734	78.75
401.958	86.75
402.182	90.75
402.406	92.75
402.63	79.75
402.854	90.75
403.078	93.75
403.302	93.75
403.526	100.75
403.75	81.75
403.974	91.75
404.198	86.75
404.422	77.75
404.645	84.75
404.869	79.75
405.093	86.75
405.317	80.75
405.541	83.75
405.765	99.75
405.988	96.75
406.212	75.75
406.436	84.75
406.66	96.75
406.883	110.75
407.107	87.75
407.331	78.75
407.555	94.75
407.778	95.75
408.002	84.75
408.226	88.75
408.449	92.75
408.673	84.75
408.896	72.75
409.12	89.75
409.344	85.75
409.567	101.75
409.791	102.75
410.014	90.75
410.238	85.75
410.461	91.75
410.685	93.75
410.908	75.75
411.132	84.75
411.355	83.75
411.578	80.75
411.802	91.75
412.025	82.75
412.249	88.75
412.472	91.75
412.695	87.75
412.919	92.75
413.142	77.75
413.365	88.75
413.589	83.75
413.812	81.75
414.035	99.75
414.258	91.75
414.482	80.75
414.705	81.75
414.928	82.75
415.151	86.75
415.374	87.75
415.597	95.75
415.821	72.75
416.044	90.75
416.267	85.75
416.49	84.75
416.713	97.75
416.936	82.75
417.159	84.75
417.382	76.75
417.605	88.75
417.828	86.75
418.051	88.75
418.274	86.75
418.497	82.75
418.72	97.75
418.943	81.75
419.166	86.75
419.389	84.75
419.611	93.75
419.834	84.75
420.057	86.75
420.28	87.75
420.503	77.75
420.726	85.75
420.948	84.75
421.171	98.75
421.394	82.75
421.617	96.75
421.839	88.75
422.062	85.75
422.285	85.75
422.507	82.75
422.73	76.75
422.953	88.75
423.175	84.75
423.398	84.75
423.621	81.75
423.843	87.75
424.066	97.75
424.288	87.75
424.511	89.75
424.733	84.75
424.956	88.75
425.178	91.75
425.401	80.75
425.623	72.75
425.846	80.75
426.068	75.75
426.291	80.75
426.513	93.75
426.735	87.75
426.958	80.75
427.18	89.75
427.402	86.75
427.625	86.75
427.847	90.75
428.069	91.75
428.292	89.75
428.514	99.75
428.736	101.75
428.958	84.75
429.181	101.75
429.403	87.75
429.625	83.75
429.847	82.75
430.069	89.75
430.292	79.75
430.514	101.75
430.736	84.75
430.958	94.75
431.18	93.75
431.402	76.75
431.624	77.75
431.846	95.75
432.068	78.75
432.29	80.75
432.512	88.75
432.734	95.75
432.956	107.75
433.178	80.75
433.4	81.75
433.622	88.75
433.844	92.75
434.066	85.75
434.287	91.75
434.509	89.75
434.731	100.75
434.953	86.75
435.175	90.75
435.397	87.75
435.618	100.75
435.84	98.75
436.062	82.75
436.284	80.75
436.505	83.75
436.727	85.75
436.949	84.75
437.17	83.75
437.392	77.75
437.614	87.75
437.835	87.75
438.057	80.75
438.278	85.75
438.5	92.75
438.721	90.75
438.943	76.75
439.165	81.75
439.386	84.75
439.608	100.75
439.829	83.75
440.05	88.75
440.272	78.75
440.493	72.75
440.715	78.75
440.936	76.75
441.158	85.75
441.379	83.75
441.6	81.75
441.822	86.75
442.043	66.75
442.264	97.75
442.486	94.75
442.707	84.75
442.928	80.75
443.149	85.75
443.371	67.75
443.592	84.75
443.813	75.75
444.034	79.75
444.255	79.75
444.476	94.75
444.698	86.75
444.919	91.75
445.14	163.75
445.361	118.75
445.582	87.75
445.803	96.75
446.024	88.75
446.245	77.75
446.466	88.75
446.687	78.75
446.908	82.75
447.129	86.75
447.35	88.75
447.571	69.75
447.792	95.75
448.013	93.75
448.234	93.75
448.455	82.75
448.675	87.75
448.896	77.75
449.117	81.75
449.338	71.75
449.559	97.75
449.779	70.75
450	86.75
450.221	86.75
450.442	90.75
450.662	83.75
450.883	76.75
451.104	82.75
451.324	85.75
451.545	86.75
451.766	89.75
451.986	90.75
452.207	70.75
452.428	92.75
452.648	89.75
452.869	86.75
453.089	79.75
453.31	78.75
453.53	84.75
453.751	86.75
453.971	92.75
454.192	84.75
454.412	91.75
454.633	79.75
454.853	76.75
455.073	90.75
455.294	84.75
455.514	89.75
455.734	83.75
455.955	87.75
456.175	84.75
456.395	93.75
456.616	78.75
456.836	87.75
457.056	84.75
457.276	77.75
457.497	80.75
457.717	88.75
457.937	79.75
458.157	86.75
458.377	78.75
458.598	86.75
458.818	78.75
459.038	82.75
459.258	79.75
459.478	85.75
459.698	91.75
459.918	96.75
460.138	79.75
460.358	82.75
460.578	102.75
460.798	63.75
461.018	89.75
461.238	99.75
461.458	88.75
461.678	76.75
461.898	77.75
462.118	83.75
462.338	89.75
462.558	82.75
462.777	76.75
462.997	72.75
463.217	80.75
463.437	81.75
463.657	96.75
463.876	89.75
464.096	89.75
464.316	88.75
464.536	78.75
464.755	87.75
464.975	84.75
465.195	84.75
465.414	83.75
465.634	96.75
465.854	87.75
466.073	80.75
466.293	95.75
466.512	77.75
466.732	74.75
466.951	81.75
467.171	97.75
467.391	89.75
467.61	90.75
467.829	77.75
468.049	81.75
468.268	80.75
468.488	78.75
468.707	82.75
468.927	81.75
469.146	94.75
469.365	101.75
469.585	80.75
469.804	90.75
470.023	82.75
470.243	82.75
470.462	87.75
470.681	89.75
470.901	77.75
471.12	72.75
471.339	87.75
471.558	81.75
471.777	82.75
471.997	87.75
472.216	84.75
472.435	82.75
472.654	80.75
472.873	81.75
473.092	82.75
473.311	81.75
473.53	69.75
473.749	88.75
473.968	94.75
474.187	97.75
474.406	93.75
474.625	100.75
474.844	81.75
475.063	88.75
475.282	97.75
475.501	93.75
475.72	72.75
475.939	80.75
476.158	75.75
476.377	86.75
476.596	75.75
476.814	76.75
477.033	84.75
477.252	75.75
477.471	86.75
477.69	82.75
477.908	88.75
478.127	78.75
478.346	97.75
478.564	95.75
478.783	102.75
479.002	79.75
479.22	90.75
479.439	90.75
479.658	85.75
479.876	90.75
480.095	72.75
480.313	93.75
480.532	84.75
480.751	79.75
480.969	84.75
481.188	79.75
481.406	79.75
481.624	79.75
481.843	87.75
482.061	82.75
482.28	81.75
482.498	87.75
482.717	86.75
482.935	103.75
483.153	98.75
483.372	86.75
483.59	90.75
483.808	90.75
484.027	79.75
484.245	89.75
484.463	89.75
484.681	98.75
484.9	88.75
485.118	84.75
485.336	101.75
485.554	80.75
485.772	90.75
485.99	88.75
486.209	96.75
486.427	89.75
486.645	85.75
486.863	75.75
487.081	91.75
487.299	94.75
487.517	79.75
487.735	76.75
487.953	84.75
488.171	87.75
488.389	89.75
488.607	73.75
488.825	73.75
489.043	76.75
489.261	91.75
489.479	92.75
489.696	96.75
489.914	73.75
490.132	98.75
490.35	88.75
490.568	70.75
490.786	92.75
491.003	89.75
491.221	77.75
491.439	82.75
491.657	81.75
491.874	86.75
492.092	82.75
492.31	84.75
492.527	95.75
492.745	95.75
492.963	84.75
493.18	80.75
493.398	86.75
493.615	68.75
493.833	94.75
494.05	87.75
494.268	84.75
494.485	81.75
494.703	96.75
494.92	92.75
495.138	86.75
495.355	88.75
495.573	89.75
495.79	89.75
496.008	78.75
496.225	90.75
496.442	87.75
496.66	87.75
496.877	81.75
497.094	81.75
497.312	86.75
497.529	68.75
497.746	94.75
497.963	82.75
498.181	96.75
498.398	88.75
498.615	87.75
498.832	68.75
499.049	96.75
499.267	87.75
499.484	81.75
499.701	81.75
499.918	98.75
500.135	111.75
500.352	98.75
500.569	120.75
500.786	108.75
501.003	103.75
501.22	114.75
501.437	97.75
501.654	95.75
501.871	80.75
502.088	96.75
502.305	89.75
502.522	88.75
502.739	100.75
502.956	106.75
503.172	95.75
503.389	104.75
503.606	82.75
503.823	80.75
504.04	95.75
504.256	88.75
504.473	88.75
504.69	89.75
504.907	86.75
505.123	73.75
505.34	86.75
505.557	98.75
505.773	95.75
505.99	85.75
506.207	94.75
506.423	80.75
506.64	85.75
506.856	74.75
507.073	88.75
507.289	95.75
507.506	86.75
507.722	72.75
507.939	87.75
508.155	86.75
508.372	80.75
508.588	91.75
508.805	77.75
509.021	92.75
509.238	81.75
509.454	81.75
509.67	97.75
509.887	88.75
510.103	74.75
510.319	84.75
510.536	102.75
510.752	86.75
510.968	91.75
511.184	80.75
511.401	88.75
511.617	106.75
511.833	83.75
512.049	79.75
512.265	94.75
512.481	100.75
512.698	92.75
512.914	82.75
513.13	74.75
513.346	78.75
513.562	91.75
513.778	100.75
513.994	82.75
514.21	101.75
514.426	96.75
514.642	96.75
514.858	81.75
515.074	88.75
515.29	79.75
515.506	93.75
515.721	92.75
515.937	77.75
516.153	90.75
516.369	94.75
516.585	81.75
516.801	73.75
517.016	90.75
517.232	91.75
517.448	83.75
517.664	98.75
517.879	86.75
518.095	101.75
518.311	81.75
518.527	84.75
518.742	84.75
518.958	86.75
519.173	87.75
519.389	76.75
519.605	88.75
