Data from BG_HRD10591_050.txt Node
Date: Fri May 16 15:33:32 EDT 2025
User: Yrep
Spectrometer: HR+D1059
Trigger mode: 1
Integration Time (sec): 1.000000E-1
Scans to average: 1
Electric dark correction enabled: true
Nonlinearity correction enabled: false
Boxcar width: 0
XAxis mode: Wavelengths
Number of Pixels in Spectrum: 2048
>>>>>Begin Spectral Data<<<<<
223.165	-19.94
223.4	-19.94
223.635	-19.94
223.869	-21.94
224.104	-14.94
224.338	-12.94
224.573	-15.94
224.808	-19.94
225.042	6.06
225.277	-2.94
225.511	16.06
225.746	6.06
225.98	-8.94
226.215	14.06
226.449	24.06
226.683	6.06
226.918	19.06
227.152	26.06
227.387	44.06
227.621	32.06
227.856	42.06
228.09	54.06
228.324	61.06
228.559	76.06
228.793	58.06
229.027	54.06
229.262	65.06
229.496	65.06
229.73	70.06
229.964	58.06
230.199	68.06
230.433	81.06
230.667	66.06
230.901	72.06
231.136	86.06
231.37	78.06
231.604	82.06
231.838	69.06
232.072	80.06
232.306	93.06
232.541	84.06
232.775	90.06
233.009	86.06
233.243	84.06
233.477	74.06
233.711	83.06
233.945	77.06
234.179	83.06
234.413	82.06
234.647	79.06
234.881	82.06
235.115	77.06
235.349	71.06
235.583	81.06
235.817	79.06
236.051	92.06
236.285	89.06
236.519	74.06
236.753	78.06
236.987	85.06
237.221	76.06
237.455	85.06
237.689	68.06
237.922	87.06
238.156	72.06
238.39	66.06
238.624	87.06
238.858	72.06
239.091	75.06
239.325	79.06
239.559	80.06
239.793	70.06
240.027	72.06
240.26	76.06
240.494	82.06
240.728	84.06
240.961	80.06
241.195	78.06
241.429	78.06
241.662	81.06
241.896	66.06
242.13	76.06
242.363	80.06
242.597	79.06
242.83	77.06
243.064	88.06
243.298	65.06
243.531	76.06
243.765	91.06
243.998	88.06
244.232	78.06
244.465	93.06
244.699	64.06
244.932	84.06
245.166	79.06
245.399	87.06
245.633	79.06
245.866	96.06
246.099	64.06
246.333	79.06
246.566	78.06
246.8	77.06
247.033	73.06
247.266	76.06
247.5	72.06
247.733	57.06
247.966	78.06
248.2	74.06
248.433	78.06
248.666	80.06
248.899	79.06
249.133	83.06
249.366	78.06
249.599	63.06
249.832	66.06
250.066	74.06
250.299	72.06
250.532	75.06
250.765	76.06
250.998	85.06
251.231	58.06
251.465	93.06
251.698	56.06
251.931	69.06
252.164	81.06
252.397	72.06
252.63	82.06
252.863	77.06
253.096	72.06
253.329	84.06
253.562	64.06
253.795	81.06
254.028	72.06
254.261	90.06
254.494	72.06
254.727	82.06
254.96	84.06
255.193	94.06
255.426	77.06
255.659	93.06
255.892	85.06
256.124	80.06
256.357	80.06
256.59	89.06
256.823	94.06
257.056	79.06
257.289	72.06
257.521	83.06
257.754	86.06
257.987	86.06
258.22	73.06
258.452	72.06
258.685	76.06
258.918	78.06
259.151	82.06
259.383	77.06
259.616	78.06
259.849	87.06
260.081	92.06
260.314	78.06
260.547	66.06
260.779	81.06
261.012	86.06
261.244	83.06
261.477	76.06
261.71	77.06
261.942	71.06
262.175	83.06
262.407	75.06
262.64	95.06
262.872	81.06
263.105	80.06
263.337	84.06
263.57	100.06
263.802	83.06
264.035	86.06
264.267	86.06
264.499	84.06
264.732	72.06
264.964	92.06
265.197	88.06
265.429	79.06
265.661	76.06
265.894	79.06
266.126	100.06
266.358	73.06
266.591	88.06
266.823	78.06
267.055	80.06
267.287	90.06
267.52	78.06
267.752	90.06
267.984	81.06
268.216	83.06
268.448	92.06
268.681	90.06
268.913	87.06
269.145	86.06
269.377	88.06
269.609	83.06
269.841	86.06
270.073	67.06
270.306	86.06
270.538	74.06
270.77	84.06
271.002	79.06
271.234	78.06
271.466	86.06
271.698	79.06
271.93	82.06
272.162	76.06
272.394	80.06
272.626	73.06
272.858	90.06
273.09	91.06
273.322	92.06
273.553	89.06
273.785	86.06
274.017	78.06
274.249	67.06
274.481	77.06
274.713	96.06
274.945	90.06
275.176	79.06
275.408	88.06
275.64	88.06
275.872	85.06
276.104	76.06
276.335	89.06
276.567	82.06
276.799	70.06
277.031	87.06
277.262	87.06
277.494	89.06
277.726	82.06
277.957	98.06
278.189	91.06
278.421	96.06
278.652	76.06
278.884	77.06
279.115	80.06
279.347	95.06
279.579	89.06
279.81	83.06
280.042	80.06
280.273	91.06
280.505	80.06
280.736	82.06
280.968	84.06
281.199	86.06
281.431	86.06
281.662	78.06
281.894	102.06
282.125	84.06
282.356	98.06
282.588	82.06
282.819	88.06
283.051	84.06
283.282	79.06
283.513	90.06
283.745	90.06
283.976	83.06
284.207	81.06
284.439	88.06
284.67	82.06
284.901	90.06
285.132	87.06
285.364	83.06
285.595	104.06
285.826	91.06
286.057	89.06
286.288	90.06
286.52	89.06
286.751	85.06
286.982	97.06
287.213	89.06
287.444	88.06
287.675	87.06
287.906	85.06
288.138	83.06
288.369	76.06
288.6	89.06
288.831	71.06
289.062	91.06
289.293	82.06
289.524	84.06
289.755	95.06
289.986	85.06
290.217	83.06
290.448	87.06
290.679	81.06
290.91	72.06
291.141	79.06
291.371	90.06
291.602	82.06
291.833	77.06
292.064	82.06
292.295	84.06
292.526	81.06
292.757	80.06
292.987	81.06
293.218	82.06
293.449	76.06
293.68	97.06
293.91	85.06
294.141	90.06
294.372	94.06
294.603	97.06
294.833	87.06
295.064	88.06
295.295	82.06
295.525	91.06
295.756	92.06
295.987	78.06
296.217	93.06
296.448	98.06
296.679	88.06
296.909	72.06
297.14	86.06
297.37	90.06
297.601	83.06
297.831	95.06
298.062	90.06
298.292	80.06
298.523	96.06
298.753	94.06
298.984	97.06
299.214	73.06
299.445	81.06
299.675	93.06
299.905	86.06
300.136	99.06
300.366	82.06
300.597	76.06
300.827	75.06
301.057	81.06
301.288	83.06
301.518	87.06
301.748	69.06
301.979	96.06
302.209	95.06
302.439	100.06
302.669	80.06
302.9	82.06
303.13	85.06
303.36	65.06
303.59	73.06
303.82	87.06
304.051	91.06
304.281	92.06
304.511	94.06
304.741	72.06
304.971	93.06
305.201	90.06
305.431	96.06
305.661	90.06
305.891	83.06
306.121	89.06
306.352	86.06
306.582	87.06
306.812	85.06
307.042	88.06
307.272	81.06
307.502	71.06
307.731	99.06
307.961	90.06
308.191	83.06
308.421	78.06
308.651	79.06
308.881	84.06
309.111	75.06
309.341	85.06
309.571	90.06
309.8	89.06
310.03	90.06
310.26	99.06
310.49	85.06
310.72	86.06
310.949	87.06
311.179	79.06
311.409	81.06
311.639	78.06
311.868	88.06
312.098	84.06
312.328	98.06
312.557	86.06
312.787	90.06
313.017	91.06
313.246	83.06
313.476	87.06
313.706	78.06
313.935	78.06
314.165	91.06
314.394	102.06
314.624	78.06
314.853	91.06
315.083	90.06
315.312	86.06
315.542	90.06
315.771	74.06
316.001	87.06
316.23	81.06
316.46	88.06
316.689	94.06
316.919	89.06
317.148	83.06
317.377	102.06
317.607	94.06
317.836	78.06
318.065	74.06
318.295	92.06
318.524	82.06
318.753	76.06
318.983	70.06
319.212	86.06
319.441	83.06
319.67	91.06
319.9	96.06
320.129	102.06
320.358	81.06
320.587	92.06
320.816	83.06
321.046	84.06
321.275	94.06
321.504	84.06
321.733	92.06
321.962	89.06
322.191	83.06
322.42	79.06
322.649	83.06
322.878	84.06
323.108	92.06
323.337	88.06
323.566	95.06
323.795	83.06
324.024	73.06
324.253	86.06
324.482	86.06
324.71	93.06
324.939	89.06
325.168	71.06
325.397	87.06
325.626	86.06
325.855	90.06
326.084	105.06
326.313	98.06
326.542	88.06
326.77	88.06
326.999	78.06
327.228	93.06
327.457	79.06
327.686	75.06
327.914	86.06
328.143	90.06
328.372	97.06
328.6	92.06
328.829	86.06
329.058	90.06
329.287	79.06
329.515	70.06
329.744	87.06
329.972	87.06
330.201	77.06
330.43	84.06
330.658	90.06
330.887	94.06
331.115	83.06
331.344	73.06
331.572	92.06
331.801	89.06
332.03	83.06
332.258	79.06
332.486	95.06
332.715	91.06
332.943	97.06
333.172	84.06
333.4	90.06
333.629	94.06
333.857	88.06
334.085	84.06
334.314	88.06
334.542	82.06
334.771	71.06
334.999	91.06
335.227	79.06
335.455	98.06
335.684	94.06
335.912	78.06
336.14	89.06
336.369	97.06
336.597	91.06
336.825	99.06
337.053	79.06
337.281	85.06
337.51	101.06
337.738	83.06
337.966	92.06
338.194	84.06
338.422	85.06
338.65	84.06
338.878	94.06
339.106	84.06
339.334	81.06
339.562	88.06
339.79	86.06
340.018	82.06
340.246	94.06
340.474	89.06
340.702	94.06
340.93	86.06
341.158	90.06
341.386	79.06
341.614	90.06
341.842	85.06
342.07	91.06
342.298	75.06
342.526	86.06
342.754	89.06
342.981	86.06
343.209	82.06
343.437	97.06
343.665	91.06
343.893	85.06
344.12	95.06
344.348	82.06
344.576	89.06
344.804	92.06
345.031	90.06
345.259	106.06
345.487	76.06
345.714	94.06
345.942	95.06
346.17	83.06
346.397	78.06
346.625	90.06
346.853	95.06
347.08	100.06
347.308	82.06
347.535	76.06
347.763	88.06
347.99	92.06
348.218	96.06
348.445	83.06
348.673	77.06
348.9	85.06
349.128	91.06
349.355	95.06
349.583	107.06
349.81	98.06
350.037	94.06
350.265	95.06
350.492	85.06
350.72	88.06
350.947	87.06
351.174	87.06
351.402	81.06
351.629	76.06
351.856	84.06
352.083	89.06
352.311	88.06
352.538	71.06
352.765	97.06
352.992	114.06
353.22	97.06
353.447	78.06
353.674	96.06
353.901	98.06
354.128	80.06
354.355	88.06
354.583	97.06
354.81	96.06
355.037	81.06
355.264	85.06
355.491	82.06
355.718	92.06
355.945	87.06
356.172	96.06
356.399	77.06
356.626	76.06
356.853	88.06
357.08	90.06
357.307	68.06
357.534	91.06
357.761	96.06
357.988	84.06
358.215	84.06
358.441	55.06
358.668	82.06
358.895	86.06
359.122	79.06
359.349	70.06
359.576	84.06
359.802	85.06
360.029	94.06
360.256	104.06
360.483	86.06
360.709	89.06
360.936	86.06
361.163	90.06
361.39	86.06
361.616	91.06
361.843	91.06
362.07	96.06
362.296	93.06
362.523	78.06
362.749	86.06
362.976	83.06
363.203	89.06
363.429	77.06
363.656	98.06
363.882	86.06
364.109	79.06
364.335	78.06
364.562	87.06
364.788	86.06
365.015	104.06
365.241	77.06
365.468	81.06
365.694	86.06
365.92	101.06
366.147	82.06
366.373	88.06
366.599	72.06
366.826	90.06
367.052	86.06
367.278	75.06
367.505	83.06
367.731	94.06
367.957	84.06
368.184	85.06
368.41	96.06
368.636	85.06
368.862	89.06
369.089	86.06
369.315	90.06
369.541	112.06
369.767	87.06
369.993	90.06
370.219	90.06
370.445	79.06
370.672	70.06
370.898	82.06
371.124	92.06
371.35	71.06
371.576	90.06
371.802	91.06
372.028	96.06
372.254	86.06
372.48	89.06
372.706	93.06
372.932	80.06
373.158	80.06
373.384	85.06
373.61	86.06
373.835	90.06
374.061	92.06
374.287	77.06
374.513	82.06
374.739	79.06
374.965	86.06
375.191	97.06
375.416	100.06
375.642	96.06
375.868	91.06
376.094	89.06
376.319	95.06
376.545	89.06
376.771	88.06
376.997	92.06
377.222	86.06
377.448	74.06
377.674	80.06
377.899	88.06
378.125	94.06
378.35	94.06
378.576	102.06
378.802	93.06
379.027	78.06
379.253	86.06
379.478	100.06
379.704	75.06
379.929	88.06
380.155	91.06
380.38	84.06
380.606	89.06
380.831	71.06
381.057	92.06
381.282	98.06
381.507	76.06
381.733	86.06
381.958	88.06
382.184	84.06
382.409	92.06
382.634	69.06
382.86	87.06
383.085	80.06
383.31	90.06
383.535	86.06
383.761	73.06
383.986	89.06
384.211	80.06
384.436	78.06
384.662	82.06
384.887	93.06
385.112	86.06
385.337	85.06
385.562	95.06
385.787	84.06
386.013	91.06
386.238	87.06
386.463	95.06
386.688	90.06
386.913	87.06
387.138	96.06
387.363	82.06
387.588	97.06
387.813	86.06
388.038	90.06
388.263	87.06
388.488	91.06
388.713	85.06
388.938	75.06
389.163	82.06
389.387	81.06
389.612	77.06
389.837	76.06
390.062	86.06
390.287	98.06
390.512	85.06
390.736	78.06
390.961	88.06
391.186	78.06
391.411	95.06
391.636	87.06
391.86	84.06
392.085	98.06
392.31	90.06
392.534	69.06
392.759	78.06
392.984	74.06
393.208	88.06
393.433	81.06
393.658	93.06
393.882	82.06
394.107	86.06
394.331	97.06
394.556	78.06
394.78	86.06
395.005	84.06
395.229	76.06
395.454	82.06
395.678	94.06
395.903	83.06
396.127	85.06
396.352	88.06
396.576	93.06
396.801	87.06
397.025	92.06
397.249	99.06
397.474	94.06
397.698	94.06
397.922	100.06
398.147	95.06
398.371	97.06
398.595	102.06
398.82	80.06
399.044	102.06
399.268	90.06
399.492	108.06
399.717	91.06
399.941	94.06
400.165	96.06
400.389	73.06
400.613	79.06
400.837	94.06
401.062	87.06
401.286	76.06
401.51	80.06
401.734	93.06
401.958	85.06
402.182	85.06
402.406	84.06
402.63	89.06
402.854	91.06
403.078	82.06
403.302	98.06
403.526	99.06
403.75	97.06
403.974	79.06
404.198	104.06
404.422	78.06
404.645	83.06
404.869	83.06
405.093	106.06
405.317	93.06
405.541	78.06
405.765	72.06
405.988	83.06
406.212	91.06
406.436	88.06
406.66	84.06
406.883	96.06
407.107	78.06
407.331	75.06
407.555	92.06
407.778	91.06
408.002	98.06
408.226	91.06
408.449	74.06
408.673	90.06
408.896	93.06
409.12	100.06
409.344	86.06
409.567	98.06
409.791	100.06
410.014	92.06
410.238	98.06
410.461	90.06
410.685	88.06
410.908	96.06
411.132	98.06
411.355	98.06
411.578	100.06
411.802	85.06
412.025	83.06
412.249	85.06
412.472	101.06
412.695	79.06
412.919	90.06
413.142	76.06
413.365	96.06
413.589	98.06
413.812	93.06
414.035	85.06
414.258	106.06
414.482	95.06
414.705	79.06
414.928	89.06
415.151	80.06
415.374	82.06
415.597	86.06
415.821	102.06
416.044	94.06
416.267	94.06
416.49	79.06
416.713	75.06
416.936	84.06
417.159	76.06
417.382	80.06
417.605	91.06
417.828	79.06
418.051	91.06
418.274	91.06
418.497	86.06
418.72	86.06
418.943	81.06
419.166	95.06
419.389	82.06
419.611	90.06
419.834	91.06
420.057	94.06
420.28	87.06
420.503	79.06
420.726	83.06
420.948	85.06
421.171	86.06
421.394	103.06
421.617	81.06
421.839	104.06
422.062	99.06
422.285	82.06
422.507	86.06
422.73	97.06
422.953	75.06
423.175	91.06
423.398	90.06
423.621	90.06
423.843	90.06
424.066	81.06
424.288	86.06
424.511	83.06
424.733	87.06
424.956	82.06
425.178	94.06
425.401	90.06
425.623	92.06
425.846	79.06
426.068	88.06
426.291	96.06
426.513	95.06
426.735	90.06
426.958	91.06
427.18	83.06
427.402	95.06
427.625	71.06
427.847	83.06
428.069	77.06
428.292	88.06
428.514	81.06
428.736	97.06
428.958	82.06
429.181	82.06
429.403	86.06
429.625	90.06
429.847	91.06
430.069	83.06
430.292	79.06
430.514	62.06
430.736	83.06
430.958	80.06
431.18	81.06
431.402	83.06
431.624	99.06
431.846	104.06
432.068	99.06
432.29	94.06
432.512	95.06
432.734	67.06
432.956	85.06
433.178	97.06
433.4	90.06
433.622	96.06
433.844	94.06
434.066	82.06
434.287	88.06
434.509	85.06
434.731	94.06
434.953	87.06
435.175	88.06
435.397	85.06
435.618	98.06
435.84	91.06
436.062	84.06
436.284	87.06
436.505	98.06
436.727	78.06
436.949	89.06
437.17	78.06
437.392	84.06
437.614	71.06
437.835	87.06
438.057	86.06
438.278	93.06
438.5	80.06
438.721	90.06
438.943	88.06
439.165	100.06
439.386	93.06
439.608	78.06
439.829	84.06
440.05	87.06
440.272	84.06
440.493	91.06
440.715	85.06
440.936	82.06
441.158	95.06
441.379	69.06
441.6	75.06
441.822	74.06
442.043	95.06
442.264	87.06
442.486	92.06
442.707	101.06
442.928	90.06
443.149	88.06
443.371	83.06
443.592	80.06
443.813	96.06
444.034	87.06
444.255	86.06
444.476	90.06
444.698	83.06
444.919	88.06
445.14	171.06
445.361	130.06
445.582	104.06
445.803	99.06
446.024	92.06
446.245	88.06
446.466	94.06
446.687	86.06
446.908	72.06
447.129	93.06
447.35	86.06
447.571	95.06
447.792	74.06
448.013	86.06
448.234	93.06
448.455	72.06
448.675	97.06
448.896	95.06
449.117	94.06
449.338	79.06
449.559	92.06
449.779	96.06
450	90.06
450.221	74.06
450.442	79.06
450.662	84.06
450.883	88.06
451.104	86.06
451.324	86.06
451.545	84.06
451.766	91.06
451.986	92.06
452.207	84.06
452.428	97.06
452.648	78.06
452.869	67.06
453.089	75.06
453.31	89.06
453.53	86.06
453.751	76.06
453.971	93.06
454.192	86.06
454.412	78.06
454.633	72.06
454.853	90.06
455.073	88.06
455.294	87.06
455.514	78.06
455.734	94.06
455.955	81.06
456.175	83.06
456.395	73.06
456.616	78.06
456.836	72.06
457.056	89.06
457.276	91.06
457.497	88.06
457.717	101.06
457.937	72.06
458.157	72.06
458.377	96.06
458.598	79.06
458.818	83.06
459.038	82.06
459.258	91.06
459.478	83.06
459.698	78.06
459.918	73.06
460.138	72.06
460.358	90.06
460.578	96.06
460.798	80.06
461.018	81.06
461.238	83.06
461.458	103.06
461.678	86.06
461.898	92.06
462.118	79.06
462.338	104.06
462.558	100.06
462.777	89.06
462.997	94.06
463.217	84.06
463.437	98.06
463.657	98.06
463.876	88.06
464.096	88.06
464.316	95.06
464.536	91.06
464.755	102.06
464.975	114.06
465.195	86.06
465.414	94.06
465.634	83.06
465.854	96.06
466.073	82.06
466.293	81.06
466.512	102.06
466.732	93.06
466.951	84.06
467.171	86.06
467.391	77.06
467.61	93.06
467.829	90.06
468.049	87.06
468.268	81.06
468.488	86.06
468.707	86.06
468.927	91.06
469.146	82.06
469.365	97.06
469.585	87.06
469.804	98.06
470.023	76.06
470.243	77.06
470.462	84.06
470.681	80.06
470.901	93.06
471.12	80.06
471.339	86.06
471.558	82.06
471.777	86.06
471.997	93.06
472.216	97.06
472.435	83.06
472.654	67.06
472.873	92.06
473.092	87.06
473.311	92.06
473.53	90.06
473.749	89.06
473.968	79.06
474.187	75.06
474.406	65.06
474.625	90.06
474.844	92.06
475.063	81.06
475.282	87.06
475.501	82.06
475.72	90.06
475.939	90.06
476.158	82.06
476.377	89.06
476.596	92.06
476.814	83.06
477.033	91.06
477.252	87.06
477.471	91.06
477.69	83.06
477.908	96.06
478.127	91.06
478.346	79.06
478.564	84.06
478.783	97.06
479.002	82.06
479.22	98.06
479.439	95.06
479.658	97.06
479.876	82.06
480.095	81.06
480.313	90.06
480.532	91.06
480.751	90.06
480.969	106.06
481.188	103.06
481.406	77.06
481.624	83.06
481.843	92.06
482.061	98.06
482.28	90.06
482.498	84.06
482.717	82.06
482.935	113.06
483.153	98.06
483.372	94.06
483.59	95.06
483.808	93.06
484.027	75.06
484.245	82.06
484.463	80.06
484.681	99.06
484.9	83.06
485.118	93.06
485.336	89.06
485.554	81.06
485.772	88.06
485.99	88.06
486.209	89.06
486.427	90.06
486.645	93.06
486.863	67.06
487.081	77.06
487.299	88.06
487.517	96.06
487.735	97.06
487.953	88.06
488.171	86.06
488.389	81.06
488.607	80.06
488.825	91.06
489.043	98.06
489.261	90.06
489.479	92.06
489.696	86.06
489.914	100.06
490.132	90.06
490.35	85.06
490.568	106.06
490.786	87.06
491.003	81.06
491.221	97.06
491.439	83.06
491.657	87.06
491.874	95.06
492.092	88.06
492.31	89.06
492.527	91.06
492.745	82.06
492.963	83.06
493.18	85.06
493.398	99.06
493.615	88.06
493.833	97.06
494.05	88.06
494.268	95.06
494.485	103.06
494.703	90.06
494.92	93.06
495.138	83.06
495.355	87.06
495.573	83.06
495.79	83.06
496.008	94.06
496.225	86.06
496.442	87.06
496.66	99.06
496.877	102.06
497.094	94.06
497.312	96.06
497.529	80.06
497.746	82.06
497.963	87.06
498.181	86.06
498.398	102.06
498.615	83.06
498.832	80.06
499.049	109.06
499.267	95.06
499.484	100.06
499.701	105.06
499.918	112.06
500.135	101.06
500.352	120.06
500.569	110.06
500.786	106.06
501.003	111.06
501.22	113.06
501.437	95.06
501.654	94.06
501.871	102.06
502.088	101.06
502.305	99.06
502.522	86.06
502.739	90.06
502.956	66.06
503.172	91.06
503.389	92.06
503.606	85.06
503.823	86.06
504.04	94.06
504.256	86.06
504.473	102.06
504.69	93.06
504.907	107.06
505.123	70.06
505.34	84.06
505.557	83.06
505.773	108.06
505.99	98.06
506.207	93.06
506.423	100.06
506.64	87.06
506.856	90.06
507.073	87.06
507.289	85.06
507.506	80.06
507.722	91.06
507.939	103.06
508.155	87.06
508.372	83.06
508.588	93.06
508.805	81.06
509.021	90.06
509.238	97.06
509.454	89.06
509.67	90.06
509.887	91.06
510.103	95.06
510.319	94.06
510.536	97.06
510.752	91.06
510.968	89.06
511.184	73.06
511.401	88.06
511.617	95.06
511.833	85.06
512.049	83.06
512.265	103.06
512.481	90.06
512.698	87.06
512.914	83.06
513.13	80.06
513.346	79.06
513.562	79.06
513.778	95.06
513.994	84.06
514.21	89.06
514.426	80.06
514.642	87.06
514.858	89.06
515.074	73.06
515.29	94.06
515.506	76.06
515.721	94.06
515.937	79.06
516.153	84.06
516.369	90.06
516.585	93.06
516.801	81.06
517.016	95.06
517.232	93.06
517.448	94.06
517.664	96.06
517.879	98.06
518.095	89.06
518.311	96.06
518.527	72.06
518.742	93.06
518.958	85.06
519.173	87.06
519.389	79.06
