Data from BG_HRD10591_047.txt Node
Date: Fri May 16 15:33:30 EDT 2025
User: Yrep
Spectrometer: HR+D1059
Trigger mode: 1
Integration Time (sec): 1.000000E-1
Scans to average: 1
Electric dark correction enabled: true
Nonlinearity correction enabled: false
Boxcar width: 0
XAxis mode: Wavelengths
Number of Pixels in Spectrum: 2048
>>>>>Begin Spectral Data<<<<<
223.165	-4.25
223.4	-4.25
223.635	-4.25
223.869	-16.25
224.104	-25.25
224.338	-10.25
224.573	-33.25
224.808	-11.25
225.042	-16.25
225.277	-5.25
225.511	4.75
225.746	13.75
225.98	9.75
226.215	12.75
226.449	15.75
226.683	16.75
226.918	12.75
227.152	35.75
227.387	36.75
227.621	41.75
227.856	46.75
228.09	40.75
228.324	53.75
228.559	56.75
228.793	60.75
229.027	40.75
229.262	63.75
229.496	55.75
229.73	58.75
229.964	71.75
230.199	77.75
230.433	77.75
230.667	83.75
230.901	73.75
231.136	71.75
231.37	71.75
231.604	87.75
231.838	85.75
232.072	73.75
232.306	85.75
232.541	74.75
232.775	77.75
233.009	80.75
233.243	78.75
233.477	78.75
233.711	81.75
233.945	75.75
234.179	81.75
234.413	74.75
234.647	86.75
234.881	83.75
235.115	76.75
235.349	69.75
235.583	78.75
235.817	72.75
236.051	63.75
236.285	83.75
236.519	74.75
236.753	75.75
236.987	75.75
237.221	59.75
237.455	59.75
237.689	77.75
237.922	68.75
238.156	73.75
238.39	67.75
238.624	61.75
238.858	80.75
239.091	59.75
239.325	72.75
239.559	69.75
239.793	50.75
240.027	82.75
240.26	74.75
240.494	85.75
240.728	96.75
240.961	81.75
241.195	72.75
241.429	75.75
241.662	65.75
241.896	71.75
242.13	93.75
242.363	80.75
242.597	75.75
242.83	78.75
243.064	73.75
243.298	79.75
243.531	96.75
243.765	86.75
243.998	65.75
244.232	63.75
244.465	85.75
244.699	75.75
244.932	83.75
245.166	71.75
245.399	66.75
245.633	81.75
245.866	77.75
246.099	83.75
246.333	62.75
246.566	69.75
246.8	79.75
247.033	75.75
247.266	79.75
247.5	78.75
247.733	69.75
247.966	74.75
248.2	78.75
248.433	80.75
248.666	74.75
248.899	75.75
249.133	70.75
249.366	84.75
249.599	91.75
249.832	78.75
250.066	76.75
250.299	83.75
250.532	74.75
250.765	78.75
250.998	58.75
251.231	67.75
251.465	90.75
251.698	72.75
251.931	76.75
252.164	57.75
252.397	73.75
252.63	81.75
252.863	83.75
253.096	83.75
253.329	90.75
253.562	85.75
253.795	64.75
254.028	76.75
254.261	71.75
254.494	64.75
254.727	78.75
254.96	79.75
255.193	72.75
255.426	77.75
255.659	82.75
255.892	79.75
256.124	96.75
256.357	71.75
256.59	69.75
256.823	84.75
257.056	76.75
257.289	71.75
257.521	84.75
257.754	81.75
257.987	71.75
258.22	83.75
258.452	77.75
258.685	64.75
258.918	75.75
259.151	65.75
259.383	91.75
259.616	77.75
259.849	80.75
260.081	80.75
260.314	83.75
260.547	75.75
260.779	75.75
261.012	73.75
261.244	79.75
261.477	71.75
261.71	82.75
261.942	85.75
262.175	84.75
262.407	80.75
262.64	79.75
262.872	79.75
263.105	68.75
263.337	80.75
263.57	72.75
263.802	65.75
264.035	78.75
264.267	88.75
264.499	79.75
264.732	86.75
264.964	80.75
265.197	84.75
265.429	73.75
265.661	91.75
265.894	75.75
266.126	80.75
266.358	79.75
266.591	77.75
266.823	80.75
267.055	77.75
267.287	84.75
267.52	79.75
267.752	85.75
267.984	63.75
268.216	75.75
268.448	80.75
268.681	89.75
268.913	85.75
269.145	78.75
269.377	77.75
269.609	80.75
269.841	80.75
270.073	95.75
270.306	89.75
270.538	83.75
270.77	69.75
271.002	57.75
271.234	81.75
271.466	69.75
271.698	89.75
271.93	91.75
272.162	75.75
272.394	88.75
272.626	71.75
272.858	86.75
273.09	86.75
273.322	86.75
273.553	71.75
273.785	70.75
274.017	80.75
274.249	84.75
274.481	78.75
274.713	72.75
274.945	69.75
275.176	72.75
275.408	81.75
275.64	75.75
275.872	60.75
276.104	79.75
276.335	93.75
276.567	78.75
276.799	85.75
277.031	78.75
277.262	83.75
277.494	77.75
277.726	85.75
277.957	83.75
278.189	73.75
278.421	77.75
278.652	86.75
278.884	82.75
279.115	84.75
279.347	72.75
279.579	80.75
279.81	89.75
280.042	88.75
280.273	86.75
280.505	77.75
280.736	84.75
280.968	79.75
281.199	79.75
281.431	76.75
281.662	79.75
281.894	91.75
282.125	82.75
282.356	87.75
282.588	67.75
282.819	93.75
283.051	79.75
283.282	71.75
283.513	79.75
283.745	77.75
283.976	71.75
284.207	74.75
284.439	88.75
284.67	78.75
284.901	78.75
285.132	81.75
285.364	63.75
285.595	85.75
285.826	74.75
286.057	69.75
286.288	78.75
286.52	79.75
286.751	87.75
286.982	83.75
287.213	77.75
287.444	76.75
287.675	77.75
287.906	86.75
288.138	79.75
288.369	83.75
288.6	72.75
288.831	89.75
289.062	83.75
289.293	87.75
289.524	77.75
289.755	79.75
289.986	86.75
290.217	69.75
290.448	77.75
290.679	103.75
290.91	87.75
291.141	65.75
291.371	83.75
291.602	79.75
291.833	90.75
292.064	90.75
292.295	79.75
292.526	83.75
292.757	77.75
292.987	85.75
293.218	81.75
293.449	87.75
293.68	73.75
293.91	73.75
294.141	89.75
294.372	65.75
294.603	80.75
294.833	83.75
295.064	86.75
295.295	79.75
295.525	95.75
295.756	77.75
295.987	77.75
296.217	95.75
296.448	91.75
296.679	93.75
296.909	85.75
297.14	79.75
297.37	75.75
297.601	73.75
297.831	88.75
298.062	73.75
298.292	86.75
298.523	101.75
298.753	82.75
298.984	85.75
299.214	81.75
299.445	66.75
299.675	87.75
299.905	91.75
300.136	88.75
300.366	92.75
300.597	79.75
300.827	87.75
301.057	89.75
301.288	88.75
301.518	72.75
301.748	81.75
301.979	86.75
302.209	83.75
302.439	55.75
302.669	78.75
302.9	83.75
303.13	92.75
303.36	78.75
303.59	101.75
303.82	78.75
304.051	78.75
304.281	90.75
304.511	87.75
304.741	69.75
304.971	73.75
305.201	91.75
305.431	81.75
305.661	89.75
305.891	79.75
306.121	77.75
306.352	73.75
306.582	76.75
306.812	91.75
307.042	74.75
307.272	73.75
307.502	88.75
307.731	86.75
307.961	80.75
308.191	86.75
308.421	99.75
308.651	89.75
308.881	84.75
309.111	94.75
309.341	89.75
309.571	82.75
309.8	100.75
310.03	76.75
310.26	84.75
310.49	83.75
310.72	83.75
310.949	80.75
311.179	83.75
311.409	76.75
311.639	87.75
311.868	75.75
312.098	92.75
312.328	84.75
312.557	83.75
312.787	84.75
313.017	87.75
313.246	90.75
313.476	80.75
313.706	77.75
313.935	89.75
314.165	86.75
314.394	102.75
314.624	81.75
314.853	96.75
315.083	88.75
315.312	82.75
315.542	84.75
315.771	88.75
316.001	65.75
316.23	74.75
316.46	77.75
316.689	84.75
316.919	77.75
317.148	82.75
317.377	87.75
317.607	75.75
317.836	73.75
318.065	79.75
318.295	87.75
318.524	85.75
318.753	75.75
318.983	84.75
319.212	82.75
319.441	82.75
319.67	84.75
319.9	85.75
320.129	88.75
320.358	85.75
320.587	83.75
320.816	75.75
321.046	91.75
321.275	89.75
321.504	87.75
321.733	76.75
321.962	68.75
322.191	95.75
322.42	89.75
322.649	79.75
322.878	85.75
323.108	85.75
323.337	110.75
323.566	80.75
323.795	84.75
324.024	79.75
324.253	98.75
324.482	90.75
324.71	89.75
324.939	88.75
325.168	72.75
325.397	84.75
325.626	83.75
325.855	81.75
326.084	71.75
326.313	89.75
326.542	78.75
326.77	83.75
326.999	99.75
327.228	79.75
327.457	79.75
327.686	81.75
327.914	97.75
328.143	104.75
328.372	75.75
328.6	83.75
328.829	82.75
329.058	88.75
329.287	78.75
329.515	81.75
329.744	79.75
329.972	80.75
330.201	73.75
330.43	87.75
330.658	77.75
330.887	88.75
331.115	75.75
331.344	90.75
331.572	75.75
331.801	87.75
332.03	73.75
332.258	84.75
332.486	77.75
332.715	85.75
332.943	84.75
333.172	92.75
333.4	88.75
333.629	89.75
333.857	95.75
334.085	77.75
334.314	86.75
334.542	77.75
334.771	94.75
334.999	79.75
335.227	75.75
335.455	79.75
335.684	88.75
335.912	81.75
336.14	87.75
336.369	92.75
336.597	83.75
336.825	88.75
337.053	77.75
337.281	71.75
337.51	85.75
337.738	77.75
337.966	78.75
338.194	91.75
338.422	88.75
338.65	91.75
338.878	88.75
339.106	82.75
339.334	90.75
339.562	84.75
339.79	84.75
340.018	80.75
340.246	83.75
340.474	94.75
340.702	88.75
340.93	75.75
341.158	81.75
341.386	77.75
341.614	82.75
341.842	86.75
342.07	79.75
342.298	84.75
342.526	77.75
342.754	94.75
342.981	95.75
343.209	90.75
343.437	104.75
343.665	83.75
343.893	75.75
344.12	78.75
344.348	96.75
344.576	80.75
344.804	80.75
345.031	96.75
345.259	67.75
345.487	89.75
345.714	101.75
345.942	76.75
346.17	83.75
346.397	83.75
346.625	83.75
346.853	88.75
347.08	76.75
347.308	62.75
347.535	71.75
347.763	83.75
347.99	79.75
348.218	76.75
348.445	93.75
348.673	81.75
348.9	72.75
349.128	96.75
349.355	88.75
349.583	80.75
349.81	87.75
350.037	75.75
350.265	86.75
350.492	88.75
350.72	74.75
350.947	91.75
351.174	75.75
351.402	91.75
351.629	86.75
351.856	89.75
352.083	89.75
352.311	81.75
352.538	93.75
352.765	79.75
352.992	85.75
353.22	72.75
353.447	77.75
353.674	86.75
353.901	82.75
354.128	83.75
354.355	74.75
354.583	90.75
354.81	66.75
355.037	86.75
355.264	77.75
355.491	86.75
355.718	90.75
355.945	88.75
356.172	78.75
356.399	83.75
356.626	88.75
356.853	85.75
357.08	99.75
357.307	78.75
357.534	79.75
357.761	81.75
357.988	79.75
358.215	90.75
358.441	82.75
358.668	72.75
358.895	93.75
359.122	79.75
359.349	92.75
359.576	82.75
359.802	80.75
360.029	87.75
360.256	74.75
360.483	59.75
360.709	92.75
360.936	83.75
361.163	75.75
361.39	81.75
361.616	77.75
361.843	89.75
362.07	83.75
362.296	76.75
362.523	80.75
362.749	81.75
362.976	76.75
363.203	78.75
363.429	77.75
363.656	92.75
363.882	88.75
364.109	92.75
364.335	89.75
364.562	80.75
364.788	74.75
365.015	77.75
365.241	88.75
365.468	87.75
365.694	83.75
365.92	81.75
366.147	87.75
366.373	95.75
366.599	88.75
366.826	76.75
367.052	76.75
367.278	93.75
367.505	89.75
367.731	97.75
367.957	86.75
368.184	75.75
368.41	88.75
368.636	83.75
368.862	83.75
369.089	72.75
369.315	84.75
369.541	72.75
369.767	77.75
369.993	88.75
370.219	75.75
370.445	76.75
370.672	77.75
370.898	86.75
371.124	85.75
371.35	86.75
371.576	80.75
371.802	80.75
372.028	68.75
372.254	82.75
372.48	84.75
372.706	88.75
372.932	85.75
373.158	86.75
373.384	76.75
373.61	81.75
373.835	72.75
374.061	86.75
374.287	94.75
374.513	84.75
374.739	82.75
374.965	93.75
375.191	88.75
375.416	65.75
375.642	85.75
375.868	78.75
376.094	71.75
376.319	72.75
376.545	89.75
376.771	82.75
376.997	79.75
377.222	73.75
377.448	89.75
377.674	91.75
377.899	91.75
378.125	80.75
378.35	88.75
378.576	70.75
378.802	83.75
379.027	85.75
379.253	88.75
379.478	84.75
379.704	75.75
379.929	88.75
380.155	89.75
380.38	96.75
380.606	92.75
380.831	77.75
381.057	84.75
381.282	91.75
381.507	80.75
381.733	87.75
381.958	86.75
382.184	94.75
382.409	76.75
382.634	94.75
382.86	89.75
383.085	86.75
383.31	82.75
383.535	81.75
383.761	77.75
383.986	85.75
384.211	89.75
384.436	89.75
384.662	84.75
384.887	69.75
385.112	70.75
385.337	89.75
385.562	76.75
385.787	85.75
386.013	96.75
386.238	83.75
386.463	101.75
386.688	87.75
386.913	68.75
387.138	70.75
387.363	84.75
387.588	101.75
387.813	74.75
388.038	96.75
388.263	89.75
388.488	85.75
388.713	83.75
388.938	79.75
389.163	83.75
389.387	93.75
389.612	71.75
389.837	80.75
390.062	83.75
390.287	81.75
390.512	84.75
390.736	76.75
390.961	85.75
391.186	78.75
391.411	93.75
391.636	94.75
391.86	78.75
392.085	92.75
392.31	81.75
392.534	81.75
392.759	89.75
392.984	71.75
393.208	84.75
393.433	94.75
393.658	84.75
393.882	84.75
394.107	73.75
394.331	79.75
394.556	72.75
394.78	75.75
395.005	98.75
395.229	93.75
395.454	75.75
395.678	101.75
395.903	80.75
396.127	85.75
396.352	96.75
396.576	89.75
396.801	94.75
397.025	76.75
397.249	87.75
397.474	103.75
397.698	88.75
397.922	86.75
398.147	72.75
398.371	83.75
398.595	85.75
398.82	88.75
399.044	83.75
399.268	95.75
399.492	94.75
399.717	81.75
399.941	80.75
400.165	97.75
400.389	81.75
400.613	89.75
400.837	74.75
401.062	85.75
401.286	84.75
401.51	88.75
401.734	81.75
401.958	98.75
402.182	80.75
402.406	59.75
402.63	87.75
402.854	96.75
403.078	71.75
403.302	81.75
403.526	91.75
403.75	80.75
403.974	84.75
404.198	82.75
404.422	77.75
404.645	91.75
404.869	93.75
405.093	84.75
405.317	88.75
405.541	89.75
405.765	87.75
405.988	73.75
406.212	78.75
406.436	95.75
406.66	85.75
406.883	92.75
407.107	80.75
407.331	99.75
407.555	97.75
407.778	90.75
408.002	88.75
408.226	100.75
408.449	65.75
408.673	82.75
408.896	80.75
409.12	99.75
409.344	80.75
409.567	77.75
409.791	79.75
410.014	89.75
410.238	97.75
410.461	102.75
410.685	106.75
410.908	95.75
411.132	89.75
411.355	83.75
411.578	87.75
411.802	91.75
412.025	68.75
412.249	78.75
412.472	85.75
412.695	83.75
412.919	76.75
413.142	83.75
413.365	99.75
413.589	84.75
413.812	92.75
414.035	89.75
414.258	84.75
414.482	83.75
414.705	79.75
414.928	92.75
415.151	72.75
415.374	79.75
415.597	83.75
415.821	67.75
416.044	101.75
416.267	73.75
416.49	107.75
416.713	81.75
416.936	99.75
417.159	86.75
417.382	72.75
417.605	82.75
417.828	79.75
418.051	87.75
418.274	84.75
418.497	79.75
418.72	75.75
418.943	77.75
419.166	92.75
419.389	94.75
419.611	87.75
419.834	66.75
420.057	76.75
420.28	78.75
420.503	84.75
420.726	80.75
420.948	103.75
421.171	79.75
421.394	72.75
421.617	76.75
421.839	83.75
422.062	95.75
422.285	71.75
422.507	73.75
422.73	68.75
422.953	86.75
423.175	78.75
423.398	80.75
423.621	87.75
423.843	79.75
424.066	81.75
424.288	88.75
424.511	96.75
424.733	99.75
424.956	80.75
425.178	76.75
425.401	86.75
425.623	97.75
425.846	84.75
426.068	95.75
426.291	92.75
426.513	83.75
426.735	87.75
426.958	78.75
427.18	89.75
427.402	92.75
427.625	69.75
427.847	67.75
428.069	79.75
428.292	84.75
428.514	71.75
428.736	79.75
428.958	80.75
429.181	86.75
429.403	73.75
429.625	81.75
429.847	83.75
430.069	98.75
430.292	99.75
430.514	86.75
430.736	87.75
430.958	82.75
431.18	91.75
431.402	90.75
431.624	94.75
431.846	86.75
432.068	80.75
432.29	94.75
432.512	95.75
432.734	78.75
432.956	96.75
433.178	85.75
433.4	86.75
433.622	78.75
433.844	73.75
434.066	73.75
434.287	76.75
434.509	78.75
434.731	77.75
434.953	97.75
435.175	86.75
435.397	94.75
435.618	93.75
435.84	87.75
436.062	92.75
436.284	92.75
436.505	93.75
436.727	89.75
436.949	83.75
437.17	73.75
437.392	90.75
437.614	85.75
437.835	69.75
438.057	78.75
438.278	89.75
438.5	72.75
438.721	76.75
438.943	67.75
439.165	75.75
439.386	88.75
439.608	90.75
439.829	84.75
440.05	91.75
440.272	76.75
440.493	88.75
440.715	87.75
440.936	94.75
441.158	82.75
441.379	92.75
441.6	84.75
441.822	89.75
442.043	97.75
442.264	99.75
442.486	89.75
442.707	83.75
442.928	82.75
443.149	88.75
443.371	83.75
443.592	76.75
443.813	69.75
444.034	87.75
444.255	87.75
444.476	75.75
444.698	96.75
444.919	85.75
445.14	148.75
445.361	127.75
445.582	83.75
445.803	87.75
446.024	83.75
446.245	88.75
446.466	78.75
446.687	80.75
446.908	89.75
447.129	95.75
447.35	80.75
447.571	96.75
447.792	79.75
448.013	81.75
448.234	79.75
448.455	76.75
448.675	85.75
448.896	63.75
449.117	80.75
449.338	84.75
449.559	92.75
449.779	86.75
450	83.75
450.221	97.75
450.442	76.75
450.662	87.75
450.883	94.75
451.104	90.75
451.324	88.75
451.545	90.75
451.766	97.75
451.986	85.75
452.207	84.75
452.428	86.75
452.648	83.75
452.869	89.75
453.089	69.75
453.31	83.75
453.53	80.75
453.751	83.75
453.971	85.75
454.192	81.75
454.412	69.75
454.633	67.75
454.853	94.75
455.073	82.75
455.294	88.75
455.514	101.75
455.734	79.75
455.955	79.75
456.175	89.75
456.395	83.75
456.616	83.75
456.836	96.75
457.056	87.75
457.276	77.75
457.497	68.75
457.717	83.75
457.937	77.75
458.157	76.75
458.377	83.75
458.598	89.75
458.818	87.75
459.038	75.75
459.258	80.75
459.478	82.75
459.698	95.75
459.918	91.75
460.138	80.75
460.358	84.75
460.578	71.75
460.798	94.75
461.018	92.75
461.238	87.75
461.458	116.75
461.678	91.75
461.898	99.75
462.118	93.75
462.338	85.75
462.558	90.75
462.777	83.75
462.997	76.75
463.217	91.75
463.437	89.75
463.657	88.75
463.876	86.75
464.096	85.75
464.316	80.75
464.536	76.75
464.755	78.75
464.975	82.75
465.195	80.75
465.414	94.75
465.634	82.75
465.854	78.75
466.073	80.75
466.293	87.75
466.512	78.75
466.732	83.75
466.951	81.75
467.171	86.75
467.391	92.75
467.61	83.75
467.829	92.75
468.049	79.75
468.268	91.75
468.488	91.75
468.707	83.75
468.927	85.75
469.146	79.75
469.365	75.75
469.585	83.75
469.804	81.75
470.023	85.75
470.243	81.75
470.462	91.75
470.681	89.75
470.901	104.75
471.12	73.75
471.339	85.75
471.558	84.75
471.777	77.75
471.997	77.75
472.216	91.75
472.435	71.75
472.654	88.75
472.873	79.75
473.092	81.75
473.311	78.75
473.53	76.75
473.749	76.75
473.968	89.75
474.187	70.75
474.406	77.75
474.625	92.75
474.844	89.75
475.063	83.75
475.282	85.75
475.501	83.75
475.72	84.75
475.939	88.75
476.158	92.75
476.377	90.75
476.596	95.75
476.814	85.75
477.033	77.75
477.252	82.75
477.471	95.75
477.69	63.75
477.908	85.75
478.127	83.75
478.346	79.75
478.564	86.75
478.783	96.75
479.002	83.75
479.22	96.75
479.439	94.75
479.658	74.75
479.876	78.75
480.095	83.75
480.313	85.75
480.532	91.75
480.751	97.75
480.969	96.75
481.188	73.75
481.406	85.75
481.624	78.75
481.843	86.75
482.061	88.75
482.28	88.75
482.498	75.75
482.717	70.75
482.935	85.75
483.153	82.75
483.372	83.75
483.59	84.75
483.808	71.75
484.027	98.75
484.245	91.75
484.463	92.75
484.681	90.75
484.9	87.75
485.118	85.75
485.336	89.75
485.554	84.75
485.772	80.75
485.99	86.75
486.209	99.75
486.427	83.75
486.645	93.75
486.863	80.75
487.081	90.75
487.299	78.75
487.517	89.75
487.735	81.75
487.953	87.75
488.171	90.75
488.389	91.75
488.607	80.75
488.825	75.75
489.043	96.75
489.261	109.75
489.479	92.75
489.696	88.75
489.914	92.75
490.132	84.75
490.35	81.75
490.568	89.75
490.786	96.75
491.003	74.75
491.221	93.75
491.439	79.75
491.657	79.75
491.874	89.75
492.092	68.75
492.31	81.75
492.527	76.75
492.745	91.75
492.963	81.75
493.18	75.75
493.398	86.75
493.615	87.75
493.833	88.75
494.05	94.75
494.268	86.75
494.485	82.75
494.703	81.75
494.92	89.75
495.138	80.75
495.355	87.75
495.573	83.75
495.79	91.75
496.008	93.75
496.225	77.75
496.442	98.75
496.66	85.75
496.877	87.75
497.094	78.75
497.312	79.75
497.529	84.75
497.746	91.75
497.963	100.75
498.181	86.75
498.398	96.75
498.615	96.75
498.832	83.75
499.049	110.75
499.267	95.75
499.484	81.75
499.701	93.75
499.918	108.75
500.135	101.75
500.352	103.75
500.569	118.75
500.786	106.75
501.003	110.75
501.22	109.75
501.437	99.75
501.654	86.75
501.871	111.75
502.088	85.75
502.305	101.75
502.522	91.75
502.739	79.75
502.956	87.75
503.172	95.75
503.389	90.75
503.606	83.75
503.823	94.75
504.04	95.75
504.256	89.75
504.473	80.75
504.69	81.75
504.907	90.75
505.123	96.75
505.34	78.75
505.557	91.75
505.773	101.75
505.99	89.75
506.207	81.75
506.423	94.75
506.64	84.75
506.856	70.75
507.073	84.75
507.289	82.75
507.506	80.75
507.722	84.75
507.939	86.75
508.155	87.75
508.372	88.75
508.588	79.75
508.805	79.75
509.021	81.75
509.238	78.75
509.454	89.75
509.67	86.75
509.887	90.75
510.103	105.75
510.319	73.75
510.536	82.75
510.752	85.75
510.968	81.75
511.184	86.75
511.401	72.75
511.617	91.75
511.833	92.75
512.049	87.75
512.265	99.75
512.481	84.75
512.698	88.75
512.914	84.75
513.13	96.75
513.346	89.75
513.562	83.75
513.778	103.75
513.994	84.75
514.21	92.75
514.426	95.75
514.642	85.75
514.858	79.75
515.074	85.75
515.29	81.75
515.506	104.75
515.721	100.75
515.937	92.75
516.153	90.75
516.369	83.75
516.585	85.75
516.801	82.75
517.016	91.75
517.232	80.75
517.448	99.75
517.664	91.75
517.879	89.75
518.095	92.75
518.311	84.75
518.527	94.75
518.742	79.75
518.958	97.75
519.173	91.75
519.389	84.75
519.605	79.75
519.82	87.75
