Data from BG_HRD10591_013.txt Node
Date: Fri May 16 15:33:13 EDT 2025
User: Yrep
Spectrometer: HR+D1059
Trigger mode: 1
Integration Time (sec): 1.000000E-1
Scans to average: 1
Electric dark correction enabled: true
Nonlinearity correction enabled: false
Boxcar width: 0
XAxis mode: Wavelengths
Number of Pixels in Spectrum: 2048
>>>>>Begin Spectral Data<<<<<
223.165	-16.31
223.4	-16.31
223.635	-16.31
223.869	-11.31
224.104	-17.31
224.338	-17.31
224.573	-18.31
224.808	-30.31
225.042	-1.31
225.277	-8.31
225.511	-0.31
225.746	3.69
225.98	-2.31
226.215	8.69
226.449	37.69
226.683	20.69
226.918	23.69
227.152	28.69
227.387	27.69
227.621	57.69
227.856	52.69
228.09	41.69
228.324	28.69
228.559	57.69
228.793	58.69
229.027	69.69
229.262	75.69
229.496	46.69
229.73	53.69
229.964	72.69
230.199	72.69
230.433	72.69
230.667	73.69
230.901	75.69
231.136	75.69
231.37	79.69
231.604	83.69
231.838	89.69
232.072	85.69
232.306	86.69
232.541	77.69
232.775	75.69
233.009	83.69
233.243	96.69
233.477	75.69
233.711	87.69
233.945	71.69
234.179	93.69
234.413	72.69
234.647	78.69
234.881	79.69
235.115	78.69
235.349	76.69
235.583	71.69
235.817	72.69
236.051	68.69
236.285	78.69
236.519	71.69
236.753	80.69
236.987	92.69
237.221	76.69
237.455	65.69
237.689	81.69
237.922	91.69
238.156	79.69
238.39	73.69
238.624	69.69
238.858	90.69
239.091	85.69
239.325	75.69
239.559	69.69
239.793	79.69
240.027	81.69
240.26	86.69
240.494	72.69
240.728	87.69
240.961	81.69
241.195	72.69
241.429	74.69
241.662	75.69
241.896	63.69
242.13	78.69
242.363	69.69
242.597	68.69
242.83	84.69
243.064	88.69
243.298	76.69
243.531	78.69
243.765	78.69
243.998	69.69
244.232	78.69
244.465	67.69
244.699	83.69
244.932	77.69
245.166	69.69
245.399	66.69
245.633	66.69
245.866	80.69
246.099	71.69
246.333	71.69
246.566	75.69
246.8	77.69
247.033	88.69
247.266	81.69
247.5	79.69
247.733	78.69
247.966	83.69
248.2	71.69
248.433	71.69
248.666	83.69
248.899	71.69
249.133	68.69
249.366	81.69
249.599	82.69
249.832	79.69
250.066	102.69
250.299	77.69
250.532	79.69
250.765	73.69
250.998	66.69
251.231	78.69
251.465	85.69
251.698	75.69
251.931	87.69
252.164	78.69
252.397	75.69
252.63	79.69
252.863	69.69
253.096	64.69
253.329	71.69
253.562	75.69
253.795	84.69
254.028	94.69
254.261	73.69
254.494	79.69
254.727	90.69
254.96	87.69
255.193	70.69
255.426	76.69
255.659	89.69
255.892	79.69
256.124	74.69
256.357	70.69
256.59	76.69
256.823	73.69
257.056	77.69
257.289	69.69
257.521	68.69
257.754	77.69
257.987	81.69
258.22	72.69
258.452	84.69
258.685	80.69
258.918	76.69
259.151	93.69
259.383	86.69
259.616	86.69
259.849	83.69
260.081	66.69
260.314	71.69
260.547	66.69
260.779	68.69
261.012	76.69
261.244	79.69
261.477	74.69
261.71	83.69
261.942	62.69
262.175	80.69
262.407	72.69
262.64	76.69
262.872	76.69
263.105	89.69
263.337	81.69
263.57	78.69
263.802	89.69
264.035	77.69
264.267	79.69
264.499	67.69
264.732	81.69
264.964	65.69
265.197	78.69
265.429	71.69
265.661	87.69
265.894	87.69
266.126	68.69
266.358	88.69
266.591	92.69
266.823	72.69
267.055	84.69
267.287	73.69
267.52	84.69
267.752	79.69
267.984	66.69
268.216	67.69
268.448	80.69
268.681	74.69
268.913	58.69
269.145	92.69
269.377	85.69
269.609	83.69
269.841	91.69
270.073	72.69
270.306	72.69
270.538	75.69
270.77	85.69
271.002	79.69
271.234	86.69
271.466	76.69
271.698	78.69
271.93	83.69
272.162	82.69
272.394	88.69
272.626	83.69
272.858	80.69
273.09	82.69
273.322	82.69
273.553	74.69
273.785	75.69
274.017	86.69
274.249	84.69
274.481	71.69
274.713	81.69
274.945	75.69
275.176	78.69
275.408	76.69
275.64	80.69
275.872	91.69
276.104	79.69
276.335	89.69
276.567	81.69
276.799	86.69
277.031	77.69
277.262	66.69
277.494	77.69
277.726	59.69
277.957	79.69
278.189	88.69
278.421	93.69
278.652	81.69
278.884	94.69
279.115	85.69
279.347	77.69
279.579	82.69
279.81	88.69
280.042	81.69
280.273	75.69
280.505	85.69
280.736	78.69
280.968	91.69
281.199	95.69
281.431	87.69
281.662	85.69
281.894	64.69
282.125	80.69
282.356	75.69
282.588	96.69
282.819	73.69
283.051	77.69
283.282	86.69
283.513	88.69
283.745	80.69
283.976	74.69
284.207	85.69
284.439	92.69
284.67	92.69
284.901	86.69
285.132	85.69
285.364	89.69
285.595	78.69
285.826	85.69
286.057	85.69
286.288	83.69
286.52	82.69
286.751	86.69
286.982	90.69
287.213	84.69
287.444	79.69
287.675	97.69
287.906	98.69
288.138	87.69
288.369	81.69
288.6	72.69
288.831	89.69
289.062	88.69
289.293	77.69
289.524	89.69
289.755	87.69
289.986	94.69
290.217	80.69
290.448	77.69
290.679	94.69
290.91	93.69
291.141	77.69
291.371	72.69
291.602	83.69
291.833	85.69
292.064	90.69
292.295	101.69
292.526	85.69
292.757	72.69
292.987	83.69
293.218	97.69
293.449	85.69
293.68	96.69
293.91	87.69
294.141	79.69
294.372	86.69
294.603	91.69
294.833	80.69
295.064	83.69
295.295	75.69
295.525	87.69
295.756	80.69
295.987	92.69
296.217	79.69
296.448	90.69
296.679	99.69
296.909	80.69
297.14	99.69
297.37	93.69
297.601	89.69
297.831	89.69
298.062	99.69
298.292	84.69
298.523	80.69
298.753	72.69
298.984	85.69
299.214	90.69
299.445	90.69
299.675	94.69
299.905	87.69
300.136	88.69
300.366	77.69
300.597	84.69
300.827	106.69
301.057	93.69
301.288	94.69
301.518	88.69
301.748	79.69
301.979	94.69
302.209	79.69
302.439	83.69
302.669	88.69
302.9	89.69
303.13	89.69
303.36	88.69
303.59	76.69
303.82	94.69
304.051	79.69
304.281	85.69
304.511	90.69
304.741	90.69
304.971	104.69
305.201	79.69
305.431	94.69
305.661	85.69
305.891	82.69
306.121	93.69
306.352	84.69
306.582	80.69
306.812	90.69
307.042	83.69
307.272	88.69
307.502	81.69
307.731	89.69
307.961	81.69
308.191	81.69
308.421	95.69
308.651	71.69
308.881	84.69
309.111	71.69
309.341	84.69
309.571	88.69
309.8	82.69
310.03	95.69
310.26	93.69
310.49	95.69
310.72	80.69
310.949	77.69
311.179	95.69
311.409	82.69
311.639	84.69
311.868	85.69
312.098	100.69
312.328	74.69
312.557	75.69
312.787	77.69
313.017	98.69
313.246	107.69
313.476	85.69
313.706	87.69
313.935	77.69
314.165	89.69
314.394	95.69
314.624	99.69
314.853	77.69
315.083	96.69
315.312	87.69
315.542	81.69
315.771	84.69
316.001	83.69
316.23	65.69
316.46	85.69
316.689	81.69
316.919	91.69
317.148	88.69
317.377	89.69
317.607	88.69
317.836	81.69
318.065	99.69
318.295	74.69
318.524	80.69
318.753	84.69
318.983	87.69
319.212	78.69
319.441	76.69
319.67	94.69
319.9	73.69
320.129	74.69
320.358	78.69
320.587	88.69
320.816	97.69
321.046	103.69
321.275	82.69
321.504	86.69
321.733	88.69
321.962	96.69
322.191	94.69
322.42	106.69
322.649	85.69
322.878	85.69
323.108	91.69
323.337	81.69
323.566	89.69
323.795	84.69
324.024	94.69
324.253	84.69
324.482	77.69
324.71	90.69
324.939	90.69
325.168	85.69
325.397	89.69
325.626	83.69
325.855	87.69
326.084	85.69
326.313	76.69
326.542	83.69
326.77	92.69
326.999	92.69
327.228	76.69
327.457	72.69
327.686	87.69
327.914	88.69
328.143	96.69
328.372	95.69
328.6	92.69
328.829	84.69
329.058	86.69
329.287	95.69
329.515	84.69
329.744	99.69
329.972	77.69
330.201	96.69
330.43	96.69
330.658	88.69
330.887	85.69
331.115	89.69
331.344	108.69
331.572	79.69
331.801	75.69
332.03	94.69
332.258	88.69
332.486	93.69
332.715	79.69
332.943	87.69
333.172	90.69
333.4	87.69
333.629	97.69
333.857	94.69
334.085	81.69
334.314	86.69
334.542	110.69
334.771	81.69
334.999	91.69
335.227	85.69
335.455	88.69
335.684	83.69
335.912	83.69
336.14	96.69
336.369	91.69
336.597	81.69
336.825	89.69
337.053	103.69
337.281	98.69
337.51	100.69
337.738	84.69
337.966	98.69
338.194	83.69
338.422	76.69
338.65	77.69
338.878	87.69
339.106	78.69
339.334	95.69
339.562	75.69
339.79	85.69
340.018	86.69
340.246	82.69
340.474	77.69
340.702	83.69
340.93	89.69
341.158	80.69
341.386	89.69
341.614	84.69
341.842	95.69
342.07	87.69
342.298	86.69
342.526	89.69
342.754	96.69
342.981	97.69
343.209	79.69
343.437	97.69
343.665	85.69
343.893	85.69
344.12	78.69
344.348	85.69
344.576	91.69
344.804	86.69
345.031	97.69
345.259	70.69
345.487	79.69
345.714	77.69
345.942	96.69
346.17	80.69
346.397	81.69
346.625	69.69
346.853	87.69
347.08	81.69
347.308	99.69
347.535	80.69
347.763	92.69
347.99	70.69
348.218	87.69
348.445	75.69
348.673	83.69
348.9	85.69
349.128	93.69
349.355	88.69
349.583	85.69
349.81	87.69
350.037	99.69
350.265	93.69
350.492	100.69
350.72	92.69
350.947	87.69
351.174	88.69
351.402	83.69
351.629	87.69
351.856	94.69
352.083	91.69
352.311	99.69
352.538	93.69
352.765	74.69
352.992	83.69
353.22	89.69
353.447	77.69
353.674	94.69
353.901	97.69
354.128	92.69
354.355	91.69
354.583	87.69
354.81	85.69
355.037	75.69
355.264	84.69
355.491	82.69
355.718	96.69
355.945	84.69
356.172	88.69
356.399	87.69
356.626	69.69
356.853	96.69
357.08	104.69
357.307	82.69
357.534	80.69
357.761	99.69
357.988	91.69
358.215	107.69
358.441	94.69
358.668	93.69
358.895	74.69
359.122	93.69
359.349	74.69
359.576	87.69
359.802	76.69
360.029	89.69
360.256	72.69
360.483	72.69
360.709	70.69
360.936	91.69
361.163	80.69
361.39	77.69
361.616	93.69
361.843	96.69
362.07	93.69
362.296	92.69
362.523	95.69
362.749	95.69
362.976	69.69
363.203	93.69
363.429	71.69
363.656	81.69
363.882	83.69
364.109	102.69
364.335	72.69
364.562	85.69
364.788	73.69
365.015	85.69
365.241	81.69
365.468	86.69
365.694	81.69
365.92	83.69
366.147	79.69
366.373	84.69
366.599	89.69
366.826	76.69
367.052	69.69
367.278	66.69
367.505	87.69
367.731	107.69
367.957	78.69
368.184	89.69
368.41	99.69
368.636	85.69
368.862	87.69
369.089	92.69
369.315	94.69
369.541	93.69
369.767	88.69
369.993	87.69
370.219	78.69
370.445	101.69
370.672	83.69
370.898	99.69
371.124	78.69
371.35	80.69
371.576	83.69
371.802	84.69
372.028	104.69
372.254	68.69
372.48	75.69
372.706	88.69
372.932	84.69
373.158	90.69
373.384	100.69
373.61	70.69
373.835	85.69
374.061	79.69
374.287	86.69
374.513	90.69
374.739	79.69
374.965	84.69
375.191	73.69
375.416	88.69
375.642	81.69
375.868	80.69
376.094	91.69
376.319	90.69
376.545	89.69
376.771	99.69
376.997	98.69
377.222	83.69
377.448	93.69
377.674	84.69
377.899	84.69
378.125	80.69
378.35	77.69
378.576	77.69
378.802	82.69
379.027	78.69
379.253	78.69
379.478	89.69
379.704	79.69
379.929	83.69
380.155	73.69
380.38	72.69
380.606	79.69
380.831	80.69
381.057	92.69
381.282	78.69
381.507	79.69
381.733	78.69
381.958	78.69
382.184	72.69
382.409	83.69
382.634	75.69
382.86	81.69
383.085	93.69
383.31	80.69
383.535	92.69
383.761	94.69
383.986	94.69
384.211	87.69
384.436	93.69
384.662	94.69
384.887	86.69
385.112	82.69
385.337	90.69
385.562	89.69
385.787	100.69
386.013	80.69
386.238	75.69
386.463	65.69
386.688	77.69
386.913	69.69
387.138	65.69
387.363	87.69
387.588	97.69
387.813	90.69
388.038	90.69
388.263	93.69
388.488	90.69
388.713	73.69
388.938	78.69
389.163	78.69
389.387	93.69
389.612	77.69
389.837	85.69
390.062	97.69
390.287	84.69
390.512	99.69
390.736	87.69
390.961	99.69
391.186	80.69
391.411	84.69
391.636	95.69
391.86	87.69
392.085	89.69
392.31	91.69
392.534	108.69
392.759	81.69
392.984	80.69
393.208	84.69
393.433	93.69
393.658	89.69
393.882	100.69
394.107	76.69
394.331	85.69
394.556	80.69
394.78	88.69
395.005	79.69
395.229	85.69
395.454	90.69
395.678	85.69
395.903	86.69
396.127	84.69
396.352	79.69
396.576	89.69
396.801	78.69
397.025	77.69
397.249	86.69
397.474	91.69
397.698	76.69
397.922	78.69
398.147	89.69
398.371	90.69
398.595	93.69
398.82	80.69
399.044	89.69
399.268	95.69
399.492	85.69
399.717	62.69
399.941	83.69
400.165	94.69
400.389	79.69
400.613	96.69
400.837	95.69
401.062	95.69
401.286	82.69
401.51	77.69
401.734	84.69
401.958	100.69
402.182	95.69
402.406	91.69
402.63	103.69
402.854	74.69
403.078	85.69
403.302	105.69
403.526	95.69
403.75	80.69
403.974	92.69
404.198	82.69
404.422	91.69
404.645	84.69
404.869	85.69
405.093	85.69
405.317	94.69
405.541	83.69
405.765	101.69
405.988	85.69
406.212	91.69
406.436	93.69
406.66	93.69
406.883	92.69
407.107	66.69
407.331	80.69
407.555	87.69
407.778	83.69
408.002	98.69
408.226	83.69
408.449	114.69
408.673	97.69
408.896	87.69
409.12	96.69
409.344	104.69
409.567	77.69
409.791	88.69
410.014	78.69
410.238	81.69
410.461	90.69
410.685	93.69
410.908	88.69
411.132	79.69
411.355	78.69
411.578	90.69
411.802	95.69
412.025	92.69
412.249	87.69
412.472	87.69
412.695	92.69
412.919	76.69
413.142	73.69
413.365	88.69
413.589	76.69
413.812	93.69
414.035	88.69
414.258	88.69
414.482	86.69
414.705	88.69
414.928	82.69
415.151	91.69
415.374	77.69
415.597	99.69
415.821	87.69
416.044	75.69
416.267	104.69
416.49	85.69
416.713	73.69
416.936	77.69
417.159	94.69
417.382	82.69
417.605	76.69
417.828	101.69
418.051	76.69
418.274	83.69
418.497	90.69
418.72	77.69
418.943	83.69
419.166	93.69
419.389	87.69
419.611	75.69
419.834	85.69
420.057	80.69
420.28	86.69
420.503	69.69
420.726	75.69
420.948	88.69
421.171	99.69
421.394	91.69
421.617	85.69
421.839	85.69
422.062	88.69
422.285	83.69
422.507	94.69
422.73	101.69
422.953	73.69
423.175	95.69
423.398	92.69
423.621	91.69
423.843	81.69
424.066	91.69
424.288	93.69
424.511	82.69
424.733	93.69
424.956	85.69
425.178	81.69
425.401	94.69
425.623	84.69
425.846	84.69
426.068	83.69
426.291	86.69
426.513	92.69
426.735	72.69
426.958	90.69
427.18	75.69
427.402	72.69
427.625	88.69
427.847	80.69
428.069	96.69
428.292	97.69
428.514	89.69
428.736	82.69
428.958	72.69
429.181	89.69
429.403	80.69
429.625	73.69
429.847	86.69
430.069	90.69
430.292	84.69
430.514	71.69
430.736	88.69
430.958	81.69
431.18	78.69
431.402	85.69
431.624	95.69
431.846	74.69
432.068	92.69
432.29	89.69
432.512	71.69
432.734	99.69
432.956	87.69
433.178	97.69
433.4	81.69
433.622	81.69
433.844	80.69
434.066	88.69
434.287	83.69
434.509	85.69
434.731	94.69
434.953	90.69
435.175	79.69
435.397	83.69
435.618	88.69
435.84	100.69
436.062	99.69
436.284	87.69
436.505	87.69
436.727	87.69
436.949	86.69
437.17	96.69
437.392	85.69
437.614	75.69
437.835	77.69
438.057	84.69
438.278	78.69
438.5	71.69
438.721	88.69
438.943	83.69
439.165	77.69
439.386	79.69
439.608	98.69
439.829	75.69
440.05	81.69
440.272	93.69
440.493	90.69
440.715	81.69
440.936	79.69
441.158	93.69
441.379	96.69
441.6	95.69
441.822	87.69
442.043	88.69
442.264	77.69
442.486	85.69
442.707	85.69
442.928	81.69
443.149	74.69
443.371	85.69
443.592	88.69
443.813	83.69
444.034	85.69
444.255	93.69
444.476	74.69
444.698	81.69
444.919	82.69
445.14	152.69
445.361	114.69
445.582	76.69
445.803	83.69
446.024	85.69
446.245	90.69
446.466	85.69
446.687	89.69
446.908	92.69
447.129	89.69
447.35	75.69
447.571	89.69
447.792	93.69
448.013	83.69
448.234	89.69
448.455	67.69
448.675	85.69
448.896	77.69
449.117	74.69
449.338	76.69
449.559	80.69
449.779	83.69
450	70.69
450.221	77.69
450.442	97.69
450.662	81.69
450.883	84.69
451.104	85.69
451.324	95.69
451.545	87.69
451.766	68.69
451.986	80.69
452.207	79.69
452.428	87.69
452.648	88.69
452.869	82.69
453.089	92.69
453.31	80.69
453.53	82.69
453.751	75.69
453.971	78.69
454.192	87.69
454.412	69.69
454.633	80.69
454.853	83.69
455.073	87.69
455.294	86.69
455.514	80.69
455.734	83.69
455.955	88.69
456.175	77.69
456.395	95.69
456.616	82.69
456.836	83.69
457.056	84.69
457.276	82.69
457.497	82.69
457.717	77.69
457.937	93.69
458.157	91.69
458.377	70.69
458.598	79.69
458.818	101.69
459.038	86.69
459.258	69.69
459.478	85.69
459.698	81.69
459.918	88.69
460.138	88.69
460.358	73.69
460.578	84.69
460.798	93.69
461.018	100.69
461.238	93.69
461.458	91.69
461.678	75.69
461.898	69.69
462.118	74.69
462.338	81.69
462.558	75.69
462.777	87.69
462.997	84.69
463.217	93.69
463.437	91.69
463.657	101.69
463.876	87.69
464.096	103.69
464.316	96.69
464.536	85.69
464.755	88.69
464.975	83.69
465.195	91.69
465.414	94.69
465.634	85.69
465.854	75.69
466.073	72.69
466.293	68.69
466.512	70.69
466.732	86.69
466.951	88.69
467.171	88.69
467.391	88.69
467.61	85.69
467.829	80.69
468.049	81.69
468.268	93.69
468.488	75.69
468.707	86.69
468.927	77.69
469.146	84.69
469.365	85.69
469.585	87.69
469.804	89.69
470.023	86.69
470.243	87.69
470.462	78.69
470.681	92.69
470.901	78.69
471.12	80.69
471.339	86.69
471.558	84.69
471.777	76.69
471.997	85.69
472.216	93.69
472.435	84.69
472.654	86.69
472.873	79.69
473.092	83.69
473.311	88.69
473.53	93.69
473.749	102.69
473.968	89.69
474.187	81.69
474.406	77.69
474.625	90.69
474.844	90.69
475.063	77.69
475.282	91.69
475.501	92.69
475.72	77.69
475.939	91.69
476.158	83.69
476.377	66.69
476.596	90.69
476.814	96.69
477.033	89.69
477.252	96.69
477.471	81.69
477.69	89.69
477.908	95.69
478.127	81.69
478.346	77.69
478.564	87.69
478.783	95.69
479.002	71.69
479.22	83.69
479.439	85.69
479.658	73.69
479.876	92.69
480.095	88.69
480.313	78.69
480.532	99.69
480.751	86.69
480.969	78.69
481.188	92.69
481.406	93.69
481.624	85.69
481.843	81.69
482.061	100.69
482.28	78.69
482.498	85.69
482.717	78.69
482.935	81.69
483.153	82.69
483.372	80.69
483.59	82.69
483.808	78.69
484.027	83.69
484.245	85.69
484.463	87.69
484.681	92.69
484.9	87.69
485.118	94.69
485.336	105.69
485.554	80.69
485.772	99.69
485.99	88.69
486.209	79.69
486.427	75.69
486.645	75.69
486.863	81.69
487.081	93.69
487.299	73.69
487.517	77.69
487.735	87.69
487.953	95.69
488.171	88.69
488.389	87.69
488.607	99.69
488.825	75.69
489.043	90.69
489.261	110.69
489.479	82.69
489.696	91.69
489.914	92.69
490.132	91.69
490.35	81.69
490.568	74.69
490.786	100.69
491.003	78.69
491.221	92.69
491.439	81.69
491.657	77.69
491.874	96.69
492.092	83.69
492.31	88.69
492.527	86.69
492.745	78.69
492.963	91.69
493.18	94.69
493.398	81.69
493.615	83.69
493.833	81.69
494.05	91.69
494.268	84.69
494.485	70.69
494.703	89.69
494.92	88.69
495.138	85.69
495.355	73.69
495.573	98.69
495.79	89.69
496.008	93.69
496.225	76.69
496.442	104.69
496.66	86.69
496.877	80.69
497.094	100.69
497.312	89.69
497.529	97.69
497.746	85.69
497.963	82.69
498.181	86.69
498.398	93.69
498.615	94.69
498.832	89.69
499.049	103.69
499.267	93.69
499.484	87.69
499.701	91.69
499.918	93.69
500.135	106.69
500.352	103.69
500.569	87.69
500.786	104.69
501.003	91.69
501.22	90.69
501.437	98.69
501.654	92.69
501.871	93.69
502.088	87.69
502.305	84.69
502.522	95.69
502.739	89.69
502.956	96.69
503.172	91.69
503.389	92.69
503.606	87.69
503.823	88.69
504.04	95.69
504.256	83.69
504.473	95.69
504.69	74.69
504.907	100.69
505.123	86.69
505.34	91.69
505.557	96.69
505.773	73.69
505.99	86.69
506.207	71.69
506.423	86.69
506.64	81.69
506.856	79.69
507.073	80.69
507.289	93.69
507.506	84.69
507.722	81.69
507.939	88.69
508.155	79.69
508.372	85.69
508.588	81.69
508.805	90.69
509.021	96.69
509.238	83.69
509.454	89.69
509.67	81.69
509.887	86.69
510.103	90.69
510.319	78.69
510.536	89.69
510.752	89.69
510.968	78.69
511.184	72.69
511.401	89.69
511.617	87.69
511.833	75.69
512.049	97.69
512.265	85.69
512.481	88.69
512.698	89.69
512.914	78.69
513.13	101.69
513.346	73.69
513.562	89.69
513.778	95.69
513.994	86.69
514.21	107.69
514.426	87.69
514.642	99.69
514.858	83.69
515.074	80.69
515.29	86.69
515.506	101.69
515.721	97.69
515.937	85.69
516.153	81.69
516.369	97.69
516.585	85.69
516.801	72.69
517.016	85.69
517.232	85.69
517.448	90.69
517.664	82.69
517.879	92.69
518.095	89.69
518.311	98.69
518.527	81.69
518.742	83.69
518.958	83.69
519.173	95.69
519.389	62.69
519.605	99.69
