Data from BG_HRD10591_100.txt Node
Date: Fri May 16 15:33:56 EDT 2025
User: Yrep
Spectrometer: HR+D1059
Trigger mode: 1
Integration Time (sec): 1.000000E-1
Scans to average: 1
Electric dark correction enabled: true
Nonlinearity correction enabled: false
Boxcar width: 0
XAxis mode: Wavelengths
Number of Pixels in Spectrum: 2048
>>>>>Begin Spectral Data<<<<<
223.165	-23.44
223.4	-23.44
223.635	-23.44
223.869	-16.44
224.104	-14.44
224.338	-21.44
224.573	-6.44
224.808	-16.44
225.042	7.56
225.277	0.56
225.511	8.56
225.746	3.56
225.98	13.56
226.215	5.56
226.449	7.56
226.683	12.56
226.918	13.56
227.152	25.56
227.387	44.56
227.621	40.56
227.856	40.56
228.09	46.56
228.324	54.56
228.559	57.56
228.793	50.56
229.027	69.56
229.262	67.56
229.496	71.56
229.73	76.56
229.964	61.56
230.199	59.56
230.433	88.56
230.667	80.56
230.901	67.56
231.136	78.56
231.37	78.56
231.604	96.56
231.838	83.56
232.072	62.56
232.306	82.56
232.541	71.56
232.775	84.56
233.009	89.56
233.243	94.56
233.477	93.56
233.711	65.56
233.945	75.56
234.179	66.56
234.413	80.56
234.647	89.56
234.881	68.56
235.115	86.56
235.349	79.56
235.583	80.56
235.817	84.56
236.051	88.56
236.285	68.56
236.519	83.56
236.753	84.56
236.987	72.56
237.221	82.56
237.455	81.56
237.689	78.56
237.922	70.56
238.156	71.56
238.39	58.56
238.624	76.56
238.858	81.56
239.091	89.56
239.325	68.56
239.559	78.56
239.793	70.56
240.027	93.56
240.26	73.56
240.494	73.56
240.728	81.56
240.961	77.56
241.195	80.56
241.429	83.56
241.662	70.56
241.896	91.56
242.13	88.56
242.363	74.56
242.597	66.56
242.83	66.56
243.064	58.56
243.298	78.56
243.531	82.56
243.765	79.56
243.998	69.56
244.232	62.56
244.465	86.56
244.699	81.56
244.932	74.56
245.166	80.56
245.399	68.56
245.633	80.56
245.866	83.56
246.099	80.56
246.333	76.56
246.566	78.56
246.8	66.56
247.033	85.56
247.266	66.56
247.5	80.56
247.733	82.56
247.966	95.56
248.2	76.56
248.433	85.56
248.666	80.56
248.899	74.56
249.133	83.56
249.366	84.56
249.599	80.56
249.832	90.56
250.066	86.56
250.299	79.56
250.532	68.56
250.765	82.56
250.998	64.56
251.231	83.56
251.465	75.56
251.698	86.56
251.931	89.56
252.164	78.56
252.397	71.56
252.63	76.56
252.863	78.56
253.096	86.56
253.329	86.56
253.562	76.56
253.795	79.56
254.028	83.56
254.261	83.56
254.494	83.56
254.727	78.56
254.96	80.56
255.193	69.56
255.426	85.56
255.659	78.56
255.892	71.56
256.124	71.56
256.357	76.56
256.59	79.56
256.823	79.56
257.056	93.56
257.289	74.56
257.521	86.56
257.754	95.56
257.987	85.56
258.22	84.56
258.452	81.56
258.685	78.56
258.918	74.56
259.151	76.56
259.383	64.56
259.616	73.56
259.849	82.56
260.081	88.56
260.314	76.56
260.547	76.56
260.779	82.56
261.012	87.56
261.244	74.56
261.477	80.56
261.71	88.56
261.942	82.56
262.175	84.56
262.407	81.56
262.64	91.56
262.872	79.56
263.105	83.56
263.337	86.56
263.57	85.56
263.802	77.56
264.035	84.56
264.267	86.56
264.499	86.56
264.732	81.56
264.964	75.56
265.197	65.56
265.429	78.56
265.661	76.56
265.894	74.56
266.126	81.56
266.358	78.56
266.591	76.56
266.823	78.56
267.055	91.56
267.287	75.56
267.52	76.56
267.752	83.56
267.984	94.56
268.216	77.56
268.448	78.56
268.681	82.56
268.913	79.56
269.145	89.56
269.377	82.56
269.609	96.56
269.841	90.56
270.073	82.56
270.306	89.56
270.538	96.56
270.77	76.56
271.002	86.56
271.234	95.56
271.466	87.56
271.698	92.56
271.93	66.56
272.162	90.56
272.394	83.56
272.626	72.56
272.858	56.56
273.09	88.56
273.322	75.56
273.553	78.56
273.785	95.56
274.017	80.56
274.249	89.56
274.481	99.56
274.713	77.56
274.945	93.56
275.176	92.56
275.408	84.56
275.64	94.56
275.872	94.56
276.104	83.56
276.335	83.56
276.567	75.56
276.799	91.56
277.031	77.56
277.262	88.56
277.494	91.56
277.726	89.56
277.957	77.56
278.189	69.56
278.421	78.56
278.652	72.56
278.884	82.56
279.115	82.56
279.347	83.56
279.579	86.56
279.81	80.56
280.042	78.56
280.273	73.56
280.505	81.56
280.736	97.56
280.968	88.56
281.199	87.56
281.431	71.56
281.662	78.56
281.894	81.56
282.125	82.56
282.356	88.56
282.588	88.56
282.819	79.56
283.051	99.56
283.282	79.56
283.513	94.56
283.745	90.56
283.976	85.56
284.207	91.56
284.439	91.56
284.67	90.56
284.901	76.56
285.132	71.56
285.364	86.56
285.595	92.56
285.826	82.56
286.057	77.56
286.288	90.56
286.52	76.56
286.751	94.56
286.982	91.56
287.213	78.56
287.444	83.56
287.675	90.56
287.906	76.56
288.138	80.56
288.369	69.56
288.6	92.56
288.831	87.56
289.062	87.56
289.293	89.56
289.524	67.56
289.755	78.56
289.986	89.56
290.217	102.56
290.448	91.56
290.679	95.56
290.91	82.56
291.141	83.56
291.371	80.56
291.602	81.56
291.833	86.56
292.064	82.56
292.295	82.56
292.526	83.56
292.757	90.56
292.987	87.56
293.218	82.56
293.449	83.56
293.68	97.56
293.91	88.56
294.141	95.56
294.372	92.56
294.603	78.56
294.833	85.56
295.064	91.56
295.295	93.56
295.525	82.56
295.756	89.56
295.987	85.56
296.217	87.56
296.448	92.56
296.679	86.56
296.909	83.56
297.14	100.56
297.37	83.56
297.601	86.56
297.831	98.56
298.062	92.56
298.292	93.56
298.523	79.56
298.753	80.56
298.984	66.56
299.214	82.56
299.445	80.56
299.675	88.56
299.905	76.56
300.136	78.56
300.366	90.56
300.597	83.56
300.827	78.56
301.057	80.56
301.288	82.56
301.518	91.56
301.748	76.56
301.979	96.56
302.209	104.56
302.439	82.56
302.669	83.56
302.9	97.56
303.13	89.56
303.36	81.56
303.59	80.56
303.82	89.56
304.051	82.56
304.281	83.56
304.511	79.56
304.741	64.56
304.971	77.56
305.201	84.56
305.431	79.56
305.661	98.56
305.891	86.56
306.121	86.56
306.352	77.56
306.582	90.56
306.812	73.56
307.042	78.56
307.272	86.56
307.502	76.56
307.731	81.56
307.961	97.56
308.191	85.56
308.421	87.56
308.651	86.56
308.881	99.56
309.111	80.56
309.341	89.56
309.571	85.56
309.8	90.56
310.03	84.56
310.26	82.56
310.49	98.56
310.72	86.56
310.949	76.56
311.179	95.56
311.409	81.56
311.639	78.56
311.868	100.56
312.098	93.56
312.328	79.56
312.557	90.56
312.787	86.56
313.017	83.56
313.246	82.56
313.476	74.56
313.706	80.56
313.935	86.56
314.165	88.56
314.394	88.56
314.624	83.56
314.853	86.56
315.083	80.56
315.312	78.56
315.542	89.56
315.771	91.56
316.001	82.56
316.23	93.56
316.46	84.56
316.689	70.56
316.919	98.56
317.148	80.56
317.377	85.56
317.607	104.56
317.836	90.56
318.065	69.56
318.295	87.56
318.524	86.56
318.753	89.56
318.983	83.56
319.212	80.56
319.441	79.56
319.67	82.56
319.9	83.56
320.129	86.56
320.358	78.56
320.587	74.56
320.816	88.56
321.046	78.56
321.275	88.56
321.504	64.56
321.733	75.56
321.962	80.56
322.191	73.56
322.42	90.56
322.649	93.56
322.878	99.56
323.108	79.56
323.337	80.56
323.566	92.56
323.795	82.56
324.024	87.56
324.253	88.56
324.482	102.56
324.71	82.56
324.939	99.56
325.168	98.56
325.397	85.56
325.626	88.56
325.855	75.56
326.084	87.56
326.313	80.56
326.542	69.56
326.77	85.56
326.999	86.56
327.228	81.56
327.457	88.56
327.686	93.56
327.914	79.56
328.143	86.56
328.372	99.56
328.6	73.56
328.829	83.56
329.058	88.56
329.287	82.56
329.515	90.56
329.744	88.56
329.972	83.56
330.201	81.56
330.43	80.56
330.658	80.56
330.887	82.56
331.115	74.56
331.344	77.56
331.572	87.56
331.801	82.56
332.03	87.56
332.258	83.56
332.486	79.56
332.715	89.56
332.943	104.56
333.172	98.56
333.4	82.56
333.629	83.56
333.857	89.56
334.085	75.56
334.314	82.56
334.542	84.56
334.771	87.56
334.999	80.56
335.227	86.56
335.455	83.56
335.684	103.56
335.912	81.56
336.14	78.56
336.369	95.56
336.597	89.56
336.825	91.56
337.053	83.56
337.281	103.56
337.51	86.56
337.738	88.56
337.966	85.56
338.194	87.56
338.422	93.56
338.65	86.56
338.878	83.56
339.106	81.56
339.334	96.56
339.562	83.56
339.79	79.56
340.018	82.56
340.246	83.56
340.474	83.56
340.702	74.56
340.93	84.56
341.158	89.56
341.386	90.56
341.614	90.56
341.842	99.56
342.07	97.56
342.298	90.56
342.526	76.56
342.754	79.56
342.981	83.56
343.209	88.56
343.437	90.56
343.665	85.56
343.893	94.56
344.12	83.56
344.348	97.56
344.576	88.56
344.804	77.56
345.031	92.56
345.259	80.56
345.487	84.56
345.714	100.56
345.942	74.56
346.17	94.56
346.397	76.56
346.625	86.56
346.853	78.56
347.08	83.56
347.308	66.56
347.535	79.56
347.763	95.56
347.99	83.56
348.218	91.56
348.445	95.56
348.673	83.56
348.9	82.56
349.128	83.56
349.355	95.56
349.583	78.56
349.81	71.56
350.037	75.56
350.265	87.56
350.492	78.56
350.72	86.56
350.947	79.56
351.174	86.56
351.402	81.56
351.629	76.56
351.856	92.56
352.083	77.56
352.311	79.56
352.538	81.56
352.765	89.56
352.992	84.56
353.22	83.56
353.447	91.56
353.674	84.56
353.901	91.56
354.128	89.56
354.355	73.56
354.583	92.56
354.81	86.56
355.037	81.56
355.264	98.56
355.491	81.56
355.718	71.56
355.945	87.56
356.172	98.56
356.399	86.56
356.626	85.56
356.853	99.56
357.08	88.56
357.307	88.56
357.534	82.56
357.761	90.56
357.988	79.56
358.215	85.56
358.441	80.56
358.668	86.56
358.895	92.56
359.122	95.56
359.349	87.56
359.576	89.56
359.802	91.56
360.029	76.56
360.256	83.56
360.483	89.56
360.709	89.56
360.936	98.56
361.163	82.56
361.39	74.56
361.616	76.56
361.843	75.56
362.07	81.56
362.296	76.56
362.523	91.56
362.749	87.56
362.976	78.56
363.203	79.56
363.429	79.56
363.656	71.56
363.882	80.56
364.109	96.56
364.335	81.56
364.562	86.56
364.788	90.56
365.015	90.56
365.241	88.56
365.468	89.56
365.694	87.56
365.92	82.56
366.147	83.56
366.373	92.56
366.599	83.56
366.826	86.56
367.052	63.56
367.278	75.56
367.505	71.56
367.731	86.56
367.957	90.56
368.184	88.56
368.41	84.56
368.636	74.56
368.862	77.56
369.089	80.56
369.315	80.56
369.541	81.56
369.767	83.56
369.993	81.56
370.219	79.56
370.445	81.56
370.672	74.56
370.898	88.56
371.124	84.56
371.35	76.56
371.576	82.56
371.802	75.56
372.028	91.56
372.254	73.56
372.48	78.56
372.706	66.56
372.932	92.56
373.158	99.56
373.384	82.56
373.61	83.56
373.835	90.56
374.061	81.56
374.287	77.56
374.513	72.56
374.739	95.56
374.965	66.56
375.191	93.56
375.416	74.56
375.642	90.56
375.868	89.56
376.094	82.56
376.319	84.56
376.545	90.56
376.771	84.56
376.997	86.56
377.222	88.56
377.448	102.56
377.674	81.56
377.899	78.56
378.125	83.56
378.35	72.56
378.576	95.56
378.802	84.56
379.027	78.56
379.253	81.56
379.478	83.56
379.704	93.56
379.929	90.56
380.155	84.56
380.38	105.56
380.606	85.56
380.831	80.56
381.057	85.56
381.282	86.56
381.507	89.56
381.733	92.56
381.958	83.56
382.184	81.56
382.409	75.56
382.634	83.56
382.86	82.56
383.085	83.56
383.31	73.56
383.535	88.56
383.761	76.56
383.986	76.56
384.211	82.56
384.436	81.56
384.662	82.56
384.887	77.56
385.112	76.56
385.337	84.56
385.562	87.56
385.787	89.56
386.013	93.56
386.238	86.56
386.463	95.56
386.688	93.56
386.913	85.56
387.138	72.56
387.363	91.56
387.588	74.56
387.813	81.56
388.038	92.56
388.263	71.56
388.488	71.56
388.713	87.56
388.938	91.56
389.163	86.56
389.387	87.56
389.612	91.56
389.837	78.56
390.062	85.56
390.287	89.56
390.512	78.56
390.736	97.56
390.961	74.56
391.186	86.56
391.411	82.56
391.636	68.56
391.86	93.56
392.085	90.56
392.31	81.56
392.534	84.56
392.759	79.56
392.984	87.56
393.208	84.56
393.433	84.56
393.658	87.56
393.882	72.56
394.107	84.56
394.331	92.56
394.556	98.56
394.78	73.56
395.005	80.56
395.229	84.56
395.454	93.56
395.678	76.56
395.903	87.56
396.127	87.56
396.352	71.56
396.576	88.56
396.801	95.56
397.025	79.56
397.249	95.56
397.474	90.56
397.698	90.56
397.922	87.56
398.147	68.56
398.371	83.56
398.595	96.56
398.82	86.56
399.044	87.56
399.268	78.56
399.492	80.56
399.717	82.56
399.941	74.56
400.165	73.56
400.389	77.56
400.613	95.56
400.837	76.56
401.062	79.56
401.286	90.56
401.51	94.56
401.734	82.56
401.958	76.56
402.182	84.56
402.406	64.56
402.63	82.56
402.854	91.56
403.078	79.56
403.302	84.56
403.526	84.56
403.75	90.56
403.974	80.56
404.198	83.56
404.422	76.56
404.645	86.56
404.869	76.56
405.093	82.56
405.317	73.56
405.541	86.56
405.765	67.56
405.988	83.56
406.212	76.56
406.436	74.56
406.66	78.56
406.883	94.56
407.107	82.56
407.331	85.56
407.555	84.56
407.778	82.56
408.002	71.56
408.226	68.56
408.449	70.56
408.673	83.56
408.896	89.56
409.12	79.56
409.344	86.56
409.567	74.56
409.791	87.56
410.014	90.56
410.238	92.56
410.461	82.56
410.685	83.56
410.908	85.56
411.132	84.56
411.355	83.56
411.578	82.56
411.802	82.56
412.025	75.56
412.249	88.56
412.472	75.56
412.695	86.56
412.919	94.56
413.142	75.56
413.365	84.56
413.589	92.56
413.812	78.56
414.035	70.56
414.258	90.56
414.482	86.56
414.705	77.56
414.928	68.56
415.151	79.56
415.374	82.56
415.597	86.56
415.821	82.56
416.044	60.56
416.267	75.56
416.49	74.56
416.713	83.56
416.936	87.56
417.159	91.56
417.382	82.56
417.605	81.56
417.828	84.56
418.051	78.56
418.274	82.56
418.497	73.56
418.72	82.56
418.943	76.56
419.166	67.56
419.389	88.56
419.611	78.56
419.834	76.56
420.057	74.56
420.28	77.56
420.503	90.56
420.726	77.56
420.948	76.56
421.171	91.56
421.394	83.56
421.617	77.56
421.839	82.56
422.062	93.56
422.285	82.56
422.507	79.56
422.73	84.56
422.953	70.56
423.175	84.56
423.398	91.56
423.621	80.56
423.843	87.56
424.066	79.56
424.288	86.56
424.511	86.56
424.733	86.56
424.956	77.56
425.178	78.56
425.401	89.56
425.623	83.56
425.846	90.56
426.068	82.56
426.291	83.56
426.513	73.56
426.735	75.56
426.958	67.56
427.18	77.56
427.402	85.56
427.625	71.56
427.847	74.56
428.069	79.56
428.292	85.56
428.514	76.56
428.736	76.56
428.958	57.56
429.181	82.56
429.403	88.56
429.625	94.56
429.847	83.56
430.069	78.56
430.292	92.56
430.514	86.56
430.736	82.56
430.958	88.56
431.18	82.56
431.402	79.56
431.624	82.56
431.846	87.56
432.068	79.56
432.29	92.56
432.512	84.56
432.734	71.56
432.956	77.56
433.178	90.56
433.4	91.56
433.622	81.56
433.844	83.56
434.066	88.56
434.287	83.56
434.509	78.56
434.731	86.56
434.953	82.56
435.175	80.56
435.397	89.56
435.618	82.56
435.84	79.56
436.062	81.56
436.284	85.56
436.505	78.56
436.727	71.56
436.949	68.56
437.17	92.56
437.392	73.56
437.614	78.56
437.835	90.56
438.057	82.56
438.278	83.56
438.5	88.56
438.721	84.56
438.943	83.56
439.165	94.56
439.386	86.56
439.608	79.56
439.829	85.56
440.05	82.56
440.272	75.56
440.493	73.56
440.715	91.56
440.936	85.56
441.158	75.56
441.379	88.56
441.6	85.56
441.822	93.56
442.043	72.56
442.264	68.56
442.486	83.56
442.707	74.56
442.928	83.56
443.149	78.56
443.371	83.56
443.592	85.56
443.813	74.56
444.034	72.56
444.255	85.56
444.476	86.56
444.698	78.56
444.919	77.56
445.14	124.56
445.361	114.56
445.582	65.56
445.803	79.56
446.024	83.56
446.245	87.56
446.466	92.56
446.687	73.56
446.908	88.56
447.129	88.56
447.35	77.56
447.571	66.56
447.792	86.56
448.013	74.56
448.234	78.56
448.455	85.56
448.675	76.56
448.896	84.56
449.117	86.56
449.338	86.56
449.559	86.56
449.779	94.56
450	99.56
450.221	83.56
450.442	86.56
450.662	84.56
450.883	86.56
451.104	87.56
451.324	79.56
451.545	81.56
451.766	79.56
451.986	77.56
452.207	66.56
452.428	88.56
452.648	72.56
452.869	99.56
453.089	71.56
453.31	82.56
453.53	78.56
453.751	88.56
453.971	84.56
454.192	79.56
454.412	74.56
454.633	90.56
454.853	66.56
455.073	77.56
455.294	83.56
455.514	82.56
455.734	80.56
455.955	86.56
456.175	78.56
456.395	83.56
456.616	83.56
456.836	83.56
457.056	89.56
457.276	74.56
457.497	74.56
457.717	90.56
457.937	70.56
458.157	75.56
458.377	82.56
458.598	77.56
458.818	71.56
459.038	74.56
459.258	87.56
459.478	80.56
459.698	86.56
459.918	80.56
460.138	84.56
460.358	86.56
460.578	80.56
460.798	89.56
461.018	82.56
461.238	84.56
461.458	82.56
461.678	79.56
461.898	87.56
462.118	79.56
462.338	97.56
462.558	93.56
462.777	76.56
462.997	83.56
463.217	75.56
463.437	78.56
463.657	86.56
463.876	72.56
464.096	84.56
464.316	84.56
464.536	89.56
464.755	69.56
464.975	84.56
465.195	82.56
465.414	93.56
465.634	74.56
465.854	74.56
466.073	88.56
466.293	86.56
466.512	76.56
466.732	87.56
466.951	86.56
467.171	82.56
467.391	79.56
467.61	95.56
467.829	91.56
468.049	69.56
468.268	74.56
468.488	83.56
468.707	77.56
468.927	79.56
469.146	83.56
469.365	72.56
469.585	80.56
469.804	94.56
470.023	73.56
470.243	73.56
470.462	85.56
470.681	83.56
470.901	78.56
471.12	78.56
471.339	84.56
471.558	94.56
471.777	78.56
471.997	91.56
472.216	92.56
472.435	86.56
472.654	84.56
472.873	79.56
473.092	63.56
473.311	81.56
473.53	82.56
473.749	83.56
473.968	78.56
474.187	82.56
474.406	90.56
474.625	78.56
474.844	71.56
475.063	62.56
475.282	77.56
475.501	62.56
475.72	74.56
475.939	73.56
476.158	72.56
476.377	89.56
476.596	85.56
476.814	75.56
477.033	87.56
477.252	73.56
477.471	79.56
477.69	91.56
477.908	88.56
478.127	107.56
478.346	84.56
478.564	71.56
478.783	89.56
479.002	83.56
479.22	86.56
479.439	74.56
479.658	82.56
479.876	75.56
480.095	80.56
480.313	76.56
480.532	84.56
480.751	93.56
480.969	84.56
481.188	72.56
481.406	83.56
481.624	66.56
481.843	71.56
482.061	72.56
482.28	81.56
482.498	85.56
482.717	88.56
482.935	93.56
483.153	81.56
483.372	104.56
483.59	94.56
483.808	74.56
484.027	66.56
484.245	83.56
484.463	79.56
484.681	78.56
484.9	74.56
485.118	74.56
485.336	92.56
485.554	84.56
485.772	65.56
485.99	82.56
486.209	67.56
486.427	72.56
486.645	78.56
486.863	79.56
487.081	70.56
487.299	74.56
487.517	88.56
487.735	79.56
487.953	89.56
488.171	89.56
488.389	82.56
488.607	82.56
488.825	85.56
489.043	92.56
489.261	90.56
489.479	81.56
489.696	87.56
489.914	81.56
490.132	81.56
490.35	88.56
490.568	86.56
490.786	81.56
491.003	84.56
491.221	77.56
491.439	85.56
491.657	85.56
491.874	82.56
492.092	91.56
492.31	93.56
492.527	77.56
492.745	92.56
492.963	80.56
493.18	88.56
493.398	81.56
493.615	90.56
493.833	69.56
494.05	98.56
494.268	82.56
494.485	76.56
494.703	68.56
494.92	86.56
495.138	85.56
495.355	71.56
495.573	83.56
495.79	85.56
496.008	66.56
496.225	74.56
496.442	83.56
496.66	91.56
496.877	95.56
497.094	79.56
497.312	78.56
497.529	95.56
497.746	90.56
497.963	91.56
498.181	82.56
498.398	81.56
498.615	89.56
498.832	79.56
499.049	76.56
499.267	83.56
499.484	93.56
499.701	79.56
499.918	88.56
500.135	93.56
500.352	88.56
500.569	81.56
500.786	90.56
501.003	69.56
501.22	83.56
501.437	92.56
501.654	72.56
501.871	85.56
502.088	68.56
502.305	89.56
502.522	84.56
502.739	82.56
502.956	87.56
503.172	92.56
503.389	83.56
503.606	72.56
503.823	84.56
504.04	87.56
504.256	83.56
504.473	87.56
504.69	87.56
504.907	89.56
505.123	85.56
505.34	75.56
505.557	84.56
505.773	81.56
505.99	81.56
506.207	92.56
506.423	82.56
506.64	89.56
506.856	88.56
507.073	86.56
507.289	84.56
507.506	88.56
507.722	87.56
507.939	68.56
508.155	80.56
508.372	90.56
508.588	100.56
508.805	80.56
509.021	89.56
509.238	79.56
509.454	82.56
509.67	84.56
509.887	89.56
510.103	76.56
510.319	84.56
510.536	79.56
510.752	89.56
510.968	84.56
511.184	86.56
511.401	86.56
511.617	93.56
511.833	71.56
512.049	76.56
512.265	78.56
512.481	84.56
512.698	94.56
512.914	89.56
513.13	89.56
513.346	84.56
513.562	78.56
513.778	73.56
513.994	75.56
514.21	87.56
514.426	88.56
514.642	90.56
514.858	84.56
515.074	86.56
515.29	83.56
515.506	87.56
515.721	100.56
515.937	83.56
516.153	87.56
516.369	66.56
516.585	91.56
516.801	97.56
517.016	81.56
517.232	89.56
517.448	75.56
517.664	72.56
517.879	76.56
518.095	81.56
518.311	82.56
518.527	75.56
518.742	96.56
518.958	82.56
519.173	95.56
519.389	84.56
519.605	81.56
519.82	83.56
520.036	74.56
520.251	79.56
