Data from BG_HRD10591_032.txt Node
Date: Fri May 16 15:33:23 EDT 2025
User: Yrep
Spectrometer: HR+D1059
Trigger mode: 1
Integration Time (sec): 1.000000E-1
Scans to average: 1
Electric dark correction enabled: true
Nonlinearity correction enabled: false
Boxcar width: 0
XAxis mode: Wavelengths
Number of Pixels in Spectrum: 2048
>>>>>Begin Spectral Data<<<<<
223.165	-18.5
223.4	-18.5
223.635	-18.5
223.869	-19.5
224.104	-12.5
224.338	-13.5
224.573	-7.5
224.808	-15.5
225.042	-12.5
225.277	1.5
225.511	-15.5
225.746	-0.5
225.98	7.5
226.215	19.5
226.449	9.5
226.683	12.5
226.918	18.5
227.152	46.5
227.387	40.5
227.621	29.5
227.856	40.5
228.09	52.5
228.324	54.5
228.559	59.5
228.793	60.5
229.027	59.5
229.262	60.5
229.496	66.5
229.73	70.5
229.964	65.5
230.199	70.5
230.433	71.5
230.667	74.5
230.901	94.5
231.136	78.5
231.37	81.5
231.604	82.5
231.838	89.5
232.072	74.5
232.306	77.5
232.541	77.5
232.775	89.5
233.009	95.5
233.243	74.5
233.477	72.5
233.711	78.5
233.945	85.5
234.179	80.5
234.413	81.5
234.647	67.5
234.881	65.5
235.115	86.5
235.349	89.5
235.583	83.5
235.817	85.5
236.051	71.5
236.285	69.5
236.519	79.5
236.753	77.5
236.987	88.5
237.221	81.5
237.455	66.5
237.689	78.5
237.922	75.5
238.156	77.5
238.39	72.5
238.624	70.5
238.858	66.5
239.091	68.5
239.325	91.5
239.559	82.5
239.793	65.5
240.027	72.5
240.26	69.5
240.494	78.5
240.728	82.5
240.961	76.5
241.195	84.5
241.429	82.5
241.662	74.5
241.896	68.5
242.13	70.5
242.363	76.5
242.597	69.5
242.83	74.5
243.064	74.5
243.298	80.5
243.531	83.5
243.765	74.5
243.998	62.5
244.232	73.5
244.465	78.5
244.699	52.5
244.932	60.5
245.166	73.5
245.399	92.5
245.633	76.5
245.866	85.5
246.099	81.5
246.333	69.5
246.566	82.5
246.8	68.5
247.033	62.5
247.266	77.5
247.5	67.5
247.733	77.5
247.966	79.5
248.2	84.5
248.433	81.5
248.666	75.5
248.899	72.5
249.133	74.5
249.366	64.5
249.599	89.5
249.832	64.5
250.066	74.5
250.299	75.5
250.532	74.5
250.765	80.5
250.998	69.5
251.231	77.5
251.465	68.5
251.698	79.5
251.931	81.5
252.164	83.5
252.397	64.5
252.63	83.5
252.863	91.5
253.096	78.5
253.329	75.5
253.562	69.5
253.795	95.5
254.028	81.5
254.261	75.5
254.494	79.5
254.727	78.5
254.96	86.5
255.193	92.5
255.426	88.5
255.659	76.5
255.892	89.5
256.124	77.5
256.357	81.5
256.59	88.5
256.823	84.5
257.056	85.5
257.289	92.5
257.521	101.5
257.754	92.5
257.987	67.5
258.22	79.5
258.452	98.5
258.685	81.5
258.918	85.5
259.151	72.5
259.383	81.5
259.616	87.5
259.849	79.5
260.081	78.5
260.314	82.5
260.547	85.5
260.779	56.5
261.012	80.5
261.244	84.5
261.477	86.5
261.71	84.5
261.942	80.5
262.175	80.5
262.407	60.5
262.64	67.5
262.872	79.5
263.105	81.5
263.337	84.5
263.57	63.5
263.802	72.5
264.035	93.5
264.267	93.5
264.499	89.5
264.732	78.5
264.964	86.5
265.197	79.5
265.429	75.5
265.661	74.5
265.894	84.5
266.126	69.5
266.358	75.5
266.591	100.5
266.823	96.5
267.055	78.5
267.287	75.5
267.52	74.5
267.752	80.5
267.984	85.5
268.216	85.5
268.448	86.5
268.681	84.5
268.913	83.5
269.145	77.5
269.377	79.5
269.609	72.5
269.841	95.5
270.073	86.5
270.306	70.5
270.538	69.5
270.77	85.5
271.002	77.5
271.234	81.5
271.466	72.5
271.698	92.5
271.93	64.5
272.162	81.5
272.394	86.5
272.626	84.5
272.858	86.5
273.09	91.5
273.322	90.5
273.553	75.5
273.785	70.5
274.017	84.5
274.249	76.5
274.481	77.5
274.713	91.5
274.945	77.5
275.176	78.5
275.408	84.5
275.64	76.5
275.872	97.5
276.104	67.5
276.335	70.5
276.567	90.5
276.799	85.5
277.031	93.5
277.262	89.5
277.494	91.5
277.726	85.5
277.957	71.5
278.189	80.5
278.421	78.5
278.652	82.5
278.884	84.5
279.115	94.5
279.347	97.5
279.579	79.5
279.81	86.5
280.042	84.5
280.273	67.5
280.505	85.5
280.736	95.5
280.968	73.5
281.199	97.5
281.431	74.5
281.662	86.5
281.894	78.5
282.125	105.5
282.356	87.5
282.588	83.5
282.819	85.5
283.051	76.5
283.282	78.5
283.513	102.5
283.745	81.5
283.976	69.5
284.207	69.5
284.439	86.5
284.67	74.5
284.901	84.5
285.132	84.5
285.364	80.5
285.595	94.5
285.826	90.5
286.057	84.5
286.288	91.5
286.52	88.5
286.751	72.5
286.982	101.5
287.213	90.5
287.444	93.5
287.675	88.5
287.906	90.5
288.138	78.5
288.369	89.5
288.6	88.5
288.831	77.5
289.062	76.5
289.293	101.5
289.524	97.5
289.755	77.5
289.986	77.5
290.217	88.5
290.448	78.5
290.679	97.5
290.91	78.5
291.141	78.5
291.371	90.5
291.602	89.5
291.833	83.5
292.064	84.5
292.295	89.5
292.526	95.5
292.757	82.5
292.987	80.5
293.218	97.5
293.449	82.5
293.68	94.5
293.91	89.5
294.141	93.5
294.372	75.5
294.603	85.5
294.833	91.5
295.064	85.5
295.295	80.5
295.525	76.5
295.756	86.5
295.987	85.5
296.217	78.5
296.448	77.5
296.679	83.5
296.909	85.5
297.14	97.5
297.37	84.5
297.601	78.5
297.831	79.5
298.062	84.5
298.292	103.5
298.523	91.5
298.753	94.5
298.984	86.5
299.214	81.5
299.445	86.5
299.675	76.5
299.905	96.5
300.136	86.5
300.366	72.5
300.597	72.5
300.827	85.5
301.057	82.5
301.288	84.5
301.518	79.5
301.748	81.5
301.979	80.5
302.209	73.5
302.439	76.5
302.669	93.5
302.9	69.5
303.13	75.5
303.36	73.5
303.59	77.5
303.82	77.5
304.051	89.5
304.281	77.5
304.511	76.5
304.741	86.5
304.971	92.5
305.201	84.5
305.431	90.5
305.661	82.5
305.891	80.5
306.121	95.5
306.352	89.5
306.582	76.5
306.812	76.5
307.042	88.5
307.272	93.5
307.502	77.5
307.731	86.5
307.961	85.5
308.191	81.5
308.421	89.5
308.651	96.5
308.881	80.5
309.111	82.5
309.341	90.5
309.571	84.5
309.8	86.5
310.03	97.5
310.26	96.5
310.49	101.5
310.72	86.5
310.949	91.5
311.179	81.5
311.409	88.5
311.639	70.5
311.868	94.5
312.098	91.5
312.328	97.5
312.557	100.5
312.787	90.5
313.017	84.5
313.246	82.5
313.476	85.5
313.706	90.5
313.935	84.5
314.165	74.5
314.394	84.5
314.624	87.5
314.853	89.5
315.083	83.5
315.312	88.5
315.542	73.5
315.771	70.5
316.001	81.5
316.23	84.5
316.46	90.5
316.689	89.5
316.919	92.5
317.148	85.5
317.377	76.5
317.607	78.5
317.836	95.5
318.065	92.5
318.295	97.5
318.524	80.5
318.753	86.5
318.983	80.5
319.212	88.5
319.441	91.5
319.67	87.5
319.9	83.5
320.129	70.5
320.358	78.5
320.587	88.5
320.816	80.5
321.046	81.5
321.275	88.5
321.504	80.5
321.733	83.5
321.962	84.5
322.191	94.5
322.42	92.5
322.649	83.5
322.878	94.5
323.108	91.5
323.337	89.5
323.566	80.5
323.795	86.5
324.024	82.5
324.253	87.5
324.482	83.5
324.71	70.5
324.939	81.5
325.168	83.5
325.397	90.5
325.626	86.5
325.855	66.5
326.084	92.5
326.313	85.5
326.542	83.5
326.77	92.5
326.999	81.5
327.228	76.5
327.457	88.5
327.686	84.5
327.914	82.5
328.143	90.5
328.372	81.5
328.6	87.5
328.829	85.5
329.058	76.5
329.287	70.5
329.515	75.5
329.744	81.5
329.972	84.5
330.201	86.5
330.43	101.5
330.658	81.5
330.887	93.5
331.115	75.5
331.344	89.5
331.572	90.5
331.801	85.5
332.03	88.5
332.258	90.5
332.486	77.5
332.715	86.5
332.943	86.5
333.172	86.5
333.4	74.5
333.629	88.5
333.857	87.5
334.085	84.5
334.314	88.5
334.542	93.5
334.771	101.5
334.999	76.5
335.227	83.5
335.455	94.5
335.684	87.5
335.912	92.5
336.14	84.5
336.369	101.5
336.597	86.5
336.825	83.5
337.053	85.5
337.281	71.5
337.51	93.5
337.738	92.5
337.966	87.5
338.194	96.5
338.422	81.5
338.65	94.5
338.878	84.5
339.106	86.5
339.334	76.5
339.562	79.5
339.79	77.5
340.018	78.5
340.246	80.5
340.474	84.5
340.702	76.5
340.93	99.5
341.158	78.5
341.386	84.5
341.614	73.5
341.842	84.5
342.07	97.5
342.298	94.5
342.526	78.5
342.754	79.5
342.981	81.5
343.209	95.5
343.437	92.5
343.665	76.5
343.893	88.5
344.12	95.5
344.348	86.5
344.576	82.5
344.804	78.5
345.031	89.5
345.259	82.5
345.487	83.5
345.714	76.5
345.942	75.5
346.17	100.5
346.397	86.5
346.625	89.5
346.853	95.5
347.08	70.5
347.308	89.5
347.535	76.5
347.763	82.5
347.99	89.5
348.218	82.5
348.445	90.5
348.673	94.5
348.9	81.5
349.128	90.5
349.355	81.5
349.583	92.5
349.81	78.5
350.037	88.5
350.265	75.5
350.492	78.5
350.72	80.5
350.947	74.5
351.174	86.5
351.402	76.5
351.629	55.5
351.856	78.5
352.083	92.5
352.311	79.5
352.538	76.5
352.765	76.5
352.992	88.5
353.22	79.5
353.447	81.5
353.674	84.5
353.901	85.5
354.128	81.5
354.355	80.5
354.583	78.5
354.81	75.5
355.037	83.5
355.264	81.5
355.491	85.5
355.718	78.5
355.945	78.5
356.172	79.5
356.399	87.5
356.626	93.5
356.853	78.5
357.08	79.5
357.307	91.5
357.534	78.5
357.761	78.5
357.988	90.5
358.215	102.5
358.441	84.5
358.668	73.5
358.895	78.5
359.122	87.5
359.349	75.5
359.576	68.5
359.802	64.5
360.029	88.5
360.256	83.5
360.483	89.5
360.709	80.5
360.936	85.5
361.163	97.5
361.39	84.5
361.616	76.5
361.843	82.5
362.07	83.5
362.296	70.5
362.523	84.5
362.749	79.5
362.976	80.5
363.203	93.5
363.429	77.5
363.656	89.5
363.882	75.5
364.109	76.5
364.335	75.5
364.562	72.5
364.788	86.5
365.015	100.5
365.241	92.5
365.468	100.5
365.694	84.5
365.92	69.5
366.147	68.5
366.373	76.5
366.599	66.5
366.826	85.5
367.052	97.5
367.278	69.5
367.505	97.5
367.731	86.5
367.957	82.5
368.184	92.5
368.41	70.5
368.636	70.5
368.862	88.5
369.089	86.5
369.315	92.5
369.541	81.5
369.767	77.5
369.993	82.5
370.219	82.5
370.445	77.5
370.672	72.5
370.898	80.5
371.124	73.5
371.35	71.5
371.576	82.5
371.802	88.5
372.028	75.5
372.254	88.5
372.48	84.5
372.706	85.5
372.932	89.5
373.158	81.5
373.384	79.5
373.61	96.5
373.835	85.5
374.061	72.5
374.287	86.5
374.513	74.5
374.739	84.5
374.965	88.5
375.191	94.5
375.416	94.5
375.642	93.5
375.868	84.5
376.094	81.5
376.319	82.5
376.545	95.5
376.771	88.5
376.997	77.5
377.222	86.5
377.448	81.5
377.674	92.5
377.899	87.5
378.125	83.5
378.35	97.5
378.576	84.5
378.802	78.5
379.027	92.5
379.253	84.5
379.478	87.5
379.704	86.5
379.929	81.5
380.155	76.5
380.38	79.5
380.606	93.5
380.831	84.5
381.057	94.5
381.282	104.5
381.507	91.5
381.733	84.5
381.958	77.5
382.184	65.5
382.409	89.5
382.634	89.5
382.86	76.5
383.085	84.5
383.31	98.5
383.535	84.5
383.761	97.5
383.986	81.5
384.211	77.5
384.436	95.5
384.662	92.5
384.887	81.5
385.112	84.5
385.337	84.5
385.562	89.5
385.787	89.5
386.013	94.5
386.238	87.5
386.463	76.5
386.688	77.5
386.913	82.5
387.138	91.5
387.363	66.5
387.588	85.5
387.813	80.5
388.038	77.5
388.263	84.5
388.488	76.5
388.713	90.5
388.938	79.5
389.163	76.5
389.387	80.5
389.612	86.5
389.837	76.5
390.062	90.5
390.287	90.5
390.512	98.5
390.736	76.5
390.961	80.5
391.186	86.5
391.411	83.5
391.636	94.5
391.86	83.5
392.085	90.5
392.31	87.5
392.534	80.5
392.759	84.5
392.984	89.5
393.208	82.5
393.433	85.5
393.658	90.5
393.882	77.5
394.107	91.5
394.331	85.5
394.556	77.5
394.78	82.5
395.005	86.5
395.229	89.5
395.454	95.5
395.678	86.5
395.903	79.5
396.127	90.5
396.352	99.5
396.576	86.5
396.801	86.5
397.025	85.5
397.249	88.5
397.474	86.5
397.698	75.5
397.922	92.5
398.147	95.5
398.371	80.5
398.595	77.5
398.82	81.5
399.044	80.5
399.268	90.5
399.492	81.5
399.717	82.5
399.941	79.5
400.165	79.5
400.389	80.5
400.613	92.5
400.837	96.5
401.062	97.5
401.286	91.5
401.51	88.5
401.734	88.5
401.958	69.5
402.182	80.5
402.406	88.5
402.63	82.5
402.854	82.5
403.078	96.5
403.302	89.5
403.526	88.5
403.75	88.5
403.974	77.5
404.198	103.5
404.422	106.5
404.645	104.5
404.869	93.5
405.093	100.5
405.317	82.5
405.541	89.5
405.765	84.5
405.988	74.5
406.212	84.5
406.436	88.5
406.66	92.5
406.883	89.5
407.107	94.5
407.331	82.5
407.555	88.5
407.778	80.5
408.002	84.5
408.226	84.5
408.449	77.5
408.673	84.5
408.896	75.5
409.12	87.5
409.344	70.5
409.567	82.5
409.791	82.5
410.014	80.5
410.238	80.5
410.461	76.5
410.685	85.5
410.908	90.5
411.132	98.5
411.355	76.5
411.578	85.5
411.802	86.5
412.025	75.5
412.249	86.5
412.472	86.5
412.695	79.5
412.919	85.5
413.142	97.5
413.365	94.5
413.589	87.5
413.812	85.5
414.035	87.5
414.258	95.5
414.482	84.5
414.705	67.5
414.928	70.5
415.151	77.5
415.374	77.5
415.597	86.5
415.821	84.5
416.044	89.5
416.267	101.5
416.49	93.5
416.713	74.5
416.936	79.5
417.159	79.5
417.382	87.5
417.605	94.5
417.828	90.5
418.051	92.5
418.274	88.5
418.497	86.5
418.72	84.5
418.943	89.5
419.166	81.5
419.389	96.5
419.611	94.5
419.834	77.5
420.057	80.5
420.28	85.5
420.503	95.5
420.726	84.5
420.948	72.5
421.171	88.5
421.394	86.5
421.617	81.5
421.839	98.5
422.062	80.5
422.285	85.5
422.507	74.5
422.73	81.5
422.953	93.5
423.175	74.5
423.398	80.5
423.621	88.5
423.843	85.5
424.066	87.5
424.288	82.5
424.511	86.5
424.733	83.5
424.956	95.5
425.178	96.5
425.401	87.5
425.623	87.5
425.846	82.5
426.068	88.5
426.291	88.5
426.513	85.5
426.735	93.5
426.958	86.5
427.18	91.5
427.402	78.5
427.625	72.5
427.847	90.5
428.069	87.5
428.292	89.5
428.514	82.5
428.736	79.5
428.958	81.5
429.181	85.5
429.403	78.5
429.625	84.5
429.847	91.5
430.069	93.5
430.292	85.5
430.514	84.5
430.736	91.5
430.958	89.5
431.18	87.5
431.402	87.5
431.624	93.5
431.846	92.5
432.068	81.5
432.29	82.5
432.512	97.5
432.734	88.5
432.956	87.5
433.178	94.5
433.4	82.5
433.622	82.5
433.844	83.5
434.066	84.5
434.287	86.5
434.509	80.5
434.731	79.5
434.953	73.5
435.175	85.5
435.397	92.5
435.618	63.5
435.84	82.5
436.062	74.5
436.284	69.5
436.505	79.5
436.727	90.5
436.949	77.5
437.17	72.5
437.392	72.5
437.614	94.5
437.835	77.5
438.057	80.5
438.278	90.5
438.5	92.5
438.721	81.5
438.943	89.5
439.165	80.5
439.386	86.5
439.608	72.5
439.829	80.5
440.05	88.5
440.272	86.5
440.493	85.5
440.715	81.5
440.936	82.5
441.158	91.5
441.379	82.5
441.6	79.5
441.822	87.5
442.043	84.5
442.264	81.5
442.486	90.5
442.707	83.5
442.928	79.5
443.149	88.5
443.371	94.5
443.592	77.5
443.813	81.5
444.034	90.5
444.255	84.5
444.476	95.5
444.698	79.5
444.919	86.5
445.14	165.5
445.361	107.5
445.582	87.5
445.803	96.5
446.024	70.5
446.245	86.5
446.466	77.5
446.687	79.5
446.908	84.5
447.129	76.5
447.35	78.5
447.571	92.5
447.792	78.5
448.013	88.5
448.234	88.5
448.455	87.5
448.675	99.5
448.896	96.5
449.117	88.5
449.338	79.5
449.559	85.5
449.779	80.5
450	91.5
450.221	75.5
450.442	87.5
450.662	91.5
450.883	88.5
451.104	76.5
451.324	83.5
451.545	76.5
451.766	88.5
451.986	82.5
452.207	71.5
452.428	85.5
452.648	78.5
452.869	77.5
453.089	73.5
453.31	80.5
453.53	77.5
453.751	73.5
453.971	87.5
454.192	83.5
454.412	103.5
454.633	100.5
454.853	74.5
455.073	96.5
455.294	79.5
455.514	80.5
455.734	86.5
455.955	88.5
456.175	86.5
456.395	90.5
456.616	81.5
456.836	84.5
457.056	81.5
457.276	76.5
457.497	95.5
457.717	75.5
457.937	88.5
458.157	85.5
458.377	84.5
458.598	88.5
458.818	77.5
459.038	86.5
459.258	97.5
459.478	79.5
459.698	88.5
459.918	78.5
460.138	72.5
460.358	82.5
460.578	77.5
460.798	81.5
461.018	71.5
461.238	80.5
461.458	84.5
461.678	83.5
461.898	87.5
462.118	86.5
462.338	86.5
462.558	96.5
462.777	92.5
462.997	87.5
463.217	96.5
463.437	79.5
463.657	82.5
463.876	77.5
464.096	83.5
464.316	73.5
464.536	95.5
464.755	85.5
464.975	76.5
465.195	92.5
465.414	95.5
465.634	89.5
465.854	84.5
466.073	89.5
466.293	80.5
466.512	86.5
466.732	80.5
466.951	82.5
467.171	86.5
467.391	83.5
467.61	98.5
467.829	72.5
468.049	84.5
468.268	86.5
468.488	94.5
468.707	77.5
468.927	76.5
469.146	69.5
469.365	88.5
469.585	96.5
469.804	89.5
470.023	77.5
470.243	84.5
470.462	88.5
470.681	74.5
470.901	74.5
471.12	77.5
471.339	67.5
471.558	78.5
471.777	90.5
471.997	86.5
472.216	78.5
472.435	88.5
472.654	80.5
472.873	79.5
473.092	79.5
473.311	76.5
473.53	93.5
473.749	83.5
473.968	96.5
474.187	66.5
474.406	80.5
474.625	77.5
474.844	79.5
475.063	78.5
475.282	91.5
475.501	77.5
475.72	76.5
475.939	85.5
476.158	77.5
476.377	63.5
476.596	92.5
476.814	104.5
477.033	82.5
477.252	93.5
477.471	66.5
477.69	75.5
477.908	93.5
478.127	73.5
478.346	80.5
478.564	84.5
478.783	88.5
479.002	94.5
479.22	93.5
479.439	103.5
479.658	89.5
479.876	90.5
480.095	91.5
480.313	92.5
480.532	81.5
480.751	69.5
480.969	79.5
481.188	90.5
481.406	89.5
481.624	79.5
481.843	77.5
482.061	76.5
482.28	84.5
482.498	75.5
482.717	85.5
482.935	88.5
483.153	76.5
483.372	82.5
483.59	75.5
483.808	80.5
484.027	88.5
484.245	85.5
484.463	81.5
484.681	80.5
484.9	85.5
485.118	86.5
485.336	94.5
485.554	98.5
485.772	98.5
485.99	87.5
486.209	96.5
486.427	84.5
486.645	86.5
486.863	102.5
487.081	87.5
487.299	92.5
487.517	95.5
487.735	94.5
487.953	94.5
488.171	88.5
488.389	70.5
488.607	92.5
488.825	80.5
489.043	89.5
489.261	94.5
489.479	79.5
489.696	93.5
489.914	87.5
490.132	106.5
490.35	79.5
490.568	96.5
490.786	72.5
491.003	75.5
491.221	80.5
491.439	83.5
491.657	88.5
491.874	107.5
492.092	82.5
492.31	89.5
492.527	82.5
492.745	96.5
492.963	84.5
493.18	88.5
493.398	85.5
493.615	86.5
493.833	74.5
494.05	81.5
494.268	92.5
494.485	108.5
494.703	100.5
494.92	88.5
495.138	90.5
495.355	97.5
495.573	94.5
495.79	92.5
496.008	102.5
496.225	96.5
496.442	70.5
496.66	95.5
496.877	88.5
497.094	90.5
497.312	85.5
497.529	90.5
497.746	82.5
497.963	93.5
498.181	96.5
498.398	81.5
498.615	96.5
498.832	84.5
499.049	79.5
499.267	90.5
499.484	106.5
499.701	94.5
499.918	107.5
500.135	104.5
500.352	119.5
500.569	111.5
500.786	99.5
501.003	104.5
501.22	78.5
501.437	100.5
501.654	87.5
501.871	72.5
502.088	84.5
502.305	82.5
502.522	87.5
502.739	102.5
502.956	89.5
503.172	77.5
503.389	95.5
503.606	96.5
503.823	96.5
504.04	89.5
504.256	76.5
504.473	78.5
504.69	104.5
504.907	92.5
505.123	93.5
505.34	93.5
505.557	96.5
505.773	82.5
505.99	81.5
506.207	90.5
506.423	82.5
506.64	94.5
506.856	86.5
507.073	88.5
507.289	91.5
507.506	110.5
507.722	88.5
507.939	88.5
508.155	89.5
508.372	79.5
508.588	84.5
508.805	76.5
509.021	69.5
509.238	84.5
509.454	82.5
509.67	90.5
509.887	82.5
510.103	74.5
510.319	98.5
510.536	79.5
510.752	82.5
510.968	83.5
511.184	83.5
511.401	103.5
511.617	85.5
511.833	88.5
512.049	94.5
512.265	76.5
512.481	86.5
512.698	93.5
512.914	96.5
513.13	83.5
513.346	84.5
513.562	86.5
513.778	78.5
513.994	86.5
514.21	84.5
514.426	106.5
514.642	78.5
514.858	87.5
515.074	70.5
515.29	90.5
515.506	81.5
515.721	92.5
515.937	89.5
516.153	95.5
516.369	87.5
516.585	100.5
516.801	97.5
517.016	84.5
517.232	82.5
517.448	88.5
517.664	100.5
517.879	91.5
518.095	93.5
518.311	86.5
518.527	104.5
518.742	97.5
518.958	84.5
519.173	90.5
519.389	89.5
519.605	96.5
519.82	91.5
520.036	84.5
520.251	78.5
520.467	80.5
520.682	87.5
520.898	97.5
521.113	81.5
521.329	74.5
521.544	89.5
521.76	72.5
521.975	77.5
522.19	86.5
522.406	82.5
522.621	87.5
522.836	90.5
523.052	91.5
523.267	88.5
523.482	82.5
523.698	93.5
523.913	89.5
524.128	78.5
524.343	96.5
524.559	86.5
524.774	85.5
524.989	79.5
525.204	96.5
525.419	90.5
525.634	90.5
525.849	88.5
526.064	86.5
526.28	96.5
526.495	82.5
526.71	81.5
526.925	82.5
527.14	87.5
527.355	92.5
527.57	80.5
527.785	86.5
527.999	108.5
528.214	82.5
528.429	94.5
528.644	88.5
528.859	84.5
529.074	98.5
529.289	88.5
529.503	87.5
529.718	94.5
529.933	92.5
530.148	88.5
530.363	86.5
530.577	92.5
530.792	96.5
531.007	90.5
531.221	94.5
531.436	70.5
531.651	80.5
531.865	88.5
532.08	81.5
532.295	98.5
532.509	95.5
532.724	92.5
532.938	69.5
533.153	78.5
533.367	85.5
533.582	80.5
533.796	87.5
534.011	82.5
534.225	72.5
534.44	106.5
534.654	83.5
534.868	95.5
535.083	89.5
535.297	97.5
535.511	103.5
535.726	97.5
535.94	81.5
536.154	88.5
536.369	94.5
536.583	74.5
536.797	70.5
537.011	82.5
537.225	78.5
537.44	101.5
537.654	78.5
537.868	93.5
538.082	78.5
538.296	89.5
538.51	88.5
538.724	88.5
538.938	89.5
539.153	86.5
539.367	93.5
539.581	80.5
539.795	84.5
540.009	77.5
