Data from BG_HRD10591_022.txt Node
Date: Fri May 16 15:33:18 EDT 2025
User: Yrep
Spectrometer: HR+D1059
Trigger mode: 1
Integration Time (sec): 1.000000E-1
Scans to average: 1
Electric dark correction enabled: true
Nonlinearity correction enabled: false
Boxcar width: 0
XAxis mode: Wavelengths
Number of Pixels in Spectrum: 2048
>>>>>Begin Spectral Data<<<<<
223.165	-19.5
223.4	-19.5
223.635	-19.5
223.869	-20.5
224.104	-30.5
224.338	-21.5
224.573	-26.5
224.808	-3.5
225.042	-6.5
225.277	-7.5
225.511	1.5
225.746	13.5
225.98	17.5
226.215	20.5
226.449	9.5
226.683	14.5
226.918	22.5
227.152	36.5
227.387	34.5
227.621	38.5
227.856	60.5
228.09	53.5
228.324	45.5
228.559	69.5
228.793	65.5
229.027	70.5
229.262	58.5
229.496	77.5
229.73	75.5
229.964	70.5
230.199	78.5
230.433	77.5
230.667	89.5
230.901	89.5
231.136	82.5
231.37	81.5
231.604	90.5
231.838	73.5
232.072	80.5
232.306	85.5
232.541	84.5
232.775	89.5
233.009	80.5
233.243	78.5
233.477	91.5
233.711	101.5
233.945	90.5
234.179	86.5
234.413	101.5
234.647	78.5
234.881	76.5
235.115	81.5
235.349	85.5
235.583	97.5
235.817	97.5
236.051	78.5
236.285	74.5
236.519	74.5
236.753	76.5
236.987	76.5
237.221	78.5
237.455	88.5
237.689	78.5
237.922	77.5
238.156	78.5
238.39	82.5
238.624	75.5
238.858	85.5
239.091	74.5
239.325	80.5
239.559	86.5
239.793	77.5
240.027	76.5
240.26	73.5
240.494	86.5
240.728	65.5
240.961	76.5
241.195	93.5
241.429	79.5
241.662	81.5
241.896	79.5
242.13	79.5
242.363	88.5
242.597	85.5
242.83	82.5
243.064	82.5
243.298	76.5
243.531	79.5
243.765	78.5
243.998	78.5
244.232	90.5
244.465	71.5
244.699	83.5
244.932	91.5
245.166	66.5
245.399	72.5
245.633	74.5
245.866	76.5
246.099	76.5
246.333	87.5
246.566	90.5
246.8	71.5
247.033	89.5
247.266	89.5
247.5	78.5
247.733	110.5
247.966	78.5
248.2	78.5
248.433	82.5
248.666	80.5
248.899	85.5
249.133	77.5
249.366	76.5
249.599	75.5
249.832	76.5
250.066	81.5
250.299	82.5
250.532	85.5
250.765	80.5
250.998	74.5
251.231	82.5
251.465	70.5
251.698	78.5
251.931	84.5
252.164	82.5
252.397	75.5
252.63	89.5
252.863	73.5
253.096	82.5
253.329	80.5
253.562	91.5
253.795	88.5
254.028	83.5
254.261	87.5
254.494	75.5
254.727	80.5
254.96	82.5
255.193	75.5
255.426	85.5
255.659	82.5
255.892	91.5
256.124	76.5
256.357	88.5
256.59	99.5
256.823	82.5
257.056	81.5
257.289	86.5
257.521	95.5
257.754	82.5
257.987	78.5
258.22	100.5
258.452	100.5
258.685	86.5
258.918	80.5
259.151	77.5
259.383	83.5
259.616	86.5
259.849	89.5
260.081	94.5
260.314	62.5
260.547	76.5
260.779	90.5
261.012	84.5
261.244	90.5
261.477	82.5
261.71	70.5
261.942	82.5
262.175	93.5
262.407	90.5
262.64	72.5
262.872	96.5
263.105	89.5
263.337	99.5
263.57	82.5
263.802	94.5
264.035	90.5
264.267	77.5
264.499	71.5
264.732	84.5
264.964	87.5
265.197	84.5
265.429	78.5
265.661	83.5
265.894	84.5
266.126	91.5
266.358	92.5
266.591	74.5
266.823	94.5
267.055	74.5
267.287	81.5
267.52	76.5
267.752	84.5
267.984	102.5
268.216	92.5
268.448	89.5
268.681	97.5
268.913	87.5
269.145	100.5
269.377	90.5
269.609	96.5
269.841	91.5
270.073	92.5
270.306	84.5
270.538	77.5
270.77	80.5
271.002	85.5
271.234	72.5
271.466	83.5
271.698	80.5
271.93	86.5
272.162	84.5
272.394	100.5
272.626	96.5
272.858	82.5
273.09	88.5
273.322	73.5
273.553	82.5
273.785	81.5
274.017	92.5
274.249	92.5
274.481	80.5
274.713	66.5
274.945	83.5
275.176	87.5
275.408	92.5
275.64	83.5
275.872	76.5
276.104	81.5
276.335	88.5
276.567	90.5
276.799	80.5
277.031	82.5
277.262	81.5
277.494	82.5
277.726	91.5
277.957	94.5
278.189	84.5
278.421	96.5
278.652	110.5
278.884	78.5
279.115	92.5
279.347	91.5
279.579	86.5
279.81	100.5
280.042	77.5
280.273	83.5
280.505	83.5
280.736	81.5
280.968	92.5
281.199	85.5
281.431	98.5
281.662	93.5
281.894	90.5
282.125	99.5
282.356	86.5
282.588	96.5
282.819	91.5
283.051	81.5
283.282	97.5
283.513	87.5
283.745	92.5
283.976	88.5
284.207	85.5
284.439	96.5
284.67	86.5
284.901	98.5
285.132	84.5
285.364	79.5
285.595	84.5
285.826	86.5
286.057	89.5
286.288	80.5
286.52	93.5
286.751	75.5
286.982	94.5
287.213	83.5
287.444	91.5
287.675	94.5
287.906	88.5
288.138	100.5
288.369	90.5
288.6	100.5
288.831	85.5
289.062	93.5
289.293	88.5
289.524	86.5
289.755	88.5
289.986	85.5
290.217	82.5
290.448	90.5
290.679	93.5
290.91	85.5
291.141	93.5
291.371	94.5
291.602	89.5
291.833	93.5
292.064	105.5
292.295	86.5
292.526	93.5
292.757	86.5
292.987	91.5
293.218	88.5
293.449	92.5
293.68	82.5
293.91	90.5
294.141	82.5
294.372	90.5
294.603	98.5
294.833	79.5
295.064	90.5
295.295	80.5
295.525	93.5
295.756	84.5
295.987	86.5
296.217	97.5
296.448	90.5
296.679	73.5
296.909	92.5
297.14	97.5
297.37	85.5
297.601	90.5
297.831	93.5
298.062	92.5
298.292	89.5
298.523	85.5
298.753	92.5
298.984	93.5
299.214	72.5
299.445	97.5
299.675	97.5
299.905	110.5
300.136	84.5
300.366	83.5
300.597	77.5
300.827	85.5
301.057	92.5
301.288	87.5
301.518	85.5
301.748	92.5
301.979	99.5
302.209	91.5
302.439	92.5
302.669	100.5
302.9	95.5
303.13	102.5
303.36	92.5
303.59	87.5
303.82	86.5
304.051	92.5
304.281	96.5
304.511	87.5
304.741	91.5
304.971	92.5
305.201	99.5
305.431	88.5
305.661	85.5
305.891	76.5
306.121	91.5
306.352	88.5
306.582	88.5
306.812	78.5
307.042	82.5
307.272	95.5
307.502	92.5
307.731	88.5
307.961	84.5
308.191	107.5
308.421	82.5
308.651	86.5
308.881	88.5
309.111	90.5
309.341	90.5
309.571	97.5
309.8	91.5
310.03	80.5
310.26	92.5
310.49	87.5
310.72	81.5
310.949	85.5
311.179	104.5
311.409	106.5
311.639	96.5
311.868	99.5
312.098	99.5
312.328	111.5
312.557	92.5
312.787	86.5
313.017	73.5
313.246	94.5
313.476	77.5
313.706	105.5
313.935	96.5
314.165	86.5
314.394	99.5
314.624	84.5
314.853	91.5
315.083	102.5
315.312	89.5
315.542	82.5
315.771	96.5
316.001	96.5
316.23	111.5
316.46	88.5
316.689	93.5
316.919	92.5
317.148	86.5
317.377	109.5
317.607	91.5
317.836	79.5
318.065	83.5
318.295	88.5
318.524	92.5
318.753	86.5
318.983	85.5
319.212	86.5
319.441	99.5
319.67	92.5
319.9	83.5
320.129	85.5
320.358	85.5
320.587	92.5
320.816	90.5
321.046	78.5
321.275	90.5
321.504	89.5
321.733	87.5
321.962	78.5
322.191	85.5
322.42	89.5
322.649	90.5
322.878	83.5
323.108	96.5
323.337	82.5
323.566	88.5
323.795	98.5
324.024	81.5
324.253	90.5
324.482	90.5
324.71	86.5
324.939	77.5
325.168	94.5
325.397	84.5
325.626	89.5
325.855	76.5
326.084	85.5
326.313	89.5
326.542	81.5
326.77	108.5
326.999	90.5
327.228	86.5
327.457	88.5
327.686	92.5
327.914	100.5
328.143	83.5
328.372	90.5
328.6	76.5
328.829	76.5
329.058	88.5
329.287	83.5
329.515	101.5
329.744	87.5
329.972	71.5
330.201	98.5
330.43	84.5
330.658	86.5
330.887	73.5
331.115	102.5
331.344	91.5
331.572	75.5
331.801	90.5
332.03	92.5
332.258	90.5
332.486	88.5
332.715	100.5
332.943	99.5
333.172	104.5
333.4	98.5
333.629	85.5
333.857	93.5
334.085	100.5
334.314	95.5
334.542	105.5
334.771	86.5
334.999	90.5
335.227	82.5
335.455	99.5
335.684	98.5
335.912	88.5
336.14	99.5
336.369	97.5
336.597	89.5
336.825	100.5
337.053	84.5
337.281	95.5
337.51	80.5
337.738	103.5
337.966	104.5
338.194	97.5
338.422	86.5
338.65	100.5
338.878	101.5
339.106	101.5
339.334	96.5
339.562	79.5
339.79	81.5
340.018	101.5
340.246	97.5
340.474	89.5
340.702	96.5
340.93	97.5
341.158	98.5
341.386	107.5
341.614	91.5
341.842	81.5
342.07	83.5
342.298	81.5
342.526	79.5
342.754	89.5
342.981	92.5
343.209	90.5
343.437	96.5
343.665	87.5
343.893	90.5
344.12	109.5
344.348	86.5
344.576	94.5
344.804	72.5
345.031	91.5
345.259	90.5
345.487	106.5
345.714	97.5
345.942	76.5
346.17	84.5
346.397	90.5
346.625	80.5
346.853	89.5
347.08	86.5
347.308	110.5
347.535	97.5
347.763	86.5
347.99	97.5
348.218	108.5
348.445	90.5
348.673	97.5
348.9	92.5
349.128	88.5
349.355	77.5
349.583	86.5
349.81	91.5
350.037	82.5
350.265	85.5
350.492	82.5
350.72	80.5
350.947	80.5
351.174	82.5
351.402	84.5
351.629	90.5
351.856	91.5
352.083	97.5
352.311	95.5
352.538	70.5
352.765	91.5
352.992	92.5
353.22	98.5
353.447	88.5
353.674	86.5
353.901	84.5
354.128	91.5
354.355	76.5
354.583	94.5
354.81	85.5
355.037	91.5
355.264	89.5
355.491	88.5
355.718	85.5
355.945	99.5
356.172	96.5
356.399	91.5
356.626	84.5
356.853	88.5
357.08	90.5
357.307	92.5
357.534	85.5
357.761	98.5
357.988	93.5
358.215	90.5
358.441	97.5
358.668	80.5
358.895	90.5
359.122	82.5
359.349	96.5
359.576	91.5
359.802	68.5
360.029	101.5
360.256	86.5
360.483	90.5
360.709	88.5
360.936	94.5
361.163	76.5
361.39	84.5
361.616	93.5
361.843	91.5
362.07	93.5
362.296	97.5
362.523	92.5
362.749	91.5
362.976	84.5
363.203	88.5
363.429	102.5
363.656	89.5
363.882	74.5
364.109	82.5
364.335	89.5
364.562	75.5
364.788	84.5
365.015	99.5
365.241	91.5
365.468	97.5
365.694	72.5
365.92	98.5
366.147	97.5
366.373	91.5
366.599	80.5
366.826	78.5
367.052	96.5
367.278	87.5
367.505	92.5
367.731	92.5
367.957	85.5
368.184	75.5
368.41	85.5
368.636	84.5
368.862	111.5
369.089	85.5
369.315	87.5
369.541	88.5
369.767	80.5
369.993	92.5
370.219	93.5
370.445	83.5
370.672	81.5
370.898	80.5
371.124	81.5
371.35	91.5
371.576	86.5
371.802	95.5
372.028	93.5
372.254	77.5
372.48	77.5
372.706	83.5
372.932	90.5
373.158	77.5
373.384	95.5
373.61	96.5
373.835	96.5
374.061	85.5
374.287	101.5
374.513	89.5
374.739	81.5
374.965	94.5
375.191	110.5
375.416	84.5
375.642	78.5
375.868	78.5
376.094	93.5
376.319	100.5
376.545	90.5
376.771	90.5
376.997	90.5
377.222	88.5
377.448	78.5
377.674	77.5
377.899	89.5
378.125	92.5
378.35	96.5
378.576	90.5
378.802	83.5
379.027	93.5
379.253	104.5
379.478	91.5
379.704	78.5
379.929	85.5
380.155	73.5
380.38	85.5
380.606	70.5
380.831	98.5
381.057	104.5
381.282	96.5
381.507	84.5
381.733	90.5
381.958	86.5
382.184	82.5
382.409	92.5
382.634	96.5
382.86	96.5
383.085	92.5
383.31	101.5
383.535	96.5
383.761	93.5
383.986	85.5
384.211	105.5
384.436	88.5
384.662	86.5
384.887	98.5
385.112	98.5
385.337	100.5
385.562	82.5
385.787	77.5
386.013	84.5
386.238	104.5
386.463	74.5
386.688	96.5
386.913	82.5
387.138	85.5
387.363	99.5
387.588	99.5
387.813	90.5
388.038	101.5
388.263	79.5
388.488	89.5
388.713	86.5
388.938	96.5
389.163	101.5
389.387	78.5
389.612	81.5
389.837	89.5
390.062	84.5
390.287	92.5
390.512	86.5
390.736	82.5
390.961	110.5
391.186	76.5
391.411	84.5
391.636	94.5
391.86	96.5
392.085	80.5
392.31	91.5
392.534	77.5
392.759	94.5
392.984	105.5
393.208	92.5
393.433	79.5
393.658	96.5
393.882	89.5
394.107	101.5
394.331	87.5
394.556	96.5
394.78	97.5
395.005	87.5
395.229	86.5
395.454	88.5
395.678	100.5
395.903	97.5
396.127	91.5
396.352	94.5
396.576	89.5
396.801	71.5
397.025	94.5
397.249	83.5
397.474	94.5
397.698	98.5
397.922	82.5
398.147	83.5
398.371	83.5
398.595	83.5
398.82	94.5
399.044	93.5
399.268	106.5
399.492	92.5
399.717	95.5
399.941	88.5
400.165	98.5
400.389	87.5
400.613	86.5
400.837	93.5
401.062	81.5
401.286	97.5
401.51	111.5
401.734	89.5
401.958	95.5
402.182	84.5
402.406	95.5
402.63	88.5
402.854	92.5
403.078	88.5
403.302	102.5
403.526	101.5
403.75	89.5
403.974	82.5
404.198	89.5
404.422	97.5
404.645	88.5
404.869	104.5
405.093	88.5
405.317	98.5
405.541	95.5
405.765	89.5
405.988	83.5
406.212	88.5
406.436	89.5
406.66	93.5
406.883	100.5
407.107	89.5
407.331	87.5
407.555	100.5
407.778	96.5
408.002	89.5
408.226	85.5
408.449	89.5
408.673	85.5
408.896	90.5
409.12	96.5
409.344	108.5
409.567	103.5
409.791	107.5
410.014	104.5
410.238	89.5
410.461	78.5
410.685	93.5
410.908	100.5
411.132	97.5
411.355	90.5
411.578	104.5
411.802	85.5
412.025	86.5
412.249	94.5
412.472	95.5
412.695	91.5
412.919	87.5
413.142	99.5
413.365	84.5
413.589	84.5
413.812	94.5
414.035	94.5
414.258	89.5
414.482	86.5
414.705	88.5
414.928	78.5
415.151	100.5
415.374	90.5
415.597	90.5
415.821	94.5
416.044	98.5
416.267	98.5
416.49	88.5
416.713	93.5
416.936	84.5
417.159	89.5
417.382	91.5
417.605	94.5
417.828	75.5
418.051	81.5
418.274	90.5
418.497	92.5
418.72	94.5
418.943	96.5
419.166	96.5
419.389	105.5
419.611	85.5
419.834	95.5
420.057	89.5
420.28	82.5
420.503	93.5
420.726	92.5
420.948	90.5
421.171	88.5
421.394	86.5
421.617	90.5
421.839	98.5
422.062	78.5
422.285	87.5
422.507	80.5
422.73	98.5
422.953	81.5
423.175	81.5
423.398	99.5
423.621	89.5
423.843	113.5
424.066	93.5
424.288	92.5
424.511	90.5
424.733	99.5
424.956	94.5
425.178	93.5
425.401	87.5
425.623	84.5
425.846	89.5
426.068	81.5
426.291	90.5
426.513	96.5
426.735	94.5
426.958	97.5
427.18	80.5
427.402	91.5
427.625	78.5
427.847	90.5
428.069	87.5
428.292	92.5
428.514	99.5
428.736	105.5
428.958	90.5
429.181	100.5
429.403	97.5
429.625	85.5
429.847	86.5
430.069	92.5
430.292	89.5
430.514	93.5
430.736	83.5
430.958	92.5
431.18	94.5
431.402	82.5
431.624	91.5
431.846	85.5
432.068	106.5
432.29	86.5
432.512	108.5
432.734	91.5
432.956	97.5
433.178	100.5
433.4	86.5
433.622	84.5
433.844	83.5
434.066	83.5
434.287	93.5
434.509	86.5
434.731	100.5
434.953	93.5
435.175	112.5
435.397	92.5
435.618	106.5
435.84	102.5
436.062	93.5
436.284	93.5
436.505	88.5
436.727	86.5
436.949	99.5
437.17	80.5
437.392	90.5
437.614	65.5
437.835	97.5
438.057	72.5
438.278	98.5
438.5	69.5
438.721	90.5
438.943	97.5
439.165	74.5
439.386	92.5
439.608	81.5
439.829	80.5
440.05	90.5
440.272	83.5
440.493	104.5
440.715	93.5
440.936	92.5
441.158	98.5
441.379	90.5
441.6	88.5
441.822	100.5
442.043	98.5
442.264	101.5
442.486	81.5
442.707	96.5
442.928	91.5
443.149	89.5
443.371	96.5
443.592	93.5
443.813	94.5
444.034	88.5
444.255	86.5
444.476	104.5
444.698	89.5
444.919	88.5
445.14	147.5
445.361	123.5
445.582	97.5
445.803	85.5
446.024	93.5
446.245	90.5
446.466	85.5
446.687	95.5
446.908	100.5
447.129	95.5
447.35	86.5
447.571	88.5
447.792	93.5
448.013	85.5
448.234	103.5
448.455	90.5
448.675	79.5
448.896	85.5
449.117	81.5
449.338	89.5
449.559	83.5
449.779	77.5
450	100.5
450.221	100.5
450.442	87.5
450.662	77.5
450.883	82.5
451.104	106.5
451.324	88.5
451.545	89.5
451.766	89.5
451.986	77.5
452.207	89.5
452.428	101.5
452.648	96.5
452.869	103.5
453.089	100.5
453.31	97.5
453.53	93.5
453.751	97.5
453.971	79.5
454.192	89.5
454.412	88.5
454.633	89.5
454.853	102.5
455.073	88.5
455.294	100.5
455.514	93.5
455.734	78.5
455.955	104.5
456.175	67.5
456.395	95.5
456.616	81.5
456.836	87.5
457.056	90.5
457.276	88.5
457.497	78.5
457.717	95.5
457.937	88.5
458.157	79.5
458.377	97.5
458.598	96.5
458.818	83.5
459.038	102.5
459.258	96.5
459.478	80.5
459.698	83.5
459.918	97.5
460.138	93.5
460.358	89.5
460.578	96.5
460.798	81.5
461.018	81.5
461.238	98.5
461.458	93.5
461.678	90.5
461.898	91.5
462.118	97.5
462.338	102.5
462.558	84.5
462.777	91.5
462.997	97.5
463.217	114.5
463.437	91.5
463.657	95.5
463.876	79.5
464.096	108.5
464.316	108.5
464.536	84.5
464.755	108.5
464.975	91.5
465.195	96.5
465.414	77.5
465.634	82.5
465.854	78.5
466.073	77.5
466.293	96.5
466.512	90.5
466.732	92.5
466.951	95.5
467.171	83.5
467.391	76.5
467.61	89.5
467.829	85.5
468.049	96.5
468.268	95.5
468.488	85.5
468.707	92.5
468.927	94.5
469.146	91.5
469.365	87.5
469.585	97.5
469.804	84.5
470.023	77.5
470.243	80.5
470.462	82.5
470.681	93.5
470.901	68.5
471.12	82.5
471.339	80.5
471.558	83.5
471.777	84.5
471.997	92.5
472.216	81.5
472.435	88.5
472.654	96.5
472.873	96.5
473.092	118.5
473.311	94.5
473.53	106.5
473.749	97.5
473.968	93.5
474.187	96.5
474.406	82.5
474.625	101.5
474.844	95.5
475.063	88.5
475.282	86.5
475.501	88.5
475.72	96.5
475.939	108.5
476.158	87.5
476.377	94.5
476.596	79.5
476.814	90.5
477.033	80.5
477.252	88.5
477.471	96.5
477.69	101.5
477.908	85.5
478.127	80.5
478.346	100.5
478.564	88.5
478.783	90.5
479.002	105.5
479.22	79.5
479.439	94.5
479.658	77.5
479.876	85.5
480.095	88.5
480.313	89.5
480.532	88.5
480.751	100.5
480.969	95.5
481.188	93.5
481.406	73.5
481.624	86.5
481.843	85.5
482.061	88.5
482.28	80.5
482.498	83.5
482.717	83.5
482.935	80.5
483.153	96.5
483.372	95.5
483.59	99.5
483.808	106.5
484.027	96.5
484.245	97.5
484.463	97.5
484.681	97.5
484.9	84.5
485.118	94.5
485.336	82.5
485.554	106.5
485.772	88.5
485.99	95.5
486.209	98.5
486.427	84.5
486.645	87.5
486.863	85.5
487.081	98.5
487.299	81.5
487.517	78.5
487.735	99.5
487.953	103.5
488.171	90.5
488.389	99.5
488.607	80.5
488.825	79.5
489.043	90.5
489.261	86.5
489.479	100.5
489.696	87.5
489.914	96.5
490.132	88.5
490.35	110.5
490.568	91.5
490.786	84.5
491.003	107.5
491.221	97.5
491.439	79.5
491.657	98.5
491.874	100.5
492.092	97.5
492.31	84.5
492.527	93.5
492.745	96.5
492.963	81.5
493.18	99.5
493.398	93.5
493.615	80.5
493.833	97.5
494.05	92.5
494.268	87.5
494.485	111.5
494.703	100.5
494.92	86.5
495.138	104.5
495.355	75.5
495.573	93.5
495.79	104.5
496.008	91.5
496.225	92.5
496.442	92.5
496.66	101.5
496.877	85.5
497.094	89.5
497.312	88.5
497.529	92.5
497.746	96.5
497.963	106.5
498.181	86.5
498.398	92.5
498.615	99.5
498.832	88.5
499.049	88.5
499.267	110.5
499.484	92.5
499.701	106.5
499.918	107.5
500.135	105.5
500.352	116.5
500.569	108.5
500.786	112.5
501.003	106.5
501.22	89.5
501.437	102.5
501.654	92.5
501.871	111.5
502.088	95.5
502.305	96.5
502.522	82.5
502.739	87.5
502.956	99.5
503.172	89.5
503.389	85.5
503.606	98.5
503.823	101.5
504.04	85.5
504.256	93.5
504.473	80.5
504.69	95.5
504.907	89.5
505.123	96.5
505.34	94.5
505.557	86.5
505.773	86.5
505.99	110.5
506.207	104.5
506.423	93.5
506.64	90.5
506.856	72.5
507.073	95.5
507.289	84.5
507.506	89.5
507.722	96.5
507.939	79.5
508.155	90.5
508.372	88.5
508.588	99.5
508.805	106.5
509.021	87.5
509.238	76.5
509.454	77.5
509.67	100.5
509.887	98.5
510.103	88.5
510.319	92.5
510.536	74.5
510.752	93.5
510.968	86.5
511.184	100.5
511.401	96.5
511.617	67.5
511.833	78.5
512.049	80.5
512.265	88.5
512.481	88.5
512.698	103.5
512.914	95.5
513.13	88.5
513.346	80.5
513.562	97.5
513.778	94.5
513.994	106.5
514.21	98.5
514.426	75.5
514.642	101.5
514.858	94.5
515.074	97.5
515.29	85.5
515.506	80.5
515.721	76.5
515.937	91.5
516.153	86.5
516.369	90.5
516.585	101.5
516.801	93.5
517.016	90.5
517.232	93.5
517.448	89.5
517.664	113.5
517.879	95.5
518.095	88.5
518.311	98.5
518.527	92.5
518.742	92.5
518.958	101.5
519.173	87.5
519.389	104.5
519.605	88.5
519.82	73.5
520.036	91.5
520.251	96.5
520.467	87.5
520.682	89.5
520.898	101.5
521.113	75.5
521.329	87.5
521.544	88.5
521.76	92.5
521.975	81.5
522.19	92.5
522.406	96.5
522.621	88.5
522.836	99.5
523.052	94.5
523.267	100.5
523.482	91.5
523.698	93.5
523.913	97.5
524.128	83.5
524.343	87.5
524.559	90.5
524.774	95.5
524.989	80.5
525.204	99.5
525.419	87.5
525.634	100.5
525.849	94.5
526.064	100.5
526.28	90.5
526.495	77.5
526.71	93.5
526.925	90.5
527.14	85.5
527.355	88.5
527.57	93.5
527.785	82.5
527.999	86.5
528.214	100.5
528.429	94.5
528.644	91.5
528.859	99.5
529.074	99.5
529.289	93.5
529.503	82.5
529.718	97.5
529.933	87.5
530.148	76.5
530.363	88.5
530.577	94.5
530.792	92.5
531.007	93.5
531.221	79.5
531.436	81.5
531.651	100.5
531.865	104.5
532.08	100.5
532.295	84.5
532.509	98.5
532.724	85.5
532.938	89.5
533.153	98.5
533.367	91.5
533.582	106.5
533.796	80.5
534.011	85.5
534.225	101.5
534.44	92.5
534.654	100.5
534.868	84.5
535.083	95.5
535.297	92.5
535.511	85.5
535.726	102.5
535.94	101.5
536.154	81.5
536.369	92.5
536.583	89.5
536.797	93.5
537.011	91.5
537.225	91.5
537.44	79.5
537.654	91.5
537.868	78.5
538.082	83.5
538.296	92.5
