Data from BG_HRD10591_090.txt Node
Date: Fri May 16 15:33:52 EDT 2025
User: Yrep
Spectrometer: HR+D1059
Trigger mode: 1
Integration Time (sec): 1.000000E-1
Scans to average: 1
Electric dark correction enabled: true
Nonlinearity correction enabled: false
Boxcar width: 0
XAxis mode: Wavelengths
Number of Pixels in Spectrum: 2048
>>>>>Begin Spectral Data<<<<<
223.165	-21.75
223.4	-21.75
223.635	-21.75
223.869	-31.75
224.104	-18.75
224.338	-7.75
224.573	-7.75
224.808	-15.75
225.042	-13.75
225.277	-23.75
225.511	3.25
225.746	7.25
225.98	20.25
226.215	13.25
226.449	14.25
226.683	23.25
226.918	32.25
227.152	27.25
227.387	32.25
227.621	38.25
227.856	56.25
228.09	44.25
228.324	53.25
228.559	56.25
228.793	69.25
229.027	69.25
229.262	70.25
229.496	68.25
229.73	79.25
229.964	76.25
230.199	65.25
230.433	69.25
230.667	76.25
230.901	70.25
231.136	87.25
231.37	86.25
231.604	77.25
231.838	74.25
232.072	86.25
232.306	74.25
232.541	75.25
232.775	88.25
233.009	58.25
233.243	98.25
233.477	75.25
233.711	87.25
233.945	86.25
234.179	80.25
234.413	73.25
234.647	77.25
234.881	90.25
235.115	84.25
235.349	74.25
235.583	76.25
235.817	75.25
236.051	93.25
236.285	75.25
236.519	66.25
236.753	67.25
236.987	67.25
237.221	65.25
237.455	78.25
237.689	82.25
237.922	73.25
238.156	74.25
238.39	86.25
238.624	62.25
238.858	72.25
239.091	88.25
239.325	75.25
239.559	76.25
239.793	88.25
240.027	71.25
240.26	76.25
240.494	84.25
240.728	62.25
240.961	80.25
241.195	82.25
241.429	77.25
241.662	54.25
241.896	70.25
242.13	83.25
242.363	82.25
242.597	61.25
242.83	71.25
243.064	70.25
243.298	83.25
243.531	60.25
243.765	74.25
243.998	84.25
244.232	76.25
244.465	74.25
244.699	75.25
244.932	59.25
245.166	77.25
245.399	82.25
245.633	87.25
245.866	75.25
246.099	82.25
246.333	62.25
246.566	76.25
246.8	86.25
247.033	82.25
247.266	67.25
247.5	73.25
247.733	82.25
247.966	87.25
248.2	78.25
248.433	77.25
248.666	76.25
248.899	77.25
249.133	86.25
249.366	62.25
249.599	76.25
249.832	72.25
250.066	77.25
250.299	76.25
250.532	82.25
250.765	75.25
250.998	80.25
251.231	83.25
251.465	65.25
251.698	82.25
251.931	74.25
252.164	73.25
252.397	84.25
252.63	81.25
252.863	74.25
253.096	77.25
253.329	78.25
253.562	86.25
253.795	83.25
254.028	86.25
254.261	72.25
254.494	64.25
254.727	87.25
254.96	81.25
255.193	83.25
255.426	86.25
255.659	81.25
255.892	90.25
256.124	75.25
256.357	72.25
256.59	65.25
256.823	86.25
257.056	74.25
257.289	74.25
257.521	71.25
257.754	84.25
257.987	74.25
258.22	95.25
258.452	67.25
258.685	86.25
258.918	93.25
259.151	92.25
259.383	96.25
259.616	87.25
259.849	83.25
260.081	93.25
260.314	76.25
260.547	59.25
260.779	76.25
261.012	70.25
261.244	77.25
261.477	87.25
261.71	84.25
261.942	84.25
262.175	71.25
262.407	74.25
262.64	80.25
262.872	81.25
263.105	62.25
263.337	91.25
263.57	87.25
263.802	87.25
264.035	88.25
264.267	74.25
264.499	77.25
264.732	66.25
264.964	74.25
265.197	87.25
265.429	96.25
265.661	88.25
265.894	91.25
266.126	83.25
266.358	84.25
266.591	79.25
266.823	65.25
267.055	83.25
267.287	80.25
267.52	88.25
267.752	88.25
267.984	94.25
268.216	66.25
268.448	86.25
268.681	89.25
268.913	84.25
269.145	82.25
269.377	90.25
269.609	79.25
269.841	76.25
270.073	79.25
270.306	72.25
270.538	94.25
270.77	88.25
271.002	82.25
271.234	82.25
271.466	72.25
271.698	77.25
271.93	80.25
272.162	71.25
272.394	83.25
272.626	76.25
272.858	81.25
273.09	72.25
273.322	76.25
273.553	70.25
273.785	83.25
274.017	74.25
274.249	77.25
274.481	85.25
274.713	82.25
274.945	87.25
275.176	76.25
275.408	66.25
275.64	82.25
275.872	77.25
276.104	78.25
276.335	72.25
276.567	73.25
276.799	87.25
277.031	89.25
277.262	93.25
277.494	68.25
277.726	85.25
277.957	84.25
278.189	70.25
278.421	72.25
278.652	69.25
278.884	82.25
279.115	82.25
279.347	72.25
279.579	84.25
279.81	80.25
280.042	94.25
280.273	82.25
280.505	88.25
280.736	81.25
280.968	66.25
281.199	87.25
281.431	96.25
281.662	90.25
281.894	74.25
282.125	84.25
282.356	92.25
282.588	86.25
282.819	86.25
283.051	82.25
283.282	81.25
283.513	86.25
283.745	88.25
283.976	79.25
284.207	90.25
284.439	82.25
284.67	84.25
284.901	76.25
285.132	84.25
285.364	79.25
285.595	91.25
285.826	83.25
286.057	80.25
286.288	74.25
286.52	74.25
286.751	88.25
286.982	87.25
287.213	82.25
287.444	95.25
287.675	76.25
287.906	91.25
288.138	87.25
288.369	99.25
288.6	70.25
288.831	87.25
289.062	93.25
289.293	74.25
289.524	81.25
289.755	75.25
289.986	107.25
290.217	94.25
290.448	74.25
290.679	86.25
290.91	75.25
291.141	97.25
291.371	83.25
291.602	98.25
291.833	88.25
292.064	83.25
292.295	92.25
292.526	97.25
292.757	81.25
292.987	84.25
293.218	110.25
293.449	74.25
293.68	90.25
293.91	80.25
294.141	79.25
294.372	87.25
294.603	92.25
294.833	78.25
295.064	90.25
295.295	89.25
295.525	81.25
295.756	99.25
295.987	83.25
296.217	77.25
296.448	82.25
296.679	82.25
296.909	83.25
297.14	96.25
297.37	88.25
297.601	78.25
297.831	87.25
298.062	90.25
298.292	86.25
298.523	86.25
298.753	85.25
298.984	78.25
299.214	95.25
299.445	88.25
299.675	87.25
299.905	81.25
300.136	68.25
300.366	74.25
300.597	90.25
300.827	88.25
301.057	82.25
301.288	86.25
301.518	82.25
301.748	66.25
301.979	114.25
302.209	74.25
302.439	77.25
302.669	80.25
302.9	83.25
303.13	77.25
303.36	90.25
303.59	91.25
303.82	91.25
304.051	68.25
304.281	84.25
304.511	80.25
304.741	79.25
304.971	84.25
305.201	84.25
305.431	91.25
305.661	94.25
305.891	87.25
306.121	99.25
306.352	91.25
306.582	96.25
306.812	80.25
307.042	97.25
307.272	75.25
307.502	83.25
307.731	89.25
307.961	87.25
308.191	80.25
308.421	86.25
308.651	109.25
308.881	84.25
309.111	92.25
309.341	102.25
309.571	75.25
309.8	92.25
310.03	75.25
310.26	72.25
310.49	92.25
310.72	92.25
310.949	97.25
311.179	91.25
311.409	72.25
311.639	89.25
311.868	89.25
312.098	80.25
312.328	82.25
312.557	78.25
312.787	90.25
313.017	92.25
313.246	95.25
313.476	94.25
313.706	72.25
313.935	75.25
314.165	83.25
314.394	75.25
314.624	87.25
314.853	82.25
315.083	77.25
315.312	88.25
315.542	89.25
315.771	89.25
316.001	102.25
316.23	89.25
316.46	80.25
316.689	95.25
316.919	85.25
317.148	72.25
317.377	84.25
317.607	78.25
317.836	87.25
318.065	88.25
318.295	80.25
318.524	82.25
318.753	88.25
318.983	76.25
319.212	86.25
319.441	89.25
319.67	84.25
319.9	78.25
320.129	98.25
320.358	84.25
320.587	79.25
320.816	71.25
321.046	90.25
321.275	91.25
321.504	80.25
321.733	87.25
321.962	78.25
322.191	66.25
322.42	84.25
322.649	85.25
322.878	91.25
323.108	99.25
323.337	89.25
323.566	84.25
323.795	76.25
324.024	94.25
324.253	84.25
324.482	87.25
324.71	91.25
324.939	92.25
325.168	74.25
325.397	86.25
325.626	99.25
325.855	87.25
326.084	77.25
326.313	80.25
326.542	77.25
326.77	78.25
326.999	74.25
327.228	93.25
327.457	90.25
327.686	113.25
327.914	84.25
328.143	82.25
328.372	84.25
328.6	98.25
328.829	87.25
329.058	82.25
329.287	78.25
329.515	89.25
329.744	95.25
329.972	80.25
330.201	72.25
330.43	71.25
330.658	74.25
330.887	82.25
331.115	89.25
331.344	88.25
331.572	76.25
331.801	88.25
332.03	94.25
332.258	82.25
332.486	84.25
332.715	97.25
332.943	80.25
333.172	99.25
333.4	82.25
333.629	83.25
333.857	75.25
334.085	75.25
334.314	74.25
334.542	94.25
334.771	76.25
334.999	82.25
335.227	80.25
335.455	92.25
335.684	89.25
335.912	91.25
336.14	88.25
336.369	88.25
336.597	68.25
336.825	93.25
337.053	83.25
337.281	86.25
337.51	92.25
337.738	82.25
337.966	78.25
338.194	86.25
338.422	79.25
338.65	82.25
338.878	74.25
339.106	93.25
339.334	89.25
339.562	89.25
339.79	102.25
340.018	86.25
340.246	74.25
340.474	78.25
340.702	83.25
340.93	66.25
341.158	83.25
341.386	76.25
341.614	82.25
341.842	90.25
342.07	89.25
342.298	90.25
342.526	91.25
342.754	99.25
342.981	84.25
343.209	78.25
343.437	98.25
343.665	90.25
343.893	84.25
344.12	90.25
344.348	91.25
344.576	90.25
344.804	98.25
345.031	79.25
345.259	82.25
345.487	76.25
345.714	80.25
345.942	85.25
346.17	78.25
346.397	82.25
346.625	88.25
346.853	84.25
347.08	71.25
347.308	82.25
347.535	111.25
347.763	78.25
347.99	78.25
348.218	71.25
348.445	76.25
348.673	86.25
348.9	74.25
349.128	88.25
349.355	72.25
349.583	87.25
349.81	79.25
350.037	75.25
350.265	76.25
350.492	82.25
350.72	79.25
350.947	78.25
351.174	83.25
351.402	84.25
351.629	96.25
351.856	95.25
352.083	88.25
352.311	96.25
352.538	76.25
352.765	90.25
352.992	88.25
353.22	82.25
353.447	83.25
353.674	88.25
353.901	82.25
354.128	76.25
354.355	76.25
354.583	84.25
354.81	86.25
355.037	94.25
355.264	78.25
355.491	72.25
355.718	74.25
355.945	78.25
356.172	65.25
356.399	82.25
356.626	86.25
356.853	58.25
357.08	80.25
357.307	90.25
357.534	78.25
357.761	78.25
357.988	92.25
358.215	68.25
358.441	87.25
358.668	76.25
358.895	91.25
359.122	65.25
359.349	91.25
359.576	97.25
359.802	78.25
360.029	82.25
360.256	78.25
360.483	81.25
360.709	97.25
360.936	72.25
361.163	86.25
361.39	60.25
361.616	91.25
361.843	84.25
362.07	95.25
362.296	85.25
362.523	86.25
362.749	77.25
362.976	83.25
363.203	100.25
363.429	79.25
363.656	68.25
363.882	76.25
364.109	90.25
364.335	89.25
364.562	78.25
364.788	79.25
365.015	89.25
365.241	77.25
365.468	72.25
365.694	84.25
365.92	101.25
366.147	82.25
366.373	82.25
366.599	87.25
366.826	68.25
367.052	75.25
367.278	89.25
367.505	76.25
367.731	102.25
367.957	71.25
368.184	85.25
368.41	80.25
368.636	90.25
368.862	76.25
369.089	85.25
369.315	94.25
369.541	83.25
369.767	79.25
369.993	90.25
370.219	92.25
370.445	87.25
370.672	91.25
370.898	75.25
371.124	80.25
371.35	86.25
371.576	92.25
371.802	91.25
372.028	69.25
372.254	85.25
372.48	76.25
372.706	63.25
372.932	78.25
373.158	64.25
373.384	85.25
373.61	77.25
373.835	83.25
374.061	83.25
374.287	93.25
374.513	74.25
374.739	92.25
374.965	95.25
375.191	81.25
375.416	69.25
375.642	96.25
375.868	96.25
376.094	88.25
376.319	86.25
376.545	92.25
376.771	77.25
376.997	87.25
377.222	72.25
377.448	86.25
377.674	71.25
377.899	78.25
378.125	87.25
378.35	84.25
378.576	75.25
378.802	91.25
379.027	83.25
379.253	98.25
379.478	92.25
379.704	86.25
379.929	75.25
380.155	63.25
380.38	84.25
380.606	76.25
380.831	89.25
381.057	83.25
381.282	88.25
381.507	80.25
381.733	76.25
381.958	89.25
382.184	91.25
382.409	84.25
382.634	80.25
382.86	77.25
383.085	97.25
383.31	69.25
383.535	74.25
383.761	76.25
383.986	79.25
384.211	78.25
384.436	68.25
384.662	78.25
384.887	65.25
385.112	74.25
385.337	83.25
385.562	90.25
385.787	89.25
386.013	102.25
386.238	74.25
386.463	97.25
386.688	96.25
386.913	84.25
387.138	90.25
387.363	77.25
387.588	91.25
387.813	76.25
388.038	83.25
388.263	84.25
388.488	84.25
388.713	91.25
388.938	83.25
389.163	90.25
389.387	83.25
389.612	90.25
389.837	89.25
390.062	74.25
390.287	87.25
390.512	80.25
390.736	74.25
390.961	79.25
391.186	66.25
391.411	90.25
391.636	89.25
391.86	98.25
392.085	94.25
392.31	84.25
392.534	85.25
392.759	96.25
392.984	89.25
393.208	78.25
393.433	61.25
393.658	79.25
393.882	89.25
394.107	82.25
394.331	98.25
394.556	88.25
394.78	87.25
395.005	87.25
395.229	91.25
395.454	96.25
395.678	72.25
395.903	77.25
396.127	100.25
396.352	76.25
396.576	98.25
396.801	74.25
397.025	80.25
397.249	91.25
397.474	70.25
397.698	87.25
397.922	82.25
398.147	83.25
398.371	84.25
398.595	90.25
398.82	72.25
399.044	82.25
399.268	66.25
399.492	77.25
399.717	85.25
399.941	84.25
400.165	89.25
400.389	78.25
400.613	92.25
400.837	78.25
401.062	67.25
401.286	80.25
401.51	76.25
401.734	92.25
401.958	79.25
402.182	86.25
402.406	91.25
402.63	79.25
402.854	67.25
403.078	76.25
403.302	78.25
403.526	66.25
403.75	70.25
403.974	80.25
404.198	88.25
404.422	80.25
404.645	98.25
404.869	94.25
405.093	88.25
405.317	67.25
405.541	86.25
405.765	68.25
405.988	96.25
406.212	87.25
406.436	74.25
406.66	85.25
406.883	88.25
407.107	58.25
407.331	70.25
407.555	78.25
407.778	84.25
408.002	87.25
408.226	80.25
408.449	85.25
408.673	84.25
408.896	82.25
409.12	65.25
409.344	87.25
409.567	80.25
409.791	88.25
410.014	90.25
410.238	72.25
410.461	74.25
410.685	72.25
410.908	78.25
411.132	82.25
411.355	85.25
411.578	90.25
411.802	71.25
412.025	76.25
412.249	73.25
412.472	88.25
412.695	82.25
412.919	88.25
413.142	88.25
413.365	76.25
413.589	78.25
413.812	82.25
414.035	94.25
414.258	89.25
414.482	78.25
414.705	88.25
414.928	75.25
415.151	96.25
415.374	74.25
415.597	76.25
415.821	68.25
416.044	87.25
416.267	82.25
416.49	76.25
416.713	84.25
416.936	80.25
417.159	84.25
417.382	82.25
417.605	75.25
417.828	93.25
418.051	86.25
418.274	81.25
418.497	79.25
418.72	81.25
418.943	86.25
419.166	84.25
419.389	89.25
419.611	82.25
419.834	83.25
420.057	84.25
420.28	86.25
420.503	67.25
420.726	92.25
420.948	93.25
421.171	91.25
421.394	81.25
421.617	83.25
421.839	84.25
422.062	84.25
422.285	88.25
422.507	74.25
422.73	84.25
422.953	76.25
423.175	78.25
423.398	92.25
423.621	79.25
423.843	86.25
424.066	79.25
424.288	86.25
424.511	92.25
424.733	73.25
424.956	76.25
425.178	80.25
425.401	83.25
425.623	85.25
425.846	86.25
426.068	65.25
426.291	81.25
426.513	82.25
426.735	87.25
426.958	84.25
427.18	79.25
427.402	78.25
427.625	91.25
427.847	72.25
428.069	93.25
428.292	76.25
428.514	75.25
428.736	75.25
428.958	79.25
429.181	75.25
429.403	87.25
429.625	78.25
429.847	67.25
430.069	90.25
430.292	83.25
430.514	88.25
430.736	70.25
430.958	81.25
431.18	77.25
431.402	75.25
431.624	79.25
431.846	68.25
432.068	85.25
432.29	90.25
432.512	77.25
432.734	72.25
432.956	79.25
433.178	82.25
433.4	94.25
433.622	73.25
433.844	89.25
434.066	85.25
434.287	84.25
434.509	87.25
434.731	79.25
434.953	83.25
435.175	67.25
435.397	92.25
435.618	86.25
435.84	76.25
436.062	64.25
436.284	82.25
436.505	79.25
436.727	82.25
436.949	70.25
437.17	82.25
437.392	85.25
437.614	97.25
437.835	85.25
438.057	71.25
438.278	87.25
438.5	94.25
438.721	80.25
438.943	83.25
439.165	69.25
439.386	75.25
439.608	80.25
439.829	81.25
440.05	78.25
440.272	83.25
440.493	82.25
440.715	73.25
440.936	74.25
441.158	84.25
441.379	81.25
441.6	80.25
441.822	89.25
442.043	84.25
442.264	78.25
442.486	79.25
442.707	74.25
442.928	96.25
443.149	79.25
443.371	86.25
443.592	78.25
443.813	86.25
444.034	81.25
444.255	66.25
444.476	80.25
444.698	78.25
444.919	72.25
445.14	127.25
445.361	106.25
445.582	77.25
445.803	81.25
446.024	90.25
446.245	87.25
446.466	87.25
446.687	74.25
446.908	75.25
447.129	75.25
447.35	72.25
447.571	91.25
447.792	93.25
448.013	78.25
448.234	92.25
448.455	98.25
448.675	71.25
448.896	83.25
449.117	75.25
449.338	94.25
449.559	76.25
449.779	90.25
450	84.25
450.221	81.25
450.442	76.25
450.662	84.25
450.883	84.25
451.104	82.25
451.324	74.25
451.545	89.25
451.766	83.25
451.986	74.25
452.207	90.25
452.428	83.25
452.648	78.25
452.869	78.25
453.089	78.25
453.31	79.25
453.53	71.25
453.751	87.25
453.971	87.25
454.192	78.25
454.412	79.25
454.633	82.25
454.853	96.25
455.073	74.25
455.294	74.25
455.514	72.25
455.734	83.25
455.955	90.25
456.175	84.25
456.395	90.25
456.616	85.25
456.836	78.25
457.056	74.25
457.276	86.25
457.497	81.25
457.717	80.25
457.937	80.25
458.157	85.25
458.377	83.25
458.598	89.25
458.818	76.25
459.038	92.25
459.258	76.25
459.478	80.25
459.698	75.25
459.918	83.25
460.138	78.25
460.358	84.25
460.578	74.25
460.798	86.25
461.018	81.25
461.238	80.25
461.458	66.25
461.678	89.25
461.898	82.25
462.118	89.25
462.338	80.25
462.558	82.25
462.777	78.25
462.997	82.25
463.217	83.25
463.437	87.25
463.657	92.25
463.876	78.25
464.096	88.25
464.316	72.25
464.536	82.25
464.755	89.25
464.975	84.25
465.195	88.25
465.414	78.25
465.634	76.25
465.854	82.25
466.073	89.25
466.293	88.25
466.512	86.25
466.732	70.25
466.951	90.25
467.171	75.25
467.391	78.25
467.61	90.25
467.829	83.25
468.049	77.25
468.268	88.25
468.488	92.25
468.707	82.25
468.927	83.25
469.146	91.25
469.365	90.25
469.585	88.25
469.804	68.25
470.023	79.25
470.243	95.25
470.462	79.25
470.681	90.25
470.901	88.25
471.12	82.25
471.339	92.25
471.558	76.25
471.777	92.25
471.997	79.25
472.216	82.25
472.435	74.25
472.654	79.25
472.873	72.25
473.092	83.25
473.311	92.25
473.53	79.25
473.749	72.25
473.968	100.25
474.187	92.25
474.406	76.25
474.625	91.25
474.844	78.25
475.063	86.25
475.282	85.25
475.501	75.25
475.72	91.25
475.939	99.25
476.158	68.25
476.377	74.25
476.596	80.25
476.814	86.25
477.033	82.25
477.252	88.25
477.471	82.25
477.69	77.25
477.908	98.25
478.127	89.25
478.346	79.25
478.564	73.25
478.783	79.25
479.002	70.25
479.22	68.25
479.439	85.25
479.658	77.25
479.876	88.25
480.095	73.25
480.313	77.25
480.532	83.25
480.751	84.25
480.969	77.25
481.188	94.25
481.406	92.25
481.624	86.25
481.843	94.25
482.061	82.25
482.28	69.25
482.498	66.25
482.717	83.25
482.935	82.25
483.153	84.25
483.372	84.25
483.59	99.25
483.808	81.25
484.027	83.25
484.245	87.25
484.463	93.25
484.681	92.25
484.9	89.25
485.118	91.25
485.336	77.25
485.554	78.25
485.772	73.25
485.99	77.25
486.209	83.25
486.427	78.25
486.645	98.25
486.863	75.25
487.081	68.25
487.299	81.25
487.517	86.25
487.735	69.25
487.953	94.25
488.171	77.25
488.389	85.25
488.607	95.25
488.825	70.25
489.043	98.25
489.261	72.25
489.479	76.25
489.696	76.25
489.914	81.25
490.132	72.25
490.35	81.25
490.568	82.25
490.786	81.25
491.003	83.25
491.221	83.25
491.439	82.25
491.657	84.25
491.874	82.25
492.092	87.25
492.31	85.25
492.527	80.25
492.745	67.25
492.963	66.25
493.18	82.25
493.398	80.25
493.615	80.25
493.833	83.25
494.05	79.25
494.268	83.25
494.485	97.25
494.703	79.25
494.92	72.25
495.138	79.25
495.355	80.25
495.573	73.25
495.79	70.25
496.008	64.25
496.225	95.25
496.442	77.25
496.66	86.25
496.877	79.25
497.094	82.25
497.312	68.25
497.529	85.25
497.746	73.25
497.963	82.25
498.181	84.25
498.398	102.25
498.615	76.25
498.832	75.25
499.049	90.25
499.267	80.25
499.484	84.25
499.701	83.25
499.918	85.25
500.135	72.25
500.352	68.25
500.569	88.25
500.786	92.25
501.003	76.25
501.22	94.25
501.437	78.25
501.654	86.25
501.871	85.25
502.088	78.25
502.305	94.25
502.522	78.25
502.739	95.25
502.956	71.25
503.172	74.25
503.389	87.25
503.606	79.25
503.823	80.25
504.04	90.25
504.256	92.25
504.473	79.25
504.69	81.25
504.907	84.25
505.123	87.25
505.34	76.25
505.557	83.25
505.773	80.25
505.99	86.25
506.207	98.25
506.423	84.25
506.64	73.25
506.856	89.25
507.073	90.25
507.289	97.25
507.506	70.25
507.722	70.25
507.939	89.25
508.155	88.25
508.372	79.25
508.588	74.25
508.805	83.25
509.021	94.25
509.238	67.25
509.454	85.25
509.67	79.25
509.887	90.25
510.103	83.25
510.319	70.25
510.536	82.25
510.752	80.25
510.968	74.25
511.184	83.25
511.401	82.25
511.617	86.25
511.833	90.25
512.049	87.25
512.265	88.25
512.481	91.25
512.698	81.25
512.914	73.25
513.13	79.25
513.346	81.25
513.562	85.25
513.778	84.25
513.994	89.25
514.21	82.25
514.426	78.25
514.642	73.25
514.858	74.25
515.074	81.25
515.29	81.25
515.506	72.25
515.721	74.25
515.937	79.25
516.153	72.25
516.369	88.25
516.585	90.25
516.801	87.25
517.016	89.25
517.232	82.25
517.448	88.25
517.664	92.25
517.879	84.25
518.095	74.25
518.311	86.25
518.527	75.25
518.742	93.25
518.958	91.25
519.173	78.25
519.389	82.25
519.605	83.25
519.82	86.25
520.036	74.25
520.251	94.25
