Data from BG_HRD10591_030.txt Node
Date: Fri May 16 15:33:22 EDT 2025
User: Yrep
Spectrometer: HR+D1059
Trigger mode: 1
Integration Time (sec): 1.000000E-1
Scans to average: 1
Electric dark correction enabled: true
Nonlinearity correction enabled: false
Boxcar width: 0
XAxis mode: Wavelengths
Number of Pixels in Spectrum: 2048
>>>>>Begin Spectral Data<<<<<
223.165	-17.75
223.4	-17.75
223.635	-17.75
223.869	-16.75
224.104	-21.75
224.338	-9.75
224.573	-16.75
224.808	-11.75
225.042	3.25
225.277	-4.75
225.511	-6.75
225.746	5.25
225.98	8.25
226.215	-6.75
226.449	18.25
226.683	19.25
226.918	26.25
227.152	32.25
227.387	51.25
227.621	45.25
227.856	44.25
228.09	35.25
228.324	42.25
228.559	66.25
228.793	63.25
229.027	46.25
229.262	64.25
229.496	80.25
229.73	88.25
229.964	88.25
230.199	77.25
230.433	64.25
230.667	64.25
230.901	67.25
231.136	83.25
231.37	81.25
231.604	86.25
231.838	78.25
232.072	80.25
232.306	85.25
232.541	79.25
232.775	78.25
233.009	72.25
233.243	80.25
233.477	86.25
233.711	77.25
233.945	78.25
234.179	79.25
234.413	68.25
234.647	82.25
234.881	70.25
235.115	83.25
235.349	81.25
235.583	74.25
235.817	86.25
236.051	71.25
236.285	75.25
236.519	78.25
236.753	95.25
236.987	73.25
237.221	81.25
237.455	72.25
237.689	68.25
237.922	72.25
238.156	63.25
238.39	88.25
238.624	85.25
238.858	100.25
239.091	78.25
239.325	83.25
239.559	77.25
239.793	72.25
240.027	85.25
240.26	80.25
240.494	86.25
240.728	76.25
240.961	89.25
241.195	81.25
241.429	70.25
241.662	87.25
241.896	84.25
242.13	81.25
242.363	94.25
242.597	92.25
242.83	78.25
243.064	73.25
243.298	72.25
243.531	77.25
243.765	80.25
243.998	76.25
244.232	73.25
244.465	60.25
244.699	74.25
244.932	82.25
245.166	98.25
245.399	89.25
245.633	83.25
245.866	79.25
246.099	83.25
246.333	78.25
246.566	80.25
246.8	76.25
247.033	86.25
247.266	72.25
247.5	78.25
247.733	77.25
247.966	77.25
248.2	86.25
248.433	80.25
248.666	80.25
248.899	71.25
249.133	87.25
249.366	98.25
249.599	82.25
249.832	81.25
250.066	67.25
250.299	86.25
250.532	84.25
250.765	84.25
250.998	81.25
251.231	81.25
251.465	94.25
251.698	89.25
251.931	90.25
252.164	78.25
252.397	84.25
252.63	88.25
252.863	73.25
253.096	72.25
253.329	96.25
253.562	70.25
253.795	77.25
254.028	78.25
254.261	79.25
254.494	79.25
254.727	77.25
254.96	79.25
255.193	84.25
255.426	86.25
255.659	80.25
255.892	71.25
256.124	82.25
256.357	76.25
256.59	79.25
256.823	81.25
257.056	76.25
257.289	76.25
257.521	88.25
257.754	95.25
257.987	80.25
258.22	82.25
258.452	79.25
258.685	82.25
258.918	75.25
259.151	67.25
259.383	76.25
259.616	90.25
259.849	87.25
260.081	71.25
260.314	76.25
260.547	79.25
260.779	80.25
261.012	82.25
261.244	84.25
261.477	69.25
261.71	91.25
261.942	89.25
262.175	74.25
262.407	82.25
262.64	80.25
262.872	82.25
263.105	83.25
263.337	93.25
263.57	80.25
263.802	79.25
264.035	80.25
264.267	84.25
264.499	77.25
264.732	89.25
264.964	87.25
265.197	95.25
265.429	87.25
265.661	86.25
265.894	92.25
266.126	86.25
266.358	82.25
266.591	92.25
266.823	72.25
267.055	82.25
267.287	91.25
267.52	88.25
267.752	84.25
267.984	90.25
268.216	75.25
268.448	90.25
268.681	79.25
268.913	86.25
269.145	102.25
269.377	92.25
269.609	99.25
269.841	74.25
270.073	79.25
270.306	81.25
270.538	81.25
270.77	105.25
271.002	90.25
271.234	85.25
271.466	85.25
271.698	80.25
271.93	89.25
272.162	80.25
272.394	84.25
272.626	82.25
272.858	75.25
273.09	74.25
273.322	88.25
273.553	89.25
273.785	90.25
274.017	92.25
274.249	69.25
274.481	78.25
274.713	95.25
274.945	79.25
275.176	74.25
275.408	74.25
275.64	83.25
275.872	67.25
276.104	95.25
276.335	78.25
276.567	83.25
276.799	82.25
277.031	76.25
277.262	73.25
277.494	86.25
277.726	88.25
277.957	89.25
278.189	88.25
278.421	85.25
278.652	84.25
278.884	94.25
279.115	92.25
279.347	75.25
279.579	98.25
279.81	82.25
280.042	79.25
280.273	96.25
280.505	83.25
280.736	83.25
280.968	87.25
281.199	83.25
281.431	90.25
281.662	91.25
281.894	77.25
282.125	88.25
282.356	77.25
282.588	74.25
282.819	78.25
283.051	77.25
283.282	88.25
283.513	94.25
283.745	85.25
283.976	90.25
284.207	79.25
284.439	82.25
284.67	78.25
284.901	91.25
285.132	90.25
285.364	84.25
285.595	84.25
285.826	90.25
286.057	88.25
286.288	97.25
286.52	89.25
286.751	82.25
286.982	81.25
287.213	92.25
287.444	95.25
287.675	86.25
287.906	80.25
288.138	78.25
288.369	89.25
288.6	90.25
288.831	71.25
289.062	88.25
289.293	94.25
289.524	80.25
289.755	92.25
289.986	93.25
290.217	87.25
290.448	75.25
290.679	84.25
290.91	92.25
291.141	85.25
291.371	78.25
291.602	97.25
291.833	91.25
292.064	89.25
292.295	96.25
292.526	89.25
292.757	80.25
292.987	86.25
293.218	80.25
293.449	78.25
293.68	88.25
293.91	90.25
294.141	83.25
294.372	81.25
294.603	90.25
294.833	79.25
295.064	74.25
295.295	88.25
295.525	72.25
295.756	88.25
295.987	76.25
296.217	79.25
296.448	80.25
296.679	83.25
296.909	92.25
297.14	92.25
297.37	98.25
297.601	88.25
297.831	82.25
298.062	78.25
298.292	71.25
298.523	91.25
298.753	84.25
298.984	84.25
299.214	88.25
299.445	94.25
299.675	79.25
299.905	83.25
300.136	80.25
300.366	86.25
300.597	80.25
300.827	89.25
301.057	95.25
301.288	73.25
301.518	83.25
301.748	76.25
301.979	102.25
302.209	97.25
302.439	78.25
302.669	89.25
302.9	81.25
303.13	78.25
303.36	73.25
303.59	102.25
303.82	87.25
304.051	83.25
304.281	99.25
304.511	84.25
304.741	99.25
304.971	90.25
305.201	97.25
305.431	96.25
305.661	85.25
305.891	78.25
306.121	92.25
306.352	86.25
306.582	91.25
306.812	99.25
307.042	96.25
307.272	83.25
307.502	80.25
307.731	86.25
307.961	95.25
308.191	94.25
308.421	75.25
308.651	86.25
308.881	76.25
309.111	90.25
309.341	86.25
309.571	92.25
309.8	88.25
310.03	82.25
310.26	90.25
310.49	100.25
310.72	88.25
310.949	88.25
311.179	74.25
311.409	99.25
311.639	99.25
311.868	77.25
312.098	84.25
312.328	83.25
312.557	86.25
312.787	85.25
313.017	84.25
313.246	90.25
313.476	76.25
313.706	91.25
313.935	86.25
314.165	94.25
314.394	82.25
314.624	102.25
314.853	90.25
315.083	94.25
315.312	76.25
315.542	82.25
315.771	68.25
316.001	84.25
316.23	89.25
316.46	87.25
316.689	86.25
316.919	78.25
317.148	97.25
317.377	90.25
317.607	85.25
317.836	81.25
318.065	79.25
318.295	86.25
318.524	94.25
318.753	97.25
318.983	87.25
319.212	83.25
319.441	97.25
319.67	84.25
319.9	86.25
320.129	103.25
320.358	81.25
320.587	82.25
320.816	94.25
321.046	83.25
321.275	77.25
321.504	96.25
321.733	89.25
321.962	80.25
322.191	87.25
322.42	82.25
322.649	85.25
322.878	86.25
323.108	98.25
323.337	89.25
323.566	79.25
323.795	80.25
324.024	74.25
324.253	82.25
324.482	84.25
324.71	81.25
324.939	83.25
325.168	97.25
325.397	80.25
325.626	95.25
325.855	83.25
326.084	74.25
326.313	97.25
326.542	100.25
326.77	90.25
326.999	72.25
327.228	69.25
327.457	89.25
327.686	82.25
327.914	80.25
328.143	76.25
328.372	72.25
328.6	83.25
328.829	92.25
329.058	82.25
329.287	82.25
329.515	84.25
329.744	88.25
329.972	79.25
330.201	79.25
330.43	93.25
330.658	96.25
330.887	69.25
331.115	90.25
331.344	111.25
331.572	107.25
331.801	80.25
332.03	92.25
332.258	97.25
332.486	88.25
332.715	76.25
332.943	97.25
333.172	97.25
333.4	94.25
333.629	82.25
333.857	94.25
334.085	93.25
334.314	87.25
334.542	90.25
334.771	89.25
334.999	83.25
335.227	91.25
335.455	91.25
335.684	94.25
335.912	82.25
336.14	88.25
336.369	74.25
336.597	87.25
336.825	91.25
337.053	92.25
337.281	103.25
337.51	93.25
337.738	86.25
337.966	74.25
338.194	95.25
338.422	87.25
338.65	99.25
338.878	86.25
339.106	89.25
339.334	80.25
339.562	94.25
339.79	87.25
340.018	76.25
340.246	91.25
340.474	94.25
340.702	89.25
340.93	94.25
341.158	79.25
341.386	79.25
341.614	95.25
341.842	75.25
342.07	78.25
342.298	83.25
342.526	83.25
342.754	86.25
342.981	84.25
343.209	84.25
343.437	97.25
343.665	84.25
343.893	87.25
344.12	76.25
344.348	88.25
344.576	93.25
344.804	91.25
345.031	92.25
345.259	81.25
345.487	98.25
345.714	79.25
345.942	89.25
346.17	58.25
346.397	81.25
346.625	78.25
346.853	96.25
347.08	93.25
347.308	82.25
347.535	78.25
347.763	95.25
347.99	98.25
348.218	87.25
348.445	95.25
348.673	73.25
348.9	80.25
349.128	80.25
349.355	86.25
349.583	82.25
349.81	75.25
350.037	83.25
350.265	98.25
350.492	101.25
350.72	88.25
350.947	89.25
351.174	94.25
351.402	89.25
351.629	91.25
351.856	91.25
352.083	85.25
352.311	103.25
352.538	94.25
352.765	81.25
352.992	81.25
353.22	91.25
353.447	100.25
353.674	95.25
353.901	108.25
354.128	87.25
354.355	76.25
354.583	90.25
354.81	84.25
355.037	96.25
355.264	98.25
355.491	91.25
355.718	83.25
355.945	82.25
356.172	62.25
356.399	89.25
356.626	72.25
356.853	81.25
357.08	113.25
357.307	78.25
357.534	82.25
357.761	93.25
357.988	79.25
358.215	90.25
358.441	87.25
358.668	85.25
358.895	105.25
359.122	88.25
359.349	78.25
359.576	73.25
359.802	80.25
360.029	102.25
360.256	68.25
360.483	90.25
360.709	98.25
360.936	93.25
361.163	72.25
361.39	84.25
361.616	91.25
361.843	82.25
362.07	98.25
362.296	84.25
362.523	89.25
362.749	92.25
362.976	72.25
363.203	86.25
363.429	87.25
363.656	75.25
363.882	92.25
364.109	81.25
364.335	93.25
364.562	76.25
364.788	89.25
365.015	70.25
365.241	81.25
365.468	99.25
365.694	96.25
365.92	94.25
366.147	74.25
366.373	83.25
366.599	74.25
366.826	77.25
367.052	79.25
367.278	87.25
367.505	94.25
367.731	96.25
367.957	79.25
368.184	91.25
368.41	80.25
368.636	92.25
368.862	92.25
369.089	86.25
369.315	88.25
369.541	96.25
369.767	77.25
369.993	96.25
370.219	86.25
370.445	88.25
370.672	65.25
370.898	77.25
371.124	67.25
371.35	67.25
371.576	78.25
371.802	97.25
372.028	90.25
372.254	98.25
372.48	75.25
372.706	80.25
372.932	95.25
373.158	96.25
373.384	83.25
373.61	90.25
373.835	83.25
374.061	80.25
374.287	92.25
374.513	74.25
374.739	94.25
374.965	79.25
375.191	82.25
375.416	75.25
375.642	94.25
375.868	80.25
376.094	55.25
376.319	91.25
376.545	79.25
376.771	87.25
376.997	79.25
377.222	82.25
377.448	78.25
377.674	74.25
377.899	90.25
378.125	105.25
378.35	85.25
378.576	84.25
378.802	78.25
379.027	84.25
379.253	66.25
379.478	94.25
379.704	92.25
379.929	98.25
380.155	79.25
380.38	80.25
380.606	80.25
380.831	64.25
381.057	87.25
381.282	94.25
381.507	82.25
381.733	85.25
381.958	86.25
382.184	87.25
382.409	90.25
382.634	77.25
382.86	83.25
383.085	78.25
383.31	92.25
383.535	84.25
383.761	97.25
383.986	90.25
384.211	85.25
384.436	97.25
384.662	82.25
384.887	89.25
385.112	83.25
385.337	90.25
385.562	86.25
385.787	80.25
386.013	95.25
386.238	82.25
386.463	83.25
386.688	91.25
386.913	88.25
387.138	92.25
387.363	89.25
387.588	85.25
387.813	92.25
388.038	98.25
388.263	87.25
388.488	89.25
388.713	81.25
388.938	80.25
389.163	74.25
389.387	79.25
389.612	74.25
389.837	85.25
390.062	92.25
390.287	81.25
390.512	86.25
390.736	86.25
390.961	90.25
391.186	75.25
391.411	66.25
391.636	86.25
391.86	91.25
392.085	92.25
392.31	80.25
392.534	81.25
392.759	86.25
392.984	99.25
393.208	94.25
393.433	70.25
393.658	88.25
393.882	92.25
394.107	106.25
394.331	88.25
394.556	95.25
394.78	79.25
395.005	83.25
395.229	105.25
395.454	105.25
395.678	81.25
395.903	95.25
396.127	89.25
396.352	87.25
396.576	89.25
396.801	80.25
397.025	90.25
397.249	84.25
397.474	107.25
397.698	76.25
397.922	75.25
398.147	88.25
398.371	99.25
398.595	83.25
398.82	95.25
399.044	85.25
399.268	82.25
399.492	88.25
399.717	99.25
399.941	98.25
400.165	95.25
400.389	80.25
400.613	83.25
400.837	81.25
401.062	92.25
401.286	83.25
401.51	97.25
401.734	83.25
401.958	87.25
402.182	106.25
402.406	95.25
402.63	95.25
402.854	97.25
403.078	83.25
403.302	84.25
403.526	90.25
403.75	83.25
403.974	68.25
404.198	91.25
404.422	78.25
404.645	84.25
404.869	89.25
405.093	86.25
405.317	76.25
405.541	92.25
405.765	82.25
405.988	79.25
406.212	84.25
406.436	76.25
406.66	98.25
406.883	93.25
407.107	105.25
407.331	74.25
407.555	83.25
407.778	91.25
408.002	93.25
408.226	94.25
408.449	97.25
408.673	92.25
408.896	86.25
409.12	85.25
409.344	85.25
409.567	90.25
409.791	94.25
410.014	83.25
410.238	97.25
410.461	92.25
410.685	82.25
410.908	84.25
411.132	88.25
411.355	87.25
411.578	82.25
411.802	75.25
412.025	102.25
412.249	97.25
412.472	97.25
412.695	81.25
412.919	75.25
413.142	81.25
413.365	98.25
413.589	86.25
413.812	91.25
414.035	88.25
414.258	89.25
414.482	97.25
414.705	78.25
414.928	97.25
415.151	90.25
415.374	92.25
415.597	95.25
415.821	96.25
416.044	84.25
416.267	76.25
416.49	95.25
416.713	78.25
416.936	102.25
417.159	89.25
417.382	81.25
417.605	82.25
417.828	88.25
418.051	89.25
418.274	104.25
418.497	78.25
418.72	67.25
418.943	83.25
419.166	89.25
419.389	89.25
419.611	99.25
419.834	94.25
420.057	85.25
420.28	79.25
420.503	82.25
420.726	71.25
420.948	95.25
421.171	91.25
421.394	86.25
421.617	79.25
421.839	90.25
422.062	82.25
422.285	72.25
422.507	86.25
422.73	96.25
422.953	89.25
423.175	92.25
423.398	86.25
423.621	86.25
423.843	91.25
424.066	97.25
424.288	92.25
424.511	75.25
424.733	91.25
424.956	83.25
425.178	81.25
425.401	88.25
425.623	98.25
425.846	81.25
426.068	99.25
426.291	93.25
426.513	88.25
426.735	83.25
426.958	83.25
427.18	82.25
427.402	99.25
427.625	85.25
427.847	91.25
428.069	91.25
428.292	75.25
428.514	83.25
428.736	71.25
428.958	84.25
429.181	75.25
429.403	81.25
429.625	76.25
429.847	84.25
430.069	76.25
430.292	96.25
430.514	85.25
430.736	75.25
430.958	83.25
431.18	92.25
431.402	97.25
431.624	83.25
431.846	80.25
432.068	80.25
432.29	93.25
432.512	95.25
432.734	92.25
432.956	86.25
433.178	83.25
433.4	92.25
433.622	95.25
433.844	83.25
434.066	92.25
434.287	93.25
434.509	94.25
434.731	89.25
434.953	102.25
435.175	79.25
435.397	82.25
435.618	80.25
435.84	92.25
436.062	88.25
436.284	85.25
436.505	88.25
436.727	94.25
436.949	74.25
437.17	74.25
437.392	79.25
437.614	90.25
437.835	83.25
438.057	80.25
438.278	68.25
438.5	91.25
438.721	97.25
438.943	89.25
439.165	78.25
439.386	85.25
439.608	83.25
439.829	98.25
440.05	76.25
440.272	93.25
440.493	76.25
440.715	81.25
440.936	88.25
441.158	93.25
441.379	82.25
441.6	90.25
441.822	99.25
442.043	89.25
442.264	77.25
442.486	81.25
442.707	71.25
442.928	68.25
443.149	94.25
443.371	78.25
443.592	83.25
443.813	89.25
444.034	72.25
444.255	83.25
444.476	83.25
444.698	89.25
444.919	103.25
445.14	160.25
445.361	124.25
445.582	91.25
445.803	63.25
446.024	86.25
446.245	94.25
446.466	95.25
446.687	97.25
446.908	92.25
447.129	88.25
447.35	97.25
447.571	99.25
447.792	95.25
448.013	95.25
448.234	83.25
448.455	94.25
448.675	82.25
448.896	85.25
449.117	76.25
449.338	82.25
449.559	94.25
449.779	95.25
450	65.25
450.221	82.25
450.442	76.25
450.662	97.25
450.883	86.25
451.104	86.25
451.324	77.25
451.545	81.25
451.766	84.25
451.986	92.25
452.207	85.25
452.428	80.25
452.648	78.25
452.869	90.25
453.089	79.25
453.31	94.25
453.53	90.25
453.751	79.25
453.971	82.25
454.192	91.25
454.412	64.25
454.633	86.25
454.853	97.25
455.073	70.25
455.294	80.25
455.514	94.25
455.734	82.25
455.955	93.25
456.175	79.25
456.395	79.25
456.616	80.25
456.836	75.25
457.056	95.25
457.276	92.25
457.497	85.25
457.717	82.25
457.937	86.25
458.157	86.25
458.377	99.25
458.598	66.25
458.818	71.25
459.038	86.25
459.258	94.25
459.478	91.25
459.698	78.25
459.918	90.25
460.138	87.25
460.358	87.25
460.578	65.25
460.798	84.25
461.018	98.25
461.238	109.25
461.458	87.25
461.678	92.25
461.898	87.25
462.118	88.25
462.338	87.25
462.558	82.25
462.777	82.25
462.997	91.25
463.217	94.25
463.437	86.25
463.657	86.25
463.876	94.25
464.096	84.25
464.316	90.25
464.536	106.25
464.755	83.25
464.975	86.25
465.195	86.25
465.414	79.25
465.634	86.25
465.854	86.25
466.073	83.25
466.293	81.25
466.512	71.25
466.732	79.25
466.951	89.25
467.171	87.25
467.391	69.25
467.61	82.25
467.829	87.25
468.049	88.25
468.268	81.25
468.488	93.25
468.707	89.25
468.927	96.25
469.146	83.25
469.365	86.25
469.585	73.25
469.804	91.25
470.023	75.25
470.243	95.25
470.462	95.25
470.681	93.25
470.901	92.25
471.12	82.25
471.339	80.25
471.558	88.25
471.777	90.25
471.997	89.25
472.216	90.25
472.435	89.25
472.654	70.25
472.873	87.25
473.092	89.25
473.311	101.25
473.53	81.25
473.749	93.25
473.968	82.25
474.187	78.25
474.406	100.25
474.625	106.25
474.844	85.25
475.063	88.25
475.282	87.25
475.501	71.25
475.72	107.25
475.939	76.25
476.158	90.25
476.377	87.25
476.596	79.25
476.814	90.25
477.033	86.25
477.252	102.25
477.471	95.25
477.69	82.25
477.908	88.25
478.127	84.25
478.346	84.25
478.564	89.25
478.783	89.25
479.002	88.25
479.22	91.25
479.439	89.25
479.658	94.25
479.876	79.25
480.095	82.25
480.313	91.25
480.532	84.25
480.751	88.25
480.969	98.25
481.188	96.25
481.406	84.25
481.624	83.25
481.843	77.25
482.061	86.25
482.28	94.25
482.498	92.25
482.717	87.25
482.935	92.25
483.153	94.25
483.372	96.25
483.59	88.25
483.808	90.25
484.027	94.25
484.245	87.25
484.463	90.25
484.681	95.25
484.9	82.25
485.118	88.25
485.336	93.25
485.554	102.25
485.772	93.25
485.99	99.25
486.209	79.25
486.427	91.25
486.645	89.25
486.863	90.25
487.081	78.25
487.299	94.25
487.517	79.25
487.735	91.25
487.953	96.25
488.171	95.25
488.389	95.25
488.607	94.25
488.825	79.25
489.043	95.25
489.261	80.25
489.479	80.25
489.696	81.25
489.914	81.25
490.132	98.25
490.35	97.25
490.568	86.25
490.786	94.25
491.003	71.25
491.221	102.25
491.439	88.25
491.657	83.25
491.874	87.25
492.092	87.25
492.31	85.25
492.527	86.25
492.745	96.25
492.963	80.25
493.18	79.25
493.398	86.25
493.615	91.25
493.833	88.25
494.05	101.25
494.268	86.25
494.485	85.25
494.703	91.25
494.92	100.25
495.138	83.25
495.355	87.25
495.573	98.25
495.79	84.25
496.008	97.25
496.225	89.25
496.442	92.25
496.66	96.25
496.877	109.25
497.094	104.25
497.312	90.25
497.529	106.25
497.746	98.25
497.963	86.25
498.181	91.25
498.398	106.25
498.615	92.25
498.832	86.25
499.049	86.25
499.267	105.25
499.484	94.25
499.701	98.25
499.918	104.25
500.135	94.25
500.352	113.25
500.569	106.25
500.786	110.25
501.003	108.25
501.22	98.25
501.437	98.25
501.654	95.25
501.871	78.25
502.088	83.25
502.305	87.25
502.522	120.25
502.739	89.25
502.956	85.25
503.172	91.25
503.389	90.25
503.606	81.25
503.823	92.25
504.04	79.25
504.256	93.25
504.473	95.25
504.69	107.25
504.907	98.25
505.123	98.25
505.34	97.25
505.557	88.25
505.773	113.25
505.99	82.25
506.207	99.25
506.423	82.25
506.64	76.25
506.856	80.25
507.073	94.25
507.289	86.25
507.506	87.25
507.722	84.25
507.939	88.25
508.155	90.25
508.372	91.25
508.588	95.25
508.805	96.25
509.021	96.25
509.238	93.25
509.454	82.25
509.67	86.25
509.887	85.25
510.103	86.25
510.319	92.25
510.536	95.25
510.752	93.25
510.968	88.25
511.184	83.25
511.401	86.25
511.617	80.25
511.833	81.25
512.049	84.25
512.265	91.25
512.481	95.25
512.698	90.25
512.914	88.25
513.13	95.25
513.346	86.25
513.562	81.25
513.778	94.25
513.994	76.25
514.21	88.25
514.426	90.25
514.642	90.25
514.858	93.25
515.074	82.25
515.29	87.25
515.506	93.25
515.721	91.25
515.937	93.25
516.153	98.25
516.369	82.25
516.585	82.25
516.801	81.25
517.016	88.25
517.232	89.25
517.448	92.25
517.664	99.25
517.879	106.25
518.095	102.25
518.311	104.25
518.527	88.25
518.742	71.25
518.958	84.25
519.173	84.25
519.389	97.25
519.605	92.25
