Data from BG_HRD10591_003.txt Node
Date: Fri May 16 15:33:08 EDT 2025
User: Yrep
Spectrometer: HR+D1059
Trigger mode: 1
Integration Time (sec): 1.000000E-1
Scans to average: 1
Electric dark correction enabled: true
Nonlinearity correction enabled: false
Boxcar width: 0
XAxis mode: Wavelengths
Number of Pixels in Spectrum: 2048
>>>>>Begin Spectral Data<<<<<
223.165	-18.06
223.4	-18.06
223.635	-18.06
223.869	-9.06
224.104	-22.06
224.338	-9.06
224.573	-11.06
224.808	-22.06
225.042	-7.06
225.277	-6.06
225.511	-4.06
225.746	-4.06
225.98	18.94
226.215	8.94
226.449	11.94
226.683	24.94
226.918	27.94
227.152	19.94
227.387	32.94
227.621	43.94
227.856	47.94
228.09	58.94
228.324	58.94
228.559	50.94
228.793	57.94
229.027	69.94
229.262	77.94
229.496	75.94
229.73	68.94
229.964	79.94
230.199	67.94
230.433	81.94
230.667	77.94
230.901	81.94
231.136	84.94
231.37	78.94
231.604	87.94
231.838	88.94
232.072	80.94
232.306	101.94
232.541	92.94
232.775	67.94
233.009	92.94
233.243	78.94
233.477	82.94
233.711	75.94
233.945	70.94
234.179	76.94
234.413	82.94
234.647	75.94
234.881	70.94
235.115	78.94
235.349	84.94
235.583	89.94
235.817	83.94
236.051	83.94
236.285	73.94
236.519	68.94
236.753	79.94
236.987	74.94
237.221	96.94
237.455	70.94
237.689	75.94
237.922	79.94
238.156	67.94
238.39	77.94
238.624	76.94
238.858	92.94
239.091	75.94
239.325	75.94
239.559	68.94
239.793	75.94
240.027	78.94
240.26	92.94
240.494	89.94
240.728	84.94
240.961	75.94
241.195	79.94
241.429	79.94
241.662	80.94
241.896	93.94
242.13	76.94
242.363	65.94
242.597	74.94
242.83	75.94
243.064	79.94
243.298	77.94
243.531	79.94
243.765	81.94
243.998	74.94
244.232	96.94
244.465	77.94
244.699	85.94
244.932	84.94
245.166	80.94
245.399	69.94
245.633	81.94
245.866	79.94
246.099	61.94
246.333	82.94
246.566	75.94
246.8	83.94
247.033	85.94
247.266	84.94
247.5	77.94
247.733	78.94
247.966	81.94
248.2	78.94
248.433	81.94
248.666	75.94
248.899	80.94
249.133	90.94
249.366	92.94
249.599	75.94
249.832	81.94
250.066	83.94
250.299	79.94
250.532	76.94
250.765	92.94
250.998	77.94
251.231	94.94
251.465	81.94
251.698	79.94
251.931	84.94
252.164	68.94
252.397	76.94
252.63	71.94
252.863	84.94
253.096	89.94
253.329	104.94
253.562	74.94
253.795	77.94
254.028	78.94
254.261	86.94
254.494	95.94
254.727	91.94
254.96	79.94
255.193	88.94
255.426	87.94
255.659	75.94
255.892	83.94
256.124	77.94
256.357	82.94
256.59	89.94
256.823	84.94
257.056	88.94
257.289	96.94
257.521	81.94
257.754	92.94
257.987	81.94
258.22	85.94
258.452	76.94
258.685	74.94
258.918	91.94
259.151	80.94
259.383	83.94
259.616	79.94
259.849	84.94
260.081	85.94
260.314	82.94
260.547	60.94
260.779	91.94
261.012	83.94
261.244	87.94
261.477	87.94
261.71	101.94
261.942	79.94
262.175	76.94
262.407	78.94
262.64	76.94
262.872	80.94
263.105	79.94
263.337	87.94
263.57	82.94
263.802	94.94
264.035	91.94
264.267	73.94
264.499	88.94
264.732	83.94
264.964	87.94
265.197	87.94
265.429	90.94
265.661	90.94
265.894	67.94
266.126	101.94
266.358	92.94
266.591	81.94
266.823	80.94
267.055	84.94
267.287	93.94
267.52	97.94
267.752	82.94
267.984	85.94
268.216	90.94
268.448	87.94
268.681	91.94
268.913	87.94
269.145	82.94
269.377	100.94
269.609	80.94
269.841	100.94
270.073	83.94
270.306	85.94
270.538	89.94
270.77	87.94
271.002	91.94
271.234	71.94
271.466	83.94
271.698	72.94
271.93	81.94
272.162	81.94
272.394	87.94
272.626	96.94
272.858	87.94
273.09	84.94
273.322	87.94
273.553	83.94
273.785	84.94
274.017	92.94
274.249	75.94
274.481	100.94
274.713	79.94
274.945	82.94
275.176	73.94
275.408	91.94
275.64	83.94
275.872	86.94
276.104	80.94
276.335	72.94
276.567	91.94
276.799	89.94
277.031	89.94
277.262	82.94
277.494	101.94
277.726	86.94
277.957	76.94
278.189	69.94
278.421	104.94
278.652	93.94
278.884	77.94
279.115	84.94
279.347	88.94
279.579	92.94
279.81	98.94
280.042	88.94
280.273	77.94
280.505	79.94
280.736	93.94
280.968	107.94
281.199	78.94
281.431	105.94
281.662	77.94
281.894	103.94
282.125	84.94
282.356	80.94
282.588	80.94
282.819	93.94
283.051	81.94
283.282	90.94
283.513	91.94
283.745	95.94
283.976	77.94
284.207	90.94
284.439	89.94
284.67	80.94
284.901	87.94
285.132	89.94
285.364	74.94
285.595	86.94
285.826	80.94
286.057	97.94
286.288	86.94
286.52	93.94
286.751	81.94
286.982	106.94
287.213	101.94
287.444	81.94
287.675	93.94
287.906	85.94
288.138	89.94
288.369	86.94
288.6	96.94
288.831	94.94
289.062	90.94
289.293	95.94
289.524	96.94
289.755	98.94
289.986	77.94
290.217	98.94
290.448	89.94
290.679	92.94
290.91	95.94
291.141	89.94
291.371	83.94
291.602	91.94
291.833	91.94
292.064	88.94
292.295	109.94
292.526	92.94
292.757	84.94
292.987	85.94
293.218	80.94
293.449	85.94
293.68	99.94
293.91	77.94
294.141	92.94
294.372	79.94
294.603	95.94
294.833	86.94
295.064	80.94
295.295	90.94
295.525	97.94
295.756	91.94
295.987	82.94
296.217	93.94
296.448	95.94
296.679	78.94
296.909	88.94
297.14	88.94
297.37	92.94
297.601	91.94
297.831	84.94
298.062	89.94
298.292	79.94
298.523	75.94
298.753	84.94
298.984	93.94
299.214	84.94
299.445	95.94
299.675	84.94
299.905	78.94
300.136	79.94
300.366	86.94
300.597	90.94
300.827	89.94
301.057	90.94
301.288	84.94
301.518	91.94
301.748	84.94
301.979	95.94
302.209	84.94
302.439	101.94
302.669	81.94
302.9	71.94
303.13	91.94
303.36	82.94
303.59	87.94
303.82	87.94
304.051	89.94
304.281	85.94
304.511	91.94
304.741	84.94
304.971	88.94
305.201	78.94
305.431	103.94
305.661	94.94
305.891	92.94
306.121	85.94
306.352	96.94
306.582	105.94
306.812	85.94
307.042	97.94
307.272	83.94
307.502	89.94
307.731	91.94
307.961	92.94
308.191	81.94
308.421	92.94
308.651	92.94
308.881	93.94
309.111	82.94
309.341	73.94
309.571	77.94
309.8	88.94
310.03	85.94
310.26	88.94
310.49	87.94
310.72	102.94
310.949	77.94
311.179	90.94
311.409	92.94
311.639	84.94
311.868	88.94
312.098	80.94
312.328	85.94
312.557	90.94
312.787	73.94
313.017	92.94
313.246	108.94
313.476	76.94
313.706	89.94
313.935	93.94
314.165	88.94
314.394	108.94
314.624	94.94
314.853	100.94
315.083	73.94
315.312	101.94
315.542	92.94
315.771	87.94
316.001	98.94
316.23	92.94
316.46	90.94
316.689	69.94
316.919	107.94
317.148	100.94
317.377	85.94
317.607	80.94
317.836	99.94
318.065	93.94
318.295	76.94
318.524	86.94
318.753	83.94
318.983	90.94
319.212	78.94
319.441	103.94
319.67	96.94
319.9	81.94
320.129	87.94
320.358	92.94
320.587	93.94
320.816	89.94
321.046	85.94
321.275	91.94
321.504	88.94
321.733	84.94
321.962	97.94
322.191	81.94
322.42	96.94
322.649	90.94
322.878	86.94
323.108	84.94
323.337	89.94
323.566	90.94
323.795	96.94
324.024	93.94
324.253	108.94
324.482	89.94
324.71	89.94
324.939	94.94
325.168	92.94
325.397	81.94
325.626	92.94
325.855	95.94
326.084	88.94
326.313	90.94
326.542	97.94
326.77	68.94
326.999	100.94
327.228	85.94
327.457	77.94
327.686	86.94
327.914	87.94
328.143	96.94
328.372	95.94
328.6	88.94
328.829	84.94
329.058	91.94
329.287	100.94
329.515	82.94
329.744	92.94
329.972	93.94
330.201	96.94
330.43	88.94
330.658	81.94
330.887	90.94
331.115	87.94
331.344	94.94
331.572	85.94
331.801	84.94
332.03	101.94
332.258	91.94
332.486	84.94
332.715	76.94
332.943	83.94
333.172	88.94
333.4	98.94
333.629	101.94
333.857	101.94
334.085	103.94
334.314	103.94
334.542	103.94
334.771	95.94
334.999	83.94
335.227	96.94
335.455	100.94
335.684	90.94
335.912	97.94
336.14	80.94
336.369	98.94
336.597	83.94
336.825	92.94
337.053	83.94
337.281	69.94
337.51	86.94
337.738	86.94
337.966	106.94
338.194	99.94
338.422	90.94
338.65	81.94
338.878	95.94
339.106	90.94
339.334	94.94
339.562	88.94
339.79	91.94
340.018	82.94
340.246	77.94
340.474	86.94
340.702	78.94
340.93	97.94
341.158	89.94
341.386	91.94
341.614	89.94
341.842	95.94
342.07	98.94
342.298	75.94
342.526	83.94
342.754	84.94
342.981	80.94
343.209	91.94
343.437	92.94
343.665	79.94
343.893	90.94
344.12	85.94
344.348	97.94
344.576	83.94
344.804	95.94
345.031	85.94
345.259	83.94
345.487	84.94
345.714	102.94
345.942	96.94
346.17	77.94
346.397	92.94
346.625	82.94
346.853	76.94
347.08	97.94
347.308	84.94
347.535	84.94
347.763	84.94
347.99	88.94
348.218	89.94
348.445	88.94
348.673	79.94
348.9	89.94
349.128	81.94
349.355	85.94
349.583	97.94
349.81	85.94
350.037	95.94
350.265	90.94
350.492	106.94
350.72	85.94
350.947	99.94
351.174	91.94
351.402	91.94
351.629	89.94
351.856	86.94
352.083	96.94
352.311	104.94
352.538	98.94
352.765	96.94
352.992	86.94
353.22	86.94
353.447	77.94
353.674	94.94
353.901	88.94
354.128	91.94
354.355	86.94
354.583	71.94
354.81	83.94
355.037	87.94
355.264	98.94
355.491	89.94
355.718	100.94
355.945	97.94
356.172	83.94
356.399	93.94
356.626	94.94
356.853	91.94
357.08	85.94
357.307	94.94
357.534	84.94
357.761	99.94
357.988	89.94
358.215	90.94
358.441	103.94
358.668	83.94
358.895	88.94
359.122	83.94
359.349	97.94
359.576	94.94
359.802	74.94
360.029	89.94
360.256	86.94
360.483	99.94
360.709	95.94
360.936	79.94
361.163	86.94
361.39	92.94
361.616	98.94
361.843	91.94
362.07	104.94
362.296	91.94
362.523	95.94
362.749	97.94
362.976	85.94
363.203	100.94
363.429	91.94
363.656	82.94
363.882	82.94
364.109	96.94
364.335	91.94
364.562	90.94
364.788	82.94
365.015	89.94
365.241	111.94
365.468	99.94
365.694	80.94
365.92	82.94
366.147	87.94
366.373	88.94
366.599	81.94
366.826	91.94
367.052	92.94
367.278	84.94
367.505	86.94
367.731	91.94
367.957	92.94
368.184	107.94
368.41	96.94
368.636	89.94
368.862	89.94
369.089	95.94
369.315	84.94
369.541	92.94
369.767	88.94
369.993	90.94
370.219	83.94
370.445	97.94
370.672	80.94
370.898	91.94
371.124	95.94
371.35	87.94
371.576	69.94
371.802	74.94
372.028	97.94
372.254	83.94
372.48	98.94
372.706	94.94
372.932	104.94
373.158	98.94
373.384	91.94
373.61	96.94
373.835	91.94
374.061	84.94
374.287	88.94
374.513	80.94
374.739	81.94
374.965	79.94
375.191	88.94
375.416	89.94
375.642	83.94
375.868	87.94
376.094	92.94
376.319	102.94
376.545	88.94
376.771	91.94
376.997	80.94
377.222	95.94
377.448	85.94
377.674	91.94
377.899	98.94
378.125	75.94
378.35	87.94
378.576	79.94
378.802	84.94
379.027	90.94
379.253	89.94
379.478	83.94
379.704	90.94
379.929	96.94
380.155	89.94
380.38	86.94
380.606	84.94
380.831	79.94
381.057	99.94
381.282	94.94
381.507	93.94
381.733	94.94
381.958	89.94
382.184	90.94
382.409	95.94
382.634	85.94
382.86	92.94
383.085	88.94
383.31	87.94
383.535	92.94
383.761	84.94
383.986	88.94
384.211	78.94
384.436	98.94
384.662	86.94
384.887	84.94
385.112	91.94
385.337	95.94
385.562	102.94
385.787	84.94
386.013	99.94
386.238	88.94
386.463	77.94
386.688	99.94
386.913	91.94
387.138	96.94
387.363	91.94
387.588	96.94
387.813	89.94
388.038	105.94
388.263	83.94
388.488	81.94
388.713	88.94
388.938	71.94
389.163	80.94
389.387	85.94
389.612	92.94
389.837	77.94
390.062	85.94
390.287	88.94
390.512	101.94
390.736	103.94
390.961	83.94
391.186	97.94
391.411	73.94
391.636	73.94
391.86	87.94
392.085	92.94
392.31	89.94
392.534	82.94
392.759	96.94
392.984	82.94
393.208	86.94
393.433	92.94
393.658	79.94
393.882	92.94
394.107	84.94
394.331	88.94
394.556	77.94
394.78	103.94
395.005	84.94
395.229	92.94
395.454	96.94
395.678	90.94
395.903	72.94
396.127	85.94
396.352	77.94
396.576	91.94
396.801	100.94
397.025	93.94
397.249	84.94
397.474	89.94
397.698	91.94
397.922	88.94
398.147	92.94
398.371	76.94
398.595	87.94
398.82	107.94
399.044	96.94
399.268	96.94
399.492	90.94
399.717	97.94
399.941	93.94
400.165	86.94
400.389	94.94
400.613	93.94
400.837	97.94
401.062	81.94
401.286	88.94
401.51	83.94
401.734	75.94
401.958	96.94
402.182	86.94
402.406	79.94
402.63	73.94
402.854	95.94
403.078	103.94
403.302	90.94
403.526	95.94
403.75	72.94
403.974	90.94
404.198	95.94
404.422	85.94
404.645	86.94
404.869	92.94
405.093	95.94
405.317	79.94
405.541	103.94
405.765	91.94
405.988	83.94
406.212	93.94
406.436	98.94
406.66	96.94
406.883	110.94
407.107	77.94
407.331	84.94
407.555	97.94
407.778	86.94
408.002	95.94
408.226	102.94
408.449	85.94
408.673	89.94
408.896	87.94
409.12	89.94
409.344	86.94
409.567	100.94
409.791	90.94
410.014	93.94
410.238	104.94
410.461	89.94
410.685	81.94
410.908	102.94
411.132	97.94
411.355	87.94
411.578	92.94
411.802	91.94
412.025	76.94
412.249	85.94
412.472	75.94
412.695	99.94
412.919	105.94
413.142	80.94
413.365	89.94
413.589	95.94
413.812	87.94
414.035	88.94
414.258	89.94
414.482	71.94
414.705	82.94
414.928	97.94
415.151	95.94
415.374	85.94
415.597	87.94
415.821	84.94
416.044	97.94
416.267	85.94
416.49	85.94
416.713	109.94
416.936	86.94
417.159	90.94
417.382	81.94
417.605	89.94
417.828	81.94
418.051	90.94
418.274	94.94
418.497	79.94
418.72	93.94
418.943	92.94
419.166	89.94
419.389	91.94
419.611	84.94
419.834	88.94
420.057	100.94
420.28	99.94
420.503	90.94
420.726	88.94
420.948	90.94
421.171	97.94
421.394	93.94
421.617	78.94
421.839	90.94
422.062	97.94
422.285	103.94
422.507	107.94
422.73	80.94
422.953	79.94
423.175	69.94
423.398	89.94
423.621	84.94
423.843	93.94
424.066	99.94
424.288	85.94
424.511	88.94
424.733	93.94
424.956	91.94
425.178	88.94
425.401	95.94
425.623	76.94
425.846	78.94
426.068	96.94
426.291	85.94
426.513	89.94
426.735	88.94
426.958	91.94
427.18	91.94
427.402	85.94
427.625	87.94
427.847	89.94
428.069	85.94
428.292	90.94
428.514	78.94
428.736	81.94
428.958	95.94
429.181	100.94
429.403	75.94
429.625	88.94
429.847	92.94
430.069	77.94
430.292	87.94
430.514	86.94
430.736	90.94
430.958	91.94
431.18	93.94
431.402	98.94
431.624	89.94
431.846	88.94
432.068	85.94
432.29	82.94
432.512	93.94
432.734	86.94
432.956	90.94
433.178	91.94
433.4	98.94
433.622	86.94
433.844	87.94
434.066	96.94
434.287	91.94
434.509	96.94
434.731	84.94
434.953	85.94
435.175	83.94
435.397	92.94
435.618	79.94
435.84	83.94
436.062	88.94
436.284	89.94
436.505	82.94
436.727	84.94
436.949	89.94
437.17	83.94
437.392	91.94
437.614	87.94
437.835	78.94
438.057	101.94
438.278	91.94
438.5	89.94
438.721	81.94
438.943	84.94
439.165	83.94
439.386	71.94
439.608	94.94
439.829	91.94
440.05	74.94
440.272	89.94
440.493	79.94
440.715	77.94
440.936	85.94
441.158	83.94
441.379	79.94
441.6	93.94
441.822	92.94
442.043	79.94
442.264	92.94
442.486	93.94
442.707	79.94
442.928	85.94
443.149	78.94
443.371	77.94
443.592	91.94
443.813	91.94
444.034	91.94
444.255	100.94
444.476	95.94
444.698	78.94
444.919	92.94
445.14	167.94
445.361	119.94
445.582	94.94
445.803	81.94
446.024	77.94
446.245	68.94
446.466	97.94
446.687	89.94
446.908	92.94
447.129	91.94
447.35	83.94
447.571	89.94
447.792	91.94
448.013	89.94
448.234	91.94
448.455	82.94
448.675	82.94
448.896	88.94
449.117	82.94
449.338	83.94
449.559	81.94
449.779	96.94
450	81.94
450.221	95.94
450.442	90.94
450.662	88.94
450.883	93.94
451.104	97.94
451.324	75.94
451.545	87.94
451.766	85.94
451.986	76.94
452.207	90.94
452.428	94.94
452.648	96.94
452.869	90.94
453.089	93.94
453.31	85.94
453.53	76.94
453.751	73.94
453.971	92.94
454.192	89.94
454.412	87.94
454.633	84.94
454.853	98.94
455.073	81.94
455.294	84.94
455.514	89.94
455.734	97.94
455.955	75.94
456.175	76.94
456.395	93.94
456.616	87.94
456.836	81.94
457.056	90.94
457.276	97.94
457.497	70.94
457.717	85.94
457.937	92.94
458.157	91.94
458.377	103.94
458.598	90.94
458.818	97.94
459.038	82.94
459.258	87.94
459.478	82.94
459.698	96.94
459.918	99.94
460.138	89.94
460.358	78.94
460.578	84.94
460.798	93.94
461.018	90.94
461.238	91.94
461.458	83.94
461.678	98.94
461.898	83.94
462.118	98.94
462.338	95.94
462.558	82.94
462.777	95.94
462.997	101.94
463.217	88.94
463.437	90.94
463.657	84.94
463.876	77.94
464.096	99.94
464.316	96.94
464.536	87.94
464.755	91.94
464.975	101.94
465.195	96.94
465.414	75.94
465.634	91.94
465.854	97.94
466.073	84.94
466.293	96.94
466.512	91.94
466.732	86.94
466.951	97.94
467.171	87.94
467.391	95.94
467.61	70.94
467.829	87.94
468.049	87.94
468.268	91.94
468.488	86.94
468.707	81.94
468.927	75.94
469.146	99.94
469.365	96.94
469.585	87.94
469.804	92.94
470.023	79.94
470.243	85.94
470.462	101.94
470.681	88.94
470.901	89.94
471.12	80.94
471.339	74.94
471.558	94.94
471.777	76.94
471.997	76.94
472.216	100.94
472.435	91.94
472.654	77.94
472.873	81.94
473.092	87.94
473.311	79.94
473.53	80.94
473.749	91.94
473.968	95.94
474.187	100.94
474.406	84.94
474.625	82.94
474.844	87.94
475.063	75.94
475.282	91.94
475.501	95.94
475.72	90.94
475.939	88.94
476.158	81.94
476.377	92.94
476.596	85.94
476.814	96.94
477.033	92.94
477.252	91.94
477.471	98.94
477.69	84.94
477.908	106.94
478.127	83.94
478.346	84.94
478.564	83.94
478.783	91.94
479.002	75.94
479.22	99.94
479.439	87.94
479.658	81.94
479.876	89.94
480.095	92.94
480.313	98.94
480.532	84.94
480.751	99.94
480.969	94.94
481.188	82.94
481.406	90.94
481.624	92.94
481.843	92.94
482.061	75.94
482.28	93.94
482.498	93.94
482.717	68.94
482.935	78.94
483.153	94.94
483.372	94.94
483.59	83.94
483.808	96.94
484.027	89.94
484.245	99.94
484.463	88.94
484.681	90.94
484.9	83.94
485.118	85.94
485.336	92.94
485.554	87.94
485.772	103.94
485.99	94.94
486.209	84.94
486.427	84.94
486.645	97.94
486.863	88.94
487.081	88.94
487.299	87.94
487.517	95.94
487.735	99.94
487.953	94.94
488.171	93.94
488.389	93.94
488.607	76.94
488.825	93.94
489.043	95.94
489.261	107.94
489.479	78.94
489.696	77.94
489.914	97.94
490.132	83.94
490.35	88.94
490.568	107.94
490.786	93.94
491.003	82.94
491.221	101.94
491.439	87.94
491.657	83.94
491.874	89.94
492.092	94.94
492.31	91.94
492.527	89.94
492.745	92.94
492.963	75.94
493.18	86.94
493.398	77.94
493.615	91.94
493.833	93.94
494.05	87.94
494.268	82.94
494.485	80.94
494.703	79.94
494.92	95.94
495.138	83.94
495.355	92.94
495.573	87.94
495.79	84.94
496.008	94.94
496.225	92.94
496.442	98.94
496.66	97.94
496.877	98.94
497.094	94.94
497.312	77.94
497.529	79.94
497.746	88.94
497.963	79.94
498.181	92.94
498.398	93.94
498.615	105.94
498.832	93.94
499.049	116.94
499.267	103.94
499.484	84.94
499.701	107.94
499.918	109.94
500.135	110.94
500.352	101.94
500.569	111.94
500.786	118.94
501.003	123.94
501.22	108.94
501.437	106.94
501.654	94.94
501.871	99.94
502.088	79.94
502.305	92.94
502.522	87.94
502.739	108.94
502.956	116.94
503.172	105.94
503.389	90.94
503.606	94.94
503.823	91.94
504.04	91.94
504.256	117.94
504.473	99.94
504.69	98.94
504.907	96.94
505.123	95.94
505.34	84.94
505.557	103.94
505.773	97.94
505.99	97.94
506.207	88.94
506.423	80.94
506.64	92.94
506.856	88.94
507.073	76.94
507.289	89.94
507.506	76.94
507.722	93.94
507.939	87.94
508.155	92.94
508.372	96.94
508.588	90.94
508.805	83.94
509.021	92.94
509.238	89.94
509.454	96.94
509.67	103.94
509.887	95.94
510.103	73.94
510.319	105.94
510.536	93.94
510.752	87.94
510.968	98.94
511.184	82.94
511.401	93.94
511.617	94.94
511.833	91.94
512.049	79.94
512.265	83.94
512.481	100.94
512.698	84.94
512.914	100.94
513.13	90.94
513.346	92.94
513.562	96.94
513.778	95.94
513.994	84.94
514.21	87.94
514.426	105.94
514.642	83.94
514.858	85.94
515.074	83.94
515.29	88.94
515.506	82.94
515.721	99.94
515.937	100.94
516.153	96.94
516.369	81.94
516.585	89.94
516.801	96.94
517.016	105.94
517.232	97.94
517.448	83.94
517.664	96.94
517.879	100.94
518.095	95.94
518.311	81.94
518.527	99.94
518.742	95.94
518.958	81.94
