Data from BG_HRD10591_061.txt Node
Date: Fri May 16 15:33:37 EDT 2025
User: Yrep
Spectrometer: HR+D1059
Trigger mode: 1
Integration Time (sec): 1.000000E-1
Scans to average: 1
Electric dark correction enabled: true
Nonlinearity correction enabled: false
Boxcar width: 0
XAxis mode: Wavelengths
Number of Pixels in Spectrum: 2048
>>>>>Begin Spectral Data<<<<<
223.165	-26.12
223.4	-26.12
223.635	-26.12
223.869	-24.12
224.104	-4.12
224.338	-19.12
224.573	-15.12
224.808	0.88
225.042	6.88
225.277	-12.12
225.511	-7.12
225.746	-6.12
225.98	6.88
226.215	15.88
226.449	19.88
226.683	17.88
226.918	17.88
227.152	27.88
227.387	40.88
227.621	43.88
227.856	45.88
228.09	59.88
228.324	34.88
228.559	50.88
228.793	56.88
229.027	58.88
229.262	67.88
229.496	72.88
229.73	64.88
229.964	73.88
230.199	56.88
230.433	59.88
230.667	66.88
230.901	70.88
231.136	72.88
231.37	63.88
231.604	68.88
231.838	78.88
232.072	92.88
232.306	71.88
232.541	69.88
232.775	77.88
233.009	79.88
233.243	80.88
233.477	93.88
233.711	71.88
233.945	69.88
234.179	95.88
234.413	85.88
234.647	86.88
234.881	81.88
235.115	78.88
235.349	75.88
235.583	80.88
235.817	79.88
236.051	82.88
236.285	87.88
236.519	62.88
236.753	74.88
236.987	75.88
237.221	57.88
237.455	81.88
237.689	83.88
237.922	87.88
238.156	72.88
238.39	94.88
238.624	73.88
238.858	79.88
239.091	84.88
239.325	81.88
239.559	83.88
239.793	71.88
240.027	71.88
240.26	79.88
240.494	87.88
240.728	84.88
240.961	72.88
241.195	78.88
241.429	86.88
241.662	85.88
241.896	69.88
242.13	87.88
242.363	71.88
242.597	73.88
242.83	83.88
243.064	71.88
243.298	85.88
243.531	80.88
243.765	79.88
243.998	81.88
244.232	92.88
244.465	79.88
244.699	81.88
244.932	73.88
245.166	66.88
245.399	65.88
245.633	74.88
245.866	82.88
246.099	90.88
246.333	76.88
246.566	79.88
246.8	86.88
247.033	92.88
247.266	85.88
247.5	73.88
247.733	77.88
247.966	87.88
248.2	82.88
248.433	70.88
248.666	79.88
248.899	80.88
249.133	90.88
249.366	81.88
249.599	85.88
249.832	101.88
250.066	86.88
250.299	96.88
250.532	80.88
250.765	89.88
250.998	76.88
251.231	78.88
251.465	74.88
251.698	61.88
251.931	75.88
252.164	86.88
252.397	82.88
252.63	95.88
252.863	90.88
253.096	73.88
253.329	72.88
253.562	83.88
253.795	84.88
254.028	73.88
254.261	93.88
254.494	80.88
254.727	88.88
254.96	69.88
255.193	66.88
255.426	71.88
255.659	87.88
255.892	77.88
256.124	81.88
256.357	91.88
256.59	75.88
256.823	73.88
257.056	78.88
257.289	82.88
257.521	80.88
257.754	53.88
257.987	75.88
258.22	84.88
258.452	72.88
258.685	78.88
258.918	93.88
259.151	89.88
259.383	83.88
259.616	66.88
259.849	76.88
260.081	81.88
260.314	80.88
260.547	77.88
260.779	64.88
261.012	81.88
261.244	86.88
261.477	73.88
261.71	82.88
261.942	65.88
262.175	75.88
262.407	81.88
262.64	79.88
262.872	80.88
263.105	79.88
263.337	87.88
263.57	91.88
263.802	77.88
264.035	85.88
264.267	87.88
264.499	89.88
264.732	90.88
264.964	75.88
265.197	78.88
265.429	78.88
265.661	73.88
265.894	87.88
266.126	77.88
266.358	87.88
266.591	73.88
266.823	85.88
267.055	78.88
267.287	88.88
267.52	93.88
267.752	78.88
267.984	87.88
268.216	75.88
268.448	90.88
268.681	81.88
268.913	67.88
269.145	81.88
269.377	92.88
269.609	82.88
269.841	79.88
270.073	92.88
270.306	87.88
270.538	94.88
270.77	89.88
271.002	66.88
271.234	84.88
271.466	99.88
271.698	76.88
271.93	101.88
272.162	85.88
272.394	82.88
272.626	94.88
272.858	85.88
273.09	93.88
273.322	94.88
273.553	95.88
273.785	76.88
274.017	81.88
274.249	82.88
274.481	80.88
274.713	93.88
274.945	74.88
275.176	95.88
275.408	72.88
275.64	83.88
275.872	75.88
276.104	87.88
276.335	86.88
276.567	85.88
276.799	79.88
277.031	77.88
277.262	89.88
277.494	74.88
277.726	79.88
277.957	73.88
278.189	91.88
278.421	89.88
278.652	91.88
278.884	92.88
279.115	79.88
279.347	78.88
279.579	83.88
279.81	90.88
280.042	85.88
280.273	100.88
280.505	93.88
280.736	89.88
280.968	84.88
281.199	86.88
281.431	86.88
281.662	74.88
281.894	83.88
282.125	92.88
282.356	78.88
282.588	83.88
282.819	81.88
283.051	79.88
283.282	98.88
283.513	79.88
283.745	80.88
283.976	91.88
284.207	81.88
284.439	76.88
284.67	95.88
284.901	105.88
285.132	87.88
285.364	93.88
285.595	89.88
285.826	79.88
286.057	89.88
286.288	84.88
286.52	91.88
286.751	94.88
286.982	79.88
287.213	91.88
287.444	94.88
287.675	76.88
287.906	89.88
288.138	85.88
288.369	75.88
288.6	89.88
288.831	93.88
289.062	86.88
289.293	87.88
289.524	93.88
289.755	81.88
289.986	74.88
290.217	83.88
290.448	87.88
290.679	83.88
290.91	91.88
291.141	86.88
291.371	84.88
291.602	85.88
291.833	88.88
292.064	68.88
292.295	87.88
292.526	84.88
292.757	97.88
292.987	85.88
293.218	61.88
293.449	82.88
293.68	86.88
293.91	78.88
294.141	86.88
294.372	90.88
294.603	79.88
294.833	88.88
295.064	75.88
295.295	80.88
295.525	86.88
295.756	91.88
295.987	80.88
296.217	87.88
296.448	78.88
296.679	88.88
296.909	91.88
297.14	85.88
297.37	89.88
297.601	89.88
297.831	92.88
298.062	83.88
298.292	84.88
298.523	98.88
298.753	81.88
298.984	73.88
299.214	83.88
299.445	84.88
299.675	74.88
299.905	91.88
300.136	75.88
300.366	88.88
300.597	102.88
300.827	87.88
301.057	90.88
301.288	94.88
301.518	88.88
301.748	84.88
301.979	109.88
302.209	90.88
302.439	69.88
302.669	85.88
302.9	92.88
303.13	84.88
303.36	92.88
303.59	63.88
303.82	89.88
304.051	99.88
304.281	95.88
304.511	91.88
304.741	90.88
304.971	85.88
305.201	78.88
305.431	85.88
305.661	85.88
305.891	82.88
306.121	94.88
306.352	89.88
306.582	75.88
306.812	97.88
307.042	91.88
307.272	77.88
307.502	82.88
307.731	87.88
307.961	87.88
308.191	85.88
308.421	90.88
308.651	78.88
308.881	92.88
309.111	93.88
309.341	83.88
309.571	95.88
309.8	88.88
310.03	98.88
310.26	99.88
310.49	90.88
310.72	85.88
310.949	85.88
311.179	93.88
311.409	91.88
311.639	87.88
311.868	80.88
312.098	81.88
312.328	99.88
312.557	77.88
312.787	77.88
313.017	101.88
313.246	79.88
313.476	90.88
313.706	89.88
313.935	89.88
314.165	90.88
314.394	97.88
314.624	94.88
314.853	97.88
315.083	89.88
315.312	86.88
315.542	75.88
315.771	78.88
316.001	79.88
316.23	89.88
316.46	90.88
316.689	89.88
316.919	90.88
317.148	80.88
317.377	104.88
317.607	81.88
317.836	76.88
318.065	88.88
318.295	88.88
318.524	79.88
318.753	81.88
318.983	77.88
319.212	83.88
319.441	89.88
319.67	96.88
319.9	96.88
320.129	82.88
320.358	95.88
320.587	103.88
320.816	87.88
321.046	94.88
321.275	94.88
321.504	79.88
321.733	90.88
321.962	89.88
322.191	80.88
322.42	90.88
322.649	75.88
322.878	93.88
323.108	94.88
323.337	107.88
323.566	94.88
323.795	98.88
324.024	96.88
324.253	85.88
324.482	77.88
324.71	82.88
324.939	79.88
325.168	98.88
325.397	81.88
325.626	90.88
325.855	83.88
326.084	79.88
326.313	78.88
326.542	85.88
326.77	76.88
326.999	87.88
327.228	73.88
327.457	79.88
327.686	87.88
327.914	74.88
328.143	82.88
328.372	84.88
328.6	86.88
328.829	86.88
329.058	98.88
329.287	88.88
329.515	92.88
329.744	92.88
329.972	81.88
330.201	76.88
330.43	96.88
330.658	96.88
330.887	89.88
331.115	75.88
331.344	98.88
331.572	105.88
331.801	89.88
332.03	106.88
332.258	96.88
332.486	98.88
332.715	84.88
332.943	84.88
333.172	78.88
333.4	97.88
333.629	80.88
333.857	82.88
334.085	81.88
334.314	79.88
334.542	95.88
334.771	88.88
334.999	82.88
335.227	98.88
335.455	76.88
335.684	99.88
335.912	86.88
336.14	86.88
336.369	88.88
336.597	83.88
336.825	99.88
337.053	79.88
337.281	84.88
337.51	85.88
337.738	86.88
337.966	94.88
338.194	85.88
338.422	95.88
338.65	85.88
338.878	83.88
339.106	87.88
339.334	105.88
339.562	77.88
339.79	81.88
340.018	88.88
340.246	94.88
340.474	81.88
340.702	80.88
340.93	84.88
341.158	83.88
341.386	73.88
341.614	83.88
341.842	91.88
342.07	97.88
342.298	95.88
342.526	81.88
342.754	94.88
342.981	94.88
343.209	84.88
343.437	100.88
343.665	95.88
343.893	95.88
344.12	95.88
344.348	96.88
344.576	81.88
344.804	101.88
345.031	93.88
345.259	100.88
345.487	76.88
345.714	83.88
345.942	93.88
346.17	93.88
346.397	76.88
346.625	78.88
346.853	77.88
347.08	99.88
347.308	92.88
347.535	93.88
347.763	95.88
347.99	85.88
348.218	80.88
348.445	92.88
348.673	98.88
348.9	94.88
349.128	94.88
349.355	90.88
349.583	87.88
349.81	91.88
350.037	98.88
350.265	83.88
350.492	88.88
350.72	83.88
350.947	77.88
351.174	88.88
351.402	93.88
351.629	85.88
351.856	89.88
352.083	81.88
352.311	75.88
352.538	76.88
352.765	78.88
352.992	93.88
353.22	105.88
353.447	77.88
353.674	87.88
353.901	92.88
354.128	66.88
354.355	90.88
354.583	86.88
354.81	81.88
355.037	90.88
355.264	99.88
355.491	107.88
355.718	82.88
355.945	87.88
356.172	91.88
356.399	96.88
356.626	86.88
356.853	88.88
357.08	91.88
357.307	87.88
357.534	89.88
357.761	86.88
357.988	97.88
358.215	84.88
358.441	105.88
358.668	99.88
358.895	88.88
359.122	82.88
359.349	97.88
359.576	104.88
359.802	105.88
360.029	76.88
360.256	83.88
360.483	92.88
360.709	86.88
360.936	97.88
361.163	86.88
361.39	90.88
361.616	83.88
361.843	100.88
362.07	97.88
362.296	91.88
362.523	87.88
362.749	92.88
362.976	77.88
363.203	89.88
363.429	85.88
363.656	78.88
363.882	96.88
364.109	105.88
364.335	79.88
364.562	85.88
364.788	71.88
365.015	79.88
365.241	87.88
365.468	93.88
365.694	74.88
365.92	91.88
366.147	79.88
366.373	95.88
366.599	75.88
366.826	83.88
367.052	85.88
367.278	87.88
367.505	86.88
367.731	94.88
367.957	77.88
368.184	89.88
368.41	88.88
368.636	91.88
368.862	83.88
369.089	91.88
369.315	96.88
369.541	106.88
369.767	94.88
369.993	75.88
370.219	90.88
370.445	110.88
370.672	86.88
370.898	77.88
371.124	85.88
371.35	82.88
371.576	98.88
371.802	89.88
372.028	103.88
372.254	87.88
372.48	69.88
372.706	87.88
372.932	89.88
373.158	90.88
373.384	93.88
373.61	97.88
373.835	85.88
374.061	89.88
374.287	89.88
374.513	81.88
374.739	104.88
374.965	93.88
375.191	91.88
375.416	93.88
375.642	88.88
375.868	87.88
376.094	95.88
376.319	80.88
376.545	81.88
376.771	87.88
376.997	92.88
377.222	88.88
377.448	90.88
377.674	90.88
377.899	85.88
378.125	83.88
378.35	87.88
378.576	101.88
378.802	80.88
379.027	79.88
379.253	75.88
379.478	102.88
379.704	81.88
379.929	84.88
380.155	81.88
380.38	97.88
380.606	72.88
380.831	88.88
381.057	91.88
381.282	84.88
381.507	85.88
381.733	94.88
381.958	85.88
382.184	77.88
382.409	70.88
382.634	80.88
382.86	103.88
383.085	101.88
383.31	91.88
383.535	96.88
383.761	91.88
383.986	89.88
384.211	78.88
384.436	83.88
384.662	68.88
384.887	89.88
385.112	80.88
385.337	83.88
385.562	87.88
385.787	94.88
386.013	97.88
386.238	87.88
386.463	82.88
386.688	95.88
386.913	85.88
387.138	91.88
387.363	91.88
387.588	80.88
387.813	105.88
388.038	101.88
388.263	89.88
388.488	76.88
388.713	76.88
388.938	76.88
389.163	81.88
389.387	88.88
389.612	98.88
389.837	88.88
390.062	87.88
390.287	77.88
390.512	95.88
390.736	90.88
390.961	79.88
391.186	99.88
391.411	82.88
391.636	88.88
391.86	88.88
392.085	88.88
392.31	93.88
392.534	88.88
392.759	90.88
392.984	85.88
393.208	89.88
393.433	96.88
393.658	79.88
393.882	90.88
394.107	90.88
394.331	90.88
394.556	87.88
394.78	80.88
395.005	94.88
395.229	100.88
395.454	87.88
395.678	86.88
395.903	94.88
396.127	98.88
396.352	102.88
396.576	85.88
396.801	78.88
397.025	101.88
397.249	78.88
397.474	79.88
397.698	92.88
397.922	84.88
398.147	82.88
398.371	93.88
398.595	85.88
398.82	85.88
399.044	93.88
399.268	95.88
399.492	91.88
399.717	83.88
399.941	101.88
400.165	94.88
400.389	91.88
400.613	90.88
400.837	91.88
401.062	74.88
401.286	97.88
401.51	93.88
401.734	74.88
401.958	87.88
402.182	88.88
402.406	90.88
402.63	85.88
402.854	86.88
403.078	95.88
403.302	90.88
403.526	98.88
403.75	93.88
403.974	87.88
404.198	90.88
404.422	85.88
404.645	93.88
404.869	91.88
405.093	86.88
405.317	80.88
405.541	95.88
405.765	90.88
405.988	83.88
406.212	79.88
406.436	80.88
406.66	97.88
406.883	90.88
407.107	89.88
407.331	95.88
407.555	78.88
407.778	91.88
408.002	78.88
408.226	101.88
408.449	88.88
408.673	93.88
408.896	83.88
409.12	93.88
409.344	77.88
409.567	95.88
409.791	92.88
410.014	72.88
410.238	102.88
410.461	92.88
410.685	94.88
410.908	93.88
411.132	85.88
411.355	81.88
411.578	90.88
411.802	75.88
412.025	88.88
412.249	82.88
412.472	101.88
412.695	95.88
412.919	91.88
413.142	73.88
413.365	86.88
413.589	78.88
413.812	91.88
414.035	100.88
414.258	86.88
414.482	89.88
414.705	86.88
414.928	90.88
415.151	92.88
415.374	82.88
415.597	71.88
415.821	83.88
416.044	88.88
416.267	89.88
416.49	92.88
416.713	97.88
416.936	95.88
417.159	83.88
417.382	95.88
417.605	96.88
417.828	84.88
418.051	88.88
418.274	98.88
418.497	84.88
418.72	80.88
418.943	85.88
419.166	88.88
419.389	102.88
419.611	93.88
419.834	87.88
420.057	76.88
420.28	77.88
420.503	93.88
420.726	84.88
420.948	74.88
421.171	73.88
421.394	83.88
421.617	85.88
421.839	82.88
422.062	96.88
422.285	85.88
422.507	90.88
422.73	89.88
422.953	87.88
423.175	88.88
423.398	97.88
423.621	112.88
423.843	112.88
424.066	93.88
424.288	76.88
424.511	85.88
424.733	87.88
424.956	80.88
425.178	93.88
425.401	86.88
425.623	90.88
425.846	101.88
426.068	89.88
426.291	97.88
426.513	92.88
426.735	94.88
426.958	86.88
427.18	89.88
427.402	76.88
427.625	85.88
427.847	89.88
428.069	93.88
428.292	71.88
428.514	86.88
428.736	89.88
428.958	89.88
429.181	88.88
429.403	98.88
429.625	99.88
429.847	73.88
430.069	95.88
430.292	82.88
430.514	94.88
430.736	85.88
430.958	87.88
431.18	86.88
431.402	85.88
431.624	80.88
431.846	69.88
432.068	104.88
432.29	99.88
432.512	89.88
432.734	82.88
432.956	83.88
433.178	89.88
433.4	96.88
433.622	84.88
433.844	103.88
434.066	93.88
434.287	78.88
434.509	86.88
434.731	93.88
434.953	80.88
435.175	82.88
435.397	80.88
435.618	76.88
435.84	75.88
436.062	103.88
436.284	91.88
436.505	99.88
436.727	97.88
436.949	86.88
437.17	84.88
437.392	91.88
437.614	95.88
437.835	98.88
438.057	81.88
438.278	90.88
438.5	85.88
438.721	83.88
438.943	85.88
439.165	89.88
439.386	78.88
439.608	84.88
439.829	86.88
440.05	85.88
440.272	90.88
440.493	89.88
440.715	89.88
440.936	100.88
441.158	89.88
441.379	87.88
441.6	67.88
441.822	80.88
442.043	93.88
442.264	87.88
442.486	85.88
442.707	92.88
442.928	83.88
443.149	93.88
443.371	97.88
443.592	89.88
443.813	91.88
444.034	88.88
444.255	91.88
444.476	82.88
444.698	93.88
444.919	96.88
445.14	177.88
445.361	118.88
445.582	91.88
445.803	89.88
446.024	86.88
446.245	90.88
446.466	94.88
446.687	87.88
446.908	89.88
447.129	85.88
447.35	90.88
447.571	97.88
447.792	73.88
448.013	87.88
448.234	87.88
448.455	87.88
448.675	84.88
448.896	84.88
449.117	84.88
449.338	87.88
449.559	92.88
449.779	76.88
450	88.88
450.221	84.88
450.442	97.88
450.662	90.88
450.883	82.88
451.104	91.88
451.324	96.88
451.545	76.88
451.766	85.88
451.986	84.88
452.207	81.88
452.428	91.88
452.648	101.88
452.869	92.88
453.089	84.88
453.31	102.88
453.53	81.88
453.751	73.88
453.971	83.88
454.192	90.88
454.412	96.88
454.633	95.88
454.853	72.88
455.073	97.88
455.294	98.88
455.514	94.88
455.734	103.88
455.955	84.88
456.175	101.88
456.395	89.88
456.616	89.88
456.836	79.88
457.056	81.88
457.276	81.88
457.497	85.88
457.717	75.88
457.937	80.88
458.157	93.88
458.377	82.88
458.598	77.88
458.818	78.88
459.038	88.88
459.258	91.88
459.478	88.88
459.698	94.88
459.918	78.88
460.138	72.88
460.358	87.88
460.578	94.88
460.798	88.88
461.018	79.88
461.238	88.88
461.458	91.88
461.678	87.88
461.898	86.88
462.118	93.88
462.338	82.88
462.558	91.88
462.777	83.88
462.997	84.88
463.217	94.88
463.437	90.88
463.657	80.88
463.876	85.88
464.096	83.88
464.316	90.88
464.536	109.88
464.755	101.88
464.975	99.88
465.195	95.88
465.414	89.88
465.634	87.88
465.854	84.88
466.073	100.88
466.293	88.88
466.512	82.88
466.732	96.88
466.951	81.88
467.171	90.88
467.391	90.88
467.61	98.88
467.829	82.88
468.049	88.88
468.268	97.88
468.488	88.88
468.707	90.88
468.927	96.88
469.146	98.88
469.365	101.88
469.585	79.88
469.804	91.88
470.023	103.88
470.243	81.88
470.462	86.88
470.681	97.88
470.901	76.88
471.12	79.88
471.339	83.88
471.558	87.88
471.777	74.88
471.997	75.88
472.216	94.88
472.435	87.88
472.654	72.88
472.873	87.88
473.092	78.88
473.311	86.88
473.53	101.88
473.749	87.88
473.968	96.88
474.187	94.88
474.406	92.88
474.625	79.88
474.844	86.88
475.063	94.88
475.282	89.88
475.501	83.88
475.72	99.88
475.939	74.88
476.158	90.88
476.377	83.88
476.596	81.88
476.814	105.88
477.033	97.88
477.252	103.88
477.471	89.88
477.69	84.88
477.908	86.88
478.127	85.88
478.346	93.88
478.564	83.88
478.783	97.88
479.002	84.88
479.22	82.88
479.439	94.88
479.658	69.88
479.876	78.88
480.095	87.88
480.313	89.88
480.532	93.88
480.751	95.88
480.969	84.88
481.188	87.88
481.406	90.88
481.624	87.88
481.843	77.88
482.061	94.88
482.28	90.88
482.498	87.88
482.717	102.88
482.935	97.88
483.153	89.88
483.372	77.88
483.59	77.88
483.808	93.88
484.027	99.88
484.245	86.88
484.463	87.88
484.681	83.88
484.9	83.88
485.118	87.88
485.336	87.88
485.554	84.88
485.772	87.88
485.99	102.88
486.209	90.88
486.427	96.88
486.645	85.88
486.863	82.88
487.081	90.88
487.299	79.88
487.517	83.88
487.735	87.88
487.953	99.88
488.171	90.88
488.389	87.88
488.607	94.88
488.825	95.88
489.043	86.88
489.261	99.88
489.479	86.88
489.696	88.88
489.914	95.88
490.132	90.88
490.35	83.88
490.568	87.88
490.786	97.88
491.003	88.88
491.221	82.88
491.439	78.88
491.657	87.88
491.874	74.88
492.092	92.88
492.31	77.88
492.527	90.88
492.745	75.88
492.963	84.88
493.18	96.88
493.398	85.88
493.615	88.88
493.833	92.88
494.05	96.88
494.268	102.88
494.485	94.88
494.703	88.88
494.92	91.88
495.138	82.88
495.355	97.88
495.573	86.88
495.79	80.88
496.008	90.88
496.225	95.88
496.442	88.88
496.66	79.88
496.877	89.88
497.094	95.88
497.312	101.88
497.529	94.88
497.746	95.88
497.963	80.88
498.181	82.88
498.398	89.88
498.615	95.88
498.832	91.88
499.049	82.88
499.267	107.88
499.484	109.88
499.701	105.88
499.918	119.88
500.135	88.88
500.352	100.88
500.569	103.88
500.786	112.88
501.003	122.88
501.22	91.88
501.437	101.88
501.654	95.88
501.871	101.88
502.088	93.88
502.305	97.88
502.522	91.88
502.739	93.88
502.956	91.88
503.172	83.88
503.389	78.88
503.606	83.88
503.823	92.88
504.04	91.88
504.256	115.88
504.473	88.88
504.69	90.88
504.907	94.88
505.123	94.88
505.34	76.88
505.557	79.88
505.773	96.88
505.99	85.88
506.207	79.88
506.423	95.88
506.64	80.88
506.856	79.88
507.073	89.88
507.289	86.88
507.506	94.88
507.722	92.88
507.939	79.88
508.155	107.88
508.372	93.88
508.588	88.88
508.805	91.88
509.021	82.88
509.238	82.88
509.454	97.88
509.67	93.88
509.887	99.88
510.103	85.88
510.319	89.88
510.536	77.88
510.752	79.88
510.968	86.88
511.184	75.88
511.401	93.88
511.617	93.88
511.833	93.88
512.049	95.88
512.265	92.88
512.481	94.88
512.698	71.88
512.914	80.88
513.13	91.88
513.346	80.88
513.562	98.88
513.778	92.88
513.994	102.88
514.21	92.88
514.426	94.88
514.642	104.88
514.858	90.88
515.074	90.88
515.29	105.88
515.506	88.88
515.721	98.88
515.937	102.88
516.153	82.88
516.369	96.88
516.585	101.88
516.801	81.88
517.016	94.88
517.232	104.88
517.448	93.88
517.664	81.88
517.879	95.88
518.095	92.88
518.311	87.88
518.527	85.88
518.742	98.88
518.958	86.88
519.173	103.88
