Data from BG_HRD10591_089.txt Node
Date: Fri May 16 15:33:51 EDT 2025
User: Yrep
Spectrometer: HR+D1059
Trigger mode: 1
Integration Time (sec): 1.000000E-1
Scans to average: 1
Electric dark correction enabled: true
Nonlinearity correction enabled: false
Boxcar width: 0
XAxis mode: Wavelengths
Number of Pixels in Spectrum: 2048
>>>>>Begin Spectral Data<<<<<
223.165	-19.81
223.4	-19.81
223.635	-19.81
223.869	-11.81
224.104	-6.81
224.338	-15.81
224.573	-2.81
224.808	-11.81
225.042	-8.81
225.277	1.19
225.511	-7.81
225.746	-4.81
225.98	9.19
226.215	1.19
226.449	15.19
226.683	18.19
226.918	13.19
227.152	32.19
227.387	26.19
227.621	47.19
227.856	53.19
228.09	51.19
228.324	65.19
228.559	56.19
228.793	73.19
229.027	60.19
229.262	75.19
229.496	73.19
229.73	74.19
229.964	65.19
230.199	67.19
230.433	69.19
230.667	77.19
230.901	69.19
231.136	69.19
231.37	66.19
231.604	65.19
231.838	79.19
232.072	81.19
232.306	91.19
232.541	87.19
232.775	93.19
233.009	85.19
233.243	89.19
233.477	73.19
233.711	89.19
233.945	72.19
234.179	64.19
234.413	81.19
234.647	94.19
234.881	85.19
235.115	80.19
235.349	81.19
235.583	62.19
235.817	83.19
236.051	76.19
236.285	85.19
236.519	81.19
236.753	82.19
236.987	62.19
237.221	75.19
237.455	78.19
237.689	84.19
237.922	77.19
238.156	83.19
238.39	71.19
238.624	73.19
238.858	76.19
239.091	89.19
239.325	71.19
239.559	75.19
239.793	62.19
240.027	82.19
240.26	77.19
240.494	66.19
240.728	75.19
240.961	63.19
241.195	85.19
241.429	69.19
241.662	70.19
241.896	73.19
242.13	75.19
242.363	67.19
242.597	88.19
242.83	69.19
243.064	82.19
243.298	74.19
243.531	78.19
243.765	83.19
243.998	100.19
244.232	91.19
244.465	77.19
244.699	75.19
244.932	73.19
245.166	71.19
245.399	86.19
245.633	87.19
245.866	70.19
246.099	89.19
246.333	91.19
246.566	77.19
246.8	89.19
247.033	78.19
247.266	67.19
247.5	73.19
247.733	80.19
247.966	75.19
248.2	88.19
248.433	79.19
248.666	64.19
248.899	83.19
249.133	75.19
249.366	93.19
249.599	86.19
249.832	86.19
250.066	69.19
250.299	88.19
250.532	73.19
250.765	80.19
250.998	86.19
251.231	68.19
251.465	90.19
251.698	75.19
251.931	70.19
252.164	57.19
252.397	90.19
252.63	77.19
252.863	79.19
253.096	85.19
253.329	73.19
253.562	81.19
253.795	88.19
254.028	82.19
254.261	80.19
254.494	91.19
254.727	80.19
254.96	81.19
255.193	80.19
255.426	80.19
255.659	80.19
255.892	83.19
256.124	73.19
256.357	74.19
256.59	87.19
256.823	87.19
257.056	78.19
257.289	89.19
257.521	81.19
257.754	83.19
257.987	88.19
258.22	65.19
258.452	80.19
258.685	88.19
258.918	76.19
259.151	75.19
259.383	89.19
259.616	89.19
259.849	90.19
260.081	76.19
260.314	83.19
260.547	77.19
260.779	89.19
261.012	93.19
261.244	72.19
261.477	83.19
261.71	96.19
261.942	83.19
262.175	84.19
262.407	76.19
262.64	87.19
262.872	79.19
263.105	89.19
263.337	87.19
263.57	86.19
263.802	78.19
264.035	86.19
264.267	77.19
264.499	72.19
264.732	81.19
264.964	87.19
265.197	73.19
265.429	91.19
265.661	81.19
265.894	86.19
266.126	75.19
266.358	83.19
266.591	80.19
266.823	81.19
267.055	71.19
267.287	79.19
267.52	90.19
267.752	87.19
267.984	85.19
268.216	76.19
268.448	89.19
268.681	68.19
268.913	86.19
269.145	78.19
269.377	86.19
269.609	95.19
269.841	97.19
270.073	103.19
270.306	83.19
270.538	89.19
270.77	89.19
271.002	80.19
271.234	95.19
271.466	78.19
271.698	77.19
271.93	77.19
272.162	98.19
272.394	90.19
272.626	73.19
272.858	91.19
273.09	79.19
273.322	85.19
273.553	70.19
273.785	72.19
274.017	85.19
274.249	86.19
274.481	69.19
274.713	71.19
274.945	91.19
275.176	95.19
275.408	86.19
275.64	91.19
275.872	94.19
276.104	82.19
276.335	72.19
276.567	83.19
276.799	74.19
277.031	66.19
277.262	88.19
277.494	89.19
277.726	75.19
277.957	70.19
278.189	91.19
278.421	94.19
278.652	75.19
278.884	86.19
279.115	93.19
279.347	89.19
279.579	75.19
279.81	78.19
280.042	75.19
280.273	85.19
280.505	77.19
280.736	89.19
280.968	77.19
281.199	91.19
281.431	87.19
281.662	80.19
281.894	77.19
282.125	84.19
282.356	85.19
282.588	88.19
282.819	96.19
283.051	62.19
283.282	85.19
283.513	89.19
283.745	91.19
283.976	90.19
284.207	93.19
284.439	89.19
284.67	81.19
284.901	81.19
285.132	81.19
285.364	86.19
285.595	77.19
285.826	85.19
286.057	80.19
286.288	80.19
286.52	79.19
286.751	83.19
286.982	80.19
287.213	81.19
287.444	93.19
287.675	89.19
287.906	83.19
288.138	73.19
288.369	74.19
288.6	85.19
288.831	87.19
289.062	87.19
289.293	87.19
289.524	91.19
289.755	70.19
289.986	75.19
290.217	67.19
290.448	86.19
290.679	85.19
290.91	98.19
291.141	80.19
291.371	83.19
291.602	77.19
291.833	91.19
292.064	87.19
292.295	87.19
292.526	83.19
292.757	76.19
292.987	75.19
293.218	81.19
293.449	86.19
293.68	94.19
293.91	79.19
294.141	90.19
294.372	73.19
294.603	96.19
294.833	80.19
295.064	78.19
295.295	87.19
295.525	86.19
295.756	77.19
295.987	79.19
296.217	82.19
296.448	90.19
296.679	82.19
296.909	83.19
297.14	89.19
297.37	97.19
297.601	86.19
297.831	76.19
298.062	89.19
298.292	97.19
298.523	96.19
298.753	81.19
298.984	92.19
299.214	79.19
299.445	91.19
299.675	94.19
299.905	83.19
300.136	78.19
300.366	75.19
300.597	90.19
300.827	89.19
301.057	80.19
301.288	78.19
301.518	77.19
301.748	77.19
301.979	93.19
302.209	87.19
302.439	82.19
302.669	85.19
302.9	84.19
303.13	83.19
303.36	89.19
303.59	80.19
303.82	71.19
304.051	86.19
304.281	89.19
304.511	93.19
304.741	85.19
304.971	74.19
305.201	82.19
305.431	99.19
305.661	87.19
305.891	73.19
306.121	89.19
306.352	88.19
306.582	88.19
306.812	99.19
307.042	81.19
307.272	87.19
307.502	86.19
307.731	102.19
307.961	82.19
308.191	74.19
308.421	80.19
308.651	79.19
308.881	85.19
309.111	92.19
309.341	89.19
309.571	68.19
309.8	85.19
310.03	90.19
310.26	76.19
310.49	92.19
310.72	87.19
310.949	81.19
311.179	78.19
311.409	93.19
311.639	86.19
311.868	73.19
312.098	77.19
312.328	76.19
312.557	93.19
312.787	80.19
313.017	81.19
313.246	95.19
313.476	87.19
313.706	67.19
313.935	71.19
314.165	71.19
314.394	90.19
314.624	82.19
314.853	81.19
315.083	80.19
315.312	90.19
315.542	82.19
315.771	73.19
316.001	90.19
316.23	77.19
316.46	93.19
316.689	74.19
316.919	89.19
317.148	82.19
317.377	84.19
317.607	80.19
317.836	77.19
318.065	85.19
318.295	86.19
318.524	81.19
318.753	89.19
318.983	73.19
319.212	93.19
319.441	89.19
319.67	75.19
319.9	89.19
320.129	85.19
320.358	86.19
320.587	90.19
320.816	85.19
321.046	82.19
321.275	90.19
321.504	80.19
321.733	73.19
321.962	82.19
322.191	79.19
322.42	83.19
322.649	79.19
322.878	90.19
323.108	79.19
323.337	89.19
323.566	90.19
323.795	97.19
324.024	81.19
324.253	92.19
324.482	72.19
324.71	89.19
324.939	83.19
325.168	78.19
325.397	79.19
325.626	91.19
325.855	77.19
326.084	91.19
326.313	94.19
326.542	87.19
326.77	96.19
326.999	73.19
327.228	75.19
327.457	89.19
327.686	71.19
327.914	92.19
328.143	101.19
328.372	77.19
328.6	79.19
328.829	82.19
329.058	74.19
329.287	85.19
329.515	101.19
329.744	88.19
329.972	93.19
330.201	79.19
330.43	85.19
330.658	83.19
330.887	84.19
331.115	73.19
331.344	81.19
331.572	79.19
331.801	82.19
332.03	87.19
332.258	83.19
332.486	85.19
332.715	82.19
332.943	89.19
333.172	82.19
333.4	79.19
333.629	89.19
333.857	98.19
334.085	85.19
334.314	85.19
334.542	107.19
334.771	79.19
334.999	87.19
335.227	88.19
335.455	90.19
335.684	75.19
335.912	73.19
336.14	74.19
336.369	81.19
336.597	86.19
336.825	96.19
337.053	75.19
337.281	82.19
337.51	86.19
337.738	101.19
337.966	87.19
338.194	72.19
338.422	84.19
338.65	82.19
338.878	94.19
339.106	76.19
339.334	81.19
339.562	80.19
339.79	91.19
340.018	93.19
340.246	89.19
340.474	102.19
340.702	87.19
340.93	80.19
341.158	81.19
341.386	81.19
341.614	84.19
341.842	83.19
342.07	84.19
342.298	87.19
342.526	71.19
342.754	78.19
342.981	89.19
343.209	91.19
343.437	99.19
343.665	74.19
343.893	84.19
344.12	101.19
344.348	88.19
344.576	89.19
344.804	86.19
345.031	76.19
345.259	66.19
345.487	77.19
345.714	84.19
345.942	81.19
346.17	80.19
346.397	69.19
346.625	81.19
346.853	83.19
347.08	73.19
347.308	85.19
347.535	89.19
347.763	89.19
347.99	81.19
348.218	101.19
348.445	77.19
348.673	75.19
348.9	80.19
349.128	74.19
349.355	91.19
349.583	86.19
349.81	78.19
350.037	77.19
350.265	86.19
350.492	82.19
350.72	78.19
350.947	83.19
351.174	83.19
351.402	85.19
351.629	81.19
351.856	99.19
352.083	86.19
352.311	75.19
352.538	80.19
352.765	71.19
352.992	88.19
353.22	71.19
353.447	85.19
353.674	81.19
353.901	91.19
354.128	82.19
354.355	99.19
354.583	81.19
354.81	81.19
355.037	68.19
355.264	78.19
355.491	82.19
355.718	73.19
355.945	87.19
356.172	85.19
356.399	89.19
356.626	96.19
356.853	81.19
357.08	83.19
357.307	66.19
357.534	89.19
357.761	81.19
357.988	84.19
358.215	91.19
358.441	81.19
358.668	82.19
358.895	81.19
359.122	86.19
359.349	83.19
359.576	87.19
359.802	73.19
360.029	88.19
360.256	85.19
360.483	88.19
360.709	89.19
360.936	81.19
361.163	80.19
361.39	80.19
361.616	80.19
361.843	86.19
362.07	84.19
362.296	99.19
362.523	80.19
362.749	80.19
362.976	70.19
363.203	93.19
363.429	91.19
363.656	81.19
363.882	80.19
364.109	76.19
364.335	87.19
364.562	78.19
364.788	82.19
365.015	86.19
365.241	76.19
365.468	96.19
365.694	76.19
365.92	87.19
366.147	83.19
366.373	85.19
366.599	77.19
366.826	82.19
367.052	70.19
367.278	92.19
367.505	85.19
367.731	83.19
367.957	85.19
368.184	81.19
368.41	81.19
368.636	95.19
368.862	91.19
369.089	78.19
369.315	71.19
369.541	91.19
369.767	82.19
369.993	80.19
370.219	84.19
370.445	80.19
370.672	85.19
370.898	85.19
371.124	73.19
371.35	82.19
371.576	85.19
371.802	85.19
372.028	92.19
372.254	75.19
372.48	81.19
372.706	75.19
372.932	92.19
373.158	96.19
373.384	82.19
373.61	98.19
373.835	82.19
374.061	74.19
374.287	75.19
374.513	78.19
374.739	83.19
374.965	79.19
375.191	74.19
375.416	91.19
375.642	79.19
375.868	72.19
376.094	97.19
376.319	93.19
376.545	82.19
376.771	88.19
376.997	89.19
377.222	86.19
377.448	83.19
377.674	93.19
377.899	81.19
378.125	85.19
378.35	86.19
378.576	79.19
378.802	86.19
379.027	86.19
379.253	89.19
379.478	75.19
379.704	73.19
379.929	75.19
380.155	75.19
380.38	82.19
380.606	79.19
380.831	74.19
381.057	65.19
381.282	87.19
381.507	75.19
381.733	88.19
381.958	78.19
382.184	65.19
382.409	77.19
382.634	81.19
382.86	83.19
383.085	74.19
383.31	62.19
383.535	86.19
383.761	86.19
383.986	89.19
384.211	90.19
384.436	79.19
384.662	71.19
384.887	83.19
385.112	83.19
385.337	67.19
385.562	94.19
385.787	91.19
386.013	80.19
386.238	94.19
386.463	86.19
386.688	88.19
386.913	91.19
387.138	86.19
387.363	65.19
387.588	71.19
387.813	88.19
388.038	91.19
388.263	83.19
388.488	85.19
388.713	85.19
388.938	80.19
389.163	71.19
389.387	76.19
389.612	91.19
389.837	74.19
390.062	83.19
390.287	90.19
390.512	73.19
390.736	93.19
390.961	85.19
391.186	91.19
391.411	77.19
391.636	84.19
391.86	79.19
392.085	66.19
392.31	85.19
392.534	79.19
392.759	87.19
392.984	91.19
393.208	80.19
393.433	71.19
393.658	77.19
393.882	73.19
394.107	66.19
394.331	69.19
394.556	83.19
394.78	88.19
395.005	84.19
395.229	84.19
395.454	62.19
395.678	63.19
395.903	71.19
396.127	85.19
396.352	76.19
396.576	84.19
396.801	81.19
397.025	68.19
397.249	78.19
397.474	87.19
397.698	87.19
397.922	75.19
398.147	84.19
398.371	66.19
398.595	88.19
398.82	95.19
399.044	81.19
399.268	89.19
399.492	88.19
399.717	75.19
399.941	78.19
400.165	71.19
400.389	80.19
400.613	85.19
400.837	67.19
401.062	69.19
401.286	85.19
401.51	87.19
401.734	72.19
401.958	86.19
402.182	89.19
402.406	67.19
402.63	82.19
402.854	87.19
403.078	81.19
403.302	87.19
403.526	81.19
403.75	81.19
403.974	72.19
404.198	67.19
404.422	88.19
404.645	93.19
404.869	79.19
405.093	73.19
405.317	65.19
405.541	90.19
405.765	89.19
405.988	82.19
406.212	73.19
406.436	84.19
406.66	82.19
406.883	71.19
407.107	70.19
407.331	82.19
407.555	84.19
407.778	77.19
408.002	78.19
408.226	75.19
408.449	71.19
408.673	65.19
408.896	61.19
409.12	75.19
409.344	72.19
409.567	77.19
409.791	75.19
410.014	83.19
410.238	69.19
410.461	77.19
410.685	75.19
410.908	66.19
411.132	79.19
411.355	81.19
411.578	75.19
411.802	71.19
412.025	79.19
412.249	82.19
412.472	77.19
412.695	75.19
412.919	69.19
413.142	72.19
413.365	85.19
413.589	71.19
413.812	77.19
414.035	96.19
414.258	79.19
414.482	78.19
414.705	88.19
414.928	79.19
415.151	69.19
415.374	84.19
415.597	73.19
415.821	86.19
416.044	85.19
416.267	81.19
416.49	85.19
416.713	68.19
416.936	84.19
417.159	85.19
417.382	77.19
417.605	87.19
417.828	87.19
418.051	75.19
418.274	63.19
418.497	55.19
418.72	77.19
418.943	70.19
419.166	77.19
419.389	83.19
419.611	70.19
419.834	89.19
420.057	87.19
420.28	75.19
420.503	70.19
420.726	79.19
420.948	76.19
421.171	82.19
421.394	78.19
421.617	67.19
421.839	64.19
422.062	85.19
422.285	81.19
422.507	79.19
422.73	78.19
422.953	90.19
423.175	83.19
423.398	86.19
423.621	91.19
423.843	74.19
424.066	78.19
424.288	69.19
424.511	63.19
424.733	85.19
424.956	88.19
425.178	81.19
425.401	75.19
425.623	82.19
425.846	82.19
426.068	80.19
426.291	80.19
426.513	77.19
426.735	89.19
426.958	72.19
427.18	85.19
427.402	89.19
427.625	75.19
427.847	79.19
428.069	74.19
428.292	78.19
428.514	78.19
428.736	88.19
428.958	78.19
429.181	74.19
429.403	87.19
429.625	62.19
429.847	81.19
430.069	85.19
430.292	96.19
430.514	83.19
430.736	88.19
430.958	77.19
431.18	77.19
431.402	90.19
431.624	69.19
431.846	81.19
432.068	77.19
432.29	88.19
432.512	70.19
432.734	93.19
432.956	80.19
433.178	77.19
433.4	79.19
433.622	87.19
433.844	87.19
434.066	72.19
434.287	86.19
434.509	81.19
434.731	89.19
434.953	89.19
435.175	94.19
435.397	63.19
435.618	66.19
435.84	73.19
436.062	87.19
436.284	63.19
436.505	78.19
436.727	86.19
436.949	92.19
437.17	57.19
437.392	69.19
437.614	90.19
437.835	86.19
438.057	82.19
438.278	85.19
438.5	75.19
438.721	68.19
438.943	74.19
439.165	81.19
439.386	90.19
439.608	80.19
439.829	71.19
440.05	88.19
440.272	77.19
440.493	85.19
440.715	73.19
440.936	87.19
441.158	74.19
441.379	78.19
441.6	76.19
441.822	79.19
442.043	89.19
442.264	78.19
442.486	81.19
442.707	78.19
442.928	74.19
443.149	77.19
443.371	65.19
443.592	81.19
443.813	72.19
444.034	79.19
444.255	80.19
444.476	91.19
444.698	85.19
444.919	76.19
445.14	128.19
445.361	92.19
445.582	76.19
445.803	78.19
446.024	75.19
446.245	81.19
446.466	74.19
446.687	83.19
446.908	90.19
447.129	69.19
447.35	73.19
447.571	83.19
447.792	76.19
448.013	86.19
448.234	84.19
448.455	88.19
448.675	91.19
448.896	71.19
449.117	69.19
449.338	85.19
449.559	87.19
449.779	72.19
450	73.19
450.221	78.19
450.442	81.19
450.662	77.19
450.883	84.19
451.104	74.19
451.324	85.19
451.545	70.19
451.766	71.19
451.986	79.19
452.207	78.19
452.428	88.19
452.648	76.19
452.869	69.19
453.089	81.19
453.31	81.19
453.53	64.19
453.751	81.19
453.971	70.19
454.192	77.19
454.412	64.19
454.633	61.19
454.853	72.19
455.073	71.19
455.294	83.19
455.514	80.19
455.734	66.19
455.955	82.19
456.175	74.19
456.395	79.19
456.616	88.19
456.836	89.19
457.056	82.19
457.276	82.19
457.497	73.19
457.717	73.19
457.937	67.19
458.157	88.19
458.377	73.19
458.598	87.19
458.818	89.19
459.038	78.19
459.258	73.19
459.478	87.19
459.698	89.19
459.918	81.19
460.138	83.19
460.358	72.19
460.578	79.19
460.798	65.19
461.018	85.19
461.238	79.19
461.458	90.19
461.678	80.19
461.898	67.19
462.118	75.19
462.338	81.19
462.558	69.19
462.777	77.19
462.997	78.19
463.217	76.19
463.437	81.19
463.657	78.19
463.876	83.19
464.096	77.19
464.316	89.19
464.536	82.19
464.755	84.19
464.975	74.19
465.195	89.19
465.414	81.19
465.634	73.19
465.854	87.19
466.073	69.19
466.293	65.19
466.512	82.19
466.732	88.19
466.951	72.19
467.171	78.19
467.391	87.19
467.61	86.19
467.829	87.19
468.049	75.19
468.268	75.19
468.488	72.19
468.707	86.19
468.927	71.19
469.146	80.19
469.365	88.19
469.585	77.19
469.804	69.19
470.023	75.19
470.243	75.19
470.462	91.19
470.681	84.19
470.901	79.19
471.12	65.19
471.339	78.19
471.558	86.19
471.777	87.19
471.997	67.19
472.216	92.19
472.435	85.19
472.654	82.19
472.873	83.19
473.092	81.19
473.311	77.19
473.53	71.19
473.749	93.19
473.968	94.19
474.187	80.19
474.406	86.19
474.625	73.19
474.844	73.19
475.063	62.19
475.282	81.19
475.501	89.19
475.72	85.19
475.939	85.19
476.158	81.19
476.377	74.19
476.596	85.19
476.814	81.19
477.033	86.19
477.252	76.19
477.471	82.19
477.69	84.19
477.908	77.19
478.127	81.19
478.346	74.19
478.564	72.19
478.783	72.19
479.002	72.19
479.22	83.19
479.439	82.19
479.658	66.19
479.876	83.19
480.095	93.19
480.313	65.19
480.532	90.19
480.751	77.19
480.969	69.19
481.188	84.19
481.406	86.19
481.624	71.19
481.843	89.19
482.061	71.19
482.28	72.19
482.498	95.19
482.717	80.19
482.935	86.19
483.153	71.19
483.372	74.19
483.59	86.19
483.808	77.19
484.027	92.19
484.245	71.19
484.463	63.19
484.681	81.19
484.9	82.19
485.118	75.19
485.336	84.19
485.554	75.19
485.772	80.19
485.99	85.19
486.209	77.19
486.427	85.19
486.645	59.19
486.863	78.19
487.081	86.19
487.299	74.19
487.517	87.19
487.735	77.19
487.953	61.19
488.171	81.19
488.389	81.19
488.607	90.19
488.825	75.19
489.043	90.19
489.261	83.19
489.479	78.19
489.696	89.19
489.914	84.19
490.132	71.19
490.35	90.19
490.568	85.19
490.786	75.19
491.003	89.19
491.221	73.19
491.439	70.19
491.657	81.19
491.874	73.19
492.092	93.19
492.31	78.19
492.527	87.19
492.745	83.19
492.963	80.19
493.18	85.19
493.398	82.19
493.615	75.19
493.833	79.19
494.05	67.19
494.268	67.19
494.485	82.19
494.703	78.19
494.92	92.19
495.138	70.19
495.355	78.19
495.573	82.19
495.79	79.19
496.008	79.19
496.225	71.19
496.442	80.19
496.66	82.19
496.877	87.19
497.094	71.19
497.312	85.19
497.529	69.19
497.746	77.19
497.963	62.19
498.181	77.19
498.398	79.19
498.615	88.19
498.832	79.19
499.049	85.19
499.267	88.19
499.484	77.19
499.701	75.19
499.918	74.19
500.135	73.19
500.352	78.19
500.569	92.19
500.786	83.19
501.003	75.19
501.22	87.19
501.437	79.19
501.654	89.19
501.871	78.19
502.088	74.19
502.305	79.19
502.522	81.19
502.739	87.19
502.956	80.19
503.172	73.19
503.389	70.19
503.606	75.19
503.823	67.19
504.04	90.19
504.256	91.19
504.473	81.19
504.69	90.19
504.907	91.19
505.123	85.19
505.34	93.19
505.557	87.19
505.773	95.19
505.99	88.19
506.207	82.19
506.423	83.19
506.64	93.19
506.856	86.19
507.073	77.19
507.289	77.19
507.506	86.19
507.722	89.19
507.939	77.19
508.155	78.19
508.372	82.19
508.588	85.19
508.805	80.19
509.021	85.19
509.238	78.19
509.454	89.19
509.67	75.19
509.887	91.19
510.103	88.19
510.319	93.19
510.536	91.19
510.752	81.19
510.968	89.19
511.184	65.19
511.401	83.19
511.617	77.19
511.833	83.19
512.049	85.19
512.265	90.19
512.481	79.19
512.698	85.19
512.914	87.19
513.13	78.19
513.346	86.19
513.562	86.19
513.778	81.19
513.994	73.19
514.21	91.19
514.426	89.19
514.642	96.19
514.858	75.19
515.074	93.19
515.29	94.19
515.506	86.19
515.721	87.19
515.937	82.19
516.153	75.19
516.369	90.19
516.585	82.19
516.801	80.19
517.016	88.19
517.232	84.19
517.448	83.19
517.664	85.19
517.879	93.19
518.095	94.19
518.311	87.19
518.527	80.19
518.742	73.19
518.958	97.19
519.173	87.19
519.389	75.19
519.605	76.19
519.82	83.19
520.036	85.19
520.251	75.19
