Data from BG_HRD10591_037.txt Node
Date: Fri May 16 15:33:25 EDT 2025
User: Yrep
Spectrometer: HR+D1059
Trigger mode: 1
Integration Time (sec): 1.000000E-1
Scans to average: 1
Electric dark correction enabled: true
Nonlinearity correction enabled: false
Boxcar width: 0
XAxis mode: Wavelengths
Number of Pixels in Spectrum: 2048
>>>>>Begin Spectral Data<<<<<
223.165	-5.81
223.4	-5.81
223.635	-5.81
223.869	-28.81
224.104	-12.81
224.338	-5.81
224.573	-17.81
224.808	-10.81
225.042	-3.81
225.277	4.19
225.511	-15.81
225.746	7.19
225.98	3.19
226.215	16.19
226.449	11.19
226.683	14.19
226.918	26.19
227.152	19.19
227.387	44.19
227.621	32.19
227.856	43.19
228.09	54.19
228.324	57.19
228.559	54.19
228.793	72.19
229.027	38.19
229.262	62.19
229.496	81.19
229.73	66.19
229.964	68.19
230.199	67.19
230.433	68.19
230.667	72.19
230.901	79.19
231.136	69.19
231.37	88.19
231.604	88.19
231.838	77.19
232.072	88.19
232.306	84.19
232.541	67.19
232.775	76.19
233.009	78.19
233.243	84.19
233.477	77.19
233.711	70.19
233.945	72.19
234.179	69.19
234.413	89.19
234.647	80.19
234.881	72.19
235.115	56.19
235.349	76.19
235.583	84.19
235.817	70.19
236.051	82.19
236.285	82.19
236.519	76.19
236.753	72.19
236.987	82.19
237.221	86.19
237.455	72.19
237.689	82.19
237.922	78.19
238.156	71.19
238.39	73.19
238.624	66.19
238.858	91.19
239.091	76.19
239.325	76.19
239.559	57.19
239.793	60.19
240.027	79.19
240.26	58.19
240.494	82.19
240.728	86.19
240.961	64.19
241.195	63.19
241.429	66.19
241.662	70.19
241.896	77.19
242.13	69.19
242.363	73.19
242.597	75.19
242.83	59.19
243.064	67.19
243.298	70.19
243.531	66.19
243.765	77.19
243.998	56.19
244.232	68.19
244.465	59.19
244.699	66.19
244.932	66.19
245.166	81.19
245.399	73.19
245.633	83.19
245.866	74.19
246.099	81.19
246.333	81.19
246.566	71.19
246.8	88.19
247.033	89.19
247.266	83.19
247.5	55.19
247.733	79.19
247.966	58.19
248.2	58.19
248.433	76.19
248.666	64.19
248.899	73.19
249.133	63.19
249.366	73.19
249.599	70.19
249.832	68.19
250.066	68.19
250.299	60.19
250.532	80.19
250.765	66.19
250.998	82.19
251.231	81.19
251.465	63.19
251.698	75.19
251.931	75.19
252.164	70.19
252.397	87.19
252.63	82.19
252.863	76.19
253.096	72.19
253.329	85.19
253.562	72.19
253.795	85.19
254.028	85.19
254.261	71.19
254.494	68.19
254.727	70.19
254.96	72.19
255.193	72.19
255.426	88.19
255.659	69.19
255.892	79.19
256.124	86.19
256.357	74.19
256.59	78.19
256.823	67.19
257.056	74.19
257.289	76.19
257.521	72.19
257.754	77.19
257.987	78.19
258.22	62.19
258.452	64.19
258.685	62.19
258.918	76.19
259.151	94.19
259.383	84.19
259.616	70.19
259.849	78.19
260.081	79.19
260.314	78.19
260.547	69.19
260.779	61.19
261.012	86.19
261.244	67.19
261.477	82.19
261.71	81.19
261.942	71.19
262.175	74.19
262.407	72.19
262.64	70.19
262.872	76.19
263.105	68.19
263.337	81.19
263.57	70.19
263.802	75.19
264.035	92.19
264.267	63.19
264.499	80.19
264.732	80.19
264.964	73.19
265.197	64.19
265.429	80.19
265.661	76.19
265.894	73.19
266.126	73.19
266.358	82.19
266.591	80.19
266.823	78.19
267.055	73.19
267.287	87.19
267.52	75.19
267.752	79.19
267.984	74.19
268.216	66.19
268.448	92.19
268.681	71.19
268.913	68.19
269.145	97.19
269.377	78.19
269.609	77.19
269.841	81.19
270.073	70.19
270.306	74.19
270.538	78.19
270.77	70.19
271.002	71.19
271.234	81.19
271.466	76.19
271.698	80.19
271.93	71.19
272.162	84.19
272.394	80.19
272.626	74.19
272.858	81.19
273.09	76.19
273.322	93.19
273.553	76.19
273.785	70.19
274.017	69.19
274.249	85.19
274.481	81.19
274.713	70.19
274.945	76.19
275.176	80.19
275.408	78.19
275.64	73.19
275.872	97.19
276.104	68.19
276.335	72.19
276.567	85.19
276.799	69.19
277.031	88.19
277.262	78.19
277.494	84.19
277.726	88.19
277.957	83.19
278.189	66.19
278.421	85.19
278.652	74.19
278.884	80.19
279.115	81.19
279.347	73.19
279.579	98.19
279.81	83.19
280.042	80.19
280.273	77.19
280.505	96.19
280.736	83.19
280.968	84.19
281.199	84.19
281.431	69.19
281.662	69.19
281.894	98.19
282.125	78.19
282.356	69.19
282.588	79.19
282.819	80.19
283.051	80.19
283.282	86.19
283.513	76.19
283.745	85.19
283.976	69.19
284.207	79.19
284.439	83.19
284.67	79.19
284.901	93.19
285.132	88.19
285.364	77.19
285.595	81.19
285.826	85.19
286.057	97.19
286.288	91.19
286.52	91.19
286.751	87.19
286.982	91.19
287.213	87.19
287.444	71.19
287.675	77.19
287.906	82.19
288.138	83.19
288.369	86.19
288.6	77.19
288.831	74.19
289.062	80.19
289.293	82.19
289.524	90.19
289.755	80.19
289.986	92.19
290.217	81.19
290.448	82.19
290.679	86.19
290.91	104.19
291.141	78.19
291.371	91.19
291.602	80.19
291.833	75.19
292.064	85.19
292.295	84.19
292.526	89.19
292.757	86.19
292.987	85.19
293.218	83.19
293.449	95.19
293.68	76.19
293.91	85.19
294.141	93.19
294.372	84.19
294.603	90.19
294.833	70.19
295.064	83.19
295.295	89.19
295.525	80.19
295.756	91.19
295.987	74.19
296.217	90.19
296.448	91.19
296.679	89.19
296.909	91.19
297.14	89.19
297.37	86.19
297.601	87.19
297.831	67.19
298.062	80.19
298.292	83.19
298.523	96.19
298.753	83.19
298.984	82.19
299.214	80.19
299.445	92.19
299.675	85.19
299.905	87.19
300.136	96.19
300.366	79.19
300.597	70.19
300.827	92.19
301.057	89.19
301.288	94.19
301.518	92.19
301.748	80.19
301.979	99.19
302.209	92.19
302.439	80.19
302.669	78.19
302.9	93.19
303.13	89.19
303.36	87.19
303.59	73.19
303.82	83.19
304.051	86.19
304.281	81.19
304.511	77.19
304.741	84.19
304.971	93.19
305.201	74.19
305.431	86.19
305.661	70.19
305.891	76.19
306.121	77.19
306.352	79.19
306.582	84.19
306.812	86.19
307.042	88.19
307.272	82.19
307.502	83.19
307.731	90.19
307.961	82.19
308.191	78.19
308.421	73.19
308.651	84.19
308.881	82.19
309.111	80.19
309.341	88.19
309.571	74.19
309.8	98.19
310.03	56.19
310.26	71.19
310.49	80.19
310.72	74.19
310.949	91.19
311.179	78.19
311.409	82.19
311.639	87.19
311.868	76.19
312.098	73.19
312.328	83.19
312.557	86.19
312.787	62.19
313.017	86.19
313.246	76.19
313.476	90.19
313.706	79.19
313.935	91.19
314.165	69.19
314.394	85.19
314.624	76.19
314.853	76.19
315.083	81.19
315.312	101.19
315.542	80.19
315.771	72.19
316.001	84.19
316.23	76.19
316.46	80.19
316.689	73.19
316.919	85.19
317.148	77.19
317.377	90.19
317.607	89.19
317.836	86.19
318.065	70.19
318.295	88.19
318.524	82.19
318.753	93.19
318.983	89.19
319.212	74.19
319.441	74.19
319.67	77.19
319.9	87.19
320.129	69.19
320.358	68.19
320.587	76.19
320.816	81.19
321.046	79.19
321.275	81.19
321.504	88.19
321.733	80.19
321.962	90.19
322.191	74.19
322.42	68.19
322.649	80.19
322.878	72.19
323.108	79.19
323.337	84.19
323.566	93.19
323.795	100.19
324.024	72.19
324.253	98.19
324.482	80.19
324.71	93.19
324.939	89.19
325.168	77.19
325.397	90.19
325.626	91.19
325.855	91.19
326.084	82.19
326.313	82.19
326.542	80.19
326.77	86.19
326.999	75.19
327.228	88.19
327.457	85.19
327.686	92.19
327.914	84.19
328.143	84.19
328.372	80.19
328.6	78.19
328.829	80.19
329.058	80.19
329.287	82.19
329.515	89.19
329.744	82.19
329.972	88.19
330.201	76.19
330.43	91.19
330.658	85.19
330.887	91.19
331.115	84.19
331.344	85.19
331.572	82.19
331.801	88.19
332.03	86.19
332.258	89.19
332.486	85.19
332.715	76.19
332.943	86.19
333.172	88.19
333.4	88.19
333.629	83.19
333.857	70.19
334.085	91.19
334.314	90.19
334.542	84.19
334.771	87.19
334.999	93.19
335.227	115.19
335.455	73.19
335.684	98.19
335.912	87.19
336.14	88.19
336.369	67.19
336.597	72.19
336.825	84.19
337.053	83.19
337.281	81.19
337.51	92.19
337.738	84.19
337.966	92.19
338.194	90.19
338.422	84.19
338.65	76.19
338.878	84.19
339.106	90.19
339.334	84.19
339.562	82.19
339.79	87.19
340.018	72.19
340.246	88.19
340.474	74.19
340.702	88.19
340.93	85.19
341.158	77.19
341.386	85.19
341.614	86.19
341.842	80.19
342.07	76.19
342.298	90.19
342.526	68.19
342.754	74.19
342.981	75.19
343.209	80.19
343.437	100.19
343.665	88.19
343.893	74.19
344.12	83.19
344.348	92.19
344.576	84.19
344.804	86.19
345.031	88.19
345.259	82.19
345.487	80.19
345.714	74.19
345.942	83.19
346.17	88.19
346.397	82.19
346.625	70.19
346.853	85.19
347.08	87.19
347.308	77.19
347.535	74.19
347.763	76.19
347.99	85.19
348.218	85.19
348.445	93.19
348.673	56.19
348.9	86.19
349.128	75.19
349.355	89.19
349.583	85.19
349.81	80.19
350.037	73.19
350.265	88.19
350.492	78.19
350.72	81.19
350.947	76.19
351.174	75.19
351.402	87.19
351.629	70.19
351.856	73.19
352.083	92.19
352.311	85.19
352.538	88.19
352.765	76.19
352.992	83.19
353.22	83.19
353.447	86.19
353.674	91.19
353.901	101.19
354.128	85.19
354.355	84.19
354.583	79.19
354.81	81.19
355.037	76.19
355.264	85.19
355.491	68.19
355.718	74.19
355.945	78.19
356.172	81.19
356.399	70.19
356.626	80.19
356.853	84.19
357.08	88.19
357.307	77.19
357.534	81.19
357.761	90.19
357.988	85.19
358.215	74.19
358.441	75.19
358.668	77.19
358.895	76.19
359.122	82.19
359.349	83.19
359.576	83.19
359.802	72.19
360.029	80.19
360.256	87.19
360.483	80.19
360.709	78.19
360.936	86.19
361.163	86.19
361.39	75.19
361.616	90.19
361.843	91.19
362.07	91.19
362.296	83.19
362.523	73.19
362.749	93.19
362.976	96.19
363.203	98.19
363.429	88.19
363.656	79.19
363.882	81.19
364.109	87.19
364.335	71.19
364.562	61.19
364.788	76.19
365.015	76.19
365.241	87.19
365.468	86.19
365.694	85.19
365.92	86.19
366.147	76.19
366.373	70.19
366.599	64.19
366.826	70.19
367.052	81.19
367.278	73.19
367.505	99.19
367.731	98.19
367.957	73.19
368.184	80.19
368.41	80.19
368.636	73.19
368.862	93.19
369.089	86.19
369.315	77.19
369.541	79.19
369.767	70.19
369.993	75.19
370.219	73.19
370.445	83.19
370.672	73.19
370.898	85.19
371.124	81.19
371.35	77.19
371.576	85.19
371.802	81.19
372.028	72.19
372.254	105.19
372.48	76.19
372.706	82.19
372.932	74.19
373.158	72.19
373.384	63.19
373.61	71.19
373.835	86.19
374.061	80.19
374.287	70.19
374.513	74.19
374.739	72.19
374.965	94.19
375.191	75.19
375.416	85.19
375.642	96.19
375.868	84.19
376.094	70.19
376.319	80.19
376.545	88.19
376.771	82.19
376.997	76.19
377.222	84.19
377.448	86.19
377.674	78.19
377.899	80.19
378.125	76.19
378.35	85.19
378.576	103.19
378.802	89.19
379.027	101.19
379.253	84.19
379.478	76.19
379.704	78.19
379.929	68.19
380.155	76.19
380.38	64.19
380.606	89.19
380.831	74.19
381.057	88.19
381.282	84.19
381.507	86.19
381.733	79.19
381.958	97.19
382.184	86.19
382.409	85.19
382.634	91.19
382.86	88.19
383.085	84.19
383.31	79.19
383.535	74.19
383.761	80.19
383.986	83.19
384.211	86.19
384.436	84.19
384.662	96.19
384.887	78.19
385.112	80.19
385.337	82.19
385.562	82.19
385.787	74.19
386.013	76.19
386.238	98.19
386.463	96.19
386.688	101.19
386.913	77.19
387.138	91.19
387.363	78.19
387.588	84.19
387.813	83.19
388.038	85.19
388.263	77.19
388.488	78.19
388.713	77.19
388.938	85.19
389.163	79.19
389.387	74.19
389.612	75.19
389.837	80.19
390.062	86.19
390.287	86.19
390.512	102.19
390.736	90.19
390.961	67.19
391.186	62.19
391.411	82.19
391.636	85.19
391.86	84.19
392.085	80.19
392.31	88.19
392.534	94.19
392.759	81.19
392.984	69.19
393.208	70.19
393.433	76.19
393.658	75.19
393.882	76.19
394.107	79.19
394.331	92.19
394.556	80.19
394.78	87.19
395.005	79.19
395.229	76.19
395.454	74.19
395.678	90.19
395.903	95.19
396.127	83.19
396.352	86.19
396.576	92.19
396.801	83.19
397.025	77.19
397.249	76.19
397.474	84.19
397.698	91.19
397.922	71.19
398.147	89.19
398.371	88.19
398.595	92.19
398.82	80.19
399.044	85.19
399.268	86.19
399.492	88.19
399.717	93.19
399.941	89.19
400.165	88.19
400.389	81.19
400.613	90.19
400.837	76.19
401.062	83.19
401.286	93.19
401.51	91.19
401.734	82.19
401.958	73.19
402.182	83.19
402.406	94.19
402.63	81.19
402.854	82.19
403.078	91.19
403.302	73.19
403.526	90.19
403.75	87.19
403.974	89.19
404.198	89.19
404.422	80.19
404.645	68.19
404.869	78.19
405.093	68.19
405.317	79.19
405.541	85.19
405.765	82.19
405.988	98.19
406.212	87.19
406.436	82.19
406.66	82.19
406.883	75.19
407.107	80.19
407.331	71.19
407.555	85.19
407.778	81.19
408.002	85.19
408.226	88.19
408.449	81.19
408.673	89.19
408.896	82.19
409.12	114.19
409.344	86.19
409.567	74.19
409.791	87.19
410.014	78.19
410.238	84.19
410.461	102.19
410.685	93.19
410.908	89.19
411.132	77.19
411.355	74.19
411.578	82.19
411.802	89.19
412.025	97.19
412.249	75.19
412.472	85.19
412.695	73.19
412.919	89.19
413.142	89.19
413.365	74.19
413.589	82.19
413.812	78.19
414.035	96.19
414.258	85.19
414.482	90.19
414.705	70.19
414.928	83.19
415.151	92.19
415.374	78.19
415.597	81.19
415.821	76.19
416.044	89.19
416.267	92.19
416.49	81.19
416.713	81.19
416.936	76.19
417.159	75.19
417.382	79.19
417.605	77.19
417.828	79.19
418.051	68.19
418.274	82.19
418.497	78.19
418.72	88.19
418.943	92.19
419.166	80.19
419.389	70.19
419.611	86.19
419.834	93.19
420.057	81.19
420.28	90.19
420.503	80.19
420.726	90.19
420.948	81.19
421.171	66.19
421.394	81.19
421.617	91.19
421.839	77.19
422.062	87.19
422.285	84.19
422.507	88.19
422.73	80.19
422.953	76.19
423.175	86.19
423.398	84.19
423.621	81.19
423.843	91.19
424.066	82.19
424.288	87.19
424.511	89.19
424.733	89.19
424.956	85.19
425.178	73.19
425.401	85.19
425.623	91.19
425.846	89.19
426.068	71.19
426.291	88.19
426.513	81.19
426.735	83.19
426.958	90.19
427.18	80.19
427.402	89.19
427.625	84.19
427.847	74.19
428.069	84.19
428.292	88.19
428.514	80.19
428.736	77.19
428.958	84.19
429.181	89.19
429.403	85.19
429.625	85.19
429.847	77.19
430.069	78.19
430.292	80.19
430.514	89.19
430.736	89.19
430.958	89.19
431.18	66.19
431.402	85.19
431.624	93.19
431.846	84.19
432.068	92.19
432.29	89.19
432.512	86.19
432.734	70.19
432.956	76.19
433.178	86.19
433.4	78.19
433.622	97.19
433.844	70.19
434.066	75.19
434.287	80.19
434.509	79.19
434.731	76.19
434.953	69.19
435.175	58.19
435.397	98.19
435.618	94.19
435.84	80.19
436.062	77.19
436.284	80.19
436.505	77.19
436.727	61.19
436.949	77.19
437.17	64.19
437.392	70.19
437.614	72.19
437.835	82.19
438.057	68.19
438.278	89.19
438.5	78.19
438.721	84.19
438.943	87.19
439.165	68.19
439.386	93.19
439.608	78.19
439.829	86.19
440.05	79.19
440.272	91.19
440.493	75.19
440.715	93.19
440.936	62.19
441.158	85.19
441.379	64.19
441.6	80.19
441.822	86.19
442.043	84.19
442.264	77.19
442.486	82.19
442.707	73.19
442.928	87.19
443.149	97.19
443.371	93.19
443.592	81.19
443.813	92.19
444.034	96.19
444.255	83.19
444.476	85.19
444.698	74.19
444.919	86.19
445.14	137.19
445.361	116.19
445.582	74.19
445.803	101.19
446.024	101.19
446.245	86.19
446.466	93.19
446.687	82.19
446.908	75.19
447.129	78.19
447.35	80.19
447.571	75.19
447.792	88.19
448.013	91.19
448.234	69.19
448.455	80.19
448.675	68.19
448.896	73.19
449.117	89.19
449.338	70.19
449.559	87.19
449.779	100.19
450	93.19
450.221	80.19
450.442	88.19
450.662	87.19
450.883	66.19
451.104	84.19
451.324	77.19
451.545	83.19
451.766	76.19
451.986	73.19
452.207	89.19
452.428	88.19
452.648	77.19
452.869	77.19
453.089	74.19
453.31	91.19
453.53	89.19
453.751	73.19
453.971	78.19
454.192	81.19
454.412	77.19
454.633	80.19
454.853	85.19
455.073	93.19
455.294	79.19
455.514	83.19
455.734	82.19
455.955	71.19
456.175	77.19
456.395	82.19
456.616	81.19
456.836	71.19
457.056	85.19
457.276	75.19
457.497	80.19
457.717	86.19
457.937	77.19
458.157	76.19
458.377	80.19
458.598	74.19
458.818	80.19
459.038	77.19
459.258	81.19
459.478	75.19
459.698	80.19
459.918	88.19
460.138	85.19
460.358	90.19
460.578	88.19
460.798	78.19
461.018	78.19
461.238	89.19
461.458	86.19
461.678	89.19
461.898	83.19
462.118	84.19
462.338	85.19
462.558	81.19
462.777	81.19
462.997	88.19
463.217	81.19
463.437	81.19
463.657	101.19
463.876	97.19
464.096	76.19
464.316	96.19
464.536	77.19
464.755	80.19
464.975	72.19
465.195	95.19
465.414	87.19
465.634	92.19
465.854	84.19
466.073	75.19
466.293	93.19
466.512	80.19
466.732	91.19
466.951	99.19
467.171	76.19
467.391	76.19
467.61	92.19
467.829	82.19
468.049	82.19
468.268	82.19
468.488	71.19
468.707	74.19
468.927	83.19
469.146	75.19
469.365	85.19
469.585	68.19
469.804	64.19
470.023	71.19
470.243	86.19
470.462	87.19
470.681	83.19
470.901	85.19
471.12	74.19
471.339	77.19
471.558	81.19
471.777	83.19
471.997	92.19
472.216	92.19
472.435	79.19
472.654	88.19
472.873	93.19
473.092	96.19
473.311	87.19
473.53	86.19
473.749	76.19
473.968	76.19
474.187	85.19
474.406	72.19
474.625	68.19
474.844	76.19
475.063	78.19
475.282	83.19
475.501	90.19
475.72	100.19
475.939	83.19
476.158	67.19
476.377	83.19
476.596	90.19
476.814	88.19
477.033	74.19
477.252	83.19
477.471	92.19
477.69	81.19
477.908	83.19
478.127	84.19
478.346	82.19
478.564	73.19
478.783	82.19
479.002	86.19
479.22	84.19
479.439	81.19
479.658	97.19
479.876	84.19
480.095	71.19
480.313	86.19
480.532	83.19
480.751	74.19
480.969	78.19
481.188	81.19
481.406	82.19
481.624	88.19
481.843	69.19
482.061	87.19
482.28	84.19
482.498	82.19
482.717	72.19
482.935	81.19
483.153	80.19
483.372	92.19
483.59	91.19
483.808	82.19
484.027	92.19
484.245	83.19
484.463	80.19
484.681	79.19
484.9	82.19
485.118	94.19
485.336	85.19
485.554	79.19
485.772	81.19
485.99	81.19
486.209	74.19
486.427	70.19
486.645	78.19
486.863	85.19
487.081	82.19
487.299	79.19
487.517	88.19
487.735	68.19
487.953	88.19
488.171	104.19
488.389	87.19
488.607	84.19
488.825	84.19
489.043	84.19
489.261	89.19
489.479	76.19
489.696	76.19
489.914	100.19
490.132	92.19
490.35	79.19
490.568	78.19
490.786	82.19
491.003	87.19
491.221	76.19
491.439	75.19
491.657	71.19
491.874	86.19
492.092	78.19
492.31	83.19
492.527	94.19
492.745	87.19
492.963	84.19
493.18	85.19
493.398	81.19
493.615	81.19
493.833	74.19
494.05	78.19
494.268	78.19
494.485	89.19
494.703	90.19
494.92	93.19
495.138	83.19
495.355	83.19
495.573	85.19
495.79	85.19
496.008	97.19
496.225	99.19
496.442	83.19
496.66	84.19
496.877	99.19
497.094	97.19
497.312	97.19
497.529	87.19
497.746	91.19
497.963	92.19
498.181	80.19
498.398	92.19
498.615	85.19
498.832	80.19
499.049	84.19
499.267	100.19
499.484	94.19
499.701	96.19
499.918	104.19
500.135	102.19
500.352	92.19
500.569	116.19
500.786	109.19
501.003	104.19
501.22	92.19
501.437	76.19
501.654	87.19
501.871	107.19
502.088	82.19
502.305	98.19
502.522	91.19
502.739	88.19
502.956	103.19
503.172	94.19
503.389	84.19
503.606	84.19
503.823	83.19
504.04	86.19
504.256	89.19
504.473	83.19
504.69	77.19
504.907	78.19
505.123	77.19
505.34	77.19
505.557	85.19
505.773	85.19
505.99	82.19
506.207	95.19
506.423	92.19
506.64	77.19
506.856	90.19
507.073	79.19
507.289	70.19
507.506	85.19
507.722	81.19
507.939	89.19
508.155	78.19
508.372	84.19
508.588	73.19
508.805	87.19
509.021	66.19
509.238	105.19
509.454	83.19
509.67	77.19
509.887	65.19
510.103	93.19
510.319	85.19
510.536	97.19
510.752	88.19
510.968	74.19
511.184	81.19
511.401	84.19
511.617	100.19
511.833	84.19
512.049	69.19
512.265	84.19
512.481	88.19
512.698	71.19
512.914	89.19
513.13	83.19
513.346	79.19
513.562	83.19
513.778	83.19
513.994	86.19
514.21	76.19
514.426	74.19
514.642	85.19
514.858	96.19
515.074	78.19
515.29	88.19
515.506	86.19
515.721	94.19
515.937	71.19
516.153	100.19
516.369	88.19
516.585	100.19
516.801	89.19
517.016	82.19
517.232	85.19
517.448	87.19
517.664	102.19
517.879	89.19
518.095	90.19
518.311	90.19
518.527	91.19
518.742	82.19
518.958	74.19
519.173	94.19
519.389	86.19
519.605	85.19
519.82	99.19
520.036	86.19
