Data from BG_HRD10591_073.txt Node
Date: Fri May 16 15:33:43 EDT 2025
User: Yrep
Spectrometer: HR+D1059
Trigger mode: 1
Integration Time (sec): 1.000000E-1
Scans to average: 1
Electric dark correction enabled: true
Nonlinearity correction enabled: false
Boxcar width: 0
XAxis mode: Wavelengths
Number of Pixels in Spectrum: 2048
>>>>>Begin Spectral Data<<<<<
223.165	-20.06
223.4	-20.06
223.635	-20.06
223.869	-16.06
224.104	-25.06
224.338	-15.06
224.573	-9.06
224.808	-7.06
225.042	-0.06
225.277	-19.06
225.511	1.94
225.746	12.94
225.98	-8.06
226.215	7.94
226.449	16.94
226.683	21.94
226.918	24.94
227.152	32.94
227.387	33.94
227.621	40.94
227.856	37.94
228.09	48.94
228.324	36.94
228.559	51.94
228.793	66.94
229.027	71.94
229.262	60.94
229.496	78.94
229.73	76.94
229.964	69.94
230.199	65.94
230.433	85.94
230.667	70.94
230.901	81.94
231.136	93.94
231.37	88.94
231.604	73.94
231.838	72.94
232.072	76.94
232.306	84.94
232.541	78.94
232.775	81.94
233.009	76.94
233.243	84.94
233.477	82.94
233.711	78.94
233.945	84.94
234.179	66.94
234.413	64.94
234.647	69.94
234.881	70.94
235.115	72.94
235.349	78.94
235.583	77.94
235.817	82.94
236.051	73.94
236.285	59.94
236.519	76.94
236.753	89.94
236.987	86.94
237.221	87.94
237.455	76.94
237.689	84.94
237.922	84.94
238.156	68.94
238.39	75.94
238.624	58.94
238.858	81.94
239.091	78.94
239.325	68.94
239.559	86.94
239.793	80.94
240.027	82.94
240.26	79.94
240.494	76.94
240.728	66.94
240.961	91.94
241.195	68.94
241.429	79.94
241.662	78.94
241.896	82.94
242.13	83.94
242.363	80.94
242.597	72.94
242.83	60.94
243.064	54.94
243.298	85.94
243.531	72.94
243.765	65.94
243.998	80.94
244.232	65.94
244.465	86.94
244.699	82.94
244.932	87.94
245.166	80.94
245.399	73.94
245.633	78.94
245.866	69.94
246.099	85.94
246.333	63.94
246.566	76.94
246.8	66.94
247.033	61.94
247.266	81.94
247.5	81.94
247.733	78.94
247.966	73.94
248.2	74.94
248.433	81.94
248.666	86.94
248.899	78.94
249.133	74.94
249.366	96.94
249.599	83.94
249.832	80.94
250.066	77.94
250.299	65.94
250.532	79.94
250.765	87.94
250.998	80.94
251.231	89.94
251.465	78.94
251.698	59.94
251.931	88.94
252.164	81.94
252.397	79.94
252.63	69.94
252.863	76.94
253.096	65.94
253.329	62.94
253.562	72.94
253.795	86.94
254.028	88.94
254.261	71.94
254.494	73.94
254.727	100.94
254.96	88.94
255.193	82.94
255.426	80.94
255.659	67.94
255.892	76.94
256.124	89.94
256.357	72.94
256.59	100.94
256.823	89.94
257.056	80.94
257.289	80.94
257.521	71.94
257.754	81.94
257.987	82.94
258.22	85.94
258.452	83.94
258.685	100.94
258.918	78.94
259.151	74.94
259.383	72.94
259.616	89.94
259.849	80.94
260.081	84.94
260.314	86.94
260.547	73.94
260.779	85.94
261.012	71.94
261.244	81.94
261.477	73.94
261.71	79.94
261.942	85.94
262.175	89.94
262.407	84.94
262.64	70.94
262.872	81.94
263.105	77.94
263.337	77.94
263.57	67.94
263.802	74.94
264.035	82.94
264.267	81.94
264.499	85.94
264.732	77.94
264.964	72.94
265.197	73.94
265.429	80.94
265.661	88.94
265.894	70.94
266.126	72.94
266.358	89.94
266.591	83.94
266.823	90.94
267.055	72.94
267.287	77.94
267.52	82.94
267.752	76.94
267.984	78.94
268.216	82.94
268.448	77.94
268.681	75.94
268.913	80.94
269.145	90.94
269.377	82.94
269.609	67.94
269.841	87.94
270.073	94.94
270.306	81.94
270.538	74.94
270.77	79.94
271.002	76.94
271.234	93.94
271.466	86.94
271.698	93.94
271.93	95.94
272.162	77.94
272.394	79.94
272.626	81.94
272.858	81.94
273.09	78.94
273.322	98.94
273.553	92.94
273.785	70.94
274.017	73.94
274.249	90.94
274.481	96.94
274.713	97.94
274.945	94.94
275.176	69.94
275.408	84.94
275.64	82.94
275.872	81.94
276.104	76.94
276.335	77.94
276.567	77.94
276.799	76.94
277.031	90.94
277.262	88.94
277.494	70.94
277.726	81.94
277.957	81.94
278.189	90.94
278.421	74.94
278.652	87.94
278.884	91.94
279.115	81.94
279.347	90.94
279.579	92.94
279.81	80.94
280.042	85.94
280.273	85.94
280.505	79.94
280.736	73.94
280.968	85.94
281.199	80.94
281.431	84.94
281.662	82.94
281.894	89.94
282.125	86.94
282.356	86.94
282.588	82.94
282.819	81.94
283.051	78.94
283.282	75.94
283.513	76.94
283.745	85.94
283.976	86.94
284.207	81.94
284.439	89.94
284.67	80.94
284.901	92.94
285.132	107.94
285.364	90.94
285.595	79.94
285.826	74.94
286.057	84.94
286.288	67.94
286.52	81.94
286.751	89.94
286.982	81.94
287.213	94.94
287.444	95.94
287.675	83.94
287.906	69.94
288.138	80.94
288.369	78.94
288.6	86.94
288.831	83.94
289.062	75.94
289.293	97.94
289.524	91.94
289.755	88.94
289.986	89.94
290.217	73.94
290.448	78.94
290.679	91.94
290.91	91.94
291.141	75.94
291.371	82.94
291.602	88.94
291.833	90.94
292.064	89.94
292.295	88.94
292.526	79.94
292.757	76.94
292.987	96.94
293.218	89.94
293.449	89.94
293.68	90.94
293.91	96.94
294.141	82.94
294.372	86.94
294.603	58.94
294.833	84.94
295.064	98.94
295.295	97.94
295.525	89.94
295.756	92.94
295.987	88.94
296.217	85.94
296.448	94.94
296.679	64.94
296.909	89.94
297.14	82.94
297.37	77.94
297.601	81.94
297.831	94.94
298.062	76.94
298.292	94.94
298.523	77.94
298.753	84.94
298.984	79.94
299.214	88.94
299.445	91.94
299.675	77.94
299.905	88.94
300.136	78.94
300.366	78.94
300.597	95.94
300.827	97.94
301.057	80.94
301.288	72.94
301.518	74.94
301.748	88.94
301.979	95.94
302.209	78.94
302.439	80.94
302.669	83.94
302.9	96.94
303.13	87.94
303.36	89.94
303.59	89.94
303.82	87.94
304.051	86.94
304.281	104.94
304.511	88.94
304.741	90.94
304.971	84.94
305.201	97.94
305.431	103.94
305.661	84.94
305.891	77.94
306.121	100.94
306.352	98.94
306.582	88.94
306.812	81.94
307.042	98.94
307.272	80.94
307.502	91.94
307.731	98.94
307.961	90.94
308.191	86.94
308.421	77.94
308.651	91.94
308.881	92.94
309.111	92.94
309.341	80.94
309.571	81.94
309.8	97.94
310.03	74.94
310.26	96.94
310.49	74.94
310.72	79.94
310.949	94.94
311.179	91.94
311.409	96.94
311.639	107.94
311.868	76.94
312.098	80.94
312.328	91.94
312.557	91.94
312.787	89.94
313.017	86.94
313.246	77.94
313.476	78.94
313.706	83.94
313.935	76.94
314.165	94.94
314.394	90.94
314.624	75.94
314.853	79.94
315.083	89.94
315.312	88.94
315.542	85.94
315.771	80.94
316.001	81.94
316.23	90.94
316.46	85.94
316.689	80.94
316.919	97.94
317.148	94.94
317.377	93.94
317.607	82.94
317.836	89.94
318.065	77.94
318.295	89.94
318.524	92.94
318.753	95.94
318.983	93.94
319.212	90.94
319.441	76.94
319.67	91.94
319.9	86.94
320.129	78.94
320.358	105.94
320.587	89.94
320.816	93.94
321.046	92.94
321.275	81.94
321.504	71.94
321.733	86.94
321.962	88.94
322.191	73.94
322.42	85.94
322.649	85.94
322.878	88.94
323.108	88.94
323.337	75.94
323.566	93.94
323.795	81.94
324.024	72.94
324.253	84.94
324.482	86.94
324.71	88.94
324.939	79.94
325.168	70.94
325.397	93.94
325.626	76.94
325.855	72.94
326.084	81.94
326.313	89.94
326.542	88.94
326.77	102.94
326.999	108.94
327.228	86.94
327.457	79.94
327.686	91.94
327.914	80.94
328.143	95.94
328.372	103.94
328.6	89.94
328.829	81.94
329.058	101.94
329.287	74.94
329.515	84.94
329.744	80.94
329.972	101.94
330.201	97.94
330.43	89.94
330.658	86.94
330.887	78.94
331.115	84.94
331.344	90.94
331.572	79.94
331.801	85.94
332.03	85.94
332.258	108.94
332.486	108.94
332.715	82.94
332.943	97.94
333.172	96.94
333.4	85.94
333.629	87.94
333.857	84.94
334.085	90.94
334.314	87.94
334.542	85.94
334.771	100.94
334.999	76.94
335.227	88.94
335.455	83.94
335.684	81.94
335.912	90.94
336.14	76.94
336.369	96.94
336.597	87.94
336.825	94.94
337.053	88.94
337.281	77.94
337.51	88.94
337.738	77.94
337.966	87.94
338.194	73.94
338.422	99.94
338.65	74.94
338.878	89.94
339.106	80.94
339.334	75.94
339.562	86.94
339.79	78.94
340.018	82.94
340.246	79.94
340.474	90.94
340.702	106.94
340.93	94.94
341.158	78.94
341.386	86.94
341.614	81.94
341.842	92.94
342.07	94.94
342.298	90.94
342.526	83.94
342.754	86.94
342.981	88.94
343.209	73.94
343.437	105.94
343.665	97.94
343.893	90.94
344.12	87.94
344.348	83.94
344.576	82.94
344.804	78.94
345.031	83.94
345.259	81.94
345.487	88.94
345.714	78.94
345.942	79.94
346.17	93.94
346.397	104.94
346.625	80.94
346.853	95.94
347.08	87.94
347.308	96.94
347.535	88.94
347.763	91.94
347.99	80.94
348.218	92.94
348.445	79.94
348.673	90.94
348.9	70.94
349.128	88.94
349.355	88.94
349.583	90.94
349.81	78.94
350.037	87.94
350.265	82.94
350.492	80.94
350.72	90.94
350.947	79.94
351.174	87.94
351.402	102.94
351.629	109.94
351.856	83.94
352.083	92.94
352.311	93.94
352.538	80.94
352.765	85.94
352.992	101.94
353.22	102.94
353.447	88.94
353.674	90.94
353.901	81.94
354.128	97.94
354.355	76.94
354.583	72.94
354.81	81.94
355.037	85.94
355.264	95.94
355.491	82.94
355.718	88.94
355.945	96.94
356.172	80.94
356.399	86.94
356.626	76.94
356.853	88.94
357.08	97.94
357.307	86.94
357.534	94.94
357.761	87.94
357.988	77.94
358.215	79.94
358.441	80.94
358.668	73.94
358.895	89.94
359.122	93.94
359.349	86.94
359.576	82.94
359.802	88.94
360.029	79.94
360.256	78.94
360.483	80.94
360.709	85.94
360.936	91.94
361.163	94.94
361.39	90.94
361.616	87.94
361.843	92.94
362.07	92.94
362.296	88.94
362.523	96.94
362.749	88.94
362.976	81.94
363.203	90.94
363.429	97.94
363.656	95.94
363.882	92.94
364.109	76.94
364.335	88.94
364.562	79.94
364.788	88.94
365.015	84.94
365.241	86.94
365.468	88.94
365.694	73.94
365.92	82.94
366.147	70.94
366.373	74.94
366.599	94.94
366.826	98.94
367.052	86.94
367.278	104.94
367.505	89.94
367.731	93.94
367.957	81.94
368.184	69.94
368.41	78.94
368.636	81.94
368.862	85.94
369.089	66.94
369.315	87.94
369.541	92.94
369.767	84.94
369.993	80.94
370.219	80.94
370.445	75.94
370.672	79.94
370.898	75.94
371.124	81.94
371.35	82.94
371.576	68.94
371.802	72.94
372.028	92.94
372.254	90.94
372.48	87.94
372.706	98.94
372.932	92.94
373.158	87.94
373.384	92.94
373.61	90.94
373.835	72.94
374.061	87.94
374.287	78.94
374.513	90.94
374.739	77.94
374.965	79.94
375.191	77.94
375.416	101.94
375.642	87.94
375.868	89.94
376.094	85.94
376.319	89.94
376.545	74.94
376.771	79.94
376.997	81.94
377.222	68.94
377.448	85.94
377.674	79.94
377.899	73.94
378.125	87.94
378.35	88.94
378.576	96.94
378.802	76.94
379.027	97.94
379.253	93.94
379.478	97.94
379.704	82.94
379.929	90.94
380.155	82.94
380.38	88.94
380.606	94.94
380.831	75.94
381.057	101.94
381.282	91.94
381.507	94.94
381.733	84.94
381.958	88.94
382.184	92.94
382.409	87.94
382.634	91.94
382.86	82.94
383.085	97.94
383.31	87.94
383.535	92.94
383.761	87.94
383.986	82.94
384.211	90.94
384.436	68.94
384.662	84.94
384.887	81.94
385.112	88.94
385.337	77.94
385.562	91.94
385.787	84.94
386.013	80.94
386.238	81.94
386.463	89.94
386.688	90.94
386.913	88.94
387.138	87.94
387.363	89.94
387.588	93.94
387.813	89.94
388.038	85.94
388.263	81.94
388.488	70.94
388.713	84.94
388.938	86.94
389.163	71.94
389.387	89.94
389.612	94.94
389.837	87.94
390.062	89.94
390.287	91.94
390.512	88.94
390.736	90.94
390.961	96.94
391.186	83.94
391.411	81.94
391.636	81.94
391.86	91.94
392.085	88.94
392.31	88.94
392.534	106.94
392.759	85.94
392.984	90.94
393.208	96.94
393.433	86.94
393.658	80.94
393.882	78.94
394.107	79.94
394.331	91.94
394.556	97.94
394.78	89.94
395.005	88.94
395.229	77.94
395.454	78.94
395.678	89.94
395.903	84.94
396.127	85.94
396.352	81.94
396.576	81.94
396.801	86.94
397.025	93.94
397.249	85.94
397.474	97.94
397.698	93.94
397.922	85.94
398.147	85.94
398.371	84.94
398.595	84.94
398.82	93.94
399.044	89.94
399.268	86.94
399.492	91.94
399.717	97.94
399.941	96.94
400.165	76.94
400.389	80.94
400.613	81.94
400.837	87.94
401.062	86.94
401.286	86.94
401.51	80.94
401.734	79.94
401.958	88.94
402.182	88.94
402.406	84.94
402.63	87.94
402.854	93.94
403.078	68.94
403.302	74.94
403.526	91.94
403.75	80.94
403.974	82.94
404.198	80.94
404.422	96.94
404.645	84.94
404.869	97.94
405.093	76.94
405.317	92.94
405.541	75.94
405.765	85.94
405.988	88.94
406.212	97.94
406.436	79.94
406.66	84.94
406.883	75.94
407.107	83.94
407.331	88.94
407.555	81.94
407.778	68.94
408.002	102.94
408.226	84.94
408.449	93.94
408.673	96.94
408.896	100.94
409.12	84.94
409.344	91.94
409.567	82.94
409.791	84.94
410.014	80.94
410.238	81.94
410.461	79.94
410.685	88.94
410.908	93.94
411.132	91.94
411.355	88.94
411.578	68.94
411.802	81.94
412.025	91.94
412.249	86.94
412.472	89.94
412.695	84.94
412.919	91.94
413.142	82.94
413.365	79.94
413.589	75.94
413.812	85.94
414.035	91.94
414.258	84.94
414.482	100.94
414.705	90.94
414.928	89.94
415.151	92.94
415.374	95.94
415.597	81.94
415.821	67.94
416.044	96.94
416.267	74.94
416.49	83.94
416.713	82.94
416.936	96.94
417.159	88.94
417.382	97.94
417.605	76.94
417.828	88.94
418.051	84.94
418.274	79.94
418.497	73.94
418.72	93.94
418.943	76.94
419.166	94.94
419.389	94.94
419.611	86.94
419.834	92.94
420.057	88.94
420.28	89.94
420.503	88.94
420.726	81.94
420.948	73.94
421.171	84.94
421.394	90.94
421.617	82.94
421.839	84.94
422.062	84.94
422.285	72.94
422.507	90.94
422.73	80.94
422.953	70.94
423.175	73.94
423.398	89.94
423.621	91.94
423.843	92.94
424.066	91.94
424.288	84.94
424.511	96.94
424.733	92.94
424.956	89.94
425.178	89.94
425.401	87.94
425.623	80.94
425.846	89.94
426.068	84.94
426.291	76.94
426.513	79.94
426.735	91.94
426.958	86.94
427.18	84.94
427.402	95.94
427.625	96.94
427.847	89.94
428.069	87.94
428.292	95.94
428.514	95.94
428.736	89.94
428.958	91.94
429.181	85.94
429.403	102.94
429.625	85.94
429.847	94.94
430.069	76.94
430.292	93.94
430.514	96.94
430.736	87.94
430.958	82.94
431.18	90.94
431.402	87.94
431.624	65.94
431.846	85.94
432.068	81.94
432.29	97.94
432.512	80.94
432.734	95.94
432.956	89.94
433.178	84.94
433.4	96.94
433.622	86.94
433.844	86.94
434.066	87.94
434.287	84.94
434.509	77.94
434.731	93.94
434.953	82.94
435.175	89.94
435.397	93.94
435.618	85.94
435.84	86.94
436.062	96.94
436.284	86.94
436.505	82.94
436.727	86.94
436.949	79.94
437.17	97.94
437.392	88.94
437.614	94.94
437.835	92.94
438.057	82.94
438.278	78.94
438.5	90.94
438.721	83.94
438.943	95.94
439.165	81.94
439.386	91.94
439.608	88.94
439.829	94.94
440.05	88.94
440.272	85.94
440.493	86.94
440.715	101.94
440.936	102.94
441.158	80.94
441.379	76.94
441.6	84.94
441.822	72.94
442.043	76.94
442.264	85.94
442.486	76.94
442.707	74.94
442.928	89.94
443.149	86.94
443.371	84.94
443.592	96.94
443.813	89.94
444.034	92.94
444.255	82.94
444.476	88.94
444.698	88.94
444.919	88.94
445.14	171.94
445.361	130.94
445.582	106.94
445.803	75.94
446.024	88.94
446.245	85.94
446.466	81.94
446.687	80.94
446.908	101.94
447.129	81.94
447.35	92.94
447.571	90.94
447.792	80.94
448.013	84.94
448.234	85.94
448.455	89.94
448.675	93.94
448.896	88.94
449.117	76.94
449.338	94.94
449.559	89.94
449.779	88.94
450	87.94
450.221	78.94
450.442	91.94
450.662	79.94
450.883	82.94
451.104	89.94
451.324	74.94
451.545	85.94
451.766	87.94
451.986	93.94
452.207	82.94
452.428	73.94
452.648	80.94
452.869	92.94
453.089	81.94
453.31	89.94
453.53	104.94
453.751	74.94
453.971	88.94
454.192	78.94
454.412	90.94
454.633	87.94
454.853	92.94
455.073	86.94
455.294	95.94
455.514	92.94
455.734	82.94
455.955	87.94
456.175	84.94
456.395	74.94
456.616	78.94
456.836	81.94
457.056	84.94
457.276	91.94
457.497	85.94
457.717	86.94
457.937	88.94
458.157	70.94
458.377	77.94
458.598	90.94
458.818	95.94
459.038	80.94
459.258	83.94
459.478	84.94
459.698	79.94
459.918	94.94
460.138	86.94
460.358	65.94
460.578	81.94
460.798	100.94
461.018	88.94
461.238	79.94
461.458	77.94
461.678	71.94
461.898	98.94
462.118	91.94
462.338	93.94
462.558	87.94
462.777	88.94
462.997	95.94
463.217	101.94
463.437	86.94
463.657	85.94
463.876	108.94
464.096	100.94
464.316	96.94
464.536	95.94
464.755	88.94
464.975	75.94
465.195	89.94
465.414	91.94
465.634	85.94
465.854	82.94
466.073	82.94
466.293	81.94
466.512	90.94
466.732	90.94
466.951	80.94
467.171	74.94
467.391	92.94
467.61	86.94
467.829	68.94
468.049	88.94
468.268	87.94
468.488	100.94
468.707	89.94
468.927	84.94
469.146	81.94
469.365	74.94
469.585	93.94
469.804	86.94
470.023	82.94
470.243	79.94
470.462	83.94
470.681	78.94
470.901	87.94
471.12	83.94
471.339	94.94
471.558	97.94
471.777	91.94
471.997	81.94
472.216	96.94
472.435	77.94
472.654	106.94
472.873	95.94
473.092	82.94
473.311	90.94
473.53	89.94
473.749	81.94
473.968	89.94
474.187	92.94
474.406	94.94
474.625	91.94
474.844	81.94
475.063	73.94
475.282	79.94
475.501	82.94
475.72	76.94
475.939	90.94
476.158	100.94
476.377	94.94
476.596	75.94
476.814	80.94
477.033	86.94
477.252	98.94
477.471	94.94
477.69	96.94
477.908	81.94
478.127	89.94
478.346	85.94
478.564	103.94
478.783	80.94
479.002	84.94
479.22	90.94
479.439	93.94
479.658	77.94
479.876	82.94
480.095	77.94
480.313	94.94
480.532	77.94
480.751	100.94
480.969	90.94
481.188	80.94
481.406	89.94
481.624	68.94
481.843	92.94
482.061	90.94
482.28	99.94
482.498	91.94
482.717	90.94
482.935	81.94
483.153	84.94
483.372	98.94
483.59	87.94
483.808	80.94
484.027	83.94
484.245	79.94
484.463	87.94
484.681	108.94
484.9	78.94
485.118	85.94
485.336	80.94
485.554	93.94
485.772	82.94
485.99	88.94
486.209	88.94
486.427	73.94
486.645	78.94
486.863	88.94
487.081	97.94
487.299	92.94
487.517	85.94
487.735	89.94
487.953	96.94
488.171	84.94
488.389	97.94
488.607	79.94
488.825	81.94
489.043	94.94
489.261	86.94
489.479	85.94
489.696	94.94
489.914	101.94
490.132	104.94
490.35	99.94
490.568	75.94
490.786	75.94
491.003	93.94
491.221	83.94
491.439	83.94
491.657	93.94
491.874	101.94
492.092	87.94
492.31	96.94
492.527	84.94
492.745	89.94
492.963	81.94
493.18	95.94
493.398	86.94
493.615	93.94
493.833	100.94
494.05	87.94
494.268	97.94
494.485	87.94
494.703	92.94
494.92	83.94
495.138	92.94
495.355	105.94
495.573	81.94
495.79	87.94
496.008	96.94
496.225	95.94
496.442	86.94
496.66	77.94
496.877	97.94
497.094	106.94
497.312	85.94
497.529	84.94
497.746	85.94
497.963	100.94
498.181	87.94
498.398	97.94
498.615	62.94
498.832	96.94
499.049	101.94
499.267	92.94
499.484	100.94
499.701	102.94
499.918	115.94
500.135	122.94
500.352	112.94
500.569	111.94
500.786	112.94
501.003	108.94
501.22	106.94
501.437	112.94
501.654	107.94
501.871	108.94
502.088	78.94
502.305	90.94
502.522	71.94
502.739	88.94
502.956	93.94
503.172	96.94
503.389	79.94
503.606	87.94
503.823	101.94
504.04	95.94
504.256	88.94
504.473	85.94
504.69	87.94
504.907	90.94
505.123	86.94
505.34	79.94
505.557	101.94
505.773	90.94
505.99	94.94
506.207	90.94
506.423	100.94
506.64	86.94
506.856	90.94
507.073	80.94
507.289	92.94
507.506	83.94
507.722	83.94
507.939	90.94
508.155	94.94
508.372	88.94
508.588	76.94
508.805	94.94
509.021	90.94
509.238	91.94
509.454	94.94
509.67	90.94
509.887	92.94
510.103	100.94
510.319	102.94
510.536	90.94
510.752	92.94
510.968	86.94
511.184	92.94
511.401	100.94
511.617	93.94
511.833	87.94
512.049	97.94
512.265	81.94
512.481	82.94
512.698	90.94
512.914	94.94
513.13	80.94
513.346	74.94
513.562	87.94
513.778	90.94
513.994	95.94
514.21	75.94
514.426	102.94
514.642	99.94
514.858	79.94
515.074	88.94
515.29	81.94
515.506	89.94
515.721	79.94
515.937	82.94
516.153	87.94
516.369	74.94
516.585	84.94
516.801	86.94
517.016	93.94
517.232	98.94
517.448	95.94
517.664	97.94
517.879	90.94
518.095	94.94
518.311	80.94
518.527	85.94
518.742	83.94
518.958	83.94
519.173	65.94
519.389	96.94
