Data from BG_HRD10591_053.txt Node
Date: Fri May 16 15:33:33 EDT 2025
User: Yrep
Spectrometer: HR+D1059
Trigger mode: 1
Integration Time (sec): 1.000000E-1
Scans to average: 1
Electric dark correction enabled: true
Nonlinearity correction enabled: false
Boxcar width: 0
XAxis mode: Wavelengths
Number of Pixels in Spectrum: 2048
>>>>>Begin Spectral Data<<<<<
223.165	-16
223.4	-16
223.635	-16
223.869	-16
224.104	-21
224.338	-12
224.573	-17
224.808	-34
225.042	-11
225.277	-5
225.511	-8
225.746	9
225.98	8
226.215	18
226.449	22
226.683	26
226.918	36
227.152	21
227.387	41
227.621	24
227.856	44
228.09	50
228.324	51
228.559	58
228.793	74
229.027	55
229.262	57
229.496	73
229.73	62
229.964	70
230.199	74
230.433	74
230.667	84
230.901	78
231.136	81
231.37	63
231.604	80
231.838	82
232.072	82
232.306	87
232.541	79
232.775	88
233.009	76
233.243	81
233.477	82
233.711	79
233.945	88
234.179	83
234.413	71
234.647	79
234.881	92
235.115	76
235.349	89
235.583	83
235.817	72
236.051	75
236.285	92
236.519	85
236.753	75
236.987	84
237.221	83
237.455	76
237.689	80
237.922	73
238.156	71
238.39	85
238.624	78
238.858	79
239.091	81
239.325	75
239.559	67
239.793	85
240.027	81
240.26	75
240.494	66
240.728	73
240.961	61
241.195	82
241.429	78
241.662	84
241.896	90
242.13	70
242.363	82
242.597	75
242.83	82
243.064	89
243.298	75
243.531	84
243.765	88
243.998	80
244.232	67
244.465	76
244.699	67
244.932	81
245.166	80
245.399	91
245.633	73
245.866	81
246.099	79
246.333	81
246.566	85
246.8	95
247.033	83
247.266	75
247.5	84
247.733	79
247.966	68
248.2	89
248.433	68
248.666	65
248.899	78
249.133	72
249.366	72
249.599	81
249.832	73
250.066	79
250.299	81
250.532	78
250.765	83
250.998	92
251.231	80
251.465	70
251.698	79
251.931	74
252.164	89
252.397	89
252.63	83
252.863	84
253.096	86
253.329	90
253.562	87
253.795	91
254.028	83
254.261	67
254.494	87
254.727	82
254.96	73
255.193	89
255.426	81
255.659	72
255.892	81
256.124	93
256.357	75
256.59	81
256.823	69
257.056	73
257.289	87
257.521	69
257.754	83
257.987	63
258.22	87
258.452	75
258.685	83
258.918	87
259.151	84
259.383	75
259.616	77
259.849	64
260.081	77
260.314	92
260.547	78
260.779	70
261.012	78
261.244	82
261.477	89
261.71	77
261.942	76
262.175	91
262.407	77
262.64	89
262.872	90
263.105	85
263.337	103
263.57	75
263.802	76
264.035	76
264.267	86
264.499	83
264.732	79
264.964	92
265.197	71
265.429	67
265.661	86
265.894	90
266.126	88
266.358	84
266.591	89
266.823	79
267.055	98
267.287	80
267.52	78
267.752	55
267.984	88
268.216	78
268.448	109
268.681	98
268.913	73
269.145	87
269.377	82
269.609	73
269.841	90
270.073	77
270.306	87
270.538	94
270.77	83
271.002	84
271.234	85
271.466	79
271.698	75
271.93	91
272.162	83
272.394	84
272.626	82
272.858	94
273.09	84
273.322	87
273.553	76
273.785	72
274.017	78
274.249	66
274.481	91
274.713	78
274.945	79
275.176	91
275.408	73
275.64	84
275.872	87
276.104	93
276.335	87
276.567	82
276.799	79
277.031	89
277.262	84
277.494	91
277.726	100
277.957	79
278.189	95
278.421	101
278.652	95
278.884	95
279.115	85
279.347	78
279.579	103
279.81	82
280.042	87
280.273	99
280.505	78
280.736	87
280.968	77
281.199	91
281.431	94
281.662	83
281.894	67
282.125	74
282.356	85
282.588	73
282.819	78
283.051	91
283.282	85
283.513	69
283.745	82
283.976	87
284.207	90
284.439	96
284.67	100
284.901	85
285.132	87
285.364	95
285.595	92
285.826	96
286.057	95
286.288	83
286.52	87
286.751	88
286.982	85
287.213	79
287.444	97
287.675	89
287.906	98
288.138	85
288.369	93
288.6	98
288.831	82
289.062	98
289.293	86
289.524	83
289.755	88
289.986	88
290.217	96
290.448	81
290.679	89
290.91	73
291.141	97
291.371	100
291.602	90
291.833	93
292.064	75
292.295	87
292.526	78
292.757	87
292.987	90
293.218	101
293.449	94
293.68	90
293.91	88
294.141	87
294.372	75
294.603	98
294.833	87
295.064	89
295.295	68
295.525	82
295.756	87
295.987	89
296.217	92
296.448	93
296.679	86
296.909	91
297.14	89
297.37	90
297.601	97
297.831	91
298.062	96
298.292	98
298.523	91
298.753	82
298.984	78
299.214	84
299.445	86
299.675	85
299.905	91
300.136	83
300.366	85
300.597	104
300.827	88
301.057	85
301.288	77
301.518	81
301.748	88
301.979	115
302.209	82
302.439	90
302.669	88
302.9	92
303.13	77
303.36	87
303.59	89
303.82	107
304.051	96
304.281	79
304.511	86
304.741	85
304.971	94
305.201	65
305.431	95
305.661	90
305.891	99
306.121	85
306.352	92
306.582	84
306.812	80
307.042	93
307.272	89
307.502	84
307.731	78
307.961	91
308.191	95
308.421	90
308.651	96
308.881	88
309.111	89
309.341	69
309.571	94
309.8	84
310.03	85
310.26	100
310.49	87
310.72	82
310.949	81
311.179	69
311.409	88
311.639	86
311.868	78
312.098	87
312.328	93
312.557	59
312.787	82
313.017	77
313.246	65
313.476	91
313.706	83
313.935	99
314.165	94
314.394	100
314.624	80
314.853	90
315.083	93
315.312	89
315.542	67
315.771	89
316.001	91
316.23	87
316.46	94
316.689	88
316.919	80
317.148	82
317.377	82
317.607	88
317.836	93
318.065	92
318.295	86
318.524	81
318.753	76
318.983	90
319.212	85
319.441	77
319.67	85
319.9	99
320.129	107
320.358	87
320.587	97
320.816	101
321.046	86
321.275	82
321.504	76
321.733	100
321.962	82
322.191	82
322.42	86
322.649	92
322.878	112
323.108	93
323.337	75
323.566	83
323.795	74
324.024	85
324.253	90
324.482	91
324.71	82
324.939	88
325.168	87
325.397	91
325.626	87
325.855	87
326.084	94
326.313	89
326.542	83
326.77	95
326.999	88
327.228	101
327.457	95
327.686	96
327.914	96
328.143	86
328.372	79
328.6	101
328.829	101
329.058	94
329.287	82
329.515	91
329.744	84
329.972	74
330.201	83
330.43	93
330.658	79
330.887	94
331.115	89
331.344	90
331.572	79
331.801	81
332.03	99
332.258	86
332.486	83
332.715	88
332.943	95
333.172	92
333.4	75
333.629	83
333.857	87
334.085	89
334.314	82
334.542	84
334.771	72
334.999	84
335.227	83
335.455	82
335.684	83
335.912	91
336.14	94
336.369	93
336.597	111
336.825	106
337.053	90
337.281	79
337.51	77
337.738	89
337.966	75
338.194	83
338.422	73
338.65	87
338.878	96
339.106	85
339.334	103
339.562	80
339.79	97
340.018	87
340.246	103
340.474	77
340.702	93
340.93	96
341.158	86
341.386	80
341.614	89
341.842	87
342.07	84
342.298	69
342.526	85
342.754	89
342.981	89
343.209	77
343.437	99
343.665	81
343.893	94
344.12	104
344.348	95
344.576	82
344.804	90
345.031	90
345.259	86
345.487	97
345.714	91
345.942	96
346.17	76
346.397	107
346.625	93
346.853	80
347.08	78
347.308	88
347.535	79
347.763	96
347.99	83
348.218	81
348.445	86
348.673	73
348.9	80
349.128	77
349.355	80
349.583	95
349.81	82
350.037	82
350.265	79
350.492	82
350.72	82
350.947	90
351.174	79
351.402	87
351.629	84
351.856	77
352.083	88
352.311	87
352.538	70
352.765	100
352.992	84
353.22	88
353.447	79
353.674	98
353.901	82
354.128	80
354.355	71
354.583	94
354.81	87
355.037	99
355.264	89
355.491	86
355.718	93
355.945	81
356.172	83
356.399	85
356.626	81
356.853	74
357.08	101
357.307	77
357.534	78
357.761	93
357.988	87
358.215	94
358.441	97
358.668	90
358.895	77
359.122	84
359.349	86
359.576	81
359.802	80
360.029	89
360.256	84
360.483	82
360.709	87
360.936	97
361.163	90
361.39	92
361.616	76
361.843	85
362.07	73
362.296	96
362.523	74
362.749	73
362.976	86
363.203	89
363.429	75
363.656	85
363.882	79
364.109	93
364.335	95
364.562	89
364.788	81
365.015	73
365.241	97
365.468	84
365.694	84
365.92	95
366.147	76
366.373	85
366.599	90
366.826	80
367.052	77
367.278	70
367.505	93
367.731	91
367.957	96
368.184	73
368.41	89
368.636	84
368.862	73
369.089	82
369.315	99
369.541	89
369.767	92
369.993	89
370.219	88
370.445	82
370.672	88
370.898	75
371.124	91
371.35	94
371.576	88
371.802	80
372.028	87
372.254	77
372.48	86
372.706	70
372.932	88
373.158	80
373.384	90
373.61	79
373.835	74
374.061	89
374.287	91
374.513	86
374.739	101
374.965	105
375.191	89
375.416	82
375.642	104
375.868	81
376.094	95
376.319	72
376.545	99
376.771	99
376.997	104
377.222	94
377.448	91
377.674	84
377.899	86
378.125	77
378.35	92
378.576	80
378.802	96
379.027	88
379.253	89
379.478	83
379.704	90
379.929	88
380.155	85
380.38	79
380.606	81
380.831	95
381.057	97
381.282	76
381.507	69
381.733	90
381.958	81
382.184	95
382.409	88
382.634	87
382.86	81
383.085	101
383.31	90
383.535	82
383.761	74
383.986	75
384.211	89
384.436	71
384.662	89
384.887	94
385.112	82
385.337	82
385.562	100
385.787	82
386.013	87
386.238	86
386.463	82
386.688	83
386.913	84
387.138	108
387.363	76
387.588	89
387.813	77
388.038	88
388.263	91
388.488	79
388.713	85
388.938	79
389.163	92
389.387	88
389.612	65
389.837	90
390.062	81
390.287	81
390.512	80
390.736	88
390.961	79
391.186	100
391.411	81
391.636	89
391.86	94
392.085	65
392.31	86
392.534	85
392.759	77
392.984	96
393.208	93
393.433	84
393.658	90
393.882	87
394.107	87
394.331	87
394.556	83
394.78	89
395.005	75
395.229	76
395.454	94
395.678	82
395.903	89
396.127	94
396.352	81
396.576	84
396.801	87
397.025	91
397.249	94
397.474	96
397.698	83
397.922	88
398.147	105
398.371	103
398.595	90
398.82	66
399.044	91
399.268	95
399.492	91
399.717	110
399.941	96
400.165	94
400.389	86
400.613	91
400.837	92
401.062	88
401.286	74
401.51	94
401.734	93
401.958	91
402.182	91
402.406	90
402.63	97
402.854	113
403.078	95
403.302	100
403.526	90
403.75	87
403.974	80
404.198	82
404.422	91
404.645	89
404.869	83
405.093	86
405.317	103
405.541	87
405.765	88
405.988	90
406.212	97
406.436	85
406.66	96
406.883	87
407.107	98
407.331	100
407.555	99
407.778	94
408.002	87
408.226	80
408.449	86
408.673	75
408.896	91
409.12	92
409.344	89
409.567	95
409.791	90
410.014	81
410.238	96
410.461	108
410.685	95
410.908	81
411.132	77
411.355	80
411.578	101
411.802	74
412.025	98
412.249	86
412.472	97
412.695	80
412.919	90
413.142	88
413.365	93
413.589	96
413.812	83
414.035	98
414.258	84
414.482	88
414.705	81
414.928	73
415.151	92
415.374	85
415.597	93
415.821	99
416.044	102
416.267	88
416.49	92
416.713	88
416.936	91
417.159	88
417.382	95
417.605	87
417.828	92
418.051	81
418.274	83
418.497	78
418.72	93
418.943	99
419.166	95
419.389	89
419.611	83
419.834	85
420.057	99
420.28	84
420.503	87
420.726	92
420.948	96
421.171	105
421.394	93
421.617	81
421.839	95
422.062	80
422.285	100
422.507	83
422.73	84
422.953	87
423.175	74
423.398	95
423.621	96
423.843	90
424.066	84
424.288	88
424.511	98
424.733	98
424.956	82
425.178	94
425.401	92
425.623	95
425.846	105
426.068	89
426.291	95
426.513	86
426.735	89
426.958	89
427.18	75
427.402	91
427.625	87
427.847	76
428.069	87
428.292	88
428.514	83
428.736	103
428.958	85
429.181	89
429.403	95
429.625	91
429.847	84
430.069	90
430.292	92
430.514	75
430.736	84
430.958	92
431.18	78
431.402	90
431.624	80
431.846	92
432.068	75
432.29	91
432.512	93
432.734	108
432.956	94
433.178	91
433.4	95
433.622	85
433.844	79
434.066	80
434.287	62
434.509	83
434.731	88
434.953	84
435.175	79
435.397	81
435.618	91
435.84	80
436.062	78
436.284	77
436.505	84
436.727	99
436.949	71
437.17	100
437.392	70
437.614	99
437.835	96
438.057	70
438.278	89
438.5	87
438.721	88
438.943	100
439.165	72
439.386	101
439.608	85
439.829	97
440.05	77
440.272	93
440.493	85
440.715	88
440.936	87
441.158	81
441.379	82
441.6	93
441.822	84
442.043	80
442.264	77
442.486	84
442.707	87
442.928	93
443.149	69
443.371	94
443.592	92
443.813	84
444.034	98
444.255	95
444.476	88
444.698	89
444.919	83
445.14	172
445.361	132
445.582	103
445.803	87
446.024	81
446.245	84
446.466	76
446.687	80
446.908	90
447.129	90
447.35	86
447.571	96
447.792	87
448.013	84
448.234	76
448.455	88
448.675	79
448.896	92
449.117	95
449.338	91
449.559	95
449.779	92
450	91
450.221	81
450.442	91
450.662	90
450.883	93
451.104	84
451.324	69
451.545	87
451.766	95
451.986	81
452.207	83
452.428	65
452.648	90
452.869	95
453.089	93
453.31	83
453.53	88
453.751	83
453.971	85
454.192	93
454.412	86
454.633	91
454.853	87
455.073	87
455.294	94
455.514	88
455.734	70
455.955	74
456.175	93
456.395	68
456.616	89
456.836	86
457.056	89
457.276	84
457.497	91
457.717	87
457.937	75
458.157	69
458.377	79
458.598	93
458.818	80
459.038	79
459.258	99
459.478	95
459.698	86
459.918	83
460.138	76
460.358	89
460.578	90
460.798	83
461.018	89
461.238	89
461.458	88
461.678	91
461.898	91
462.118	89
462.338	95
462.558	98
462.777	89
462.997	92
463.217	93
463.437	97
463.657	87
463.876	86
464.096	77
464.316	98
464.536	91
464.755	81
464.975	76
465.195	99
465.414	96
465.634	95
465.854	95
466.073	88
466.293	81
466.512	75
466.732	90
466.951	75
467.171	78
467.391	92
467.61	74
467.829	73
468.049	93
468.268	94
468.488	94
468.707	94
468.927	82
469.146	92
469.365	85
469.585	79
469.804	91
470.023	94
470.243	87
470.462	90
470.681	97
470.901	88
471.12	77
471.339	94
471.558	91
471.777	88
471.997	98
472.216	82
472.435	75
472.654	90
472.873	91
473.092	98
473.311	78
473.53	89
473.749	77
473.968	109
474.187	93
474.406	83
474.625	86
474.844	87
475.063	84
475.282	87
475.501	83
475.72	80
475.939	89
476.158	87
476.377	90
476.596	101
476.814	96
477.033	79
477.252	98
477.471	93
477.69	88
477.908	95
478.127	88
478.346	87
478.564	81
478.783	92
479.002	86
479.22	94
479.439	85
479.658	89
479.876	84
480.095	90
480.313	85
480.532	77
480.751	94
480.969	86
481.188	93
481.406	98
481.624	87
481.843	86
482.061	90
482.28	87
482.498	79
482.717	94
482.935	76
483.153	80
483.372	83
483.59	91
483.808	92
484.027	93
484.245	85
484.463	107
484.681	92
484.9	77
485.118	87
485.336	95
485.554	90
485.772	95
485.99	95
486.209	93
486.427	72
486.645	104
486.863	84
487.081	83
487.299	78
487.517	71
487.735	88
487.953	97
488.171	87
488.389	82
488.607	92
488.825	78
489.043	90
489.261	96
489.479	104
489.696	97
489.914	83
490.132	99
490.35	85
490.568	90
490.786	92
491.003	96
491.221	77
491.439	86
491.657	86
491.874	80
492.092	80
492.31	94
492.527	105
492.745	93
492.963	88
493.18	104
493.398	103
493.615	103
493.833	104
494.05	84
494.268	82
494.485	99
494.703	100
494.92	93
495.138	96
495.355	96
495.573	91
495.79	91
496.008	92
496.225	94
496.442	87
496.66	90
496.877	96
497.094	95
497.312	92
497.529	99
497.746	95
497.963	93
498.181	81
498.398	84
498.615	100
498.832	98
499.049	74
499.267	93
499.484	90
499.701	94
499.918	95
500.135	114
500.352	117
500.569	104
500.786	115
501.003	108
501.22	107
501.437	90
501.654	99
501.871	93
502.088	90
502.305	91
502.522	87
502.739	96
502.956	95
503.172	85
503.389	96
503.606	95
503.823	90
504.04	90
504.256	74
504.473	79
504.69	89
504.907	104
505.123	75
505.34	87
505.557	95
505.773	96
505.99	101
506.207	100
506.423	91
506.64	68
506.856	87
507.073	95
507.289	84
507.506	82
507.722	78
507.939	78
508.155	87
508.372	91
508.588	84
508.805	90
509.021	78
509.238	85
509.454	90
509.67	98
509.887	86
510.103	88
510.319	107
510.536	93
510.752	92
510.968	92
511.184	87
511.401	91
511.617	92
511.833	95
512.049	94
512.265	92
512.481	87
512.698	83
512.914	87
513.13	89
513.346	83
513.562	98
513.778	89
513.994	98
514.21	85
514.426	77
514.642	92
514.858	103
515.074	95
515.29	93
515.506	96
515.721	89
515.937	83
516.153	81
516.369	85
516.585	90
516.801	85
517.016	82
517.232	101
517.448	103
517.664	95
517.879	121
518.095	83
518.311	82
518.527	92
518.742	95
518.958	88
519.173	88
519.389	92
519.605	85
519.82	93
520.036	81
520.251	89
520.467	95
520.682	84
520.898	71
521.113	90
521.329	85
521.544	88
521.76	83
521.975	96
522.19	75
522.406	87
522.621	89
522.836	90
523.052	78
523.267	97
523.482	81
523.698	90
523.913	87
524.128	90
524.343	74
524.559	84
524.774	99
524.989	93
525.204	86
525.419	83
525.634	92
525.849	85
526.064	91
526.28	100
526.495	101
526.71	85
526.925	88
527.14	91
527.355	84
527.57	88
527.785	91
527.999	91
528.214	108
528.429	92
528.644	80
528.859	84
529.074	75
529.289	72
529.503	73
529.718	110
529.933	94
530.148	106
530.363	76
530.577	85
530.792	85
531.007	87
531.221	79
531.436	81
531.651	99
531.865	84
532.08	82
532.295	87
532.509	84
532.724	91
532.938	87
533.153	84
533.367	98
533.582	97
533.796	94
534.011	92
534.225	84
534.44	91
534.654	89
534.868	83
535.083	84
535.297	91
535.511	92
535.726	92
535.94	85
536.154	91
536.369	80
536.583	74
536.797	106
537.011	84
537.225	85
537.44	97
537.654	103
537.868	90
538.082	86
538.296	86
538.51	98
538.724	86
538.938	97
539.153	82
539.367	84
539.581	104
539.795	87
540.009	88
540.222	98
540.436	79
540.65	87
540.864	82
541.078	84
541.292	92
541.506	90
541.72	89
541.934	85
542.147	95
542.361	77
542.575	94
542.789	90
543.002	87
543.216	87
543.43	88
543.644	100
543.857	82
544.071	81
544.285	84
544.498	80
544.712	93
544.925	91
545.139	104
545.352	87
545.566	89
545.779	93
545.993	98
546.206	92
546.42	88
546.633	85
546.847	100
547.06	90
547.274	93
547.487	91
547.7	88
547.914	87
548.127	81
548.34	89
548.554	90
548.767	90
548.98	83
549.193	89
549.407	91
549.62	90
549.833	91
550.046	89
550.259	83
550.473	80
550.686	89
550.899	82
551.112	89
551.325	90
551.538	94
551.751	94
551.964	90
552.177	104
552.39	88
552.603	81
552.816	87
553.029	94
553.242	95
553.455	79
553.667	87
553.88	87
554.093	93
554.306	85
554.519	84
554.732	90
554.944	90
555.157	87
555.37	84
555.583	95
555.795	75
556.008	87
556.221	86
556.433	95
556.646	100
556.859	87
557.071	80
557.284	84
557.496	96
557.709	70
557.921	98
558.134	82
558.346	90
558.559	71
558.771	83
558.984	87
559.196	90
559.409	82
559.621	80
559.833	91
560.046	92
560.258	96
560.47	90
560.683	85
560.895	76
561.107	96
561.32	94
561.532	77
561.744	97
561.956	83
562.168	76
562.381	89
562.593	85
562.805	82
563.017	76
563.229	83
563.441	89
563.653	68
563.865	82
564.077	80
564.289	95
564.501	94
564.713	80
564.925	81
565.137	75
565.349	94
565.561	69
565.773	96
565.985	90
566.197	91
566.408	90
566.62	84
566.832	94
567.044	74
567.255	92
567.467	90
567.679	62
567.891	90
568.102	95
568.314	93
568.526	97
568.737	97
568.949	99
569.161	92
569.372	97
569.584	84
569.795	86
570.007	93
570.218	87
570.43	89
570.641	105
570.853	92
571.064	91
571.276	91
571.487	84
571.698	81
571.91	95
572.121	100
572.333	73
572.544	96
572.755	92
572.966	78
573.178	71
573.389	97
573.6	83
573.811	84
574.023	93
574.234	87
574.445	90
574.656	84
574.867	87
575.078	83
575.289	92
575.501	98
575.712	75
575.923	87
576.134	75
576.345	72
576.556	98
576.767	93
576.978	94
577.188	81
577.399	97
577.61	99
577.821	81
578.032	95
578.243	89
578.454	101
578.665	79
578.875	93
579.086	79
579.297	87
579.508	90
579.718	103
579.929	89
580.14	99
580.35	76
580.561	89
580.772	83
580.982	98
581.193	91
581.403	112
581.614	90
581.825	93
582.035	93
582.246	77
582.456	81
582.667	75
582.877	87
583.087	89
583.298	88
583.508	80
583.719	85
583.929	96
584.139	95
584.35	79
584.56	95
584.77	79
584.981	94
585.191	83
585.401	105
585.611	100
585.821	91
586.032	83
586.242	81
586.452	90
586.662	87
586.872	84
587.082	88
587.292	87
587.502	98
587.713	93
587.923	79
588.133	85
588.343	82
588.553	88
588.762	81
588.972	91
589.182	97
589.392	89
