Data from BG_HRD10591_093.txt Node
Date: Fri May 16 15:33:53 EDT 2025
User: Yrep
Spectrometer: HR+D1059
Trigger mode: 1
Integration Time (sec): 1.000000E-1
Scans to average: 1
Electric dark correction enabled: true
Nonlinearity correction enabled: false
Boxcar width: 0
XAxis mode: Wavelengths
Number of Pixels in Spectrum: 2048
>>>>>Begin Spectral Data<<<<<
223.165	-29.12
223.4	-29.12
223.635	-29.12
223.869	-8.12
224.104	-9.12
224.338	-18.12
224.573	-14.12
224.808	-23.12
225.042	-10.12
225.277	7.88
225.511	-0.12
225.746	13.88
225.98	10.88
226.215	-1.12
226.449	6.88
226.683	12.88
226.918	30.88
227.152	29.88
227.387	25.88
227.621	30.88
227.856	35.88
228.09	49.88
228.324	52.88
228.559	61.88
228.793	67.88
229.027	53.88
229.262	65.88
229.496	78.88
229.73	66.88
229.964	57.88
230.199	87.88
230.433	65.88
230.667	85.88
230.901	76.88
231.136	96.88
231.37	82.88
231.604	87.88
231.838	67.88
232.072	77.88
232.306	79.88
232.541	68.88
232.775	76.88
233.009	89.88
233.243	87.88
233.477	72.88
233.711	77.88
233.945	80.88
234.179	74.88
234.413	69.88
234.647	94.88
234.881	85.88
235.115	58.88
235.349	74.88
235.583	79.88
235.817	73.88
236.051	79.88
236.285	79.88
236.519	85.88
236.753	67.88
236.987	80.88
237.221	77.88
237.455	75.88
237.689	64.88
237.922	71.88
238.156	77.88
238.39	72.88
238.624	74.88
238.858	72.88
239.091	74.88
239.325	77.88
239.559	82.88
239.793	89.88
240.027	73.88
240.26	88.88
240.494	77.88
240.728	78.88
240.961	57.88
241.195	80.88
241.429	73.88
241.662	64.88
241.896	73.88
242.13	73.88
242.363	71.88
242.597	73.88
242.83	73.88
243.064	80.88
243.298	72.88
243.531	70.88
243.765	65.88
243.998	81.88
244.232	75.88
244.465	70.88
244.699	80.88
244.932	78.88
245.166	88.88
245.399	79.88
245.633	85.88
245.866	72.88
246.099	73.88
246.333	81.88
246.566	76.88
246.8	83.88
247.033	74.88
247.266	81.88
247.5	91.88
247.733	83.88
247.966	81.88
248.2	73.88
248.433	74.88
248.666	71.88
248.899	71.88
249.133	70.88
249.366	75.88
249.599	88.88
249.832	77.88
250.066	75.88
250.299	68.88
250.532	87.88
250.765	81.88
250.998	85.88
251.231	83.88
251.465	65.88
251.698	89.88
251.931	75.88
252.164	74.88
252.397	77.88
252.63	76.88
252.863	83.88
253.096	75.88
253.329	74.88
253.562	73.88
253.795	73.88
254.028	78.88
254.261	71.88
254.494	70.88
254.727	78.88
254.96	82.88
255.193	76.88
255.426	69.88
255.659	65.88
255.892	76.88
256.124	81.88
256.357	70.88
256.59	89.88
256.823	78.88
257.056	80.88
257.289	77.88
257.521	88.88
257.754	75.88
257.987	83.88
258.22	83.88
258.452	92.88
258.685	79.88
258.918	72.88
259.151	79.88
259.383	83.88
259.616	82.88
259.849	76.88
260.081	64.88
260.314	72.88
260.547	83.88
260.779	90.88
261.012	79.88
261.244	82.88
261.477	73.88
261.71	67.88
261.942	94.88
262.175	87.88
262.407	75.88
262.64	85.88
262.872	78.88
263.105	75.88
263.337	74.88
263.57	72.88
263.802	77.88
264.035	82.88
264.267	73.88
264.499	77.88
264.732	83.88
264.964	86.88
265.197	80.88
265.429	87.88
265.661	79.88
265.894	97.88
266.126	85.88
266.358	65.88
266.591	78.88
266.823	79.88
267.055	75.88
267.287	86.88
267.52	91.88
267.752	88.88
267.984	90.88
268.216	90.88
268.448	81.88
268.681	82.88
268.913	92.88
269.145	79.88
269.377	86.88
269.609	93.88
269.841	69.88
270.073	78.88
270.306	85.88
270.538	85.88
270.77	91.88
271.002	89.88
271.234	83.88
271.466	67.88
271.698	85.88
271.93	76.88
272.162	94.88
272.394	76.88
272.626	80.88
272.858	64.88
273.09	80.88
273.322	81.88
273.553	77.88
273.785	89.88
274.017	74.88
274.249	83.88
274.481	87.88
274.713	73.88
274.945	81.88
275.176	79.88
275.408	87.88
275.64	61.88
275.872	79.88
276.104	82.88
276.335	83.88
276.567	102.88
276.799	85.88
277.031	85.88
277.262	75.88
277.494	87.88
277.726	82.88
277.957	75.88
278.189	73.88
278.421	71.88
278.652	84.88
278.884	78.88
279.115	82.88
279.347	74.88
279.579	83.88
279.81	69.88
280.042	75.88
280.273	85.88
280.505	63.88
280.736	83.88
280.968	102.88
281.199	93.88
281.431	85.88
281.662	77.88
281.894	63.88
282.125	73.88
282.356	90.88
282.588	85.88
282.819	76.88
283.051	89.88
283.282	93.88
283.513	100.88
283.745	71.88
283.976	67.88
284.207	80.88
284.439	74.88
284.67	82.88
284.901	91.88
285.132	89.88
285.364	87.88
285.595	87.88
285.826	80.88
286.057	87.88
286.288	75.88
286.52	87.88
286.751	86.88
286.982	75.88
287.213	78.88
287.444	84.88
287.675	94.88
287.906	74.88
288.138	77.88
288.369	94.88
288.6	86.88
288.831	89.88
289.062	87.88
289.293	75.88
289.524	87.88
289.755	80.88
289.986	89.88
290.217	80.88
290.448	77.88
290.679	81.88
290.91	92.88
291.141	79.88
291.371	78.88
291.602	80.88
291.833	82.88
292.064	81.88
292.295	80.88
292.526	78.88
292.757	75.88
292.987	77.88
293.218	76.88
293.449	86.88
293.68	79.88
293.91	86.88
294.141	90.88
294.372	77.88
294.603	95.88
294.833	87.88
295.064	100.88
295.295	87.88
295.525	79.88
295.756	80.88
295.987	87.88
296.217	86.88
296.448	82.88
296.679	63.88
296.909	82.88
297.14	79.88
297.37	96.88
297.601	92.88
297.831	95.88
298.062	82.88
298.292	81.88
298.523	82.88
298.753	90.88
298.984	82.88
299.214	90.88
299.445	85.88
299.675	78.88
299.905	94.88
300.136	105.88
300.366	70.88
300.597	86.88
300.827	91.88
301.057	82.88
301.288	83.88
301.518	77.88
301.748	94.88
301.979	98.88
302.209	84.88
302.439	73.88
302.669	87.88
302.9	84.88
303.13	77.88
303.36	81.88
303.59	90.88
303.82	79.88
304.051	87.88
304.281	85.88
304.511	90.88
304.741	105.88
304.971	79.88
305.201	79.88
305.431	87.88
305.661	84.88
305.891	82.88
306.121	76.88
306.352	89.88
306.582	98.88
306.812	81.88
307.042	77.88
307.272	90.88
307.502	84.88
307.731	82.88
307.961	86.88
308.191	83.88
308.421	77.88
308.651	84.88
308.881	81.88
309.111	70.88
309.341	79.88
309.571	88.88
309.8	73.88
310.03	72.88
310.26	86.88
310.49	86.88
310.72	90.88
310.949	79.88
311.179	93.88
311.409	76.88
311.639	89.88
311.868	93.88
312.098	82.88
312.328	85.88
312.557	82.88
312.787	91.88
313.017	86.88
313.246	83.88
313.476	75.88
313.706	90.88
313.935	78.88
314.165	81.88
314.394	85.88
314.624	67.88
314.853	92.88
315.083	88.88
315.312	90.88
315.542	76.88
315.771	75.88
316.001	95.88
316.23	84.88
316.46	77.88
316.689	82.88
316.919	77.88
317.148	81.88
317.377	83.88
317.607	87.88
317.836	91.88
318.065	77.88
318.295	87.88
318.524	85.88
318.753	87.88
318.983	86.88
319.212	81.88
319.441	89.88
319.67	77.88
319.9	74.88
320.129	63.88
320.358	89.88
320.587	78.88
320.816	77.88
321.046	74.88
321.275	69.88
321.504	85.88
321.733	95.88
321.962	87.88
322.191	88.88
322.42	85.88
322.649	82.88
322.878	84.88
323.108	81.88
323.337	81.88
323.566	78.88
323.795	78.88
324.024	87.88
324.253	79.88
324.482	76.88
324.71	87.88
324.939	105.88
325.168	72.88
325.397	96.88
325.626	99.88
325.855	75.88
326.084	90.88
326.313	86.88
326.542	84.88
326.77	85.88
326.999	92.88
327.228	78.88
327.457	81.88
327.686	80.88
327.914	98.88
328.143	77.88
328.372	87.88
328.6	71.88
328.829	71.88
329.058	79.88
329.287	82.88
329.515	79.88
329.744	80.88
329.972	81.88
330.201	70.88
330.43	79.88
330.658	95.88
330.887	96.88
331.115	86.88
331.344	87.88
331.572	82.88
331.801	90.88
332.03	103.88
332.258	77.88
332.486	79.88
332.715	87.88
332.943	79.88
333.172	90.88
333.4	84.88
333.629	96.88
333.857	77.88
334.085	80.88
334.314	86.88
334.542	82.88
334.771	90.88
334.999	85.88
335.227	74.88
335.455	80.88
335.684	77.88
335.912	81.88
336.14	89.88
336.369	80.88
336.597	75.88
336.825	89.88
337.053	81.88
337.281	76.88
337.51	76.88
337.738	90.88
337.966	73.88
338.194	89.88
338.422	86.88
338.65	75.88
338.878	78.88
339.106	77.88
339.334	86.88
339.562	73.88
339.79	84.88
340.018	86.88
340.246	81.88
340.474	78.88
340.702	89.88
340.93	97.88
341.158	94.88
341.386	92.88
341.614	77.88
341.842	86.88
342.07	80.88
342.298	97.88
342.526	91.88
342.754	82.88
342.981	80.88
343.209	84.88
343.437	86.88
343.665	73.88
343.893	82.88
344.12	96.88
344.348	74.88
344.576	90.88
344.804	81.88
345.031	75.88
345.259	85.88
345.487	70.88
345.714	72.88
345.942	91.88
346.17	98.88
346.397	80.88
346.625	93.88
346.853	91.88
347.08	89.88
347.308	83.88
347.535	57.88
347.763	91.88
347.99	83.88
348.218	96.88
348.445	83.88
348.673	93.88
348.9	96.88
349.128	89.88
349.355	80.88
349.583	82.88
349.81	80.88
350.037	86.88
350.265	91.88
350.492	78.88
350.72	82.88
350.947	88.88
351.174	80.88
351.402	92.88
351.629	81.88
351.856	78.88
352.083	94.88
352.311	79.88
352.538	88.88
352.765	73.88
352.992	90.88
353.22	90.88
353.447	72.88
353.674	79.88
353.901	75.88
354.128	66.88
354.355	93.88
354.583	89.88
354.81	85.88
355.037	80.88
355.264	79.88
355.491	69.88
355.718	82.88
355.945	82.88
356.172	73.88
356.399	76.88
356.626	83.88
356.853	94.88
357.08	84.88
357.307	77.88
357.534	84.88
357.761	79.88
357.988	85.88
358.215	89.88
358.441	92.88
358.668	82.88
358.895	81.88
359.122	86.88
359.349	87.88
359.576	87.88
359.802	75.88
360.029	85.88
360.256	70.88
360.483	83.88
360.709	86.88
360.936	95.88
361.163	85.88
361.39	74.88
361.616	81.88
361.843	75.88
362.07	80.88
362.296	82.88
362.523	81.88
362.749	73.88
362.976	85.88
363.203	101.88
363.429	79.88
363.656	74.88
363.882	93.88
364.109	89.88
364.335	70.88
364.562	81.88
364.788	70.88
365.015	72.88
365.241	83.88
365.468	88.88
365.694	87.88
365.92	68.88
366.147	87.88
366.373	81.88
366.599	75.88
366.826	81.88
367.052	95.88
367.278	82.88
367.505	77.88
367.731	83.88
367.957	90.88
368.184	67.88
368.41	81.88
368.636	85.88
368.862	87.88
369.089	74.88
369.315	90.88
369.541	88.88
369.767	77.88
369.993	81.88
370.219	93.88
370.445	87.88
370.672	85.88
370.898	69.88
371.124	83.88
371.35	90.88
371.576	83.88
371.802	87.88
372.028	82.88
372.254	79.88
372.48	86.88
372.706	83.88
372.932	94.88
373.158	81.88
373.384	81.88
373.61	83.88
373.835	85.88
374.061	102.88
374.287	91.88
374.513	80.88
374.739	87.88
374.965	82.88
375.191	88.88
375.416	79.88
375.642	79.88
375.868	79.88
376.094	77.88
376.319	76.88
376.545	81.88
376.771	76.88
376.997	81.88
377.222	80.88
377.448	81.88
377.674	86.88
377.899	80.88
378.125	82.88
378.35	84.88
378.576	77.88
378.802	66.88
379.027	73.88
379.253	73.88
379.478	91.88
379.704	63.88
379.929	74.88
380.155	74.88
380.38	74.88
380.606	85.88
380.831	63.88
381.057	91.88
381.282	82.88
381.507	75.88
381.733	78.88
381.958	73.88
382.184	73.88
382.409	81.88
382.634	79.88
382.86	79.88
383.085	80.88
383.31	70.88
383.535	78.88
383.761	79.88
383.986	85.88
384.211	78.88
384.436	73.88
384.662	90.88
384.887	87.88
385.112	90.88
385.337	89.88
385.562	81.88
385.787	74.88
386.013	78.88
386.238	90.88
386.463	81.88
386.688	90.88
386.913	86.88
387.138	74.88
387.363	82.88
387.588	82.88
387.813	81.88
388.038	85.88
388.263	89.88
388.488	78.88
388.713	91.88
388.938	79.88
389.163	76.88
389.387	79.88
389.612	84.88
389.837	74.88
390.062	81.88
390.287	72.88
390.512	63.88
390.736	86.88
390.961	88.88
391.186	79.88
391.411	68.88
391.636	71.88
391.86	79.88
392.085	81.88
392.31	101.88
392.534	85.88
392.759	80.88
392.984	78.88
393.208	81.88
393.433	73.88
393.658	89.88
393.882	73.88
394.107	86.88
394.331	73.88
394.556	75.88
394.78	71.88
395.005	57.88
395.229	94.88
395.454	75.88
395.678	94.88
395.903	81.88
396.127	87.88
396.352	75.88
396.576	72.88
396.801	81.88
397.025	92.88
397.249	73.88
397.474	91.88
397.698	82.88
397.922	66.88
398.147	80.88
398.371	81.88
398.595	91.88
398.82	79.88
399.044	95.88
399.268	97.88
399.492	81.88
399.717	77.88
399.941	59.88
400.165	82.88
400.389	75.88
400.613	82.88
400.837	93.88
401.062	85.88
401.286	84.88
401.51	77.88
401.734	86.88
401.958	75.88
402.182	85.88
402.406	85.88
402.63	69.88
402.854	89.88
403.078	78.88
403.302	71.88
403.526	79.88
403.75	94.88
403.974	69.88
404.198	63.88
404.422	93.88
404.645	84.88
404.869	81.88
405.093	80.88
405.317	87.88
405.541	74.88
405.765	73.88
405.988	86.88
406.212	81.88
406.436	84.88
406.66	103.88
406.883	79.88
407.107	83.88
407.331	89.88
407.555	74.88
407.778	82.88
408.002	71.88
408.226	85.88
408.449	75.88
408.673	80.88
408.896	79.88
409.12	71.88
409.344	71.88
409.567	88.88
409.791	78.88
410.014	94.88
410.238	72.88
410.461	71.88
410.685	79.88
410.908	73.88
411.132	94.88
411.355	79.88
411.578	73.88
411.802	91.88
412.025	66.88
412.249	82.88
412.472	84.88
412.695	95.88
412.919	78.88
413.142	80.88
413.365	79.88
413.589	79.88
413.812	83.88
414.035	78.88
414.258	72.88
414.482	78.88
414.705	75.88
414.928	83.88
415.151	78.88
415.374	63.88
415.597	76.88
415.821	73.88
416.044	81.88
416.267	69.88
416.49	87.88
416.713	71.88
416.936	84.88
417.159	73.88
417.382	86.88
417.605	85.88
417.828	93.88
418.051	75.88
418.274	88.88
418.497	74.88
418.72	75.88
418.943	75.88
419.166	72.88
419.389	78.88
419.611	74.88
419.834	88.88
420.057	74.88
420.28	75.88
420.503	77.88
420.726	81.88
420.948	83.88
421.171	80.88
421.394	86.88
421.617	74.88
421.839	82.88
422.062	81.88
422.285	75.88
422.507	82.88
422.73	89.88
422.953	85.88
423.175	81.88
423.398	85.88
423.621	80.88
423.843	86.88
424.066	83.88
424.288	90.88
424.511	78.88
424.733	66.88
424.956	68.88
425.178	90.88
425.401	90.88
425.623	84.88
425.846	87.88
426.068	75.88
426.291	72.88
426.513	82.88
426.735	89.88
426.958	83.88
427.18	80.88
427.402	66.88
427.625	94.88
427.847	77.88
428.069	78.88
428.292	85.88
428.514	86.88
428.736	74.88
428.958	67.88
429.181	77.88
429.403	65.88
429.625	71.88
429.847	75.88
430.069	88.88
430.292	85.88
430.514	74.88
430.736	87.88
430.958	81.88
431.18	75.88
431.402	74.88
431.624	80.88
431.846	81.88
432.068	78.88
432.29	75.88
432.512	102.88
432.734	73.88
432.956	79.88
433.178	72.88
433.4	66.88
433.622	85.88
433.844	79.88
434.066	74.88
434.287	77.88
434.509	89.88
434.731	77.88
434.953	77.88
435.175	83.88
435.397	75.88
435.618	80.88
435.84	81.88
436.062	74.88
436.284	85.88
436.505	81.88
436.727	88.88
436.949	73.88
437.17	67.88
437.392	80.88
437.614	72.88
437.835	91.88
438.057	76.88
438.278	72.88
438.5	88.88
438.721	89.88
438.943	78.88
439.165	98.88
439.386	69.88
439.608	83.88
439.829	79.88
440.05	75.88
440.272	81.88
440.493	75.88
440.715	81.88
440.936	72.88
441.158	88.88
441.379	81.88
441.6	81.88
441.822	75.88
442.043	72.88
442.264	75.88
442.486	90.88
442.707	82.88
442.928	78.88
443.149	67.88
443.371	87.88
443.592	83.88
443.813	76.88
444.034	79.88
444.255	83.88
444.476	80.88
444.698	83.88
444.919	82.88
445.14	154.88
445.361	115.88
445.582	79.88
445.803	69.88
446.024	73.88
446.245	75.88
446.466	75.88
446.687	74.88
446.908	83.88
447.129	86.88
447.35	83.88
447.571	67.88
447.792	71.88
448.013	67.88
448.234	85.88
448.455	81.88
448.675	75.88
448.896	76.88
449.117	77.88
449.338	76.88
449.559	81.88
449.779	80.88
450	85.88
450.221	81.88
450.442	83.88
450.662	105.88
450.883	85.88
451.104	85.88
451.324	78.88
451.545	73.88
451.766	67.88
451.986	77.88
452.207	67.88
452.428	84.88
452.648	80.88
452.869	85.88
453.089	81.88
453.31	91.88
453.53	83.88
453.751	72.88
453.971	74.88
454.192	75.88
454.412	73.88
454.633	76.88
454.853	86.88
455.073	70.88
455.294	83.88
455.514	53.88
455.734	77.88
455.955	66.88
456.175	81.88
456.395	76.88
456.616	83.88
456.836	85.88
457.056	89.88
457.276	80.88
457.497	83.88
457.717	89.88
457.937	78.88
458.157	71.88
458.377	70.88
458.598	90.88
458.818	73.88
459.038	66.88
459.258	70.88
459.478	65.88
459.698	79.88
459.918	75.88
460.138	78.88
460.358	75.88
460.578	77.88
460.798	79.88
461.018	72.88
461.238	79.88
461.458	85.88
461.678	81.88
461.898	93.88
462.118	81.88
462.338	79.88
462.558	88.88
462.777	88.88
462.997	64.88
463.217	80.88
463.437	75.88
463.657	77.88
463.876	86.88
464.096	98.88
464.316	80.88
464.536	85.88
464.755	82.88
464.975	83.88
465.195	83.88
465.414	78.88
465.634	75.88
465.854	89.88
466.073	72.88
466.293	66.88
466.512	85.88
466.732	87.88
466.951	84.88
467.171	82.88
467.391	77.88
467.61	77.88
467.829	81.88
468.049	86.88
468.268	77.88
468.488	86.88
468.707	73.88
468.927	73.88
469.146	89.88
469.365	102.88
469.585	91.88
469.804	77.88
470.023	87.88
470.243	70.88
470.462	82.88
470.681	93.88
470.901	79.88
471.12	83.88
471.339	72.88
471.558	79.88
471.777	94.88
471.997	81.88
472.216	88.88
472.435	77.88
472.654	87.88
472.873	102.88
473.092	87.88
473.311	93.88
473.53	88.88
473.749	81.88
473.968	88.88
474.187	81.88
474.406	73.88
474.625	71.88
474.844	77.88
475.063	79.88
475.282	85.88
475.501	98.88
475.72	97.88
475.939	81.88
476.158	73.88
476.377	79.88
476.596	78.88
476.814	85.88
477.033	83.88
477.252	77.88
477.471	87.88
477.69	86.88
477.908	68.88
478.127	82.88
478.346	79.88
478.564	77.88
478.783	61.88
479.002	75.88
479.22	82.88
479.439	80.88
479.658	88.88
479.876	83.88
480.095	69.88
480.313	75.88
480.532	72.88
480.751	89.88
480.969	81.88
481.188	93.88
481.406	89.88
481.624	78.88
481.843	78.88
482.061	93.88
482.28	77.88
482.498	74.88
482.717	81.88
482.935	85.88
483.153	78.88
483.372	79.88
483.59	81.88
483.808	68.88
484.027	96.88
484.245	96.88
484.463	61.88
484.681	80.88
484.9	86.88
485.118	80.88
485.336	85.88
485.554	83.88
485.772	76.88
485.99	86.88
486.209	65.88
486.427	85.88
486.645	79.88
486.863	89.88
487.081	93.88
487.299	82.88
487.517	94.88
487.735	87.88
487.953	79.88
488.171	81.88
488.389	88.88
488.607	85.88
488.825	66.88
489.043	74.88
489.261	87.88
489.479	82.88
489.696	80.88
489.914	83.88
490.132	68.88
490.35	89.88
490.568	83.88
490.786	78.88
491.003	76.88
491.221	78.88
491.439	97.88
491.657	71.88
491.874	83.88
492.092	80.88
492.31	71.88
492.527	79.88
492.745	75.88
492.963	76.88
493.18	77.88
493.398	83.88
493.615	78.88
493.833	83.88
494.05	95.88
494.268	78.88
494.485	76.88
494.703	73.88
494.92	77.88
495.138	89.88
495.355	99.88
495.573	98.88
495.79	84.88
496.008	88.88
496.225	81.88
496.442	74.88
496.66	84.88
496.877	71.88
497.094	88.88
497.312	83.88
497.529	69.88
497.746	76.88
497.963	80.88
498.181	81.88
498.398	82.88
498.615	88.88
498.832	80.88
499.049	67.88
499.267	98.88
499.484	87.88
499.701	90.88
499.918	86.88
500.135	76.88
500.352	74.88
500.569	75.88
500.786	88.88
501.003	88.88
501.22	67.88
501.437	74.88
501.654	94.88
501.871	82.88
502.088	92.88
502.305	81.88
502.522	86.88
502.739	79.88
502.956	75.88
503.172	74.88
503.389	61.88
503.606	83.88
503.823	86.88
504.04	103.88
504.256	76.88
504.473	85.88
504.69	79.88
504.907	94.88
505.123	77.88
505.34	99.88
505.557	74.88
505.773	80.88
505.99	69.88
506.207	85.88
506.423	83.88
506.64	82.88
506.856	85.88
507.073	87.88
507.289	78.88
507.506	69.88
507.722	70.88
507.939	89.88
508.155	89.88
508.372	75.88
508.588	73.88
508.805	88.88
509.021	77.88
509.238	87.88
509.454	87.88
509.67	89.88
509.887	80.88
510.103	75.88
510.319	82.88
510.536	83.88
510.752	73.88
510.968	85.88
511.184	97.88
511.401	81.88
511.617	70.88
511.833	74.88
512.049	71.88
512.265	84.88
512.481	105.88
512.698	95.88
512.914	80.88
513.13	81.88
513.346	86.88
513.562	97.88
513.778	98.88
513.994	83.88
514.21	90.88
514.426	78.88
514.642	87.88
514.858	71.88
515.074	94.88
515.29	87.88
515.506	83.88
515.721	82.88
515.937	73.88
516.153	72.88
516.369	79.88
516.585	90.88
516.801	85.88
517.016	92.88
517.232	73.88
517.448	80.88
517.664	80.88
517.879	70.88
518.095	83.88
518.311	78.88
518.527	73.88
518.742	85.88
518.958	68.88
519.173	74.88
519.389	75.88
519.605	83.88
519.82	64.88
520.036	71.88
