Data from BG_HRD10591_085.txt Node
Date: Fri May 16 15:33:49 EDT 2025
User: Yrep
Spectrometer: HR+D1059
Trigger mode: 1
Integration Time (sec): 1.000000E-1
Scans to average: 1
Electric dark correction enabled: true
Nonlinearity correction enabled: false
Boxcar width: 0
XAxis mode: Wavelengths
Number of Pixels in Spectrum: 2048
>>>>>Begin Spectral Data<<<<<
223.165	1.31
223.4	1.31
223.635	1.31
223.869	-12.69
224.104	-12.69
224.338	-10.69
224.573	-18.69
224.808	-23.69
225.042	-14.69
225.277	0.31
225.511	1.31
225.746	9.31
225.98	7.31
226.215	3.31
226.449	9.31
226.683	17.31
226.918	11.31
227.152	32.31
227.387	39.31
227.621	33.31
227.856	47.31
228.09	44.31
228.324	51.31
228.559	61.31
228.793	59.31
229.027	60.31
229.262	73.31
229.496	71.31
229.73	79.31
229.964	75.31
230.199	72.31
230.433	69.31
230.667	69.31
230.901	66.31
231.136	71.31
231.37	74.31
231.604	77.31
231.838	84.31
232.072	79.31
232.306	80.31
232.541	72.31
232.775	80.31
233.009	89.31
233.243	84.31
233.477	85.31
233.711	82.31
233.945	84.31
234.179	97.31
234.413	101.31
234.647	77.31
234.881	71.31
235.115	87.31
235.349	80.31
235.583	79.31
235.817	72.31
236.051	77.31
236.285	68.31
236.519	67.31
236.753	69.31
236.987	67.31
237.221	77.31
237.455	67.31
237.689	67.31
237.922	80.31
238.156	81.31
238.39	75.31
238.624	79.31
238.858	71.31
239.091	76.31
239.325	75.31
239.559	87.31
239.793	90.31
240.027	73.31
240.26	67.31
240.494	76.31
240.728	79.31
240.961	69.31
241.195	77.31
241.429	74.31
241.662	68.31
241.896	83.31
242.13	69.31
242.363	68.31
242.597	62.31
242.83	65.31
243.064	76.31
243.298	83.31
243.531	77.31
243.765	63.31
243.998	89.31
244.232	87.31
244.465	76.31
244.699	82.31
244.932	80.31
245.166	72.31
245.399	89.31
245.633	82.31
245.866	71.31
246.099	73.31
246.333	79.31
246.566	81.31
246.8	79.31
247.033	68.31
247.266	70.31
247.5	88.31
247.733	74.31
247.966	90.31
248.2	82.31
248.433	89.31
248.666	92.31
248.899	92.31
249.133	87.31
249.366	96.31
249.599	87.31
249.832	83.31
250.066	65.31
250.299	82.31
250.532	68.31
250.765	81.31
250.998	86.31
251.231	88.31
251.465	74.31
251.698	92.31
251.931	81.31
252.164	82.31
252.397	79.31
252.63	78.31
252.863	71.31
253.096	76.31
253.329	88.31
253.562	63.31
253.795	84.31
254.028	92.31
254.261	83.31
254.494	81.31
254.727	82.31
254.96	80.31
255.193	97.31
255.426	76.31
255.659	85.31
255.892	85.31
256.124	84.31
256.357	76.31
256.59	75.31
256.823	86.31
257.056	92.31
257.289	83.31
257.521	78.31
257.754	88.31
257.987	76.31
258.22	76.31
258.452	88.31
258.685	78.31
258.918	87.31
259.151	75.31
259.383	83.31
259.616	85.31
259.849	84.31
260.081	79.31
260.314	81.31
260.547	82.31
260.779	84.31
261.012	69.31
261.244	90.31
261.477	90.31
261.71	85.31
261.942	71.31
262.175	73.31
262.407	80.31
262.64	79.31
262.872	83.31
263.105	73.31
263.337	91.31
263.57	87.31
263.802	93.31
264.035	77.31
264.267	79.31
264.499	70.31
264.732	67.31
264.964	59.31
265.197	82.31
265.429	80.31
265.661	82.31
265.894	89.31
266.126	79.31
266.358	84.31
266.591	87.31
266.823	80.31
267.055	83.31
267.287	84.31
267.52	76.31
267.752	69.31
267.984	80.31
268.216	103.31
268.448	81.31
268.681	97.31
268.913	66.31
269.145	79.31
269.377	92.31
269.609	80.31
269.841	90.31
270.073	87.31
270.306	76.31
270.538	87.31
270.77	93.31
271.002	80.31
271.234	81.31
271.466	69.31
271.698	68.31
271.93	81.31
272.162	90.31
272.394	89.31
272.626	95.31
272.858	76.31
273.09	91.31
273.322	78.31
273.553	85.31
273.785	87.31
274.017	96.31
274.249	84.31
274.481	79.31
274.713	73.31
274.945	69.31
275.176	76.31
275.408	95.31
275.64	79.31
275.872	92.31
276.104	87.31
276.335	94.31
276.567	80.31
276.799	87.31
277.031	79.31
277.262	79.31
277.494	92.31
277.726	84.31
277.957	88.31
278.189	78.31
278.421	84.31
278.652	82.31
278.884	81.31
279.115	83.31
279.347	76.31
279.579	74.31
279.81	90.31
280.042	84.31
280.273	96.31
280.505	92.31
280.736	81.31
280.968	94.31
281.199	85.31
281.431	85.31
281.662	87.31
281.894	82.31
282.125	74.31
282.356	88.31
282.588	90.31
282.819	87.31
283.051	79.31
283.282	81.31
283.513	81.31
283.745	74.31
283.976	82.31
284.207	80.31
284.439	66.31
284.67	84.31
284.901	89.31
285.132	69.31
285.364	78.31
285.595	78.31
285.826	87.31
286.057	77.31
286.288	92.31
286.52	98.31
286.751	77.31
286.982	91.31
287.213	84.31
287.444	88.31
287.675	75.31
287.906	74.31
288.138	95.31
288.369	78.31
288.6	82.31
288.831	98.31
289.062	90.31
289.293	88.31
289.524	84.31
289.755	76.31
289.986	75.31
290.217	77.31
290.448	80.31
290.679	92.31
290.91	98.31
291.141	81.31
291.371	75.31
291.602	101.31
291.833	76.31
292.064	88.31
292.295	94.31
292.526	94.31
292.757	91.31
292.987	91.31
293.218	77.31
293.449	89.31
293.68	106.31
293.91	81.31
294.141	88.31
294.372	79.31
294.603	85.31
294.833	97.31
295.064	88.31
295.295	76.31
295.525	84.31
295.756	87.31
295.987	92.31
296.217	73.31
296.448	85.31
296.679	88.31
296.909	88.31
297.14	95.31
297.37	80.31
297.601	87.31
297.831	90.31
298.062	77.31
298.292	95.31
298.523	83.31
298.753	95.31
298.984	84.31
299.214	98.31
299.445	83.31
299.675	73.31
299.905	91.31
300.136	88.31
300.366	85.31
300.597	83.31
300.827	86.31
301.057	83.31
301.288	93.31
301.518	83.31
301.748	85.31
301.979	108.31
302.209	92.31
302.439	82.31
302.669	77.31
302.9	94.31
303.13	85.31
303.36	93.31
303.59	90.31
303.82	83.31
304.051	81.31
304.281	77.31
304.511	87.31
304.741	89.31
304.971	90.31
305.201	79.31
305.431	95.31
305.661	88.31
305.891	90.31
306.121	84.31
306.352	90.31
306.582	84.31
306.812	89.31
307.042	98.31
307.272	82.31
307.502	85.31
307.731	69.31
307.961	85.31
308.191	88.31
308.421	89.31
308.651	93.31
308.881	76.31
309.111	79.31
309.341	80.31
309.571	83.31
309.8	103.31
310.03	92.31
310.26	88.31
310.49	90.31
310.72	85.31
310.949	93.31
311.179	82.31
311.409	82.31
311.639	90.31
311.868	79.31
312.098	81.31
312.328	89.31
312.557	61.31
312.787	98.31
313.017	97.31
313.246	91.31
313.476	89.31
313.706	73.31
313.935	80.31
314.165	81.31
314.394	95.31
314.624	67.31
314.853	93.31
315.083	88.31
315.312	74.31
315.542	81.31
315.771	84.31
316.001	92.31
316.23	77.31
316.46	92.31
316.689	76.31
316.919	85.31
317.148	83.31
317.377	82.31
317.607	101.31
317.836	92.31
318.065	81.31
318.295	90.31
318.524	88.31
318.753	85.31
318.983	83.31
319.212	99.31
319.441	76.31
319.67	83.31
319.9	99.31
320.129	87.31
320.358	82.31
320.587	87.31
320.816	77.31
321.046	78.31
321.275	101.31
321.504	81.31
321.733	79.31
321.962	90.31
322.191	88.31
322.42	79.31
322.649	80.31
322.878	90.31
323.108	73.31
323.337	84.31
323.566	87.31
323.795	82.31
324.024	83.31
324.253	90.31
324.482	64.31
324.71	79.31
324.939	90.31
325.168	77.31
325.397	84.31
325.626	87.31
325.855	75.31
326.084	96.31
326.313	76.31
326.542	87.31
326.77	87.31
326.999	83.31
327.228	83.31
327.457	82.31
327.686	76.31
327.914	69.31
328.143	97.31
328.372	81.31
328.6	72.31
328.829	83.31
329.058	89.31
329.287	80.31
329.515	83.31
329.744	93.31
329.972	82.31
330.201	89.31
330.43	93.31
330.658	93.31
330.887	82.31
331.115	87.31
331.344	73.31
331.572	91.31
331.801	89.31
332.03	93.31
332.258	92.31
332.486	87.31
332.715	87.31
332.943	92.31
333.172	89.31
333.4	87.31
333.629	98.31
333.857	96.31
334.085	76.31
334.314	79.31
334.542	73.31
334.771	76.31
334.999	76.31
335.227	77.31
335.455	85.31
335.684	77.31
335.912	92.31
336.14	83.31
336.369	98.31
336.597	75.31
336.825	77.31
337.053	87.31
337.281	96.31
337.51	88.31
337.738	91.31
337.966	89.31
338.194	82.31
338.422	84.31
338.65	80.31
338.878	80.31
339.106	86.31
339.334	94.31
339.562	95.31
339.79	77.31
340.018	87.31
340.246	86.31
340.474	72.31
340.702	98.31
340.93	99.31
341.158	77.31
341.386	87.31
341.614	85.31
341.842	67.31
342.07	75.31
342.298	76.31
342.526	76.31
342.754	76.31
342.981	68.31
343.209	75.31
343.437	80.31
343.665	69.31
343.893	79.31
344.12	85.31
344.348	83.31
344.576	90.31
344.804	84.31
345.031	76.31
345.259	86.31
345.487	81.31
345.714	92.31
345.942	88.31
346.17	85.31
346.397	100.31
346.625	80.31
346.853	80.31
347.08	83.31
347.308	78.31
347.535	88.31
347.763	65.31
347.99	92.31
348.218	90.31
348.445	93.31
348.673	89.31
348.9	85.31
349.128	78.31
349.355	91.31
349.583	97.31
349.81	71.31
350.037	76.31
350.265	93.31
350.492	79.31
350.72	91.31
350.947	77.31
351.174	85.31
351.402	90.31
351.629	83.31
351.856	72.31
352.083	90.31
352.311	95.31
352.538	79.31
352.765	82.31
352.992	96.31
353.22	91.31
353.447	105.31
353.674	82.31
353.901	94.31
354.128	88.31
354.355	71.31
354.583	76.31
354.81	90.31
355.037	92.31
355.264	103.31
355.491	89.31
355.718	75.31
355.945	83.31
356.172	69.31
356.399	94.31
356.626	91.31
356.853	77.31
357.08	84.31
357.307	79.31
357.534	90.31
357.761	94.31
357.988	77.31
358.215	87.31
358.441	85.31
358.668	81.31
358.895	84.31
359.122	76.31
359.349	89.31
359.576	85.31
359.802	83.31
360.029	85.31
360.256	77.31
360.483	81.31
360.709	91.31
360.936	77.31
361.163	84.31
361.39	73.31
361.616	87.31
361.843	82.31
362.07	83.31
362.296	91.31
362.523	85.31
362.749	72.31
362.976	79.31
363.203	81.31
363.429	83.31
363.656	73.31
363.882	81.31
364.109	77.31
364.335	73.31
364.562	98.31
364.788	101.31
365.015	90.31
365.241	81.31
365.468	81.31
365.694	83.31
365.92	85.31
366.147	82.31
366.373	83.31
366.599	90.31
366.826	85.31
367.052	89.31
367.278	106.31
367.505	77.31
367.731	99.31
367.957	92.31
368.184	82.31
368.41	78.31
368.636	87.31
368.862	87.31
369.089	85.31
369.315	78.31
369.541	87.31
369.767	91.31
369.993	88.31
370.219	87.31
370.445	93.31
370.672	95.31
370.898	88.31
371.124	64.31
371.35	84.31
371.576	95.31
371.802	83.31
372.028	73.31
372.254	81.31
372.48	74.31
372.706	95.31
372.932	90.31
373.158	89.31
373.384	106.31
373.61	84.31
373.835	88.31
374.061	93.31
374.287	89.31
374.513	74.31
374.739	83.31
374.965	82.31
375.191	91.31
375.416	87.31
375.642	90.31
375.868	88.31
376.094	81.31
376.319	91.31
376.545	83.31
376.771	85.31
376.997	89.31
377.222	69.31
377.448	96.31
377.674	92.31
377.899	92.31
378.125	87.31
378.35	89.31
378.576	92.31
378.802	83.31
379.027	89.31
379.253	89.31
379.478	80.31
379.704	85.31
379.929	85.31
380.155	79.31
380.38	92.31
380.606	99.31
380.831	78.31
381.057	91.31
381.282	86.31
381.507	80.31
381.733	87.31
381.958	84.31
382.184	80.31
382.409	85.31
382.634	75.31
382.86	81.31
383.085	79.31
383.31	67.31
383.535	77.31
383.761	82.31
383.986	86.31
384.211	78.31
384.436	75.31
384.662	79.31
384.887	67.31
385.112	83.31
385.337	74.31
385.562	77.31
385.787	78.31
386.013	78.31
386.238	84.31
386.463	68.31
386.688	88.31
386.913	84.31
387.138	87.31
387.363	84.31
387.588	84.31
387.813	73.31
388.038	79.31
388.263	92.31
388.488	92.31
388.713	83.31
388.938	81.31
389.163	84.31
389.387	73.31
389.612	75.31
389.837	90.31
390.062	87.31
390.287	77.31
390.512	86.31
390.736	79.31
390.961	95.31
391.186	91.31
391.411	83.31
391.636	101.31
391.86	81.31
392.085	95.31
392.31	79.31
392.534	91.31
392.759	75.31
392.984	93.31
393.208	97.31
393.433	80.31
393.658	91.31
393.882	67.31
394.107	86.31
394.331	86.31
394.556	83.31
394.78	81.31
395.005	91.31
395.229	83.31
395.454	84.31
395.678	95.31
395.903	74.31
396.127	87.31
396.352	87.31
396.576	77.31
396.801	81.31
397.025	79.31
397.249	83.31
397.474	85.31
397.698	77.31
397.922	80.31
398.147	75.31
398.371	70.31
398.595	92.31
398.82	90.31
399.044	97.31
399.268	78.31
399.492	79.31
399.717	79.31
399.941	86.31
400.165	87.31
400.389	75.31
400.613	82.31
400.837	89.31
401.062	85.31
401.286	69.31
401.51	84.31
401.734	77.31
401.958	93.31
402.182	82.31
402.406	82.31
402.63	74.31
402.854	80.31
403.078	79.31
403.302	81.31
403.526	85.31
403.75	82.31
403.974	65.31
404.198	79.31
404.422	85.31
404.645	72.31
404.869	71.31
405.093	69.31
405.317	84.31
405.541	81.31
405.765	81.31
405.988	88.31
406.212	77.31
406.436	84.31
406.66	90.31
406.883	87.31
407.107	103.31
407.331	82.31
407.555	85.31
407.778	76.31
408.002	76.31
408.226	81.31
408.449	80.31
408.673	103.31
408.896	81.31
409.12	83.31
409.344	68.31
409.567	83.31
409.791	74.31
410.014	88.31
410.238	81.31
410.461	77.31
410.685	84.31
410.908	79.31
411.132	79.31
411.355	80.31
411.578	80.31
411.802	77.31
412.025	91.31
412.249	87.31
412.472	100.31
412.695	85.31
412.919	76.31
413.142	92.31
413.365	76.31
413.589	78.31
413.812	83.31
414.035	88.31
414.258	83.31
414.482	80.31
414.705	84.31
414.928	107.31
415.151	81.31
415.374	89.31
415.597	85.31
415.821	76.31
416.044	73.31
416.267	90.31
416.49	81.31
416.713	79.31
416.936	80.31
417.159	82.31
417.382	86.31
417.605	87.31
417.828	81.31
418.051	91.31
418.274	77.31
418.497	89.31
418.72	85.31
418.943	89.31
419.166	90.31
419.389	66.31
419.611	75.31
419.834	77.31
420.057	90.31
420.28	90.31
420.503	95.31
420.726	66.31
420.948	78.31
421.171	77.31
421.394	72.31
421.617	83.31
421.839	76.31
422.062	98.31
422.285	67.31
422.507	78.31
422.73	78.31
422.953	86.31
423.175	80.31
423.398	72.31
423.621	84.31
423.843	60.31
424.066	81.31
424.288	85.31
424.511	81.31
424.733	75.31
424.956	90.31
425.178	80.31
425.401	84.31
425.623	82.31
425.846	77.31
426.068	73.31
426.291	84.31
426.513	79.31
426.735	77.31
426.958	74.31
427.18	76.31
427.402	72.31
427.625	83.31
427.847	81.31
428.069	83.31
428.292	82.31
428.514	89.31
428.736	81.31
428.958	84.31
429.181	76.31
429.403	83.31
429.625	91.31
429.847	89.31
430.069	78.31
430.292	74.31
430.514	95.31
430.736	97.31
430.958	86.31
431.18	81.31
431.402	77.31
431.624	87.31
431.846	83.31
432.068	78.31
432.29	80.31
432.512	81.31
432.734	88.31
432.956	74.31
433.178	71.31
433.4	78.31
433.622	83.31
433.844	68.31
434.066	77.31
434.287	80.31
434.509	77.31
434.731	70.31
434.953	73.31
435.175	85.31
435.397	82.31
435.618	72.31
435.84	78.31
436.062	82.31
436.284	84.31
436.505	83.31
436.727	77.31
436.949	75.31
437.17	76.31
437.392	82.31
437.614	83.31
437.835	62.31
438.057	81.31
438.278	68.31
438.5	84.31
438.721	84.31
438.943	80.31
439.165	76.31
439.386	87.31
439.608	65.31
439.829	81.31
440.05	92.31
440.272	82.31
440.493	90.31
440.715	83.31
440.936	80.31
441.158	78.31
441.379	75.31
441.6	82.31
441.822	81.31
442.043	79.31
442.264	88.31
442.486	92.31
442.707	85.31
442.928	70.31
443.149	74.31
443.371	74.31
443.592	85.31
443.813	85.31
444.034	74.31
444.255	69.31
444.476	67.31
444.698	91.31
444.919	82.31
445.14	139.31
445.361	119.31
445.582	73.31
445.803	82.31
446.024	72.31
446.245	76.31
446.466	93.31
446.687	90.31
446.908	78.31
447.129	91.31
447.35	79.31
447.571	75.31
447.792	84.31
448.013	71.31
448.234	84.31
448.455	84.31
448.675	80.31
448.896	75.31
449.117	83.31
449.338	85.31
449.559	80.31
449.779	68.31
450	81.31
450.221	81.31
450.442	74.31
450.662	73.31
450.883	79.31
451.104	77.31
451.324	91.31
451.545	84.31
451.766	95.31
451.986	83.31
452.207	91.31
452.428	69.31
452.648	79.31
452.869	95.31
453.089	84.31
453.31	80.31
453.53	78.31
453.751	86.31
453.971	84.31
454.192	78.31
454.412	80.31
454.633	82.31
454.853	84.31
455.073	79.31
455.294	80.31
455.514	86.31
455.734	70.31
455.955	86.31
456.175	93.31
456.395	94.31
456.616	73.31
456.836	82.31
457.056	62.31
457.276	85.31
457.497	88.31
457.717	91.31
457.937	82.31
458.157	83.31
458.377	104.31
458.598	93.31
458.818	73.31
459.038	80.31
459.258	84.31
459.478	66.31
459.698	90.31
459.918	85.31
460.138	90.31
460.358	83.31
460.578	88.31
460.798	83.31
461.018	79.31
461.238	84.31
461.458	79.31
461.678	67.31
461.898	78.31
462.118	98.31
462.338	76.31
462.558	95.31
462.777	79.31
462.997	69.31
463.217	87.31
463.437	84.31
463.657	95.31
463.876	93.31
464.096	89.31
464.316	83.31
464.536	79.31
464.755	84.31
464.975	79.31
465.195	84.31
465.414	75.31
465.634	88.31
465.854	90.31
466.073	96.31
466.293	71.31
466.512	64.31
466.732	84.31
466.951	74.31
467.171	80.31
467.391	86.31
467.61	84.31
467.829	75.31
468.049	78.31
468.268	67.31
468.488	71.31
468.707	73.31
468.927	77.31
469.146	84.31
469.365	88.31
469.585	93.31
469.804	84.31
470.023	85.31
470.243	94.31
470.462	78.31
470.681	88.31
470.901	88.31
471.12	88.31
471.339	81.31
471.558	75.31
471.777	78.31
471.997	83.31
472.216	84.31
472.435	76.31
472.654	72.31
472.873	72.31
473.092	79.31
473.311	92.31
473.53	95.31
473.749	60.31
473.968	84.31
474.187	84.31
474.406	64.31
474.625	82.31
474.844	83.31
475.063	74.31
475.282	91.31
475.501	89.31
475.72	88.31
475.939	91.31
476.158	85.31
476.377	80.31
476.596	88.31
476.814	82.31
477.033	76.31
477.252	80.31
477.471	85.31
477.69	83.31
477.908	68.31
478.127	79.31
478.346	67.31
478.564	85.31
478.783	72.31
479.002	81.31
479.22	84.31
479.439	76.31
479.658	80.31
479.876	80.31
480.095	94.31
480.313	79.31
480.532	82.31
480.751	93.31
480.969	73.31
481.188	75.31
481.406	79.31
481.624	82.31
481.843	85.31
482.061	83.31
482.28	73.31
482.498	85.31
482.717	81.31
482.935	83.31
483.153	78.31
483.372	81.31
483.59	85.31
483.808	71.31
484.027	87.31
484.245	78.31
484.463	95.31
484.681	77.31
484.9	75.31
485.118	82.31
485.336	90.31
485.554	80.31
485.772	88.31
485.99	92.31
486.209	78.31
486.427	73.31
486.645	77.31
486.863	88.31
487.081	81.31
487.299	79.31
487.517	91.31
487.735	81.31
487.953	81.31
488.171	91.31
488.389	92.31
488.607	74.31
488.825	77.31
489.043	79.31
489.261	76.31
489.479	91.31
489.696	84.31
489.914	97.31
490.132	76.31
490.35	83.31
490.568	79.31
490.786	73.31
491.003	82.31
491.221	70.31
491.439	90.31
491.657	80.31
491.874	65.31
492.092	84.31
492.31	91.31
492.527	88.31
492.745	92.31
492.963	92.31
493.18	84.31
493.398	83.31
493.615	82.31
493.833	83.31
494.05	76.31
494.268	92.31
494.485	87.31
494.703	82.31
494.92	78.31
495.138	80.31
495.355	98.31
495.573	79.31
495.79	87.31
496.008	70.31
496.225	68.31
496.442	83.31
496.66	91.31
496.877	63.31
497.094	84.31
497.312	83.31
497.529	78.31
497.746	91.31
497.963	68.31
498.181	77.31
498.398	92.31
498.615	94.31
498.832	89.31
499.049	73.31
499.267	76.31
499.484	75.31
499.701	76.31
499.918	83.31
500.135	91.31
500.352	96.31
500.569	90.31
500.786	88.31
501.003	81.31
501.22	76.31
501.437	81.31
501.654	87.31
501.871	79.31
502.088	91.31
502.305	77.31
502.522	79.31
502.739	89.31
502.956	89.31
503.172	83.31
503.389	83.31
503.606	96.31
503.823	69.31
504.04	83.31
504.256	84.31
504.473	68.31
504.69	75.31
504.907	94.31
505.123	81.31
505.34	96.31
505.557	77.31
505.773	93.31
505.99	79.31
506.207	83.31
506.423	68.31
506.64	75.31
506.856	78.31
507.073	77.31
507.289	84.31
507.506	75.31
507.722	64.31
507.939	77.31
508.155	79.31
508.372	89.31
508.588	89.31
508.805	97.31
509.021	81.31
509.238	72.31
509.454	88.31
509.67	80.31
509.887	78.31
510.103	100.31
510.319	92.31
510.536	89.31
510.752	63.31
510.968	76.31
511.184	87.31
511.401	66.31
511.617	85.31
511.833	84.31
512.049	78.31
512.265	88.31
512.481	81.31
512.698	91.31
512.914	83.31
513.13	79.31
513.346	75.31
513.562	86.31
513.778	80.31
513.994	85.31
514.21	81.31
514.426	90.31
514.642	79.31
514.858	65.31
515.074	91.31
515.29	90.31
515.506	73.31
515.721	77.31
515.937	88.31
516.153	88.31
516.369	92.31
516.585	66.31
516.801	69.31
517.016	85.31
517.232	75.31
517.448	87.31
517.664	86.31
517.879	78.31
518.095	90.31
518.311	76.31
518.527	83.31
518.742	90.31
518.958	75.31
519.173	83.31
519.389	77.31
519.605	82.31
519.82	91.31
520.036	79.31
520.251	97.31
