Data from TenMicroDelayPb_HRD10591_00008.txt Node
Date: Mon Nov 24 14:58:35 EST 2025
User: Yrep
Spectrometer: HR+D1059
Trigger mode: 5
Integration Time (sec): 1.000000E0
Scans to average: 1
Electric dark correction enabled: true
Nonlinearity correction enabled: false
Boxcar width: 0
XAxis mode: Wavelengths
Number of Pixels in Spectrum: 2048
>>>>>Begin Spectral Data<<<<<
223.165	-27.62
223.4	-27.62
223.635	-27.62
223.869	-32.62
224.104	-33.62
224.338	0.38
224.573	-6.62
224.808	-11.62
225.042	0.38
225.277	-4.62
225.511	3.38
225.746	7.38
225.98	11.38
226.215	-0.62
226.449	19.38
226.683	28.38
226.918	15.38
227.152	31.38
227.387	41.38
227.621	57.38
227.856	59.38
228.09	53.38
228.324	47.38
228.559	46.38
228.793	68.38
229.027	75.38
229.262	65.38
229.496	78.38
229.73	83.38
229.964	87.38
230.199	69.38
230.433	90.38
230.667	101.38
230.901	90.38
231.136	91.38
231.37	94.38
231.604	84.38
231.838	87.38
232.072	79.38
232.306	98.38
232.541	101.38
232.775	94.38
233.009	92.38
233.243	90.38
233.477	90.38
233.711	83.38
233.945	86.38
234.179	83.38
234.413	87.38
234.647	101.38
234.881	91.38
235.115	92.38
235.349	89.38
235.583	77.38
235.817	84.38
236.051	95.38
236.285	83.38
236.519	94.38
236.753	75.38
236.987	87.38
237.221	93.38
237.455	89.38
237.689	71.38
237.922	84.38
238.156	99.38
238.39	88.38
238.624	97.38
238.858	88.38
239.091	89.38
239.325	82.38
239.559	95.38
239.793	92.38
240.027	129.38
240.26	96.38
240.494	92.38
240.728	87.38
240.961	89.38
241.195	103.38
241.429	92.38
241.662	66.38
241.896	94.38
242.13	77.38
242.363	97.38
242.597	110.38
242.83	101.38
243.064	98.38
243.298	86.38
243.531	91.38
243.765	89.38
243.998	93.38
244.232	88.38
244.465	109.38
244.699	93.38
244.932	106.38
245.166	91.38
245.399	106.38
245.633	106.38
245.866	87.38
246.099	73.38
246.333	91.38
246.566	90.38
246.8	94.38
247.033	84.38
247.266	99.38
247.5	98.38
247.733	102.38
247.966	90.38
248.2	101.38
248.433	81.38
248.666	90.38
248.899	94.38
249.133	97.38
249.366	107.38
249.599	89.38
249.832	85.38
250.066	107.38
250.299	84.38
250.532	98.38
250.765	97.38
250.998	100.38
251.231	104.38
251.465	113.38
251.698	94.38
251.931	112.38
252.164	102.38
252.397	105.38
252.63	105.38
252.863	99.38
253.096	107.38
253.329	122.38
253.562	117.38
253.795	117.38
254.028	112.38
254.261	109.38
254.494	96.38
254.727	126.38
254.96	118.38
255.193	106.38
255.426	98.38
255.659	108.38
255.892	115.38
256.124	106.38
256.357	105.38
256.59	115.38
256.823	98.38
257.056	107.38
257.289	120.38
257.521	119.38
257.754	109.38
257.987	108.38
258.22	127.38
258.452	120.38
258.685	129.38
258.918	110.38
259.151	111.38
259.383	129.38
259.616	116.38
259.849	106.38
260.081	121.38
260.314	100.38
260.547	111.38
260.779	127.38
261.012	136.38
261.244	139.38
261.477	157.38
261.71	158.38
261.942	134.38
262.175	131.38
262.407	115.38
262.64	121.38
262.872	127.38
263.105	107.38
263.337	134.38
263.57	115.38
263.802	127.38
264.035	128.38
264.267	125.38
264.499	122.38
264.732	111.38
264.964	126.38
265.197	140.38
265.429	130.38
265.661	127.38
265.894	121.38
266.126	130.38
266.358	126.38
266.591	131.38
266.823	141.38
267.055	118.38
267.287	123.38
267.52	121.38
267.752	111.38
267.984	123.38
268.216	107.38
268.448	106.38
268.681	117.38
268.913	132.38
269.145	118.38
269.377	110.38
269.609	95.38
269.841	129.38
270.073	109.38
270.306	106.38
270.538	102.38
270.77	111.38
271.002	109.38
271.234	106.38
271.466	122.38
271.698	111.38
271.93	107.38
272.162	113.38
272.394	125.38
272.626	122.38
272.858	107.38
273.09	139.38
273.322	122.38
273.553	115.38
273.785	101.38
274.017	105.38
274.249	115.38
274.481	113.38
274.713	109.38
274.945	125.38
275.176	108.38
275.408	127.38
275.64	117.38
275.872	111.38
276.104	102.38
276.335	102.38
276.567	105.38
276.799	108.38
277.031	121.38
277.262	118.38
277.494	122.38
277.726	126.38
277.957	118.38
278.189	123.38
278.421	146.38
278.652	117.38
278.884	137.38
279.115	126.38
279.347	136.38
279.579	160.38
279.81	165.38
280.042	187.38
280.273	210.38
280.505	185.38
280.736	153.38
280.968	149.38
281.199	127.38
281.431	146.38
281.662	135.38
281.894	146.38
282.125	143.38
282.356	175.38
282.588	154.38
282.819	166.38
283.051	157.38
283.282	172.38
283.513	189.38
283.745	159.38
283.976	151.38
284.207	138.38
284.439	143.38
284.67	142.38
284.901	126.38
285.132	123.38
285.364	130.38
285.595	133.38
285.826	124.38
286.057	126.38
286.288	127.38
286.52	141.38
286.751	138.38
286.982	154.38
287.213	162.38
287.444	179.38
287.675	160.38
287.906	142.38
288.138	125.38
288.369	137.38
288.6	123.38
288.831	116.38
289.062	138.38
289.293	119.38
289.524	112.38
289.755	114.38
289.986	120.38
290.217	134.38
290.448	113.38
290.679	128.38
290.91	121.38
291.141	113.38
291.371	140.38
291.602	117.38
291.833	114.38
292.064	142.38
292.295	116.38
292.526	109.38
292.757	121.38
292.987	132.38
293.218	130.38
293.449	119.38
293.68	146.38
293.91	109.38
294.141	151.38
294.372	125.38
294.603	136.38
294.833	122.38
295.064	138.38
295.295	131.38
295.525	120.38
295.756	137.38
295.987	123.38
296.217	124.38
296.448	121.38
296.679	129.38
296.909	134.38
297.14	129.38
297.37	130.38
297.601	134.38
297.831	126.38
298.062	134.38
298.292	122.38
298.523	147.38
298.753	124.38
298.984	130.38
299.214	135.38
299.445	133.38
299.675	146.38
299.905	140.38
300.136	126.38
300.366	115.38
300.597	131.38
300.827	146.38
301.057	122.38
301.288	121.38
301.518	138.38
301.748	128.38
301.979	191.38
302.209	132.38
302.439	136.38
302.669	118.38
302.9	128.38
303.13	126.38
303.36	119.38
303.59	132.38
303.82	139.38
304.051	131.38
304.281	150.38
304.511	152.38
304.741	135.38
304.971	143.38
305.201	147.38
305.431	134.38
305.661	134.38
305.891	135.38
306.121	132.38
306.352	125.38
306.582	130.38
306.812	125.38
307.042	143.38
307.272	128.38
307.502	117.38
307.731	123.38
307.961	116.38
308.191	141.38
308.421	147.38
308.651	133.38
308.881	111.38
309.111	130.38
309.341	137.38
309.571	127.38
309.8	121.38
310.03	144.38
310.26	121.38
310.49	138.38
310.72	129.38
310.949	119.38
311.179	128.38
311.409	119.38
311.639	125.38
311.868	141.38
312.098	143.38
312.328	129.38
312.557	149.38
312.787	123.38
313.017	141.38
313.246	139.38
313.476	142.38
313.706	139.38
313.935	141.38
314.165	140.38
314.394	146.38
314.624	149.38
314.853	159.38
315.083	149.38
315.312	144.38
315.542	147.38
315.771	143.38
316.001	140.38
316.23	145.38
316.46	126.38
316.689	136.38
316.919	144.38
317.148	154.38
317.377	149.38
317.607	152.38
317.836	135.38
318.065	149.38
318.295	143.38
318.524	133.38
318.753	150.38
318.983	134.38
319.212	150.38
319.441	127.38
319.67	140.38
319.9	153.38
320.129	132.38
320.358	131.38
320.587	142.38
320.816	128.38
321.046	141.38
321.275	126.38
321.504	134.38
321.733	134.38
321.962	148.38
322.191	147.38
322.42	146.38
322.649	134.38
322.878	135.38
323.108	142.38
323.337	139.38
323.566	128.38
323.795	131.38
324.024	141.38
324.253	134.38
324.482	139.38
324.71	137.38
324.939	154.38
325.168	144.38
325.397	146.38
325.626	143.38
325.855	142.38
326.084	124.38
326.313	146.38
326.542	126.38
326.77	136.38
326.999	141.38
327.228	137.38
327.457	135.38
327.686	131.38
327.914	147.38
328.143	151.38
328.372	150.38
328.6	134.38
328.829	133.38
329.058	131.38
329.287	139.38
329.515	143.38
329.744	147.38
329.972	134.38
330.201	142.38
330.43	140.38
330.658	131.38
330.887	146.38
331.115	150.38
331.344	132.38
331.572	146.38
331.801	141.38
332.03	135.38
332.258	145.38
332.486	135.38
332.715	122.38
332.943	138.38
333.172	133.38
333.4	160.38
333.629	139.38
333.857	145.38
334.085	143.38
334.314	134.38
334.542	137.38
334.771	134.38
334.999	145.38
335.227	141.38
335.455	154.38
335.684	141.38
335.912	147.38
336.14	150.38
336.369	143.38
336.597	132.38
336.825	133.38
337.053	139.38
337.281	143.38
337.51	142.38
337.738	157.38
337.966	131.38
338.194	139.38
338.422	123.38
338.65	142.38
338.878	153.38
339.106	141.38
339.334	158.38
339.562	130.38
339.79	139.38
340.018	142.38
340.246	122.38
340.474	135.38
340.702	145.38
340.93	141.38
341.158	146.38
341.386	145.38
341.614	134.38
341.842	126.38
342.07	140.38
342.298	130.38
342.526	139.38
342.754	108.38
342.981	134.38
343.209	133.38
343.437	199.38
343.665	145.38
343.893	153.38
344.12	160.38
344.348	130.38
344.576	143.38
344.804	143.38
345.031	134.38
345.259	132.38
345.487	139.38
345.714	137.38
345.942	139.38
346.17	151.38
346.397	138.38
346.625	135.38
346.853	133.38
347.08	139.38
347.308	137.38
347.535	143.38
347.763	122.38
347.99	127.38
348.218	141.38
348.445	138.38
348.673	134.38
348.9	138.38
349.128	147.38
349.355	152.38
349.583	124.38
349.81	145.38
350.037	155.38
350.265	141.38
350.492	133.38
350.72	142.38
350.947	140.38
351.174	128.38
351.402	123.38
351.629	139.38
351.856	133.38
352.083	142.38
352.311	142.38
352.538	121.38
352.765	133.38
352.992	169.38
353.22	145.38
353.447	133.38
353.674	138.38
353.901	141.38
354.128	143.38
354.355	140.38
354.583	125.38
354.81	145.38
355.037	134.38
355.264	125.38
355.491	149.38
355.718	138.38
355.945	163.38
356.172	151.38
356.399	143.38
356.626	147.38
356.853	184.38
357.08	217.38
357.307	263.38
357.534	266.38
357.761	227.38
357.988	200.38
358.215	185.38
358.441	161.38
358.668	183.38
358.895	156.38
359.122	157.38
359.349	146.38
359.576	150.38
359.802	136.38
360.029	143.38
360.256	143.38
360.483	150.38
360.709	142.38
360.936	194.38
361.163	136.38
361.39	142.38
361.616	136.38
361.843	145.38
362.07	170.38
362.296	154.38
362.523	135.38
362.749	176.38
362.976	146.38
363.203	185.38
363.429	185.38
363.656	227.38
363.882	278.38
364.109	288.38
364.335	243.38
364.562	204.38
364.788	193.38
365.015	175.38
365.241	158.38
365.468	182.38
365.694	162.38
365.92	162.38
366.147	159.38
366.373	156.38
366.599	171.38
366.826	169.38
367.052	176.38
367.278	191.38
367.505	198.38
367.731	210.38
367.957	228.38
368.184	300.38
368.41	356.38
368.636	338.38
368.862	245.38
369.089	193.38
369.315	177.38
369.541	176.38
369.767	173.38
369.993	176.38
370.219	144.38
370.445	142.38
370.672	157.38
370.898	142.38
371.124	151.38
371.35	140.38
371.576	153.38
371.802	156.38
372.028	159.38
372.254	167.38
372.48	144.38
372.706	155.38
372.932	154.38
373.158	148.38
373.384	185.38
373.61	193.38
373.835	234.38
374.061	256.38
374.287	241.38
374.513	214.38
374.739	194.38
374.965	162.38
375.191	160.38
375.416	152.38
375.642	158.38
375.868	158.38
376.094	143.38
376.319	157.38
376.545	141.38
376.771	155.38
376.997	138.38
377.222	153.38
377.448	158.38
377.674	154.38
377.899	143.38
378.125	149.38
378.35	157.38
378.576	146.38
378.802	145.38
379.027	155.38
379.253	144.38
379.478	136.38
379.704	140.38
379.929	139.38
380.155	151.38
380.38	132.38
380.606	146.38
380.831	150.38
381.057	177.38
381.282	141.38
381.507	144.38
381.733	171.38
381.958	148.38
382.184	142.38
382.409	147.38
382.634	156.38
382.86	139.38
383.085	151.38
383.31	146.38
383.535	171.38
383.761	162.38
383.986	152.38
384.211	138.38
384.436	139.38
384.662	141.38
384.887	155.38
385.112	150.38
385.337	154.38
385.562	149.38
385.787	141.38
386.013	149.38
386.238	150.38
386.463	150.38
386.688	195.38
386.913	146.38
387.138	150.38
387.363	165.38
387.588	151.38
387.813	167.38
388.038	156.38
388.263	157.38
388.488	140.38
388.713	144.38
388.938	147.38
389.163	149.38
389.387	149.38
389.612	137.38
389.837	154.38
390.062	157.38
390.287	155.38
390.512	158.38
390.736	145.38
390.961	147.38
391.186	151.38
391.411	150.38
391.636	149.38
391.86	135.38
392.085	149.38
392.31	149.38
392.534	134.38
392.759	161.38
392.984	159.38
393.208	153.38
393.433	157.38
393.658	149.38
393.882	162.38
394.107	148.38
394.331	153.38
394.556	151.38
394.78	169.38
395.005	148.38
395.229	143.38
395.454	161.38
395.678	155.38
395.903	147.38
396.127	169.38
396.352	149.38
396.576	155.38
396.801	154.38
397.025	153.38
397.249	171.38
397.474	158.38
397.698	169.38
397.922	157.38
398.147	154.38
398.371	156.38
398.595	174.38
398.82	165.38
399.044	170.38
399.268	158.38
399.492	157.38
399.717	179.38
399.941	166.38
400.165	178.38
400.389	158.38
400.613	174.38
400.837	168.38
401.062	173.38
401.286	155.38
401.51	181.38
401.734	185.38
401.958	199.38
402.182	187.38
402.406	165.38
402.63	176.38
402.854	167.38
403.078	171.38
403.302	161.38
403.526	157.38
403.75	178.38
403.974	178.38
404.198	181.38
404.422	187.38
404.645	172.38
404.869	205.38
405.093	223.38
405.317	249.38
405.541	341.38
405.765	489.38
405.988	524.38
406.212	395.38
406.436	301.38
406.66	272.38
406.883	235.38
407.107	223.38
407.331	213.38
407.555	196.38
407.778	187.38
408.002	171.38
408.226	174.38
408.449	181.38
408.673	193.38
408.896	206.38
409.12	195.38
409.344	179.38
409.567	172.38
409.791	175.38
410.014	194.38
410.238	165.38
410.461	162.38
410.685	175.38
410.908	163.38
411.132	203.38
411.355	166.38
411.578	166.38
411.802	164.38
412.025	177.38
412.249	157.38
412.472	174.38
412.695	165.38
412.919	166.38
413.142	155.38
413.365	154.38
413.589	175.38
413.812	166.38
414.035	183.38
414.258	169.38
414.482	157.38
414.705	161.38
414.928	158.38
415.151	179.38
415.374	157.38
415.597	152.38
415.821	167.38
416.044	174.38
416.267	168.38
416.49	189.38
416.713	181.38
416.936	174.38
417.159	149.38
417.382	175.38
417.605	160.38
417.828	170.38
418.051	173.38
418.274	191.38
418.497	169.38
418.72	157.38
418.943	169.38
419.166	190.38
419.389	178.38
419.611	180.38
419.834	162.38
420.057	154.38
420.28	151.38
420.503	180.38
420.726	174.38
420.948	182.38
421.171	160.38
421.394	160.38
421.617	187.38
421.839	170.38
422.062	181.38
422.285	183.38
422.507	166.38
422.73	166.38
422.953	199.38
423.175	184.38
423.398	187.38
423.621	208.38
423.843	205.38
424.066	215.38
424.288	218.38
424.511	245.38
424.733	247.38
424.956	247.38
425.178	243.38
425.401	205.38
425.623	204.38
425.846	197.38
426.068	204.38
426.291	204.38
426.513	193.38
426.735	207.38
426.958	180.38
427.18	181.38
427.402	191.38
427.625	189.38
427.847	206.38
428.069	177.38
428.292	172.38
428.514	177.38
428.736	190.38
428.958	161.38
429.181	177.38
429.403	170.38
429.625	179.38
429.847	165.38
430.069	175.38
430.292	199.38
430.514	182.38
430.736	191.38
430.958	184.38
431.18	174.38
431.402	163.38
431.624	169.38
431.846	174.38
432.068	172.38
432.29	166.38
432.512	185.38
432.734	174.38
432.956	197.38
433.178	209.38
433.4	190.38
433.622	176.38
433.844	197.38
434.066	185.38
434.287	180.38
434.509	172.38
434.731	186.38
434.953	147.38
435.175	176.38
435.397	175.38
435.618	167.38
435.84	173.38
436.062	188.38
436.284	183.38
436.505	178.38
436.727	190.38
436.949	199.38
437.17	195.38
437.392	178.38
437.614	185.38
437.835	189.38
438.057	197.38
438.278	196.38
438.5	213.38
438.721	245.38
438.943	265.38
439.165	260.38
439.386	219.38
439.608	229.38
439.829	210.38
440.05	205.38
440.272	218.38
440.493	214.38
440.715	219.38
440.936	227.38
441.158	227.38
441.379	223.38
441.6	210.38
441.822	205.38
442.043	199.38
442.264	196.38
442.486	202.38
442.707	191.38
442.928	182.38
443.149	191.38
443.371	200.38
443.592	198.38
443.813	203.38
444.034	183.38
444.255	193.38
444.476	201.38
444.698	186.38
444.919	189.38
445.14	475.38
445.361	328.38
445.582	201.38
445.803	198.38
446.024	177.38
446.245	206.38
446.466	179.38
446.687	194.38
446.908	192.38
447.129	190.38
447.35	192.38
447.571	207.38
447.792	178.38
448.013	173.38
448.234	186.38
448.455	165.38
448.675	201.38
448.896	179.38
449.117	174.38
449.338	167.38
449.559	180.38
449.779	181.38
450	180.38
450.221	166.38
450.442	186.38
450.662	164.38
450.883	173.38
451.104	174.38
451.324	162.38
451.545	160.38
451.766	187.38
451.986	170.38
452.207	172.38
452.428	180.38
452.648	168.38
452.869	182.38
453.089	169.38
453.31	143.38
453.53	161.38
453.751	165.38
453.971	174.38
454.192	160.38
454.412	171.38
454.633	155.38
454.853	169.38
455.073	163.38
455.294	185.38
455.514	183.38
455.734	162.38
455.955	171.38
456.175	152.38
456.395	165.38
456.616	164.38
456.836	164.38
457.056	157.38
457.276	158.38
457.497	163.38
457.717	159.38
457.937	160.38
458.157	158.38
458.377	147.38
458.598	163.38
458.818	140.38
459.038	151.38
459.258	144.38
459.478	151.38
459.698	154.38
459.918	154.38
460.138	162.38
460.358	158.38
460.578	187.38
460.798	172.38
461.018	179.38
461.238	158.38
461.458	163.38
461.678	166.38
461.898	161.38
462.118	182.38
462.338	154.38
462.558	169.38
462.777	158.38
462.997	146.38
463.217	164.38
463.437	174.38
463.657	164.38
463.876	177.38
464.096	184.38
464.316	158.38
464.536	150.38
464.755	164.38
464.975	189.38
465.195	173.38
465.414	164.38
465.634	172.38
465.854	153.38
466.073	160.38
466.293	174.38
466.512	163.38
466.732	157.38
466.951	170.38
467.171	169.38
467.391	171.38
467.61	170.38
467.829	174.38
468.049	162.38
468.268	161.38
468.488	171.38
468.707	173.38
468.927	166.38
469.146	171.38
469.365	175.38
469.585	175.38
469.804	172.38
470.023	169.38
470.243	175.38
470.462	173.38
470.681	173.38
470.901	164.38
471.12	171.38
471.339	174.38
471.558	176.38
471.777	178.38
471.997	171.38
472.216	163.38
472.435	187.38
472.654	178.38
472.873	165.38
473.092	158.38
473.311	166.38
473.53	162.38
473.749	182.38
473.968	166.38
474.187	162.38
474.406	162.38
474.625	152.38
474.844	162.38
475.063	156.38
475.282	157.38
475.501	165.38
475.72	184.38
475.939	149.38
476.158	153.38
476.377	183.38
476.596	175.38
476.814	161.38
477.033	158.38
477.252	160.38
477.471	176.38
477.69	177.38
477.908	197.38
478.127	204.38
478.346	185.38
478.564	168.38
478.783	193.38
479.002	195.38
479.22	192.38
479.439	175.38
479.658	177.38
479.876	175.38
480.095	173.38
480.313	169.38
480.532	184.38
480.751	197.38
480.969	161.38
481.188	165.38
481.406	172.38
481.624	173.38
481.843	172.38
482.061	159.38
482.28	181.38
482.498	169.38
482.717	175.38
482.935	189.38
483.153	185.38
483.372	176.38
483.59	170.38
483.808	181.38
484.027	185.38
484.245	179.38
484.463	174.38
484.681	223.38
484.9	163.38
485.118	192.38
485.336	176.38
485.554	174.38
485.772	186.38
485.99	169.38
486.209	163.38
486.427	149.38
486.645	162.38
486.863	178.38
487.081	172.38
487.299	176.38
487.517	194.38
487.735	194.38
487.953	197.38
488.171	210.38
488.389	214.38
488.607	197.38
488.825	189.38
489.043	179.38
489.261	184.38
489.479	181.38
489.696	205.38
489.914	195.38
490.132	191.38
490.35	181.38
490.568	183.38
490.786	206.38
491.003	201.38
491.221	199.38
491.439	200.38
491.657	203.38
491.874	219.38
492.092	236.38
492.31	244.38
492.527	227.38
492.745	215.38
492.963	213.38
493.18	213.38
493.398	218.38
493.615	209.38
493.833	202.38
494.05	202.38
494.268	213.38
494.485	198.38
494.703	203.38
494.92	222.38
495.138	201.38
495.355	207.38
495.573	210.38
495.79	200.38
496.008	230.38
496.225	204.38
496.442	199.38
496.66	225.38
496.877	210.38
497.094	234.38
497.312	183.38
497.529	203.38
497.746	204.38
497.963	199.38
498.181	200.38
498.398	192.38
498.615	198.38
498.832	191.38
499.049	198.38
499.267	206.38
499.484	198.38
499.701	220.38
499.918	233.38
500.135	217.38
500.352	224.38
500.569	248.38
500.786	291.38
501.003	269.38
501.22	234.38
501.437	237.38
501.654	206.38
501.871	198.38
502.088	191.38
502.305	212.38
502.522	205.38
502.739	192.38
502.956	210.38
503.172	208.38
503.389	188.38
503.606	215.38
503.823	210.38
