Data from TenMicroDelayPb_HRD10591_00004.txt Node
Date: Mon Nov 24 14:58:33 EST 2025
User: Yrep
Spectrometer: HR+D1059
Trigger mode: 5
Integration Time (sec): 1.000000E0
Scans to average: 1
Electric dark correction enabled: true
Nonlinearity correction enabled: false
Boxcar width: 0
XAxis mode: Wavelengths
Number of Pixels in Spectrum: 2048
>>>>>Begin Spectral Data<<<<<
223.165	-27.75
223.4	-27.75
223.635	-27.75
223.869	-20.75
224.104	-31.75
224.338	-5.75
224.573	-23.75
224.808	-6.75
225.042	-2.75
225.277	-18.75
225.511	-2.75
225.746	5.25
225.98	23.25
226.215	12.25
226.449	7.25
226.683	29.25
226.918	34.25
227.152	29.25
227.387	38.25
227.621	41.25
227.856	54.25
228.09	40.25
228.324	50.25
228.559	63.25
228.793	77.25
229.027	78.25
229.262	62.25
229.496	73.25
229.73	90.25
229.964	60.25
230.199	72.25
230.433	90.25
230.667	81.25
230.901	97.25
231.136	90.25
231.37	93.25
231.604	81.25
231.838	88.25
232.072	80.25
232.306	99.25
232.541	106.25
232.775	91.25
233.009	87.25
233.243	88.25
233.477	97.25
233.711	76.25
233.945	90.25
234.179	92.25
234.413	99.25
234.647	100.25
234.881	84.25
235.115	97.25
235.349	95.25
235.583	101.25
235.817	83.25
236.051	98.25
236.285	90.25
236.519	83.25
236.753	89.25
236.987	88.25
237.221	84.25
237.455	95.25
237.689	77.25
237.922	101.25
238.156	85.25
238.39	85.25
238.624	80.25
238.858	105.25
239.091	100.25
239.325	85.25
239.559	85.25
239.793	102.25
240.027	91.25
240.26	96.25
240.494	92.25
240.728	83.25
240.961	94.25
241.195	106.25
241.429	103.25
241.662	92.25
241.896	89.25
242.13	96.25
242.363	97.25
242.597	93.25
242.83	100.25
243.064	96.25
243.298	91.25
243.531	88.25
243.765	100.25
243.998	75.25
244.232	106.25
244.465	84.25
244.699	81.25
244.932	89.25
245.166	92.25
245.399	98.25
245.633	97.25
245.866	104.25
246.099	89.25
246.333	95.25
246.566	89.25
246.8	80.25
247.033	90.25
247.266	96.25
247.5	82.25
247.733	105.25
247.966	106.25
248.2	85.25
248.433	94.25
248.666	86.25
248.899	101.25
249.133	87.25
249.366	118.25
249.599	104.25
249.832	85.25
250.066	112.25
250.299	106.25
250.532	88.25
250.765	100.25
250.998	107.25
251.231	101.25
251.465	104.25
251.698	77.25
251.931	108.25
252.164	94.25
252.397	116.25
252.63	98.25
252.863	95.25
253.096	92.25
253.329	117.25
253.562	115.25
253.795	112.25
254.028	108.25
254.261	102.25
254.494	94.25
254.727	122.25
254.96	103.25
255.193	109.25
255.426	109.25
255.659	107.25
255.892	123.25
256.124	119.25
256.357	114.25
256.59	113.25
256.823	95.25
257.056	101.25
257.289	102.25
257.521	120.25
257.754	106.25
257.987	122.25
258.22	127.25
258.452	116.25
258.685	115.25
258.918	108.25
259.151	107.25
259.383	122.25
259.616	104.25
259.849	109.25
260.081	120.25
260.314	111.25
260.547	102.25
260.779	124.25
261.012	128.25
261.244	136.25
261.477	168.25
261.71	153.25
261.942	126.25
262.175	145.25
262.407	106.25
262.64	100.25
262.872	117.25
263.105	113.25
263.337	118.25
263.57	124.25
263.802	113.25
264.035	116.25
264.267	114.25
264.499	118.25
264.732	122.25
264.964	121.25
265.197	115.25
265.429	135.25
265.661	118.25
265.894	113.25
266.126	139.25
266.358	128.25
266.591	148.25
266.823	126.25
267.055	111.25
267.287	113.25
267.52	112.25
267.752	112.25
267.984	122.25
268.216	110.25
268.448	132.25
268.681	115.25
268.913	110.25
269.145	108.25
269.377	117.25
269.609	98.25
269.841	118.25
270.073	124.25
270.306	130.25
270.538	124.25
270.77	93.25
271.002	122.25
271.234	127.25
271.466	125.25
271.698	102.25
271.93	109.25
272.162	112.25
272.394	127.25
272.626	127.25
272.858	107.25
273.09	115.25
273.322	135.25
273.553	121.25
273.785	119.25
274.017	114.25
274.249	116.25
274.481	125.25
274.713	110.25
274.945	116.25
275.176	112.25
275.408	122.25
275.64	121.25
275.872	123.25
276.104	148.25
276.335	111.25
276.567	116.25
276.799	108.25
277.031	113.25
277.262	128.25
277.494	146.25
277.726	109.25
277.957	123.25
278.189	130.25
278.421	125.25
278.652	133.25
278.884	142.25
279.115	125.25
279.347	143.25
279.579	159.25
279.81	156.25
280.042	190.25
280.273	211.25
280.505	178.25
280.736	163.25
280.968	145.25
281.199	142.25
281.431	141.25
281.662	137.25
281.894	132.25
282.125	154.25
282.356	171.25
282.588	154.25
282.819	141.25
283.051	150.25
283.282	163.25
283.513	194.25
283.745	162.25
283.976	143.25
284.207	134.25
284.439	123.25
284.67	140.25
284.901	134.25
285.132	135.25
285.364	128.25
285.595	138.25
285.826	126.25
286.057	132.25
286.288	120.25
286.52	138.25
286.751	130.25
286.982	152.25
287.213	149.25
287.444	168.25
287.675	156.25
287.906	153.25
288.138	134.25
288.369	126.25
288.6	132.25
288.831	114.25
289.062	135.25
289.293	124.25
289.524	123.25
289.755	123.25
289.986	130.25
290.217	116.25
290.448	90.25
290.679	126.25
290.91	136.25
291.141	129.25
291.371	128.25
291.602	109.25
291.833	118.25
292.064	116.25
292.295	121.25
292.526	125.25
292.757	140.25
292.987	123.25
293.218	106.25
293.449	109.25
293.68	116.25
293.91	120.25
294.141	133.25
294.372	108.25
294.603	129.25
294.833	110.25
295.064	132.25
295.295	137.25
295.525	131.25
295.756	122.25
295.987	133.25
296.217	125.25
296.448	123.25
296.679	122.25
296.909	139.25
297.14	124.25
297.37	123.25
297.601	128.25
297.831	118.25
298.062	128.25
298.292	134.25
298.523	132.25
298.753	133.25
298.984	140.25
299.214	126.25
299.445	121.25
299.675	123.25
299.905	138.25
300.136	129.25
300.366	123.25
300.597	130.25
300.827	113.25
301.057	118.25
301.288	130.25
301.518	136.25
301.748	132.25
301.979	189.25
302.209	121.25
302.439	107.25
302.669	129.25
302.9	136.25
303.13	121.25
303.36	122.25
303.59	146.25
303.82	134.25
304.051	127.25
304.281	131.25
304.511	148.25
304.741	119.25
304.971	127.25
305.201	134.25
305.431	120.25
305.661	149.25
305.891	130.25
306.121	148.25
306.352	148.25
306.582	122.25
306.812	131.25
307.042	125.25
307.272	128.25
307.502	132.25
307.731	132.25
307.961	140.25
308.191	124.25
308.421	118.25
308.651	125.25
308.881	115.25
309.111	121.25
309.341	112.25
309.571	117.25
309.8	131.25
310.03	126.25
310.26	121.25
310.49	122.25
310.72	131.25
310.949	128.25
311.179	137.25
311.409	125.25
311.639	140.25
311.868	137.25
312.098	145.25
312.328	132.25
312.557	143.25
312.787	142.25
313.017	140.25
313.246	133.25
313.476	124.25
313.706	134.25
313.935	144.25
314.165	130.25
314.394	136.25
314.624	135.25
314.853	130.25
315.083	126.25
315.312	137.25
315.542	138.25
315.771	132.25
316.001	133.25
316.23	130.25
316.46	133.25
316.689	142.25
316.919	144.25
317.148	134.25
317.377	155.25
317.607	132.25
317.836	110.25
318.065	138.25
318.295	141.25
318.524	130.25
318.753	140.25
318.983	140.25
319.212	140.25
319.441	148.25
319.67	143.25
319.9	140.25
320.129	131.25
320.358	137.25
320.587	134.25
320.816	130.25
321.046	139.25
321.275	144.25
321.504	106.25
321.733	127.25
321.962	125.25
322.191	125.25
322.42	134.25
322.649	133.25
322.878	129.25
323.108	138.25
323.337	131.25
323.566	130.25
323.795	129.25
324.024	135.25
324.253	129.25
324.482	118.25
324.71	135.25
324.939	132.25
325.168	124.25
325.397	140.25
325.626	152.25
325.855	128.25
326.084	143.25
326.313	133.25
326.542	132.25
326.77	132.25
326.999	134.25
327.228	128.25
327.457	129.25
327.686	140.25
327.914	128.25
328.143	131.25
328.372	138.25
328.6	124.25
328.829	137.25
329.058	122.25
329.287	142.25
329.515	134.25
329.744	129.25
329.972	121.25
330.201	125.25
330.43	154.25
330.658	120.25
330.887	130.25
331.115	136.25
331.344	136.25
331.572	160.25
331.801	139.25
332.03	139.25
332.258	137.25
332.486	131.25
332.715	134.25
332.943	129.25
333.172	118.25
333.4	131.25
333.629	153.25
333.857	120.25
334.085	130.25
334.314	132.25
334.542	140.25
334.771	134.25
334.999	143.25
335.227	132.25
335.455	128.25
335.684	138.25
335.912	143.25
336.14	144.25
336.369	141.25
336.597	137.25
336.825	128.25
337.053	138.25
337.281	135.25
337.51	127.25
337.738	142.25
337.966	133.25
338.194	133.25
338.422	139.25
338.65	140.25
338.878	142.25
339.106	129.25
339.334	140.25
339.562	134.25
339.79	120.25
340.018	128.25
340.246	122.25
340.474	133.25
340.702	126.25
340.93	151.25
341.158	129.25
341.386	137.25
341.614	132.25
341.842	128.25
342.07	124.25
342.298	137.25
342.526	144.25
342.754	125.25
342.981	138.25
343.209	122.25
343.437	186.25
343.665	125.25
343.893	140.25
344.12	142.25
344.348	130.25
344.576	134.25
344.804	138.25
345.031	138.25
345.259	145.25
345.487	125.25
345.714	147.25
345.942	143.25
346.17	130.25
346.397	124.25
346.625	138.25
346.853	124.25
347.08	128.25
347.308	142.25
347.535	146.25
347.763	132.25
347.99	143.25
348.218	135.25
348.445	118.25
348.673	129.25
348.9	144.25
349.128	130.25
349.355	122.25
349.583	125.25
349.81	132.25
350.037	128.25
350.265	143.25
350.492	146.25
350.72	120.25
350.947	139.25
351.174	147.25
351.402	131.25
351.629	130.25
351.856	142.25
352.083	135.25
352.311	133.25
352.538	128.25
352.765	150.25
352.992	170.25
353.22	130.25
353.447	124.25
353.674	137.25
353.901	151.25
354.128	137.25
354.355	131.25
354.583	130.25
354.81	147.25
355.037	137.25
355.264	143.25
355.491	133.25
355.718	138.25
355.945	152.25
356.172	140.25
356.399	154.25
356.626	133.25
356.853	163.25
357.08	214.25
357.307	241.25
357.534	237.25
357.761	210.25
357.988	194.25
358.215	182.25
358.441	154.25
358.668	156.25
358.895	160.25
359.122	141.25
359.349	135.25
359.576	154.25
359.802	140.25
360.029	137.25
360.256	138.25
360.483	135.25
360.709	128.25
360.936	152.25
361.163	142.25
361.39	141.25
361.616	143.25
361.843	146.25
362.07	151.25
362.296	156.25
362.523	144.25
362.749	142.25
362.976	144.25
363.203	165.25
363.429	171.25
363.656	212.25
363.882	255.25
364.109	284.25
364.335	222.25
364.562	178.25
364.788	171.25
365.015	185.25
365.241	153.25
365.468	172.25
365.694	153.25
365.92	156.25
366.147	154.25
366.373	139.25
366.599	158.25
366.826	165.25
367.052	186.25
367.278	189.25
367.505	193.25
367.731	218.25
367.957	218.25
368.184	270.25
368.41	346.25
368.636	302.25
368.862	232.25
369.089	194.25
369.315	186.25
369.541	181.25
369.767	184.25
369.993	167.25
370.219	151.25
370.445	148.25
370.672	158.25
370.898	140.25
371.124	140.25
371.35	133.25
371.576	146.25
371.802	141.25
372.028	129.25
372.254	148.25
372.48	152.25
372.706	142.25
372.932	164.25
373.158	164.25
373.384	166.25
373.61	182.25
373.835	218.25
374.061	267.25
374.287	233.25
374.513	200.25
374.739	159.25
374.965	156.25
375.191	157.25
375.416	164.25
375.642	165.25
375.868	156.25
376.094	146.25
376.319	134.25
376.545	145.25
376.771	133.25
376.997	132.25
377.222	153.25
377.448	143.25
377.674	152.25
377.899	157.25
378.125	134.25
378.35	143.25
378.576	146.25
378.802	152.25
379.027	134.25
379.253	145.25
379.478	144.25
379.704	137.25
379.929	146.25
380.155	126.25
380.38	136.25
380.606	140.25
380.831	157.25
381.057	170.25
381.282	148.25
381.507	133.25
381.733	158.25
381.958	140.25
382.184	146.25
382.409	137.25
382.634	144.25
382.86	138.25
383.085	147.25
383.31	160.25
383.535	163.25
383.761	140.25
383.986	141.25
384.211	139.25
384.436	171.25
384.662	133.25
384.887	145.25
385.112	144.25
385.337	139.25
385.562	138.25
385.787	152.25
386.013	152.25
386.238	153.25
386.463	158.25
386.688	208.25
386.913	135.25
387.138	152.25
387.363	152.25
387.588	162.25
387.813	167.25
388.038	147.25
388.263	156.25
388.488	148.25
388.713	149.25
388.938	150.25
389.163	140.25
389.387	150.25
389.612	147.25
389.837	153.25
390.062	151.25
390.287	158.25
390.512	152.25
390.736	142.25
390.961	126.25
391.186	149.25
391.411	143.25
391.636	153.25
391.86	144.25
392.085	145.25
392.31	147.25
392.534	144.25
392.759	150.25
392.984	146.25
393.208	157.25
393.433	147.25
393.658	171.25
393.882	142.25
394.107	148.25
394.331	153.25
394.556	145.25
394.78	152.25
395.005	147.25
395.229	154.25
395.454	155.25
395.678	140.25
395.903	156.25
396.127	156.25
396.352	137.25
396.576	144.25
396.801	159.25
397.025	133.25
397.249	161.25
397.474	171.25
397.698	164.25
397.922	144.25
398.147	157.25
398.371	138.25
398.595	149.25
398.82	163.25
399.044	166.25
399.268	156.25
399.492	156.25
399.717	165.25
399.941	157.25
400.165	155.25
400.389	140.25
400.613	173.25
400.837	182.25
401.062	165.25
401.286	162.25
401.51	164.25
401.734	176.25
401.958	184.25
402.182	173.25
402.406	165.25
402.63	173.25
402.854	170.25
403.078	165.25
403.302	157.25
403.526	186.25
403.75	188.25
403.974	164.25
404.198	170.25
404.422	184.25
404.645	188.25
404.869	204.25
405.093	201.25
405.317	244.25
405.541	339.25
405.765	458.25
405.988	500.25
406.212	382.25
406.436	307.25
406.66	241.25
406.883	235.25
407.107	221.25
407.331	217.25
407.555	203.25
407.778	202.25
408.002	189.25
408.226	178.25
408.449	165.25
408.673	176.25
408.896	195.25
409.12	170.25
409.344	165.25
409.567	160.25
409.791	172.25
410.014	184.25
410.238	164.25
410.461	172.25
410.685	169.25
410.908	163.25
411.132	174.25
411.355	163.25
411.578	178.25
411.802	158.25
412.025	164.25
412.249	160.25
412.472	169.25
412.695	165.25
412.919	190.25
413.142	185.25
413.365	174.25
413.589	157.25
413.812	164.25
414.035	180.25
414.258	164.25
414.482	160.25
414.705	159.25
414.928	188.25
415.151	164.25
415.374	150.25
415.597	170.25
415.821	179.25
416.044	173.25
416.267	178.25
416.49	171.25
416.713	154.25
416.936	176.25
417.159	176.25
417.382	181.25
417.605	168.25
417.828	185.25
418.051	175.25
418.274	169.25
418.497	161.25
418.72	164.25
418.943	174.25
419.166	180.25
419.389	181.25
419.611	158.25
419.834	165.25
420.057	150.25
420.28	161.25
420.503	168.25
420.726	159.25
420.948	157.25
421.171	188.25
421.394	166.25
421.617	168.25
421.839	172.25
422.062	189.25
422.285	168.25
422.507	177.25
422.73	172.25
422.953	173.25
423.175	184.25
423.398	210.25
423.621	208.25
423.843	209.25
424.066	207.25
424.288	212.25
424.511	237.25
424.733	255.25
424.956	244.25
425.178	218.25
425.401	204.25
425.623	203.25
425.846	189.25
426.068	189.25
426.291	192.25
426.513	203.25
426.735	196.25
426.958	185.25
427.18	170.25
427.402	193.25
427.625	179.25
427.847	186.25
428.069	180.25
428.292	178.25
428.514	175.25
428.736	172.25
428.958	182.25
429.181	175.25
429.403	181.25
429.625	186.25
429.847	170.25
430.069	184.25
430.292	186.25
430.514	179.25
430.736	159.25
430.958	176.25
431.18	157.25
431.402	185.25
431.624	163.25
431.846	157.25
432.068	171.25
432.29	178.25
432.512	187.25
432.734	165.25
432.956	192.25
433.178	194.25
433.4	185.25
433.622	188.25
433.844	189.25
434.066	181.25
434.287	162.25
434.509	152.25
434.731	161.25
434.953	183.25
435.175	173.25
435.397	181.25
435.618	178.25
435.84	175.25
436.062	162.25
436.284	175.25
436.505	180.25
436.727	188.25
436.949	176.25
437.17	184.25
437.392	185.25
437.614	192.25
437.835	186.25
438.057	190.25
438.278	193.25
438.5	212.25
438.721	235.25
438.943	237.25
439.165	236.25
439.386	219.25
439.608	226.25
439.829	202.25
440.05	205.25
440.272	217.25
440.493	204.25
440.715	216.25
440.936	234.25
441.158	241.25
441.379	195.25
441.6	211.25
441.822	213.25
442.043	217.25
442.264	208.25
442.486	207.25
442.707	208.25
442.928	193.25
443.149	203.25
443.371	195.25
443.592	193.25
443.813	186.25
444.034	198.25
444.255	197.25
444.476	189.25
444.698	192.25
444.919	190.25
445.14	496.25
445.361	328.25
445.582	202.25
445.803	199.25
446.024	187.25
446.245	202.25
446.466	192.25
446.687	177.25
446.908	210.25
447.129	197.25
447.35	189.25
447.571	195.25
447.792	186.25
448.013	192.25
448.234	186.25
448.455	179.25
448.675	190.25
448.896	193.25
449.117	184.25
449.338	180.25
449.559	188.25
449.779	172.25
450	178.25
450.221	164.25
450.442	173.25
450.662	172.25
450.883	176.25
451.104	184.25
451.324	168.25
451.545	175.25
451.766	178.25
451.986	173.25
452.207	170.25
452.428	162.25
452.648	181.25
452.869	172.25
453.089	160.25
453.31	164.25
453.53	164.25
453.751	156.25
453.971	156.25
454.192	155.25
454.412	164.25
454.633	167.25
454.853	176.25
455.073	166.25
455.294	140.25
455.514	174.25
455.734	159.25
455.955	153.25
456.175	147.25
456.395	146.25
456.616	158.25
456.836	162.25
457.056	175.25
457.276	148.25
457.497	138.25
457.717	155.25
457.937	144.25
458.157	162.25
458.377	137.25
458.598	153.25
458.818	144.25
459.038	153.25
459.258	157.25
459.478	159.25
459.698	164.25
459.918	160.25
460.138	161.25
460.358	149.25
460.578	172.25
460.798	192.25
461.018	164.25
461.238	174.25
461.458	182.25
461.678	165.25
461.898	175.25
462.118	159.25
462.338	171.25
462.558	177.25
462.777	164.25
462.997	174.25
463.217	169.25
463.437	153.25
463.657	142.25
463.876	147.25
464.096	169.25
464.316	186.25
464.536	160.25
464.755	177.25
464.975	153.25
465.195	157.25
465.414	161.25
465.634	159.25
465.854	161.25
466.073	164.25
466.293	168.25
466.512	172.25
466.732	160.25
466.951	164.25
467.171	155.25
467.391	168.25
467.61	175.25
467.829	174.25
468.049	149.25
468.268	168.25
468.488	166.25
468.707	164.25
468.927	184.25
469.146	150.25
469.365	165.25
469.585	180.25
469.804	170.25
470.023	163.25
470.243	157.25
470.462	156.25
470.681	180.25
470.901	175.25
471.12	170.25
471.339	186.25
471.558	182.25
471.777	182.25
471.997	179.25
472.216	177.25
472.435	165.25
472.654	166.25
472.873	176.25
473.092	146.25
473.311	162.25
473.53	172.25
473.749	166.25
473.968	160.25
474.187	154.25
474.406	161.25
474.625	176.25
474.844	180.25
475.063	168.25
475.282	157.25
475.501	161.25
475.72	186.25
475.939	192.25
476.158	170.25
476.377	176.25
476.596	171.25
476.814	164.25
477.033	169.25
477.252	165.25
477.471	162.25
477.69	163.25
477.908	174.25
478.127	192.25
478.346	190.25
478.564	195.25
478.783	188.25
479.002	192.25
479.22	174.25
479.439	182.25
479.658	183.25
479.876	170.25
480.095	182.25
480.313	185.25
480.532	180.25
480.751	186.25
480.969	171.25
481.188	146.25
481.406	172.25
481.624	173.25
481.843	161.25
482.061	160.25
482.28	170.25
482.498	168.25
482.717	169.25
482.935	154.25
483.153	174.25
483.372	197.25
483.59	174.25
483.808	186.25
484.027	173.25
484.245	180.25
484.463	183.25
484.681	202.25
484.9	183.25
485.118	188.25
485.336	172.25
485.554	153.25
485.772	155.25
485.99	180.25
486.209	174.25
486.427	161.25
486.645	180.25
486.863	194.25
487.081	178.25
487.299	172.25
487.517	188.25
487.735	194.25
487.953	200.25
488.171	193.25
488.389	193.25
488.607	165.25
488.825	170.25
489.043	163.25
489.261	195.25
489.479	197.25
489.696	170.25
489.914	179.25
490.132	188.25
490.35	190.25
490.568	198.25
490.786	201.25
491.003	201.25
491.221	217.25
491.439	206.25
491.657	192.25
491.874	217.25
492.092	208.25
492.31	237.25
492.527	216.25
492.745	200.25
492.963	202.25
493.18	208.25
493.398	230.25
493.615	195.25
493.833	215.25
494.05	215.25
494.268	198.25
494.485	208.25
494.703	182.25
494.92	199.25
495.138	200.25
495.355	228.25
495.573	223.25
495.79	205.25
496.008	205.25
496.225	205.25
496.442	196.25
496.66	239.25
496.877	201.25
497.094	212.25
497.312	206.25
497.529	210.25
497.746	208.25
497.963	210.25
498.181	187.25
498.398	189.25
498.615	180.25
498.832	174.25
499.049	194.25
499.267	230.25
499.484	210.25
499.701	226.25
499.918	227.25
500.135	214.25
500.352	247.25
500.569	254.25
500.786	309.25
501.003	272.25
501.22	246.25
501.437	224.25
501.654	222.25
501.871	206.25
502.088	216.25
502.305	211.25
502.522	204.25
502.739	204.25
502.956	196.25
503.172	208.25
503.389	204.25
503.606	204.25
503.823	206.25
