Data from TenMicroDelayPb_HRD10591_00001.txt Node
Date: Mon Nov 24 14:58:32 EST 2025
User: Yrep
Spectrometer: HR+D1059
Trigger mode: 5
Integration Time (sec): 1.000000E0
Scans to average: 1
Electric dark correction enabled: true
Nonlinearity correction enabled: false
Boxcar width: 0
XAxis mode: Wavelengths
Number of Pixels in Spectrum: 2048
>>>>>Begin Spectral Data<<<<<
223.165	-24.19
223.4	-24.19
223.635	-24.19
223.869	-14.19
224.104	-27.19
224.338	-20.19
224.573	-21.19
224.808	-6.19
225.042	-0.19
225.277	-9.19
225.511	-3.19
225.746	3.81
225.98	2.81
226.215	8.81
226.449	20.81
226.683	22.81
226.918	28.81
227.152	37.81
227.387	38.81
227.621	45.81
227.856	39.81
228.09	45.81
228.324	54.81
228.559	73.81
228.793	55.81
229.027	69.81
229.262	83.81
229.496	89.81
229.73	75.81
229.964	87.81
230.199	88.81
230.433	73.81
230.667	82.81
230.901	84.81
231.136	77.81
231.37	93.81
231.604	88.81
231.838	86.81
232.072	106.81
232.306	78.81
232.541	76.81
232.775	89.81
233.009	95.81
233.243	79.81
233.477	93.81
233.711	98.81
233.945	76.81
234.179	91.81
234.413	96.81
234.647	85.81
234.881	93.81
235.115	83.81
235.349	94.81
235.583	89.81
235.817	83.81
236.051	82.81
236.285	94.81
236.519	77.81
236.753	93.81
236.987	101.81
237.221	87.81
237.455	75.81
237.689	93.81
237.922	89.81
238.156	77.81
238.39	81.81
238.624	87.81
238.858	94.81
239.091	76.81
239.325	94.81
239.559	85.81
239.793	92.81
240.027	97.81
240.26	96.81
240.494	93.81
240.728	89.81
240.961	76.81
241.195	95.81
241.429	93.81
241.662	77.81
241.896	82.81
242.13	91.81
242.363	86.81
242.597	81.81
242.83	101.81
243.064	92.81
243.298	94.81
243.531	89.81
243.765	87.81
243.998	86.81
244.232	106.81
244.465	99.81
244.699	96.81
244.932	85.81
245.166	92.81
245.399	91.81
245.633	104.81
245.866	95.81
246.099	85.81
246.333	88.81
246.566	91.81
246.8	88.81
247.033	94.81
247.266	95.81
247.5	88.81
247.733	103.81
247.966	89.81
248.2	102.81
248.433	86.81
248.666	91.81
248.899	90.81
249.133	103.81
249.366	113.81
249.599	107.81
249.832	93.81
250.066	105.81
250.299	95.81
250.532	101.81
250.765	104.81
250.998	101.81
251.231	108.81
251.465	122.81
251.698	95.81
251.931	83.81
252.164	105.81
252.397	96.81
252.63	109.81
252.863	93.81
253.096	103.81
253.329	124.81
253.562	113.81
253.795	101.81
254.028	125.81
254.261	115.81
254.494	92.81
254.727	107.81
254.96	103.81
255.193	99.81
255.426	105.81
255.659	121.81
255.892	118.81
256.124	109.81
256.357	107.81
256.59	122.81
256.823	121.81
257.056	100.81
257.289	115.81
257.521	114.81
257.754	113.81
257.987	110.81
258.22	126.81
258.452	105.81
258.685	93.81
258.918	109.81
259.151	106.81
259.383	128.81
259.616	132.81
259.849	109.81
260.081	120.81
260.314	112.81
260.547	99.81
260.779	125.81
261.012	150.81
261.244	139.81
261.477	180.81
261.71	149.81
261.942	127.81
262.175	121.81
262.407	130.81
262.64	125.81
262.872	103.81
263.105	105.81
263.337	143.81
263.57	101.81
263.802	113.81
264.035	115.81
264.267	109.81
264.499	128.81
264.732	135.81
264.964	120.81
265.197	111.81
265.429	137.81
265.661	122.81
265.894	107.81
266.126	125.81
266.358	114.81
266.591	132.81
266.823	118.81
267.055	118.81
267.287	128.81
267.52	95.81
267.752	105.81
267.984	115.81
268.216	96.81
268.448	128.81
268.681	106.81
268.913	111.81
269.145	118.81
269.377	103.81
269.609	104.81
269.841	118.81
270.073	117.81
270.306	137.81
270.538	102.81
270.77	109.81
271.002	114.81
271.234	112.81
271.466	113.81
271.698	100.81
271.93	97.81
272.162	115.81
272.394	129.81
272.626	120.81
272.858	104.81
273.09	120.81
273.322	105.81
273.553	109.81
273.785	132.81
274.017	106.81
274.249	111.81
274.481	107.81
274.713	106.81
274.945	117.81
275.176	107.81
275.408	122.81
275.64	123.81
275.872	120.81
276.104	127.81
276.335	120.81
276.567	122.81
276.799	113.81
277.031	119.81
277.262	121.81
277.494	108.81
277.726	117.81
277.957	136.81
278.189	126.81
278.421	125.81
278.652	121.81
278.884	143.81
279.115	142.81
279.347	143.81
279.579	154.81
279.81	171.81
280.042	174.81
280.273	217.81
280.505	194.81
280.736	150.81
280.968	153.81
281.199	134.81
281.431	138.81
281.662	144.81
281.894	137.81
282.125	151.81
282.356	166.81
282.588	159.81
282.819	162.81
283.051	158.81
283.282	170.81
283.513	173.81
283.745	163.81
283.976	130.81
284.207	131.81
284.439	136.81
284.67	135.81
284.901	132.81
285.132	135.81
285.364	133.81
285.595	132.81
285.826	130.81
286.057	135.81
286.288	114.81
286.52	139.81
286.751	130.81
286.982	165.81
287.213	154.81
287.444	165.81
287.675	146.81
287.906	145.81
288.138	140.81
288.369	134.81
288.6	122.81
288.831	122.81
289.062	135.81
289.293	103.81
289.524	119.81
289.755	129.81
289.986	112.81
290.217	125.81
290.448	115.81
290.679	125.81
290.91	140.81
291.141	117.81
291.371	122.81
291.602	129.81
291.833	120.81
292.064	111.81
292.295	119.81
292.526	130.81
292.757	113.81
292.987	114.81
293.218	134.81
293.449	115.81
293.68	135.81
293.91	117.81
294.141	128.81
294.372	119.81
294.603	141.81
294.833	122.81
295.064	145.81
295.295	128.81
295.525	126.81
295.756	123.81
295.987	130.81
296.217	122.81
296.448	142.81
296.679	131.81
296.909	126.81
297.14	131.81
297.37	141.81
297.601	131.81
297.831	113.81
298.062	131.81
298.292	130.81
298.523	142.81
298.753	124.81
298.984	120.81
299.214	145.81
299.445	138.81
299.675	115.81
299.905	133.81
300.136	128.81
300.366	119.81
300.597	121.81
300.827	132.81
301.057	122.81
301.288	137.81
301.518	119.81
301.748	119.81
301.979	175.81
302.209	131.81
302.439	127.81
302.669	128.81
302.9	134.81
303.13	131.81
303.36	136.81
303.59	127.81
303.82	135.81
304.051	132.81
304.281	126.81
304.511	142.81
304.741	134.81
304.971	122.81
305.201	145.81
305.431	123.81
305.661	137.81
305.891	141.81
306.121	129.81
306.352	134.81
306.582	119.81
306.812	114.81
307.042	113.81
307.272	130.81
307.502	125.81
307.731	131.81
307.961	133.81
308.191	114.81
308.421	117.81
308.651	124.81
308.881	138.81
309.111	133.81
309.341	126.81
309.571	120.81
309.8	128.81
310.03	130.81
310.26	111.81
310.49	128.81
310.72	118.81
310.949	118.81
311.179	115.81
311.409	128.81
311.639	122.81
311.868	126.81
312.098	135.81
312.328	138.81
312.557	145.81
312.787	126.81
313.017	142.81
313.246	146.81
313.476	143.81
313.706	133.81
313.935	138.81
314.165	142.81
314.394	148.81
314.624	152.81
314.853	159.81
315.083	151.81
315.312	144.81
315.542	143.81
315.771	149.81
316.001	135.81
316.23	135.81
316.46	131.81
316.689	147.81
316.919	129.81
317.148	142.81
317.377	157.81
317.607	158.81
317.836	136.81
318.065	146.81
318.295	143.81
318.524	133.81
318.753	126.81
318.983	136.81
319.212	145.81
319.441	139.81
319.67	134.81
319.9	120.81
320.129	131.81
320.358	130.81
320.587	134.81
320.816	129.81
321.046	128.81
321.275	150.81
321.504	127.81
321.733	131.81
321.962	138.81
322.191	119.81
322.42	128.81
322.649	150.81
322.878	140.81
323.108	130.81
323.337	130.81
323.566	131.81
323.795	129.81
324.024	143.81
324.253	140.81
324.482	135.81
324.71	120.81
324.939	151.81
325.168	145.81
325.397	139.81
325.626	139.81
325.855	136.81
326.084	137.81
326.313	139.81
326.542	135.81
326.77	139.81
326.999	154.81
327.228	119.81
327.457	140.81
327.686	140.81
327.914	130.81
328.143	140.81
328.372	121.81
328.6	127.81
328.829	138.81
329.058	136.81
329.287	127.81
329.515	136.81
329.744	131.81
329.972	141.81
330.201	133.81
330.43	148.81
330.658	131.81
330.887	154.81
331.115	140.81
331.344	138.81
331.572	144.81
331.801	139.81
332.03	127.81
332.258	153.81
332.486	124.81
332.715	138.81
332.943	136.81
333.172	132.81
333.4	136.81
333.629	149.81
333.857	131.81
334.085	128.81
334.314	128.81
334.542	148.81
334.771	145.81
334.999	149.81
335.227	130.81
335.455	125.81
335.684	154.81
335.912	143.81
336.14	147.81
336.369	154.81
336.597	135.81
336.825	139.81
337.053	135.81
337.281	149.81
337.51	126.81
337.738	139.81
337.966	128.81
338.194	139.81
338.422	130.81
338.65	150.81
338.878	143.81
339.106	143.81
339.334	150.81
339.562	128.81
339.79	133.81
340.018	128.81
340.246	133.81
340.474	130.81
340.702	133.81
340.93	133.81
341.158	139.81
341.386	143.81
341.614	136.81
341.842	128.81
342.07	142.81
342.298	150.81
342.526	123.81
342.754	146.81
342.981	128.81
343.209	117.81
343.437	176.81
343.665	128.81
343.893	140.81
344.12	145.81
344.348	143.81
344.576	144.81
344.804	125.81
345.031	140.81
345.259	133.81
345.487	127.81
345.714	123.81
345.942	137.81
346.17	138.81
346.397	137.81
346.625	133.81
346.853	133.81
347.08	143.81
347.308	125.81
347.535	142.81
347.763	128.81
347.99	127.81
348.218	150.81
348.445	135.81
348.673	137.81
348.9	146.81
349.128	163.81
349.355	127.81
349.583	114.81
349.81	136.81
350.037	141.81
350.265	138.81
350.492	138.81
350.72	124.81
350.947	133.81
351.174	131.81
351.402	148.81
351.629	135.81
351.856	137.81
352.083	122.81
352.311	137.81
352.538	135.81
352.765	139.81
352.992	151.81
353.22	138.81
353.447	148.81
353.674	135.81
353.901	144.81
354.128	141.81
354.355	141.81
354.583	135.81
354.81	132.81
355.037	152.81
355.264	135.81
355.491	146.81
355.718	142.81
355.945	148.81
356.172	143.81
356.399	143.81
356.626	156.81
356.853	177.81
357.08	222.81
357.307	283.81
357.534	254.81
357.761	201.81
357.988	187.81
358.215	190.81
358.441	166.81
358.668	160.81
358.895	158.81
359.122	138.81
359.349	151.81
359.576	147.81
359.802	137.81
360.029	161.81
360.256	141.81
360.483	147.81
360.709	152.81
360.936	181.81
361.163	143.81
361.39	148.81
361.616	136.81
361.843	158.81
362.07	171.81
362.296	151.81
362.523	137.81
362.749	151.81
362.976	148.81
363.203	178.81
363.429	182.81
363.656	247.81
363.882	255.81
364.109	300.81
364.335	240.81
364.562	174.81
364.788	186.81
365.015	166.81
365.241	158.81
365.468	166.81
365.694	152.81
365.92	163.81
366.147	153.81
366.373	139.81
366.599	156.81
366.826	162.81
367.052	182.81
367.278	214.81
367.505	186.81
367.731	214.81
367.957	242.81
368.184	277.81
368.41	362.81
368.636	327.81
368.862	248.81
369.089	191.81
369.315	181.81
369.541	181.81
369.767	170.81
369.993	168.81
370.219	160.81
370.445	150.81
370.672	160.81
370.898	150.81
371.124	152.81
371.35	140.81
371.576	145.81
371.802	150.81
372.028	161.81
372.254	165.81
372.48	150.81
372.706	151.81
372.932	153.81
373.158	147.81
373.384	188.81
373.61	217.81
373.835	238.81
374.061	266.81
374.287	232.81
374.513	207.81
374.739	169.81
374.965	168.81
375.191	156.81
375.416	156.81
375.642	146.81
375.868	159.81
376.094	138.81
376.319	133.81
376.545	144.81
376.771	144.81
376.997	138.81
377.222	135.81
377.448	129.81
377.674	143.81
377.899	136.81
378.125	134.81
378.35	162.81
378.576	135.81
378.802	138.81
379.027	147.81
379.253	158.81
379.478	147.81
379.704	145.81
379.929	141.81
380.155	139.81
380.38	129.81
380.606	143.81
380.831	140.81
381.057	191.81
381.282	151.81
381.507	130.81
381.733	131.81
381.958	152.81
382.184	149.81
382.409	129.81
382.634	149.81
382.86	137.81
383.085	147.81
383.31	132.81
383.535	142.81
383.761	147.81
383.986	149.81
384.211	141.81
384.436	141.81
384.662	140.81
384.887	137.81
385.112	136.81
385.337	151.81
385.562	139.81
385.787	149.81
386.013	161.81
386.238	147.81
386.463	160.81
386.688	192.81
386.913	153.81
387.138	137.81
387.363	147.81
387.588	158.81
387.813	171.81
388.038	159.81
388.263	166.81
388.488	153.81
388.713	145.81
388.938	147.81
389.163	152.81
389.387	144.81
389.612	139.81
389.837	146.81
390.062	135.81
390.287	144.81
390.512	149.81
390.736	137.81
390.961	142.81
391.186	138.81
391.411	153.81
391.636	145.81
391.86	161.81
392.085	149.81
392.31	138.81
392.534	163.81
392.759	155.81
392.984	150.81
393.208	143.81
393.433	136.81
393.658	139.81
393.882	138.81
394.107	150.81
394.331	133.81
394.556	141.81
394.78	140.81
395.005	151.81
395.229	154.81
395.454	147.81
395.678	142.81
395.903	169.81
396.127	149.81
396.352	143.81
396.576	148.81
396.801	146.81
397.025	149.81
397.249	156.81
397.474	170.81
397.698	179.81
397.922	165.81
398.147	145.81
398.371	151.81
398.595	162.81
398.82	153.81
399.044	150.81
399.268	157.81
399.492	181.81
399.717	174.81
399.941	176.81
400.165	171.81
400.389	152.81
400.613	159.81
400.837	178.81
401.062	158.81
401.286	162.81
401.51	173.81
401.734	169.81
401.958	198.81
402.182	197.81
402.406	174.81
402.63	161.81
402.854	158.81
403.078	167.81
403.302	165.81
403.526	177.81
403.75	177.81
403.974	184.81
404.198	182.81
404.422	186.81
404.645	191.81
404.869	194.81
405.093	219.81
405.317	247.81
405.541	352.81
405.765	494.81
405.988	545.81
406.212	413.81
406.436	302.81
406.66	265.81
406.883	238.81
407.107	210.81
407.331	216.81
407.555	169.81
407.778	190.81
408.002	195.81
408.226	190.81
408.449	200.81
408.673	185.81
408.896	179.81
409.12	151.81
409.344	181.81
409.567	157.81
409.791	171.81
410.014	181.81
410.238	176.81
410.461	168.81
410.685	165.81
410.908	162.81
411.132	189.81
411.355	160.81
411.578	188.81
411.802	175.81
412.025	152.81
412.249	165.81
412.472	175.81
412.695	165.81
412.919	147.81
413.142	157.81
413.365	165.81
413.589	154.81
413.812	167.81
414.035	186.81
414.258	180.81
414.482	183.81
414.705	154.81
414.928	178.81
415.151	152.81
415.374	160.81
415.597	168.81
415.821	161.81
416.044	170.81
416.267	180.81
416.49	185.81
416.713	162.81
416.936	186.81
417.159	168.81
417.382	162.81
417.605	161.81
417.828	171.81
418.051	165.81
418.274	187.81
418.497	166.81
418.72	158.81
418.943	169.81
419.166	192.81
419.389	184.81
419.611	160.81
419.834	175.81
420.057	153.81
420.28	165.81
420.503	181.81
420.726	162.81
420.948	169.81
421.171	151.81
421.394	186.81
421.617	171.81
421.839	156.81
422.062	160.81
422.285	185.81
422.507	173.81
422.73	166.81
422.953	176.81
423.175	170.81
423.398	184.81
423.621	199.81
423.843	208.81
424.066	215.81
424.288	215.81
424.511	252.81
424.733	284.81
424.956	267.81
425.178	227.81
425.401	206.81
425.623	199.81
425.846	212.81
426.068	199.81
426.291	201.81
426.513	191.81
426.735	192.81
426.958	188.81
427.18	183.81
427.402	184.81
427.625	173.81
427.847	171.81
428.069	188.81
428.292	191.81
428.514	197.81
428.736	173.81
428.958	185.81
429.181	182.81
429.403	172.81
429.625	168.81
429.847	173.81
430.069	180.81
430.292	190.81
430.514	162.81
430.736	181.81
430.958	173.81
431.18	175.81
431.402	182.81
431.624	168.81
431.846	159.81
432.068	147.81
432.29	188.81
432.512	186.81
432.734	187.81
432.956	183.81
433.178	197.81
433.4	183.81
433.622	187.81
433.844	185.81
434.066	187.81
434.287	167.81
434.509	172.81
434.731	185.81
434.953	175.81
435.175	185.81
435.397	187.81
435.618	185.81
435.84	163.81
436.062	174.81
436.284	169.81
436.505	196.81
436.727	187.81
436.949	190.81
437.17	187.81
437.392	188.81
437.614	174.81
437.835	185.81
438.057	200.81
438.278	189.81
438.5	205.81
438.721	251.81
438.943	257.81
439.165	230.81
439.386	242.81
439.608	239.81
439.829	224.81
440.05	225.81
440.272	223.81
440.493	227.81
440.715	234.81
440.936	239.81
441.158	225.81
441.379	212.81
441.6	199.81
441.822	208.81
442.043	190.81
442.264	191.81
442.486	194.81
442.707	181.81
442.928	209.81
443.149	193.81
443.371	197.81
443.592	195.81
443.813	209.81
444.034	191.81
444.255	195.81
444.476	191.81
444.698	174.81
444.919	181.81
445.14	512.81
445.361	335.81
445.582	203.81
445.803	206.81
446.024	200.81
446.245	200.81
446.466	188.81
446.687	192.81
446.908	215.81
447.129	193.81
447.35	194.81
447.571	188.81
447.792	191.81
448.013	177.81
448.234	188.81
448.455	186.81
448.675	191.81
448.896	187.81
449.117	173.81
449.338	186.81
449.559	209.81
449.779	190.81
450	193.81
450.221	176.81
450.442	161.81
450.662	164.81
450.883	179.81
451.104	179.81
451.324	182.81
451.545	165.81
451.766	169.81
451.986	162.81
452.207	177.81
452.428	169.81
452.648	155.81
452.869	165.81
453.089	159.81
453.31	143.81
453.53	172.81
453.751	149.81
453.971	167.81
454.192	156.81
454.412	158.81
454.633	158.81
454.853	180.81
455.073	159.81
455.294	171.81
455.514	172.81
455.734	158.81
455.955	143.81
456.175	155.81
456.395	149.81
456.616	150.81
456.836	173.81
457.056	167.81
457.276	140.81
457.497	162.81
457.717	155.81
457.937	175.81
458.157	160.81
458.377	165.81
458.598	153.81
458.818	167.81
459.038	145.81
459.258	143.81
459.478	146.81
459.698	170.81
459.918	159.81
460.138	154.81
460.358	173.81
460.578	154.81
460.798	167.81
461.018	165.81
461.238	171.81
461.458	172.81
461.678	166.81
461.898	173.81
462.118	173.81
462.338	182.81
462.558	172.81
462.777	173.81
462.997	170.81
463.217	170.81
463.437	150.81
463.657	140.81
463.876	159.81
464.096	157.81
464.316	165.81
464.536	159.81
464.755	169.81
464.975	166.81
465.195	166.81
465.414	186.81
465.634	160.81
465.854	150.81
466.073	167.81
466.293	148.81
466.512	158.81
466.732	170.81
466.951	159.81
467.171	163.81
467.391	165.81
467.61	167.81
467.829	172.81
468.049	175.81
468.268	167.81
468.488	166.81
468.707	168.81
468.927	180.81
469.146	165.81
469.365	173.81
469.585	175.81
469.804	178.81
470.023	184.81
470.243	173.81
470.462	162.81
470.681	191.81
470.901	181.81
471.12	170.81
471.339	183.81
471.558	174.81
471.777	170.81
471.997	165.81
472.216	183.81
472.435	166.81
472.654	164.81
472.873	181.81
473.092	165.81
473.311	160.81
473.53	177.81
473.749	188.81
473.968	180.81
474.187	177.81
474.406	157.81
474.625	167.81
474.844	177.81
475.063	166.81
475.282	169.81
475.501	169.81
475.72	177.81
475.939	159.81
476.158	160.81
476.377	183.81
476.596	171.81
476.814	180.81
477.033	162.81
477.252	163.81
477.471	159.81
477.69	179.81
477.908	189.81
478.127	201.81
478.346	153.81
478.564	185.81
478.783	171.81
479.002	193.81
479.22	173.81
479.439	195.81
479.658	185.81
479.876	162.81
480.095	169.81
480.313	175.81
480.532	170.81
480.751	185.81
480.969	159.81
481.188	169.81
481.406	184.81
481.624	159.81
481.843	173.81
482.061	157.81
482.28	179.81
482.498	163.81
482.717	181.81
482.935	176.81
483.153	182.81
483.372	201.81
483.59	192.81
483.808	163.81
484.027	181.81
484.245	172.81
484.463	186.81
484.681	213.81
484.9	165.81
485.118	183.81
485.336	190.81
485.554	176.81
485.772	179.81
485.99	176.81
486.209	178.81
486.427	183.81
486.645	172.81
486.863	183.81
487.081	166.81
487.299	163.81
487.517	193.81
487.735	193.81
487.953	205.81
488.171	211.81
488.389	182.81
488.607	188.81
488.825	177.81
489.043	172.81
489.261	197.81
489.479	187.81
489.696	183.81
489.914	177.81
490.132	192.81
490.35	204.81
490.568	193.81
490.786	206.81
491.003	195.81
491.221	209.81
491.439	210.81
491.657	198.81
491.874	224.81
492.092	227.81
492.31	226.81
492.527	213.81
492.745	213.81
492.963	222.81
493.18	211.81
493.398	208.81
493.615	212.81
493.833	225.81
494.05	192.81
494.268	194.81
494.485	218.81
494.703	211.81
494.92	212.81
495.138	218.81
495.355	230.81
495.573	215.81
495.79	208.81
496.008	209.81
496.225	213.81
496.442	205.81
496.66	224.81
496.877	208.81
497.094	226.81
497.312	210.81
497.529	215.81
497.746	199.81
497.963	205.81
498.181	195.81
498.398	188.81
498.615	198.81
498.832	193.81
499.049	207.81
499.267	212.81
499.484	202.81
499.701	219.81
499.918	235.81
500.135	225.81
500.352	245.81
500.569	258.81
500.786	315.81
501.003	272.81
501.22	228.81
501.437	231.81
501.654	232.81
501.871	227.81
502.088	209.81
502.305	227.81
502.522	212.81
502.739	209.81
502.956	206.81
503.172	189.81
503.389	193.81
503.606	198.81
503.823	191.81
