Data from TenMicroDelayPb_HRD10591_00006.txt Node
Date: Mon Nov 24 14:58:34 EST 2025
User: Yrep
Spectrometer: HR+D1059
Trigger mode: 5
Integration Time (sec): 1.000000E0
Scans to average: 1
Electric dark correction enabled: true
Nonlinearity correction enabled: false
Boxcar width: 0
XAxis mode: Wavelengths
Number of Pixels in Spectrum: 2048
>>>>>Begin Spectral Data<<<<<
223.165	-31
223.4	-31
223.635	-31
223.869	-23
224.104	-32
224.338	3
224.573	-6
224.808	-19
225.042	-7
225.277	-6
225.511	-5
225.746	16
225.98	4
226.215	15
226.449	28
226.683	9
226.918	19
227.152	35
227.387	37
227.621	35
227.856	44
228.09	47
228.324	51
228.559	60
228.793	69
229.027	70
229.262	77
229.496	76
229.73	84
229.964	91
230.199	79
230.433	86
230.667	84
230.901	84
231.136	88
231.37	81
231.604	90
231.838	88
232.072	88
232.306	100
232.541	84
232.775	74
233.009	81
233.243	78
233.477	83
233.711	85
233.945	96
234.179	90
234.413	104
234.647	92
234.881	87
235.115	82
235.349	94
235.583	95
235.817	82
236.051	95
236.285	84
236.519	80
236.753	96
236.987	95
237.221	94
237.455	98
237.689	88
237.922	76
238.156	94
238.39	76
238.624	96
238.858	94
239.091	98
239.325	89
239.559	91
239.793	96
240.027	116
240.26	104
240.494	100
240.728	86
240.961	88
241.195	107
241.429	95
241.662	84
241.896	88
242.13	69
242.363	78
242.597	105
242.83	99
243.064	86
243.298	96
243.531	81
243.765	89
243.998	94
244.232	93
244.465	92
244.699	90
244.932	91
245.166	96
245.399	106
245.633	89
245.866	90
246.099	100
246.333	92
246.566	88
246.8	91
247.033	77
247.266	90
247.5	90
247.733	104
247.966	112
248.2	102
248.433	93
248.666	88
248.899	99
249.133	94
249.366	98
249.599	98
249.832	94
250.066	102
250.299	98
250.532	120
250.765	93
250.998	110
251.231	105
251.465	105
251.698	108
251.931	89
252.164	97
252.397	106
252.63	110
252.863	100
253.096	107
253.329	109
253.562	117
253.795	132
254.028	107
254.261	111
254.494	108
254.727	124
254.96	125
255.193	114
255.426	93
255.659	112
255.892	110
256.124	95
256.357	104
256.59	113
256.823	109
257.056	120
257.289	114
257.521	110
257.754	117
257.987	123
258.22	129
258.452	116
258.685	108
258.918	117
259.151	113
259.383	112
259.616	121
259.849	113
260.081	109
260.314	125
260.547	131
260.779	126
261.012	124
261.244	127
261.477	162
261.71	149
261.942	132
262.175	134
262.407	113
262.64	123
262.872	129
263.105	111
263.337	144
263.57	128
263.802	124
264.035	110
264.267	128
264.499	114
264.732	124
264.964	120
265.197	118
265.429	133
265.661	129
265.894	125
266.126	117
266.358	132
266.591	111
266.823	124
267.055	106
267.287	114
267.52	125
267.752	136
267.984	102
268.216	113
268.448	111
268.681	112
268.913	115
269.145	114
269.377	119
269.609	96
269.841	127
270.073	115
270.306	115
270.538	115
270.77	104
271.002	104
271.234	115
271.466	114
271.698	114
271.93	125
272.162	115
272.394	122
272.626	116
272.858	101
273.09	120
273.322	122
273.553	107
273.785	130
274.017	116
274.249	122
274.481	114
274.713	116
274.945	122
275.176	117
275.408	144
275.64	109
275.872	114
276.104	119
276.335	136
276.567	127
276.799	125
277.031	124
277.262	141
277.494	130
277.726	123
277.957	130
278.189	132
278.421	129
278.652	122
278.884	122
279.115	145
279.347	141
279.579	147
279.81	174
280.042	193
280.273	217
280.505	170
280.736	155
280.968	146
281.199	150
281.431	158
281.662	149
281.894	145
282.125	164
282.356	152
282.588	158
282.819	142
283.051	160
283.282	179
283.513	177
283.745	162
283.976	151
284.207	130
284.439	148
284.67	149
284.901	137
285.132	136
285.364	143
285.595	125
285.826	129
286.057	140
286.288	126
286.52	129
286.751	140
286.982	136
287.213	148
287.444	172
287.675	150
287.906	148
288.138	123
288.369	118
288.6	130
288.831	130
289.062	132
289.293	115
289.524	118
289.755	126
289.986	116
290.217	137
290.448	116
290.679	129
290.91	128
291.141	117
291.371	136
291.602	131
291.833	122
292.064	128
292.295	125
292.526	118
292.757	126
292.987	114
293.218	111
293.449	126
293.68	142
293.91	129
294.141	129
294.372	121
294.603	127
294.833	114
295.064	107
295.295	110
295.525	123
295.756	119
295.987	126
296.217	123
296.448	124
296.679	133
296.909	128
297.14	129
297.37	137
297.601	121
297.831	126
298.062	128
298.292	116
298.523	110
298.753	135
298.984	139
299.214	129
299.445	116
299.675	135
299.905	135
300.136	112
300.366	123
300.597	131
300.827	121
301.057	116
301.288	119
301.518	141
301.748	110
301.979	188
302.209	146
302.439	115
302.669	139
302.9	137
303.13	134
303.36	133
303.59	125
303.82	132
304.051	131
304.281	136
304.511	141
304.741	137
304.971	122
305.201	133
305.431	132
305.661	123
305.891	129
306.121	129
306.352	121
306.582	142
306.812	123
307.042	121
307.272	125
307.502	130
307.731	122
307.961	126
308.191	134
308.421	134
308.651	133
308.881	142
309.111	127
309.341	128
309.571	130
309.8	140
310.03	133
310.26	124
310.49	121
310.72	130
310.949	126
311.179	134
311.409	133
311.639	146
311.868	138
312.098	143
312.328	114
312.557	144
312.787	138
313.017	141
313.246	131
313.476	122
313.706	149
313.935	146
314.165	157
314.394	151
314.624	145
314.853	152
315.083	142
315.312	154
315.542	137
315.771	143
316.001	133
316.23	140
316.46	154
316.689	156
316.919	146
317.148	144
317.377	141
317.607	145
317.836	136
318.065	135
318.295	133
318.524	130
318.753	136
318.983	124
319.212	154
319.441	142
319.67	148
319.9	137
320.129	136
320.358	140
320.587	131
320.816	132
321.046	147
321.275	154
321.504	127
321.733	133
321.962	137
322.191	127
322.42	146
322.649	149
322.878	127
323.108	146
323.337	135
323.566	122
323.795	134
324.024	125
324.253	132
324.482	124
324.71	147
324.939	133
325.168	137
325.397	140
325.626	143
325.855	138
326.084	137
326.313	137
326.542	125
326.77	134
326.999	130
327.228	135
327.457	136
327.686	152
327.914	139
328.143	151
328.372	137
328.6	126
328.829	137
329.058	149
329.287	139
329.515	141
329.744	147
329.972	141
330.201	140
330.43	141
330.658	133
330.887	130
331.115	150
331.344	122
331.572	155
331.801	128
332.03	131
332.258	126
332.486	131
332.715	130
332.943	130
333.172	146
333.4	132
333.629	141
333.857	149
334.085	136
334.314	145
334.542	130
334.771	147
334.999	136
335.227	129
335.455	136
335.684	166
335.912	158
336.14	134
336.369	143
336.597	141
336.825	154
337.053	142
337.281	146
337.51	147
337.738	153
337.966	125
338.194	140
338.422	149
338.65	149
338.878	142
339.106	139
339.334	138
339.562	129
339.79	143
340.018	130
340.246	123
340.474	132
340.702	141
340.93	130
341.158	143
341.386	133
341.614	135
341.842	130
342.07	123
342.298	133
342.526	132
342.754	140
342.981	127
343.209	140
343.437	178
343.665	153
343.893	138
344.12	147
344.348	127
344.576	135
344.804	132
345.031	129
345.259	146
345.487	128
345.714	126
345.942	145
346.17	140
346.397	127
346.625	136
346.853	136
347.08	138
347.308	135
347.535	130
347.763	126
347.99	139
348.218	149
348.445	132
348.673	131
348.9	142
349.128	142
349.355	131
349.583	134
349.81	131
350.037	143
350.265	147
350.492	132
350.72	139
350.947	134
351.174	126
351.402	139
351.629	122
351.856	134
352.083	133
352.311	146
352.538	128
352.765	141
352.992	157
353.22	147
353.447	149
353.674	145
353.901	153
354.128	142
354.355	131
354.583	129
354.81	142
355.037	134
355.264	144
355.491	134
355.718	138
355.945	142
356.172	156
356.399	148
356.626	138
356.853	162
357.08	217
357.307	250
357.534	259
357.761	198
357.988	184
358.215	200
358.441	157
358.668	138
358.895	150
359.122	158
359.349	158
359.576	150
359.802	152
360.029	152
360.256	169
360.483	125
360.709	132
360.936	185
361.163	149
361.39	146
361.616	149
361.843	142
362.07	148
362.296	141
362.523	149
362.749	137
362.976	159
363.203	166
363.429	178
363.656	227
363.882	251
364.109	298
364.335	250
364.562	208
364.788	168
365.015	180
365.241	155
365.468	163
365.694	147
365.92	159
366.147	164
366.373	157
366.599	149
366.826	159
367.052	186
367.278	190
367.505	195
367.731	232
367.957	228
368.184	283
368.41	345
368.636	309
368.862	251
369.089	218
369.315	184
369.541	187
369.767	177
369.993	158
370.219	158
370.445	153
370.672	158
370.898	154
371.124	174
371.35	162
371.576	158
371.802	155
372.028	137
372.254	146
372.48	164
372.706	162
372.932	149
373.158	155
373.384	167
373.61	196
373.835	203
374.061	257
374.287	243
374.513	197
374.739	174
374.965	158
375.191	170
375.416	151
375.642	170
375.868	166
376.094	159
376.319	136
376.545	148
376.771	150
376.997	140
377.222	121
377.448	145
377.674	136
377.899	137
378.125	156
378.35	144
378.576	143
378.802	163
379.027	150
379.253	150
379.478	145
379.704	144
379.929	138
380.155	165
380.38	134
380.606	142
380.831	153
381.057	171
381.282	144
381.507	145
381.733	139
381.958	149
382.184	146
382.409	141
382.634	162
382.86	142
383.085	151
383.31	148
383.535	165
383.761	156
383.986	157
384.211	139
384.436	130
384.662	135
384.887	159
385.112	153
385.337	146
385.562	136
385.787	149
386.013	159
386.238	148
386.463	143
386.688	200
386.913	153
387.138	146
387.363	147
387.588	165
387.813	149
388.038	153
388.263	164
388.488	139
388.713	145
388.938	161
389.163	161
389.387	149
389.612	170
389.837	156
390.062	148
390.287	140
390.512	149
390.736	140
390.961	161
391.186	152
391.411	149
391.636	144
391.86	156
392.085	165
392.31	145
392.534	139
392.759	148
392.984	145
393.208	147
393.433	155
393.658	158
393.882	144
394.107	148
394.331	153
394.556	143
394.78	172
395.005	146
395.229	168
395.454	175
395.678	153
395.903	158
396.127	158
396.352	156
396.576	153
396.801	132
397.025	134
397.249	162
397.474	178
397.698	165
397.922	141
398.147	142
398.371	173
398.595	156
398.82	140
399.044	175
399.268	168
399.492	161
399.717	189
399.941	192
400.165	171
400.389	160
400.613	150
400.837	156
401.062	165
401.286	156
401.51	150
401.734	177
401.958	193
402.182	177
402.406	179
402.63	174
402.854	163
403.078	170
403.302	172
403.526	178
403.75	191
403.974	172
404.198	180
404.422	186
404.645	178
404.869	204
405.093	210
405.317	256
405.541	317
405.765	464
405.988	484
406.212	389
406.436	306
406.66	260
406.883	198
407.107	208
407.331	189
407.555	187
407.778	191
408.002	185
408.226	186
408.449	199
408.673	175
408.896	193
409.12	173
409.344	173
409.567	166
409.791	182
410.014	177
410.238	160
410.461	181
410.685	184
410.908	173
411.132	178
411.355	174
411.578	189
411.802	172
412.025	155
412.249	172
412.472	178
412.695	163
412.919	161
413.142	163
413.365	162
413.589	152
413.812	175
414.035	177
414.258	181
414.482	160
414.705	162
414.928	182
415.151	171
415.374	163
415.597	165
415.821	189
416.044	168
416.267	163
416.49	167
416.713	163
416.936	176
417.159	169
417.382	154
417.605	172
417.828	178
418.051	162
418.274	161
418.497	174
418.72	156
418.943	177
419.166	151
419.389	166
419.611	165
419.834	158
420.057	187
420.28	178
420.503	170
420.726	163
420.948	157
421.171	165
421.394	169
421.617	171
421.839	162
422.062	172
422.285	170
422.507	169
422.73	176
422.953	159
423.175	177
423.398	185
423.621	201
423.843	216
424.066	211
424.288	202
424.511	239
424.733	258
424.956	250
425.178	220
425.401	228
425.623	203
425.846	184
426.068	200
426.291	206
426.513	198
426.735	204
426.958	180
427.18	189
427.402	194
427.625	188
427.847	163
428.069	197
428.292	171
428.514	173
428.736	185
428.958	166
429.181	188
429.403	187
429.625	164
429.847	177
430.069	195
430.292	168
430.514	172
430.736	178
430.958	164
431.18	172
431.402	167
431.624	164
431.846	151
432.068	162
432.29	162
432.512	188
432.734	162
432.956	166
433.178	194
433.4	176
433.622	194
433.844	184
434.066	193
434.287	181
434.509	162
434.731	158
434.953	149
435.175	155
435.397	198
435.618	173
435.84	171
436.062	169
436.284	172
436.505	170
436.727	189
436.949	184
437.17	182
437.392	174
437.614	187
437.835	175
438.057	203
438.278	176
438.5	200
438.721	234
438.943	264
439.165	248
439.386	236
439.608	213
439.829	208
440.05	218
440.272	212
440.493	230
440.715	207
440.936	241
441.158	240
441.379	219
441.6	217
441.822	222
442.043	198
442.264	187
442.486	204
442.707	199
442.928	189
443.149	197
443.371	200
443.592	181
443.813	209
444.034	188
444.255	206
444.476	202
444.698	191
444.919	201
445.14	489
445.361	346
445.582	208
445.803	195
446.024	186
446.245	191
446.466	198
446.687	175
446.908	186
447.129	197
447.35	185
447.571	197
447.792	180
448.013	175
448.234	190
448.455	191
448.675	172
448.896	187
449.117	174
449.338	172
449.559	190
449.779	162
450	181
450.221	164
450.442	177
450.662	176
450.883	172
451.104	164
451.324	183
451.545	165
451.766	172
451.986	180
452.207	160
452.428	165
452.648	180
452.869	154
453.089	170
453.31	152
453.53	153
453.751	169
453.971	154
454.192	141
454.412	145
454.633	152
454.853	153
455.073	140
455.294	172
455.514	171
455.734	169
455.955	162
456.175	164
456.395	143
456.616	146
456.836	174
457.056	156
457.276	150
457.497	148
457.717	164
457.937	148
458.157	152
458.377	136
458.598	145
458.818	150
459.038	157
459.258	147
459.478	147
459.698	154
459.918	152
460.138	161
460.358	162
460.578	172
460.798	168
461.018	157
461.238	176
461.458	164
461.678	154
461.898	164
462.118	185
462.338	160
462.558	166
462.777	163
462.997	170
463.217	161
463.437	163
463.657	163
463.876	165
464.096	170
464.316	161
464.536	177
464.755	178
464.975	176
465.195	166
465.414	170
465.634	152
465.854	168
466.073	161
466.293	165
466.512	149
466.732	167
466.951	165
467.171	163
467.391	172
467.61	168
467.829	169
468.049	186
468.268	137
468.488	161
468.707	168
468.927	164
469.146	174
469.365	178
469.585	183
469.804	165
470.023	144
470.243	172
470.462	165
470.681	183
470.901	180
471.12	185
471.339	184
471.558	169
471.777	171
471.997	175
472.216	169
472.435	163
472.654	153
472.873	166
473.092	175
473.311	174
473.53	159
473.749	164
473.968	181
474.187	160
474.406	165
474.625	184
474.844	188
475.063	165
475.282	159
475.501	161
475.72	190
475.939	180
476.158	169
476.377	184
476.596	153
476.814	156
477.033	162
477.252	161
477.471	173
477.69	176
477.908	181
478.127	176
478.346	158
478.564	168
478.783	169
479.002	182
479.22	185
479.439	188
479.658	164
479.876	186
480.095	174
480.313	186
480.532	176
480.751	189
480.969	158
481.188	173
481.406	178
481.624	165
481.843	169
482.061	147
482.28	192
482.498	181
482.717	171
482.935	175
483.153	190
483.372	192
483.59	200
483.808	182
484.027	187
484.245	186
484.463	189
484.681	187
484.9	180
485.118	196
485.336	168
485.554	179
485.772	168
485.99	153
486.209	178
486.427	169
486.645	178
486.863	175
487.081	181
487.299	180
487.517	182
487.735	213
487.953	208
488.171	228
488.389	192
488.607	189
488.825	196
489.043	171
489.261	199
489.479	181
489.696	198
489.914	174
490.132	171
490.35	206
490.568	192
490.786	198
491.003	195
491.221	208
491.439	206
491.657	210
491.874	225
492.092	207
492.31	244
492.527	212
492.745	204
492.963	198
493.18	189
493.398	205
493.615	188
493.833	198
494.05	204
494.268	212
494.485	200
494.703	203
494.92	190
495.138	210
495.355	210
495.573	220
495.79	211
496.008	198
496.225	182
496.442	200
496.66	216
496.877	205
497.094	215
497.312	196
497.529	216
497.746	194
497.963	208
498.181	197
498.398	190
498.615	199
498.832	192
499.049	207
499.267	224
499.484	192
499.701	213
499.918	237
500.135	224
500.352	239
500.569	267
500.786	287
501.003	254
501.22	243
501.437	232
501.654	217
501.871	216
502.088	209
502.305	205
502.522	217
502.739	221
502.956	195
503.172	221
503.389	196
503.606	214
503.823	204
504.04	206
504.256	201
504.473	204
504.69	219
504.907	241
505.123	212
505.34	208
505.557	202
505.773	202
505.99	196
506.207	178
506.423	188
506.64	196
506.856	180
507.073	184
507.289	202
507.506	184
507.722	197
507.939	186
508.155	172
508.372	170
508.588	177
508.805	180
509.021	189
509.238	192
509.454	170
509.67	172
509.887	164
510.103	172
510.319	171
510.536	185
510.752	170
510.968	156
511.184	176
511.401	142
511.617	164
511.833	163
512.049	173
512.265	159
512.481	184
512.698	165
512.914	159
513.13	165
513.346	161
513.562	164
513.778	172
513.994	173
514.21	161
514.426	168
514.642	186
514.858	171
515.074	185
515.29	193
515.506	166
515.721	168
515.937	178
516.153	160
516.369	174
516.585	168
516.801	165
517.016	196
517.232	164
517.448	178
517.664	179
517.879	168
518.095	164
518.311	179
518.527	159
518.742	170
518.958	167
519.173	162
519.389	176
519.605	186
519.82	177
520.036	175
520.251	166
520.467	216
520.682	169
520.898	161
521.113	168
521.329	161
521.544	148
521.76	154
521.975	151
522.19	176
522.406	161
522.621	159
522.836	161
523.052	176
523.267	175
523.482	163
523.698	151
523.913	148
524.128	152
524.343	165
524.559	172
524.774	158
524.989	186
525.204	170
525.419	168
525.634	152
525.849	151
526.064	184
526.28	152
526.495	157
526.71	166
526.925	157
527.14	157
527.355	141
527.57	161
527.785	161
527.999	158
528.214	156
528.429	168
528.644	178
528.859	158
529.074	162
529.289	180
529.503	171
529.718	168
529.933	155
530.148	149
530.363	163
530.577	149
530.792	146
531.007	144
531.221	150
531.436	142
531.651	163
531.865	173
532.08	160
532.295	162
532.509	165
532.724	155
532.938	158
533.153	173
533.367	156
533.582	173
533.796	169
534.011	147
534.225	145
534.44	157
534.654	160
534.868	161
535.083	162
535.297	165
535.511	185
535.726	186
535.94	184
536.154	162
536.369	186
536.583	162
536.797	172
537.011	172
537.225	212
537.44	175
537.654	194
537.868	172
538.082	186
538.296	164
538.51	164
538.724	162
538.938	169
539.153	183
539.367	175
539.581	175
539.795	166
540.009	157
540.222	151
540.436	168
540.65	156
540.864	169
541.078	176
541.292	174
541.506	179
541.72	162
541.934	159
542.147	184
542.361	142
542.575	146
542.789	156
543.002	140
543.216	154
543.43	145
543.644	147
543.857	165
544.071	155
544.285	172
544.498	165
544.712	160
544.925	165
545.139	147
545.352	158
545.566	156
545.779	145
545.993	153
546.206	158
546.42	157
546.633	165
546.847	187
547.06	157
547.274	177
547.487	160
547.7	164
547.914	160
548.127	156
548.34	168
548.554	154
548.767	172
548.98	155
549.193	155
549.407	153
549.62	147
549.833	154
550.046	158
550.259	151
550.473	143
550.686	168
550.899	152
551.112	161
551.325	166
551.538	156
551.751	145
551.964	171
552.177	180
552.39	153
552.603	156
552.816	171
553.029	153
553.242	164
553.455	148
553.667	165
553.88	158
554.093	149
554.306	162
554.519	174
554.732	164
554.944	171
555.157	174
555.37	166
555.583	170
555.795	169
556.008	161
556.221	156
556.433	159
556.646	169
556.859	150
557.071	158
557.284	161
557.496	170
557.709	159
557.921	165
558.134	151
558.346	165
558.559	169
558.771	168
558.984	174
559.196	174
559.409	158
559.621	173
559.833	189
560.046	186
560.258	183
560.47	216
560.683	234
560.895	260
561.107	286
561.32	218
561.532	222
561.744	187
561.956	203
562.168	178
562.381	161
562.593	163
562.805	171
563.017	172
563.229	166
563.441	165
563.653	147
563.865	153
564.077	160
564.289	184
564.501	159
564.713	164
564.925	155
565.137	145
565.349	161
565.561	157
565.773	160
