Data from Circ_2001_H10_HRD10591_00063.txt Node
Date: Wed Jan 03 10:45:51 EST 2024
User: Yrep
Spectrometer: HR+D1059
Trigger mode: 1
Integration Time (sec): 1.000000E-1
Scans to average: 1
Electric dark correction enabled: true
Nonlinearity correction enabled: false
Boxcar width: 0
XAxis mode: Wavelengths
Number of Pixels in Spectrum: 2048
>>>>>Begin Spectral Data<<<<<
223.165	-5.12
223.4	-5.12
223.635	-5.12
223.869	-22.12
224.104	-23.12
224.338	-8.12
224.573	-18.12
224.808	-13.12
225.042	-9.12
225.277	-8.12
225.511	3.88
225.746	11.88
225.98	0.88
226.215	24.88
226.449	20.88
226.683	3.88
226.918	16.88
227.152	23.88
227.387	38.88
227.621	37.88
227.856	52.88
228.09	55.88
228.324	56.88
228.559	45.88
228.793	44.88
229.027	58.88
229.262	68.88
229.496	72.88
229.73	93.88
229.964	81.88
230.199	67.88
230.433	71.88
230.667	71.88
230.901	65.88
231.136	84.88
231.37	78.88
231.604	81.88
231.838	78.88
232.072	88.88
232.306	69.88
232.541	66.88
232.775	62.88
233.009	73.88
233.243	86.88
233.477	102.88
233.711	76.88
233.945	72.88
234.179	71.88
234.413	87.88
234.647	79.88
234.881	82.88
235.115	73.88
235.349	85.88
235.583	88.88
235.817	82.88
236.051	78.88
236.285	76.88
236.519	79.88
236.753	57.88
236.987	72.88
237.221	83.88
237.455	98.88
237.689	89.88
237.922	83.88
238.156	66.88
238.39	87.88
238.624	82.88
238.858	89.88
239.091	70.88
239.325	64.88
239.559	88.88
239.793	65.88
240.027	73.88
240.26	73.88
240.494	67.88
240.728	78.88
240.961	63.88
241.195	67.88
241.429	77.88
241.662	74.88
241.896	63.88
242.13	80.88
242.363	72.88
242.597	67.88
242.83	85.88
243.064	66.88
243.298	85.88
243.531	80.88
243.765	76.88
243.998	76.88
244.232	82.88
244.465	87.88
244.699	76.88
244.932	68.88
245.166	76.88
245.399	96.88
245.633	78.88
245.866	67.88
246.099	62.88
246.333	57.88
246.566	78.88
246.8	78.88
247.033	82.88
247.266	64.88
247.5	82.88
247.733	90.88
247.966	84.88
248.2	85.88
248.433	79.88
248.666	74.88
248.899	85.88
249.133	78.88
249.366	98.88
249.599	89.88
249.832	99.88
250.066	82.88
250.299	81.88
250.532	87.88
250.765	74.88
250.998	88.88
251.231	80.88
251.465	69.88
251.698	73.88
251.931	79.88
252.164	77.88
252.397	75.88
252.63	66.88
252.863	82.88
253.096	72.88
253.329	89.88
253.562	73.88
253.795	77.88
254.028	82.88
254.261	75.88
254.494	79.88
254.727	74.88
254.96	81.88
255.193	68.88
255.426	78.88
255.659	82.88
255.892	89.88
256.124	77.88
256.357	72.88
256.59	77.88
256.823	74.88
257.056	77.88
257.289	73.88
257.521	74.88
257.754	89.88
257.987	91.88
258.22	84.88
258.452	79.88
258.685	84.88
258.918	84.88
259.151	83.88
259.383	74.88
259.616	71.88
259.849	64.88
260.081	70.88
260.314	71.88
260.547	75.88
260.779	77.88
261.012	88.88
261.244	95.88
261.477	86.88
261.71	80.88
261.942	103.88
262.175	121.88
262.407	83.88
262.64	89.88
262.872	90.88
263.105	82.88
263.337	79.88
263.57	68.88
263.802	86.88
264.035	84.88
264.267	76.88
264.499	76.88
264.732	85.88
264.964	83.88
265.197	68.88
265.429	88.88
265.661	84.88
265.894	84.88
266.126	87.88
266.358	89.88
266.591	64.88
266.823	77.88
267.055	69.88
267.287	79.88
267.52	68.88
267.752	71.88
267.984	78.88
268.216	87.88
268.448	85.88
268.681	78.88
268.913	89.88
269.145	73.88
269.377	71.88
269.609	83.88
269.841	89.88
270.073	92.88
270.306	79.88
270.538	77.88
270.77	87.88
271.002	87.88
271.234	103.88
271.466	78.88
271.698	71.88
271.93	80.88
272.162	92.88
272.394	80.88
272.626	71.88
272.858	81.88
273.09	98.88
273.322	82.88
273.553	77.88
273.785	96.88
274.017	87.88
274.249	93.88
274.481	76.88
274.713	80.88
274.945	82.88
275.176	69.88
275.408	88.88
275.64	94.88
275.872	90.88
276.104	92.88
276.335	100.88
276.567	104.88
276.799	127.88
277.031	135.88
277.262	133.88
277.494	116.88
277.726	90.88
277.957	72.88
278.189	82.88
278.421	89.88
278.652	85.88
278.884	93.88
279.115	82.88
279.347	60.88
279.579	77.88
279.81	103.88
280.042	145.88
280.273	170.88
280.505	134.88
280.736	92.88
280.968	95.88
281.199	80.88
281.431	81.88
281.662	85.88
281.894	89.88
282.125	92.88
282.356	117.88
282.588	140.88
282.819	106.88
283.051	88.88
283.282	77.88
283.513	79.88
283.745	102.88
283.976	86.88
284.207	70.88
284.439	98.88
284.67	87.88
284.901	83.88
285.132	81.88
285.364	70.88
285.595	80.88
285.826	88.88
286.057	77.88
286.288	86.88
286.52	85.88
286.751	96.88
286.982	75.88
287.213	77.88
287.444	90.88
287.675	87.88
287.906	79.88
288.138	97.88
288.369	87.88
288.6	98.88
288.831	94.88
289.062	81.88
289.293	97.88
289.524	88.88
289.755	70.88
289.986	99.88
290.217	83.88
290.448	83.88
290.679	85.88
290.91	81.88
291.141	88.88
291.371	88.88
291.602	97.88
291.833	78.88
292.064	85.88
292.295	88.88
292.526	84.88
292.757	86.88
292.987	89.88
293.218	86.88
293.449	74.88
293.68	84.88
293.91	84.88
294.141	84.88
294.372	87.88
294.603	76.88
294.833	92.88
295.064	83.88
295.295	99.88
295.525	85.88
295.756	92.88
295.987	135.88
296.217	148.88
296.448	132.88
296.679	92.88
296.909	93.88
297.14	82.88
297.37	89.88
297.601	70.88
297.831	77.88
298.062	77.88
298.292	95.88
298.523	82.88
298.753	77.88
298.984	78.88
299.214	78.88
299.445	85.88
299.675	74.88
299.905	76.88
300.136	96.88
300.366	84.88
300.597	89.88
300.827	91.88
301.057	102.88
301.288	104.88
301.518	101.88
301.748	87.88
301.979	81.88
302.209	94.88
302.439	99.88
302.669	94.88
302.9	102.88
303.13	90.88
303.36	96.88
303.59	100.88
303.82	111.88
304.051	102.88
304.281	86.88
304.511	109.88
304.741	97.88
304.971	91.88
305.201	88.88
305.431	80.88
305.661	82.88
305.891	95.88
306.121	81.88
306.352	106.88
306.582	116.88
306.812	97.88
307.042	111.88
307.272	138.88
307.502	126.88
307.731	143.88
307.961	111.88
308.191	95.88
308.421	96.88
308.651	85.88
308.881	96.88
309.111	93.88
309.341	96.88
309.571	89.88
309.8	96.88
310.03	100.88
310.26	98.88
310.49	104.88
310.72	98.88
310.949	101.88
311.179	101.88
311.409	95.88
311.639	98.88
311.868	102.88
312.098	85.88
312.328	91.88
312.557	101.88
312.787	108.88
313.017	116.88
313.246	82.88
313.476	84.88
313.706	89.88
313.935	90.88
314.165	101.88
314.394	94.88
314.624	89.88
314.853	99.88
315.083	92.88
315.312	85.88
315.542	94.88
315.771	94.88
316.001	90.88
316.23	85.88
316.46	86.88
316.689	99.88
316.919	83.88
317.148	92.88
317.377	81.88
317.607	82.88
317.836	89.88
318.065	80.88
318.295	96.88
318.524	80.88
318.753	89.88
318.983	99.88
319.212	112.88
319.441	107.88
319.67	111.88
319.9	97.88
320.129	96.88
320.358	89.88
320.587	84.88
320.816	103.88
321.046	106.88
321.275	94.88
321.504	86.88
321.733	109.88
321.962	100.88
322.191	97.88
322.42	116.88
322.649	114.88
322.878	105.88
323.108	115.88
323.337	124.88
323.566	119.88
323.795	150.88
324.024	218.88
324.253	426.88
324.482	906.88
324.71	1841.88
324.939	2387.88
325.168	843.88
325.397	245.88
325.626	154.88
325.855	150.88
326.084	126.88
326.313	121.88
326.542	162.88
326.77	257.88
326.999	479.88
327.228	1000.88
327.457	1805.88
327.686	1434.88
327.914	446.88
328.143	370.88
328.372	424.88
328.6	250.88
328.829	140.88
329.058	148.88
329.287	168.88
329.515	156.88
329.744	187.88
329.972	327.88
330.201	606.88
330.43	836.88
330.658	401.88
330.887	208.88
331.115	137.88
331.344	114.88
331.572	107.88
331.801	103.88
332.03	98.88
332.258	100.88
332.486	97.88
332.715	102.88
332.943	94.88
333.172	114.88
333.4	121.88
333.629	154.88
333.857	165.88
334.085	287.88
334.314	574.88
334.542	1073.88
334.771	951.88
334.999	288.88
335.227	137.88
335.455	96.88
335.684	94.88
335.912	107.88
336.14	106.88
336.369	114.88
336.597	100.88
336.825	116.88
337.053	87.88
337.281	105.88
337.51	79.88
337.738	83.88
337.966	107.88
338.194	97.88
338.422	98.88
338.65	111.88
338.878	99.88
339.106	93.88
339.334	95.88
339.562	96.88
339.79	108.88
340.018	104.88
340.246	109.88
340.474	96.88
340.702	89.88
340.93	99.88
341.158	103.88
341.386	86.88
341.614	98.88
341.842	85.88
342.07	94.88
342.298	80.88
342.526	93.88
342.754	95.88
342.981	94.88
343.209	80.88
343.437	93.88
343.665	89.88
343.893	84.88
344.12	101.88
344.348	82.88
344.576	89.88
344.804	100.88
345.031	87.88
345.259	74.88
345.487	100.88
345.714	85.88
345.942	96.88
346.17	107.88
346.397	98.88
346.625	95.88
346.853	88.88
347.08	84.88
347.308	105.88
347.535	92.88
347.763	90.88
347.99	97.88
348.218	104.88
348.445	109.88
348.673	105.88
348.9	88.88
349.128	92.88
349.355	99.88
349.583	87.88
349.81	84.88
350.037	97.88
350.265	93.88
350.492	87.88
350.72	89.88
350.947	93.88
351.174	124.88
351.402	107.88
351.629	102.88
351.856	98.88
352.083	108.88
352.311	97.88
352.538	113.88
352.765	122.88
352.992	118.88
353.22	113.88
353.447	108.88
353.674	100.88
353.901	84.88
354.128	89.88
354.355	87.88
354.583	99.88
354.81	68.88
355.037	84.88
355.264	91.88
355.491	100.88
355.718	89.88
355.945	94.88
356.172	88.88
356.399	89.88
356.626	97.88
356.853	109.88
357.08	101.88
357.307	93.88
357.534	93.88
357.761	95.88
357.988	92.88
358.215	95.88
358.441	101.88
358.668	97.88
358.895	102.88
359.122	73.88
359.349	89.88
359.576	104.88
359.802	99.88
360.029	111.88
360.256	144.88
360.483	96.88
360.709	102.88
360.936	100.88
361.163	95.88
361.39	96.88
361.616	106.88
361.843	94.88
362.07	105.88
362.296	84.88
362.523	94.88
362.749	89.88
362.976	114.88
363.203	97.88
363.429	91.88
363.656	92.88
363.882	90.88
364.109	89.88
364.335	94.88
364.562	89.88
364.788	98.88
365.015	107.88
365.241	95.88
365.468	113.88
365.694	110.88
365.92	100.88
366.147	83.88
366.373	85.88
366.599	90.88
366.826	85.88
367.052	89.88
367.278	81.88
367.505	89.88
367.731	86.88
367.957	87.88
368.184	91.88
368.41	108.88
368.636	125.88
368.862	107.88
369.089	109.88
369.315	93.88
369.541	92.88
369.767	97.88
369.993	88.88
370.219	78.88
370.445	82.88
370.672	85.88
370.898	73.88
371.124	81.88
371.35	72.88
371.576	90.88
371.802	80.88
372.028	91.88
372.254	86.88
372.48	98.88
372.706	78.88
372.932	62.88
373.158	72.88
373.384	94.88
373.61	80.88
373.835	90.88
374.061	82.88
374.287	87.88
374.513	98.88
374.739	81.88
374.965	96.88
375.191	67.88
375.416	90.88
375.642	94.88
375.868	93.88
376.094	93.88
376.319	103.88
376.545	86.88
376.771	82.88
376.997	79.88
377.222	67.88
377.448	89.88
377.674	82.88
377.899	84.88
378.125	101.88
378.35	81.88
378.576	81.88
378.802	88.88
379.027	90.88
379.253	71.88
379.478	82.88
379.704	101.88
379.929	86.88
380.155	83.88
380.38	83.88
380.606	94.88
380.831	93.88
381.057	97.88
381.282	89.88
381.507	103.88
381.733	105.88
381.958	104.88
382.184	103.88
382.409	81.88
382.634	89.88
382.86	106.88
383.085	93.88
383.31	91.88
383.535	87.88
383.761	92.88
383.986	87.88
384.211	81.88
384.436	90.88
384.662	95.88
384.887	100.88
385.112	98.88
385.337	107.88
385.562	100.88
385.787	83.88
386.013	111.88
386.238	114.88
386.463	107.88
386.688	116.88
386.913	108.88
387.138	111.88
387.363	90.88
387.588	108.88
387.813	104.88
388.038	92.88
388.263	97.88
388.488	100.88
388.713	81.88
388.938	98.88
389.163	82.88
389.387	81.88
389.612	79.88
389.837	84.88
390.062	87.88
390.287	80.88
390.512	84.88
390.736	83.88
390.961	91.88
391.186	88.88
391.411	92.88
391.636	96.88
391.86	82.88
392.085	69.88
392.31	71.88
392.534	89.88
392.759	81.88
392.984	84.88
393.208	90.88
393.433	84.88
393.658	96.88
393.882	80.88
394.107	91.88
394.331	74.88
394.556	77.88
394.78	74.88
395.005	90.88
395.229	92.88
395.454	83.88
395.678	74.88
395.903	76.88
396.127	84.88
396.352	92.88
396.576	88.88
396.801	92.88
397.025	89.88
397.249	86.88
397.474	89.88
397.698	82.88
397.922	78.88
398.147	82.88
398.371	78.88
398.595	80.88
398.82	87.88
399.044	97.88
399.268	81.88
399.492	81.88
399.717	90.88
399.941	85.88
400.165	85.88
400.389	89.88
400.613	84.88
400.837	75.88
401.062	93.88
401.286	99.88
401.51	100.88
401.734	84.88
401.958	91.88
402.182	112.88
402.406	177.88
402.63	125.88
402.854	96.88
403.078	88.88
403.302	84.88
403.526	84.88
403.75	87.88
403.974	77.88
404.198	70.88
404.422	85.88
404.645	86.88
404.869	99.88
405.093	91.88
405.317	124.88
405.541	114.88
405.765	107.88
405.988	112.88
406.212	186.88
406.436	236.88
406.66	161.88
406.883	103.88
407.107	88.88
407.331	88.88
407.555	103.88
407.778	90.88
408.002	90.88
408.226	93.88
408.449	89.88
408.673	86.88
408.896	87.88
409.12	96.88
409.344	87.88
409.567	81.88
409.791	90.88
410.014	85.88
410.238	81.88
410.461	85.88
410.685	93.88
410.908	87.88
411.132	102.88
411.355	97.88
411.578	99.88
411.802	88.88
412.025	84.88
412.249	95.88
412.472	90.88
412.695	99.88
412.919	100.88
413.142	88.88
413.365	77.88
413.589	78.88
413.812	100.88
414.035	86.88
414.258	87.88
414.482	77.88
414.705	83.88
414.928	80.88
415.151	88.88
415.374	101.88
415.597	83.88
415.821	78.88
416.044	89.88
416.267	81.88
416.49	90.88
416.713	81.88
416.936	87.88
417.159	87.88
417.382	79.88
417.605	94.88
417.828	96.88
418.051	88.88
418.274	84.88
418.497	86.88
418.72	88.88
418.943	93.88
419.166	89.88
419.389	86.88
419.611	81.88
419.834	98.88
420.057	81.88
420.28	73.88
420.503	86.88
420.726	81.88
420.948	77.88
421.171	94.88
421.394	92.88
421.617	80.88
421.839	64.88
422.062	88.88
422.285	100.88
422.507	89.88
422.73	96.88
422.953	95.88
423.175	79.88
423.398	90.88
423.621	83.88
423.843	83.88
424.066	81.88
424.288	86.88
424.511	97.88
424.733	108.88
424.956	106.88
425.178	100.88
425.401	98.88
425.623	114.88
425.846	98.88
426.068	90.88
426.291	93.88
426.513	111.88
426.735	98.88
426.958	85.88
427.18	107.88
427.402	157.88
427.625	207.88
427.847	172.88
428.069	167.88
428.292	109.88
428.514	101.88
428.736	90.88
428.958	88.88
429.181	104.88
429.403	90.88
429.625	90.88
429.847	86.88
430.069	99.88
430.292	98.88
430.514	77.88
430.736	89.88
430.958	85.88
431.18	76.88
431.402	78.88
431.624	98.88
431.846	70.88
432.068	92.88
432.29	95.88
432.512	76.88
432.734	97.88
432.956	79.88
433.178	82.88
433.4	95.88
433.622	84.88
433.844	86.88
434.066	77.88
434.287	103.88
434.509	73.88
434.731	93.88
434.953	88.88
435.175	81.88
435.397	76.88
435.618	99.88
435.84	110.88
436.062	124.88
436.284	108.88
436.505	104.88
436.727	103.88
436.949	88.88
437.17	82.88
437.392	70.88
437.614	95.88
437.835	105.88
438.057	113.88
438.278	114.88
438.5	113.88
438.721	120.88
438.943	95.88
439.165	78.88
439.386	82.88
439.608	90.88
439.829	115.88
440.05	135.88
440.272	144.88
440.493	100.88
440.715	89.88
440.936	93.88
441.158	96.88
441.379	89.88
441.6	90.88
441.822	101.88
442.043	88.88
442.264	100.88
442.486	92.88
442.707	81.88
442.928	119.88
443.149	131.88
443.371	144.88
443.592	111.88
443.813	111.88
444.034	111.88
444.255	89.88
444.476	90.88
444.698	84.88
444.919	88.88
445.14	124.88
445.361	113.88
445.582	117.88
445.803	155.88
446.024	134.88
446.245	146.88
446.466	103.88
446.687	86.88
446.908	80.88
447.129	77.88
447.35	90.88
447.571	94.88
447.792	97.88
448.013	101.88
448.234	96.88
448.455	108.88
448.675	113.88
448.896	111.88
449.117	94.88
449.338	109.88
449.559	118.88
449.779	134.88
450	94.88
450.221	94.88
450.442	94.88
450.662	87.88
450.883	104.88
451.104	109.88
451.324	84.88
451.545	87.88
451.766	76.88
451.986	83.88
452.207	74.88
452.428	94.88
452.648	99.88
452.869	96.88
453.089	116.88
453.31	121.88
453.53	83.88
453.751	96.88
453.971	102.88
454.192	106.88
454.412	89.88
454.633	85.88
454.853	64.88
455.073	75.88
455.294	90.88
455.514	86.88
455.734	88.88
455.955	85.88
456.175	78.88
456.395	87.88
456.616	76.88
456.836	92.88
457.056	84.88
457.276	79.88
457.497	69.88
457.717	72.88
457.937	77.88
458.157	100.88
458.377	93.88
458.598	104.88
458.818	148.88
459.038	196.88
459.258	127.88
459.478	88.88
459.698	86.88
459.918	93.88
460.138	70.88
460.358	84.88
460.578	84.88
460.798	78.88
461.018	86.88
461.238	99.88
461.458	80.88
461.678	96.88
461.898	92.88
462.118	70.88
462.338	74.88
462.558	86.88
462.777	94.88
462.997	99.88
463.217	107.88
463.437	88.88
463.657	88.88
463.876	77.88
464.096	97.88
464.316	85.88
464.536	93.88
464.755	93.88
464.975	112.88
465.195	179.88
465.414	167.88
465.634	93.88
465.854	86.88
466.073	81.88
466.293	84.88
466.512	84.88
466.732	94.88
466.951	78.88
467.171	99.88
467.391	100.88
467.61	103.88
467.829	166.88
468.049	365.88
468.268	517.88
468.488	159.88
468.707	102.88
468.927	91.88
469.146	81.88
469.365	84.88
469.585	92.88
469.804	99.88
470.023	85.88
470.243	99.88
470.462	88.88
470.681	100.88
470.901	82.88
471.12	92.88
471.339	100.88
471.558	106.88
471.777	127.88
471.997	232.88
472.216	696.88
472.435	1501.88
472.654	374.88
472.873	110.88
473.092	87.88
473.311	80.88
473.53	74.88
473.749	101.88
473.968	96.88
474.187	102.88
474.406	95.88
474.625	82.88
474.844	89.88
475.063	88.88
475.282	85.88
475.501	97.88
475.72	84.88
475.939	100.88
476.158	94.88
476.377	82.88
476.596	92.88
476.814	99.88
477.033	83.88
477.252	93.88
477.471	68.88
477.69	90.88
477.908	99.88
478.127	74.88
478.346	103.88
478.564	88.88
478.783	79.88
479.002	93.88
479.22	97.88
479.439	112.88
479.658	121.88
479.876	103.88
480.095	111.88
480.313	105.88
480.532	142.88
480.751	204.88
480.969	663.88
481.188	2601.88
481.406	1485.88
481.624	242.88
481.843	106.88
482.061	96.88
482.28	81.88
482.498	97.88
482.717	92.88
482.935	74.88
483.153	101.88
483.372	86.88
483.59	90.88
483.808	101.88
484.027	92.88
484.245	84.88
484.463	83.88
484.681	79.88
484.9	77.88
485.118	89.88
485.336	84.88
485.554	87.88
485.772	97.88
485.99	99.88
486.209	105.88
486.427	88.88
486.645	129.88
486.863	112.88
487.081	93.88
487.299	89.88
487.517	92.88
487.735	89.88
487.953	93.88
488.171	100.88
488.389	90.88
488.607	88.88
488.825	89.88
489.043	88.88
489.261	79.88
489.479	85.88
489.696	87.88
489.914	96.88
490.132	83.88
490.35	80.88
490.568	73.88
490.786	76.88
491.003	76.88
491.221	79.88
491.439	85.88
491.657	96.88
491.874	87.88
492.092	78.88
492.31	88.88
492.527	90.88
492.745	77.88
492.963	88.88
493.18	89.88
493.398	89.88
493.615	86.88
493.833	94.88
494.05	78.88
494.268	85.88
494.485	82.88
494.703	80.88
494.92	78.88
495.138	81.88
495.355	98.88
495.573	95.88
495.79	89.88
496.008	99.88
496.225	80.88
496.442	93.88
496.66	87.88
496.877	91.88
497.094	89.88
497.312	85.88
497.529	89.88
497.746	74.88
497.963	89.88
498.181	80.88
498.398	96.88
498.615	115.88
498.832	104.88
499.049	99.88
499.267	91.88
499.484	95.88
499.701	80.88
499.918	92.88
500.135	89.88
500.352	80.88
500.569	86.88
500.786	85.88
501.003	87.88
501.22	84.88
501.437	71.88
501.654	80.88
501.871	109.88
502.088	86.88
502.305	81.88
502.522	89.88
502.739	84.88
502.956	94.88
503.172	90.88
503.389	94.88
503.606	108.88
503.823	93.88
504.04	98.88
504.256	91.88
504.473	78.88
504.69	89.88
504.907	80.88
505.123	103.88
505.34	91.88
505.557	86.88
505.773	81.88
505.99	81.88
506.207	82.88
506.423	85.88
506.64	89.88
506.856	95.88
507.073	92.88
507.289	84.88
507.506	87.88
507.722	113.88
507.939	121.88
508.155	93.88
508.372	101.88
508.588	93.88
508.805	90.88
509.021	79.88
509.238	93.88
509.454	90.88
509.67	98.88
509.887	101.88
510.103	118.88
510.319	207.88
510.536	741.88
510.752	2388.88
510.968	650.88
511.184	159.88
511.401	103.88
511.617	88.88
511.833	106.88
512.049	109.88
512.265	95.88
512.481	82.88
512.698	89.88
512.914	82.88
513.13	82.88
513.346	86.88
513.562	84.88
513.778	96.88
513.994	98.88
514.21	109.88
514.426	122.88
514.642	150.88
514.858	142.88
515.074	187.88
515.29	542.88
515.506	1776.88
