Data from Circ_2001_H10_HRD10591_00029.txt Node
Date: Wed Jan 03 10:45:44 EST 2024
User: Yrep
Spectrometer: HR+D1059
Trigger mode: 1
Integration Time (sec): 1.000000E-1
Scans to average: 1
Electric dark correction enabled: true
Nonlinearity correction enabled: false
Boxcar width: 0
XAxis mode: Wavelengths
Number of Pixels in Spectrum: 2048
>>>>>Begin Spectral Data<<<<<
223.165	-14.88
223.4	-14.88
223.635	-14.88
223.869	-14.88
224.104	-14.88
224.338	-21.88
224.573	-11.88
224.808	-5.88
225.042	-18.88
225.277	-4.88
225.511	-16.88
225.746	3.12
225.98	16.12
226.215	18.12
226.449	22.12
226.683	27.12
226.918	7.12
227.152	31.12
227.387	48.12
227.621	18.12
227.856	45.12
228.09	51.12
228.324	53.12
228.559	56.12
228.793	57.12
229.027	47.12
229.262	54.12
229.496	78.12
229.73	85.12
229.964	93.12
230.199	83.12
230.433	71.12
230.667	65.12
230.901	86.12
231.136	73.12
231.37	83.12
231.604	66.12
231.838	71.12
232.072	85.12
232.306	88.12
232.541	91.12
232.775	82.12
233.009	81.12
233.243	73.12
233.477	74.12
233.711	73.12
233.945	64.12
234.179	90.12
234.413	61.12
234.647	75.12
234.881	67.12
235.115	83.12
235.349	82.12
235.583	81.12
235.817	78.12
236.051	83.12
236.285	82.12
236.519	76.12
236.753	78.12
236.987	75.12
237.221	86.12
237.455	83.12
237.689	83.12
237.922	70.12
238.156	91.12
238.39	67.12
238.624	78.12
238.858	85.12
239.091	71.12
239.325	67.12
239.559	83.12
239.793	82.12
240.027	65.12
240.26	78.12
240.494	81.12
240.728	68.12
240.961	80.12
241.195	73.12
241.429	83.12
241.662	80.12
241.896	81.12
242.13	55.12
242.363	74.12
242.597	82.12
242.83	79.12
243.064	85.12
243.298	91.12
243.531	80.12
243.765	77.12
243.998	84.12
244.232	78.12
244.465	74.12
244.699	90.12
244.932	85.12
245.166	78.12
245.399	78.12
245.633	92.12
245.866	77.12
246.099	73.12
246.333	83.12
246.566	89.12
246.8	84.12
247.033	87.12
247.266	65.12
247.5	88.12
247.733	77.12
247.966	81.12
248.2	91.12
248.433	83.12
248.666	81.12
248.899	78.12
249.133	85.12
249.366	98.12
249.599	86.12
249.832	90.12
250.066	91.12
250.299	73.12
250.532	71.12
250.765	73.12
250.998	68.12
251.231	79.12
251.465	86.12
251.698	86.12
251.931	79.12
252.164	74.12
252.397	82.12
252.63	78.12
252.863	65.12
253.096	87.12
253.329	88.12
253.562	74.12
253.795	80.12
254.028	73.12
254.261	80.12
254.494	80.12
254.727	77.12
254.96	67.12
255.193	97.12
255.426	75.12
255.659	89.12
255.892	74.12
256.124	66.12
256.357	80.12
256.59	89.12
256.823	90.12
257.056	77.12
257.289	90.12
257.521	82.12
257.754	87.12
257.987	74.12
258.22	95.12
258.452	83.12
258.685	83.12
258.918	83.12
259.151	82.12
259.383	94.12
259.616	89.12
259.849	84.12
260.081	82.12
260.314	92.12
260.547	81.12
260.779	86.12
261.012	88.12
261.244	93.12
261.477	89.12
261.71	96.12
261.942	96.12
262.175	104.12
262.407	91.12
262.64	85.12
262.872	90.12
263.105	75.12
263.337	93.12
263.57	92.12
263.802	84.12
264.035	84.12
264.267	74.12
264.499	81.12
264.732	78.12
264.964	84.12
265.197	94.12
265.429	101.12
265.661	84.12
265.894	87.12
266.126	96.12
266.358	76.12
266.591	88.12
266.823	96.12
267.055	87.12
267.287	87.12
267.52	81.12
267.752	78.12
267.984	81.12
268.216	93.12
268.448	82.12
268.681	86.12
268.913	77.12
269.145	83.12
269.377	91.12
269.609	75.12
269.841	73.12
270.073	79.12
270.306	82.12
270.538	90.12
270.77	83.12
271.002	83.12
271.234	78.12
271.466	75.12
271.698	87.12
271.93	83.12
272.162	92.12
272.394	81.12
272.626	89.12
272.858	99.12
273.09	86.12
273.322	80.12
273.553	84.12
273.785	96.12
274.017	91.12
274.249	86.12
274.481	81.12
274.713	81.12
274.945	70.12
275.176	78.12
275.408	74.12
275.64	93.12
275.872	102.12
276.104	91.12
276.335	91.12
276.567	107.12
276.799	111.12
277.031	112.12
277.262	121.12
277.494	114.12
277.726	90.12
277.957	83.12
278.189	73.12
278.421	81.12
278.652	86.12
278.884	83.12
279.115	67.12
279.347	83.12
279.579	83.12
279.81	96.12
280.042	130.12
280.273	153.12
280.505	121.12
280.736	98.12
280.968	89.12
281.199	86.12
281.431	82.12
281.662	71.12
281.894	104.12
282.125	107.12
282.356	113.12
282.588	141.12
282.819	119.12
283.051	87.12
283.282	80.12
283.513	100.12
283.745	81.12
283.976	83.12
284.207	90.12
284.439	81.12
284.67	80.12
284.901	98.12
285.132	88.12
285.364	84.12
285.595	88.12
285.826	96.12
286.057	82.12
286.288	89.12
286.52	84.12
286.751	80.12
286.982	96.12
287.213	99.12
287.444	94.12
287.675	75.12
287.906	93.12
288.138	89.12
288.369	89.12
288.6	99.12
288.831	88.12
289.062	78.12
289.293	81.12
289.524	87.12
289.755	69.12
289.986	76.12
290.217	81.12
290.448	65.12
290.679	87.12
290.91	92.12
291.141	81.12
291.371	82.12
291.602	78.12
291.833	80.12
292.064	81.12
292.295	105.12
292.526	93.12
292.757	83.12
292.987	80.12
293.218	88.12
293.449	89.12
293.68	87.12
293.91	82.12
294.141	82.12
294.372	79.12
294.603	85.12
294.833	87.12
295.064	95.12
295.295	85.12
295.525	110.12
295.756	93.12
295.987	104.12
296.217	133.12
296.448	114.12
296.679	87.12
296.909	84.12
297.14	103.12
297.37	81.12
297.601	77.12
297.831	72.12
298.062	73.12
298.292	80.12
298.523	99.12
298.753	73.12
298.984	84.12
299.214	78.12
299.445	82.12
299.675	87.12
299.905	86.12
300.136	95.12
300.366	91.12
300.597	82.12
300.827	89.12
301.057	102.12
301.288	86.12
301.518	95.12
301.748	91.12
301.979	102.12
302.209	100.12
302.439	91.12
302.669	90.12
302.9	79.12
303.13	95.12
303.36	102.12
303.59	112.12
303.82	106.12
304.051	106.12
304.281	98.12
304.511	87.12
304.741	95.12
304.971	92.12
305.201	92.12
305.431	88.12
305.661	78.12
305.891	83.12
306.121	83.12
306.352	95.12
306.582	112.12
306.812	89.12
307.042	101.12
307.272	117.12
307.502	130.12
307.731	118.12
307.961	102.12
308.191	92.12
308.421	83.12
308.651	88.12
308.881	89.12
309.111	98.12
309.341	97.12
309.571	91.12
309.8	98.12
310.03	86.12
310.26	99.12
310.49	95.12
310.72	101.12
310.949	101.12
311.179	97.12
311.409	66.12
311.639	97.12
311.868	91.12
312.098	97.12
312.328	79.12
312.557	100.12
312.787	101.12
313.017	112.12
313.246	87.12
313.476	92.12
313.706	95.12
313.935	86.12
314.165	102.12
314.394	98.12
314.624	99.12
314.853	98.12
315.083	82.12
315.312	83.12
315.542	90.12
315.771	78.12
316.001	105.12
316.23	98.12
316.46	94.12
316.689	99.12
316.919	85.12
317.148	88.12
317.377	83.12
317.607	91.12
317.836	76.12
318.065	85.12
318.295	91.12
318.524	99.12
318.753	94.12
318.983	84.12
319.212	103.12
319.441	100.12
319.67	89.12
319.9	93.12
320.129	89.12
320.358	78.12
320.587	100.12
320.816	95.12
321.046	88.12
321.275	93.12
321.504	100.12
321.733	96.12
321.962	93.12
322.191	92.12
322.42	112.12
322.649	110.12
322.878	100.12
323.108	128.12
323.337	115.12
323.566	136.12
323.795	148.12
324.024	207.12
324.253	400.12
324.482	852.12
324.71	1737.12
324.939	2195.12
325.168	808.12
325.397	252.12
325.626	159.12
325.855	133.12
326.084	122.12
326.313	131.12
326.542	146.12
326.77	248.12
326.999	457.12
327.228	976.12
327.457	1707.12
327.686	1325.12
327.914	429.12
328.143	307.12
328.372	344.12
328.6	215.12
328.829	149.12
329.058	139.12
329.287	139.12
329.515	125.12
329.744	155.12
329.972	254.12
330.201	490.12
330.43	643.12
330.658	329.12
330.887	180.12
331.115	135.12
331.344	105.12
331.572	105.12
331.801	104.12
332.03	110.12
332.258	117.12
332.486	107.12
332.715	106.12
332.943	115.12
333.172	119.12
333.4	117.12
333.629	138.12
333.857	146.12
334.085	242.12
334.314	436.12
334.542	817.12
334.771	774.12
334.999	230.12
335.227	128.12
335.455	102.12
335.684	93.12
335.912	100.12
336.14	100.12
336.369	91.12
336.597	95.12
336.825	88.12
337.053	91.12
337.281	85.12
337.51	95.12
337.738	82.12
337.966	89.12
338.194	90.12
338.422	103.12
338.65	87.12
338.878	89.12
339.106	87.12
339.334	92.12
339.562	86.12
339.79	94.12
340.018	85.12
340.246	95.12
340.474	102.12
340.702	97.12
340.93	108.12
341.158	87.12
341.386	96.12
341.614	84.12
341.842	98.12
342.07	91.12
342.298	90.12
342.526	87.12
342.754	78.12
342.981	84.12
343.209	78.12
343.437	102.12
343.665	89.12
343.893	89.12
344.12	75.12
344.348	98.12
344.576	79.12
344.804	81.12
345.031	86.12
345.259	100.12
345.487	86.12
345.714	98.12
345.942	84.12
346.17	92.12
346.397	90.12
346.625	107.12
346.853	96.12
347.08	87.12
347.308	97.12
347.535	91.12
347.763	84.12
347.99	97.12
348.218	89.12
348.445	117.12
348.673	112.12
348.9	74.12
349.128	93.12
349.355	93.12
349.583	90.12
349.81	87.12
350.037	88.12
350.265	88.12
350.492	78.12
350.72	78.12
350.947	83.12
351.174	90.12
351.402	112.12
351.629	101.12
351.856	89.12
352.083	101.12
352.311	102.12
352.538	98.12
352.765	102.12
352.992	117.12
353.22	114.12
353.447	90.12
353.674	97.12
353.901	92.12
354.128	96.12
354.355	90.12
354.583	103.12
354.81	75.12
355.037	77.12
355.264	74.12
355.491	92.12
355.718	102.12
355.945	103.12
356.172	103.12
356.399	104.12
356.626	96.12
356.853	91.12
357.08	86.12
357.307	94.12
357.534	87.12
357.761	93.12
357.988	97.12
358.215	83.12
358.441	84.12
358.668	90.12
358.895	78.12
359.122	90.12
359.349	89.12
359.576	90.12
359.802	120.12
360.029	117.12
360.256	112.12
360.483	99.12
360.709	91.12
360.936	88.12
361.163	80.12
361.39	85.12
361.616	97.12
361.843	89.12
362.07	90.12
362.296	89.12
362.523	97.12
362.749	94.12
362.976	70.12
363.203	81.12
363.429	83.12
363.656	82.12
363.882	93.12
364.109	103.12
364.335	97.12
364.562	88.12
364.788	83.12
365.015	73.12
365.241	116.12
365.468	117.12
365.694	99.12
365.92	90.12
366.147	104.12
366.373	96.12
366.599	87.12
366.826	102.12
367.052	91.12
367.278	91.12
367.505	90.12
367.731	85.12
367.957	103.12
368.184	105.12
368.41	102.12
368.636	127.12
368.862	119.12
369.089	114.12
369.315	83.12
369.541	85.12
369.767	97.12
369.993	89.12
370.219	91.12
370.445	89.12
370.672	89.12
370.898	88.12
371.124	94.12
371.35	73.12
371.576	92.12
371.802	84.12
372.028	97.12
372.254	91.12
372.48	79.12
372.706	88.12
372.932	80.12
373.158	88.12
373.384	64.12
373.61	99.12
373.835	84.12
374.061	89.12
374.287	88.12
374.513	87.12
374.739	91.12
374.965	81.12
375.191	88.12
375.416	99.12
375.642	88.12
375.868	87.12
376.094	87.12
376.319	101.12
376.545	82.12
376.771	81.12
376.997	81.12
377.222	87.12
377.448	81.12
377.674	94.12
377.899	93.12
378.125	88.12
378.35	95.12
378.576	90.12
378.802	88.12
379.027	92.12
379.253	91.12
379.478	89.12
379.704	90.12
379.929	93.12
380.155	93.12
380.38	89.12
380.606	89.12
380.831	88.12
381.057	87.12
381.282	84.12
381.507	91.12
381.733	89.12
381.958	104.12
382.184	97.12
382.409	92.12
382.634	96.12
382.86	80.12
383.085	99.12
383.31	108.12
383.535	109.12
383.761	99.12
383.986	109.12
384.211	77.12
384.436	91.12
384.662	97.12
384.887	97.12
385.112	103.12
385.337	102.12
385.562	105.12
385.787	99.12
386.013	105.12
386.238	123.12
386.463	103.12
386.688	122.12
386.913	100.12
387.138	105.12
387.363	106.12
387.588	95.12
387.813	104.12
388.038	105.12
388.263	120.12
388.488	106.12
388.713	115.12
388.938	96.12
389.163	91.12
389.387	97.12
389.612	89.12
389.837	91.12
390.062	78.12
390.287	96.12
390.512	90.12
390.736	76.12
390.961	84.12
391.186	80.12
391.411	83.12
391.636	86.12
391.86	82.12
392.085	88.12
392.31	86.12
392.534	73.12
392.759	85.12
392.984	79.12
393.208	86.12
393.433	98.12
393.658	94.12
393.882	86.12
394.107	76.12
394.331	74.12
394.556	85.12
394.78	89.12
395.005	95.12
395.229	73.12
395.454	88.12
395.678	91.12
395.903	74.12
396.127	82.12
396.352	99.12
396.576	93.12
396.801	73.12
397.025	97.12
397.249	94.12
397.474	78.12
397.698	81.12
397.922	67.12
398.147	87.12
398.371	73.12
398.595	83.12
398.82	71.12
399.044	88.12
399.268	84.12
399.492	88.12
399.717	94.12
399.941	80.12
400.165	73.12
400.389	95.12
400.613	101.12
400.837	83.12
401.062	99.12
401.286	84.12
401.51	76.12
401.734	90.12
401.958	89.12
402.182	137.12
402.406	155.12
402.63	125.12
402.854	92.12
403.078	72.12
403.302	98.12
403.526	85.12
403.75	93.12
403.974	97.12
404.198	66.12
404.422	88.12
404.645	85.12
404.869	92.12
405.093	112.12
405.317	118.12
405.541	110.12
405.765	103.12
405.988	114.12
406.212	171.12
406.436	225.12
406.66	152.12
406.883	108.12
407.107	86.12
407.331	97.12
407.555	92.12
407.778	88.12
408.002	106.12
408.226	92.12
408.449	74.12
408.673	90.12
408.896	85.12
409.12	90.12
409.344	87.12
409.567	79.12
409.791	83.12
410.014	83.12
410.238	97.12
410.461	81.12
410.685	96.12
410.908	101.12
411.132	99.12
411.355	77.12
411.578	77.12
411.802	91.12
412.025	90.12
412.249	84.12
412.472	105.12
412.695	115.12
412.919	106.12
413.142	99.12
413.365	81.12
413.589	85.12
413.812	83.12
414.035	101.12
414.258	72.12
414.482	94.12
414.705	72.12
414.928	86.12
415.151	102.12
415.374	89.12
415.597	82.12
415.821	80.12
416.044	91.12
416.267	90.12
416.49	83.12
416.713	64.12
416.936	88.12
417.159	76.12
417.382	81.12
417.605	99.12
417.828	98.12
418.051	93.12
418.274	82.12
418.497	91.12
418.72	97.12
418.943	72.12
419.166	85.12
419.389	85.12
419.611	92.12
419.834	83.12
420.057	92.12
420.28	80.12
420.503	75.12
420.726	81.12
420.948	86.12
421.171	81.12
421.394	95.12
421.617	93.12
421.839	97.12
422.062	100.12
422.285	85.12
422.507	90.12
422.73	102.12
422.953	88.12
423.175	82.12
423.398	78.12
423.621	99.12
423.843	84.12
424.066	84.12
424.288	96.12
424.511	81.12
424.733	103.12
424.956	109.12
425.178	107.12
425.401	88.12
425.623	87.12
425.846	80.12
426.068	83.12
426.291	96.12
426.513	79.12
426.735	99.12
426.958	99.12
427.18	91.12
427.402	131.12
427.625	182.12
427.847	167.12
428.069	157.12
428.292	103.12
428.514	98.12
428.736	73.12
428.958	78.12
429.181	87.12
429.403	76.12
429.625	90.12
429.847	87.12
430.069	101.12
430.292	93.12
430.514	82.12
430.736	82.12
430.958	85.12
431.18	79.12
431.402	79.12
431.624	78.12
431.846	80.12
432.068	89.12
432.29	91.12
432.512	87.12
432.734	84.12
432.956	93.12
433.178	107.12
433.4	101.12
433.622	84.12
433.844	95.12
434.066	72.12
434.287	81.12
434.509	104.12
434.731	97.12
434.953	84.12
435.175	77.12
435.397	90.12
435.618	90.12
435.84	111.12
436.062	122.12
436.284	114.12
436.505	99.12
436.727	84.12
436.949	87.12
437.17	87.12
437.392	71.12
437.614	87.12
437.835	109.12
438.057	124.12
438.278	112.12
438.5	105.12
438.721	130.12
438.943	99.12
439.165	89.12
439.386	90.12
439.608	93.12
439.829	99.12
440.05	129.12
440.272	144.12
440.493	98.12
440.715	79.12
440.936	89.12
441.158	89.12
441.379	100.12
441.6	80.12
441.822	90.12
442.043	95.12
442.264	93.12
442.486	90.12
442.707	106.12
442.928	102.12
443.149	144.12
443.371	131.12
443.592	103.12
443.813	117.12
444.034	112.12
444.255	94.12
444.476	89.12
444.698	90.12
444.919	96.12
445.14	135.12
445.361	118.12
445.582	106.12
445.803	127.12
446.024	145.12
446.245	128.12
446.466	115.12
446.687	85.12
446.908	76.12
447.129	86.12
447.35	81.12
447.571	85.12
447.792	99.12
448.013	100.12
448.234	90.12
448.455	94.12
448.675	100.12
448.896	103.12
449.117	113.12
449.338	97.12
449.559	123.12
449.779	131.12
450	88.12
450.221	83.12
450.442	93.12
450.662	100.12
450.883	105.12
451.104	113.12
451.324	90.12
451.545	84.12
451.766	94.12
451.986	74.12
452.207	84.12
452.428	84.12
452.648	94.12
452.869	104.12
453.089	114.12
453.31	107.12
453.53	86.12
453.751	107.12
453.971	100.12
454.192	113.12
454.412	97.12
454.633	87.12
454.853	87.12
455.073	75.12
455.294	87.12
455.514	109.12
455.734	97.12
455.955	71.12
456.175	88.12
456.395	82.12
456.616	79.12
456.836	102.12
457.056	67.12
457.276	81.12
457.497	81.12
457.717	86.12
457.937	95.12
458.157	81.12
458.377	91.12
458.598	109.12
458.818	165.12
459.038	183.12
459.258	127.12
459.478	91.12
459.698	88.12
459.918	81.12
460.138	76.12
460.358	92.12
460.578	89.12
460.798	92.12
461.018	96.12
461.238	77.12
461.458	85.12
461.678	88.12
461.898	81.12
462.118	91.12
462.338	74.12
462.558	86.12
462.777	86.12
462.997	78.12
463.217	93.12
463.437	85.12
463.657	90.12
463.876	82.12
464.096	96.12
464.316	85.12
464.536	87.12
464.755	98.12
464.975	120.12
465.195	172.12
465.414	160.12
465.634	107.12
465.854	89.12
466.073	87.12
466.293	90.12
466.512	78.12
466.732	73.12
466.951	93.12
467.171	98.12
467.391	103.12
467.61	108.12
467.829	146.12
468.049	304.12
468.268	429.12
468.488	152.12
468.707	95.12
468.927	105.12
469.146	98.12
469.365	90.12
469.585	85.12
469.804	96.12
470.023	91.12
470.243	91.12
470.462	103.12
470.681	107.12
470.901	95.12
471.12	79.12
471.339	90.12
471.558	108.12
471.777	120.12
471.997	197.12
472.216	575.12
472.435	1190.12
472.654	317.12
472.873	138.12
473.092	89.12
473.311	85.12
473.53	77.12
473.749	90.12
473.968	85.12
474.187	103.12
474.406	98.12
474.625	88.12
474.844	95.12
475.063	88.12
475.282	89.12
475.501	84.12
475.72	97.12
475.939	90.12
476.158	77.12
476.377	86.12
476.596	79.12
476.814	91.12
477.033	95.12
477.252	97.12
477.471	106.12
477.69	90.12
477.908	78.12
478.127	99.12
478.346	108.12
478.564	83.12
478.783	95.12
479.002	101.12
479.22	86.12
479.439	102.12
479.658	114.12
479.876	105.12
480.095	104.12
480.313	121.12
480.532	129.12
480.751	181.12
480.969	540.12
481.188	2061.12
481.406	1188.12
481.624	214.12
481.843	99.12
482.061	95.12
482.28	94.12
482.498	94.12
482.717	90.12
482.935	98.12
483.153	87.12
483.372	88.12
483.59	87.12
483.808	91.12
484.027	84.12
484.245	103.12
484.463	93.12
484.681	94.12
484.9	106.12
485.118	97.12
485.336	81.12
485.554	102.12
485.772	93.12
485.99	108.12
486.209	98.12
486.427	115.12
486.645	115.12
486.863	112.12
487.081	95.12
487.299	92.12
487.517	91.12
487.735	98.12
487.953	92.12
488.171	95.12
488.389	100.12
488.607	95.12
488.825	99.12
489.043	94.12
489.261	84.12
489.479	83.12
489.696	85.12
489.914	77.12
490.132	92.12
490.35	86.12
490.568	75.12
490.786	87.12
491.003	101.12
491.221	99.12
491.439	102.12
491.657	98.12
491.874	96.12
492.092	95.12
492.31	78.12
492.527	87.12
492.745	91.12
492.963	111.12
493.18	89.12
493.398	88.12
493.615	103.12
493.833	88.12
494.05	89.12
494.268	85.12
494.485	94.12
494.703	107.12
494.92	85.12
495.138	96.12
495.355	91.12
495.573	85.12
495.79	84.12
496.008	109.12
496.225	97.12
496.442	94.12
496.66	80.12
496.877	78.12
497.094	90.12
497.312	90.12
497.529	87.12
497.746	101.12
497.963	99.12
498.181	91.12
498.398	106.12
498.615	105.12
498.832	118.12
499.049	94.12
499.267	104.12
499.484	86.12
499.701	91.12
499.918	70.12
500.135	89.12
500.352	85.12
500.569	91.12
500.786	75.12
501.003	96.12
501.22	86.12
501.437	101.12
501.654	99.12
501.871	120.12
502.088	84.12
502.305	91.12
502.522	81.12
502.739	83.12
502.956	86.12
503.172	96.12
503.389	112.12
503.606	115.12
503.823	104.12
504.04	92.12
504.256	80.12
504.473	115.12
504.69	76.12
504.907	105.12
505.123	83.12
505.34	88.12
505.557	88.12
505.773	81.12
505.99	94.12
506.207	80.12
506.423	81.12
506.64	91.12
506.856	97.12
507.073	104.12
507.289	94.12
507.506	88.12
507.722	113.12
507.939	111.12
508.155	95.12
508.372	105.12
508.588	94.12
508.805	114.12
509.021	112.12
509.238	90.12
509.454	113.12
509.67	101.12
509.887	116.12
510.103	142.12
510.319	191.12
510.536	729.12
510.752	2365.12
510.968	673.12
511.184	158.12
511.401	116.12
511.617	100.12
511.833	91.12
512.049	80.12
512.265	94.12
512.481	101.12
512.698	101.12
512.914	98.12
513.13	84.12
513.346	100.12
513.562	95.12
513.778	101.12
513.994	99.12
514.21	112.12
514.426	109.12
514.642	127.12
514.858	115.12
515.074	161.12
515.29	476.12
