Data from Circ_2001_H10_HRD10591_00070.txt Node
Date: Wed Jan 03 10:45:52 EST 2024
User: Yrep
Spectrometer: HR+D1059
Trigger mode: 1
Integration Time (sec): 1.000000E-1
Scans to average: 1
Electric dark correction enabled: true
Nonlinearity correction enabled: false
Boxcar width: 0
XAxis mode: Wavelengths
Number of Pixels in Spectrum: 2048
>>>>>Begin Spectral Data<<<<<
223.165	-25.75
223.4	-25.75
223.635	-25.75
223.869	-11.75
224.104	-22.75
224.338	-3.75
224.573	-5.75
224.808	-16.75
225.042	-15.75
225.277	-9.75
225.511	-1.75
225.746	-3.75
225.98	6.25
226.215	8.25
226.449	13.25
226.683	22.25
226.918	31.25
227.152	36.25
227.387	46.25
227.621	37.25
227.856	47.25
228.09	39.25
228.324	56.25
228.559	62.25
228.793	48.25
229.027	71.25
229.262	61.25
229.496	73.25
229.73	96.25
229.964	101.25
230.199	85.25
230.433	93.25
230.667	86.25
230.901	84.25
231.136	79.25
231.37	83.25
231.604	69.25
231.838	74.25
232.072	82.25
232.306	83.25
232.541	74.25
232.775	75.25
233.009	82.25
233.243	88.25
233.477	90.25
233.711	78.25
233.945	101.25
234.179	95.25
234.413	87.25
234.647	86.25
234.881	75.25
235.115	80.25
235.349	77.25
235.583	87.25
235.817	71.25
236.051	84.25
236.285	84.25
236.519	72.25
236.753	85.25
236.987	86.25
237.221	92.25
237.455	90.25
237.689	83.25
237.922	82.25
238.156	70.25
238.39	88.25
238.624	84.25
238.858	79.25
239.091	76.25
239.325	101.25
239.559	91.25
239.793	85.25
240.027	90.25
240.26	86.25
240.494	89.25
240.728	74.25
240.961	73.25
241.195	85.25
241.429	87.25
241.662	89.25
241.896	91.25
242.13	80.25
242.363	81.25
242.597	79.25
242.83	89.25
243.064	84.25
243.298	72.25
243.531	76.25
243.765	72.25
243.998	75.25
244.232	89.25
244.465	76.25
244.699	92.25
244.932	82.25
245.166	79.25
245.399	86.25
245.633	91.25
245.866	76.25
246.099	82.25
246.333	78.25
246.566	78.25
246.8	92.25
247.033	84.25
247.266	78.25
247.5	76.25
247.733	93.25
247.966	84.25
248.2	91.25
248.433	72.25
248.666	75.25
248.899	96.25
249.133	94.25
249.366	97.25
249.599	97.25
249.832	86.25
250.066	78.25
250.299	70.25
250.532	83.25
250.765	89.25
250.998	101.25
251.231	88.25
251.465	78.25
251.698	83.25
251.931	92.25
252.164	85.25
252.397	85.25
252.63	83.25
252.863	89.25
253.096	81.25
253.329	75.25
253.562	100.25
253.795	85.25
254.028	90.25
254.261	84.25
254.494	86.25
254.727	81.25
254.96	75.25
255.193	81.25
255.426	84.25
255.659	97.25
255.892	88.25
256.124	90.25
256.357	87.25
256.59	85.25
256.823	98.25
257.056	83.25
257.289	90.25
257.521	83.25
257.754	90.25
257.987	91.25
258.22	102.25
258.452	96.25
258.685	86.25
258.918	94.25
259.151	99.25
259.383	84.25
259.616	86.25
259.849	76.25
260.081	91.25
260.314	79.25
260.547	72.25
260.779	92.25
261.012	106.25
261.244	95.25
261.477	108.25
261.71	102.25
261.942	125.25
262.175	132.25
262.407	90.25
262.64	90.25
262.872	89.25
263.105	89.25
263.337	90.25
263.57	95.25
263.802	83.25
264.035	91.25
264.267	90.25
264.499	87.25
264.732	75.25
264.964	75.25
265.197	86.25
265.429	83.25
265.661	82.25
265.894	80.25
266.126	83.25
266.358	92.25
266.591	101.25
266.823	82.25
267.055	82.25
267.287	66.25
267.52	94.25
267.752	73.25
267.984	98.25
268.216	84.25
268.448	91.25
268.681	80.25
268.913	104.25
269.145	91.25
269.377	77.25
269.609	91.25
269.841	84.25
270.073	87.25
270.306	87.25
270.538	85.25
270.77	96.25
271.002	108.25
271.234	96.25
271.466	110.25
271.698	90.25
271.93	85.25
272.162	76.25
272.394	89.25
272.626	99.25
272.858	77.25
273.09	95.25
273.322	96.25
273.553	84.25
273.785	101.25
274.017	76.25
274.249	80.25
274.481	105.25
274.713	89.25
274.945	82.25
275.176	79.25
275.408	102.25
275.64	108.25
275.872	102.25
276.104	89.25
276.335	96.25
276.567	116.25
276.799	136.25
277.031	147.25
277.262	143.25
277.494	127.25
277.726	100.25
277.957	98.25
278.189	101.25
278.421	85.25
278.652	78.25
278.884	86.25
279.115	90.25
279.347	91.25
279.579	97.25
279.81	110.25
280.042	154.25
280.273	199.25
280.505	151.25
280.736	102.25
280.968	109.25
281.199	94.25
281.431	99.25
281.662	86.25
281.894	98.25
282.125	116.25
282.356	116.25
282.588	161.25
282.819	123.25
283.051	78.25
283.282	93.25
283.513	94.25
283.745	100.25
283.976	95.25
284.207	87.25
284.439	88.25
284.67	77.25
284.901	82.25
285.132	95.25
285.364	92.25
285.595	73.25
285.826	92.25
286.057	96.25
286.288	87.25
286.52	98.25
286.751	95.25
286.982	87.25
287.213	100.25
287.444	98.25
287.675	86.25
287.906	111.25
288.138	90.25
288.369	94.25
288.6	98.25
288.831	103.25
289.062	102.25
289.293	83.25
289.524	91.25
289.755	85.25
289.986	93.25
290.217	87.25
290.448	85.25
290.679	79.25
290.91	97.25
291.141	102.25
291.371	94.25
291.602	78.25
291.833	96.25
292.064	84.25
292.295	105.25
292.526	110.25
292.757	76.25
292.987	85.25
293.218	84.25
293.449	90.25
293.68	83.25
293.91	95.25
294.141	82.25
294.372	89.25
294.603	82.25
294.833	106.25
295.064	96.25
295.295	83.25
295.525	93.25
295.756	117.25
295.987	126.25
296.217	162.25
296.448	134.25
296.679	99.25
296.909	93.25
297.14	96.25
297.37	87.25
297.601	95.25
297.831	95.25
298.062	105.25
298.292	84.25
298.523	86.25
298.753	95.25
298.984	95.25
299.214	95.25
299.445	105.25
299.675	98.25
299.905	100.25
300.136	107.25
300.366	86.25
300.597	82.25
300.827	91.25
301.057	110.25
301.288	120.25
301.518	102.25
301.748	111.25
301.979	111.25
302.209	99.25
302.439	96.25
302.669	89.25
302.9	91.25
303.13	100.25
303.36	100.25
303.59	131.25
303.82	120.25
304.051	110.25
304.281	103.25
304.511	94.25
304.741	92.25
304.971	93.25
305.201	97.25
305.431	89.25
305.661	95.25
305.891	94.25
306.121	100.25
306.352	99.25
306.582	123.25
306.812	109.25
307.042	118.25
307.272	143.25
307.502	141.25
307.731	150.25
307.961	116.25
308.191	87.25
308.421	85.25
308.651	86.25
308.881	100.25
309.111	92.25
309.341	101.25
309.571	103.25
309.8	113.25
310.03	108.25
310.26	108.25
310.49	110.25
310.72	114.25
310.949	99.25
311.179	109.25
311.409	104.25
311.639	104.25
311.868	94.25
312.098	111.25
312.328	89.25
312.557	110.25
312.787	108.25
313.017	99.25
313.246	89.25
313.476	94.25
313.706	85.25
313.935	94.25
314.165	98.25
314.394	94.25
314.624	103.25
314.853	112.25
315.083	95.25
315.312	99.25
315.542	89.25
315.771	88.25
316.001	96.25
316.23	92.25
316.46	91.25
316.689	95.25
316.919	99.25
317.148	103.25
317.377	109.25
317.607	100.25
317.836	97.25
318.065	92.25
318.295	105.25
318.524	90.25
318.753	97.25
318.983	119.25
319.212	100.25
319.441	115.25
319.67	110.25
319.9	99.25
320.129	101.25
320.358	97.25
320.587	92.25
320.816	94.25
321.046	112.25
321.275	91.25
321.504	106.25
321.733	96.25
321.962	100.25
322.191	93.25
322.42	102.25
322.649	115.25
322.878	121.25
323.108	121.25
323.337	136.25
323.566	152.25
323.795	175.25
324.024	229.25
324.253	448.25
324.482	959.25
324.71	1924.25
324.939	2603.25
325.168	935.25
325.397	286.25
325.626	171.25
325.855	158.25
326.084	132.25
326.313	153.25
326.542	158.25
326.77	267.25
326.999	531.25
327.228	1063.25
327.457	1887.25
327.686	1531.25
327.914	489.25
328.143	420.25
328.372	488.25
328.6	304.25
328.829	176.25
329.058	157.25
329.287	166.25
329.515	169.25
329.744	203.25
329.972	352.25
330.201	700.25
330.43	983.25
330.658	479.25
330.887	231.25
331.115	166.25
331.344	119.25
331.572	121.25
331.801	116.25
332.03	114.25
332.258	118.25
332.486	97.25
332.715	114.25
332.943	111.25
333.172	119.25
333.4	131.25
333.629	150.25
333.857	206.25
334.085	322.25
334.314	673.25
334.542	1221.25
334.771	1175.25
334.999	340.25
335.227	148.25
335.455	117.25
335.684	123.25
335.912	115.25
336.14	96.25
336.369	100.25
336.597	108.25
336.825	109.25
337.053	104.25
337.281	106.25
337.51	100.25
337.738	94.25
337.966	107.25
338.194	106.25
338.422	118.25
338.65	91.25
338.878	90.25
339.106	91.25
339.334	96.25
339.562	87.25
339.79	108.25
340.018	113.25
340.246	90.25
340.474	90.25
340.702	112.25
340.93	93.25
341.158	96.25
341.386	115.25
341.614	111.25
341.842	98.25
342.07	101.25
342.298	96.25
342.526	108.25
342.754	105.25
342.981	99.25
343.209	96.25
343.437	100.25
343.665	86.25
343.893	86.25
344.12	102.25
344.348	104.25
344.576	117.25
344.804	89.25
345.031	98.25
345.259	101.25
345.487	100.25
345.714	96.25
345.942	92.25
346.17	103.25
346.397	90.25
346.625	98.25
346.853	83.25
347.08	93.25
347.308	107.25
347.535	112.25
347.763	121.25
347.99	101.25
348.218	125.25
348.445	109.25
348.673	103.25
348.9	108.25
349.128	94.25
349.355	104.25
349.583	96.25
349.81	96.25
350.037	98.25
350.265	100.25
350.492	103.25
350.72	108.25
350.947	127.25
351.174	100.25
351.402	123.25
351.629	109.25
351.856	117.25
352.083	106.25
352.311	111.25
352.538	118.25
352.765	119.25
352.992	115.25
353.22	117.25
353.447	106.25
353.674	106.25
353.901	108.25
354.128	104.25
354.355	90.25
354.583	95.25
354.81	103.25
355.037	95.25
355.264	101.25
355.491	95.25
355.718	97.25
355.945	100.25
356.172	110.25
356.399	103.25
356.626	103.25
356.853	100.25
357.08	100.25
357.307	91.25
357.534	96.25
357.761	90.25
357.988	103.25
358.215	99.25
358.441	86.25
358.668	89.25
358.895	88.25
359.122	105.25
359.349	96.25
359.576	96.25
359.802	100.25
360.029	124.25
360.256	128.25
360.483	111.25
360.709	97.25
360.936	88.25
361.163	103.25
361.39	97.25
361.616	95.25
361.843	97.25
362.07	102.25
362.296	102.25
362.523	99.25
362.749	102.25
362.976	102.25
363.203	102.25
363.429	103.25
363.656	88.25
363.882	93.25
364.109	101.25
364.335	78.25
364.562	95.25
364.788	86.25
365.015	102.25
365.241	100.25
365.468	114.25
365.694	117.25
365.92	94.25
366.147	103.25
366.373	84.25
366.599	90.25
366.826	90.25
367.052	96.25
367.278	85.25
367.505	102.25
367.731	106.25
367.957	100.25
368.184	93.25
368.41	95.25
368.636	111.25
368.862	133.25
369.089	114.25
369.315	108.25
369.541	100.25
369.767	97.25
369.993	93.25
370.219	85.25
370.445	86.25
370.672	95.25
370.898	90.25
371.124	101.25
371.35	85.25
371.576	94.25
371.802	87.25
372.028	87.25
372.254	101.25
372.48	91.25
372.706	88.25
372.932	112.25
373.158	97.25
373.384	106.25
373.61	104.25
373.835	106.25
374.061	98.25
374.287	88.25
374.513	94.25
374.739	100.25
374.965	94.25
375.191	103.25
375.416	94.25
375.642	89.25
375.868	109.25
376.094	95.25
376.319	102.25
376.545	87.25
376.771	88.25
376.997	99.25
377.222	90.25
377.448	87.25
377.674	72.25
377.899	87.25
378.125	88.25
378.35	106.25
378.576	95.25
378.802	95.25
379.027	87.25
379.253	84.25
379.478	78.25
379.704	106.25
379.929	80.25
380.155	92.25
380.38	103.25
380.606	94.25
380.831	108.25
381.057	89.25
381.282	84.25
381.507	99.25
381.733	104.25
381.958	96.25
382.184	94.25
382.409	99.25
382.634	121.25
382.86	107.25
383.085	95.25
383.31	102.25
383.535	116.25
383.761	90.25
383.986	88.25
384.211	102.25
384.436	102.25
384.662	104.25
384.887	94.25
385.112	111.25
385.337	102.25
385.562	111.25
385.787	112.25
386.013	113.25
386.238	131.25
386.463	116.25
386.688	110.25
386.913	108.25
387.138	95.25
387.363	104.25
387.588	102.25
387.813	107.25
388.038	115.25
388.263	111.25
388.488	118.25
388.713	118.25
388.938	88.25
389.163	95.25
389.387	100.25
389.612	93.25
389.837	90.25
390.062	81.25
390.287	85.25
390.512	94.25
390.736	85.25
390.961	91.25
391.186	96.25
391.411	99.25
391.636	103.25
391.86	87.25
392.085	92.25
392.31	105.25
392.534	97.25
392.759	90.25
392.984	93.25
393.208	90.25
393.433	95.25
393.658	82.25
393.882	90.25
394.107	83.25
394.331	83.25
394.556	88.25
394.78	85.25
395.005	87.25
395.229	96.25
395.454	94.25
395.678	93.25
395.903	100.25
396.127	95.25
396.352	96.25
396.576	87.25
396.801	95.25
397.025	88.25
397.249	87.25
397.474	89.25
397.698	106.25
397.922	102.25
398.147	100.25
398.371	107.25
398.595	86.25
398.82	89.25
399.044	90.25
399.268	83.25
399.492	83.25
399.717	91.25
399.941	91.25
400.165	100.25
400.389	101.25
400.613	83.25
400.837	91.25
401.062	91.25
401.286	79.25
401.51	108.25
401.734	99.25
401.958	104.25
402.182	150.25
402.406	167.25
402.63	119.25
402.854	98.25
403.078	100.25
403.302	90.25
403.526	90.25
403.75	89.25
403.974	88.25
404.198	81.25
404.422	90.25
404.645	98.25
404.869	107.25
405.093	125.25
405.317	126.25
405.541	147.25
405.765	109.25
405.988	134.25
406.212	189.25
406.436	249.25
406.66	189.25
406.883	109.25
407.107	105.25
407.331	116.25
407.555	107.25
407.778	109.25
408.002	110.25
408.226	93.25
408.449	101.25
408.673	101.25
408.896	91.25
409.12	99.25
409.344	87.25
409.567	109.25
409.791	87.25
410.014	94.25
410.238	105.25
410.461	94.25
410.685	93.25
410.908	103.25
411.132	97.25
411.355	105.25
411.578	96.25
411.802	99.25
412.025	98.25
412.249	106.25
412.472	107.25
412.695	130.25
412.919	116.25
413.142	106.25
413.365	105.25
413.589	94.25
413.812	104.25
414.035	98.25
414.258	77.25
414.482	98.25
414.705	86.25
414.928	96.25
415.151	96.25
415.374	107.25
415.597	103.25
415.821	94.25
416.044	88.25
416.267	87.25
416.49	93.25
416.713	85.25
416.936	84.25
417.159	101.25
417.382	102.25
417.605	93.25
417.828	109.25
418.051	87.25
418.274	95.25
418.497	95.25
418.72	71.25
418.943	83.25
419.166	91.25
419.389	90.25
419.611	100.25
419.834	94.25
420.057	103.25
420.28	95.25
420.503	88.25
420.726	87.25
420.948	88.25
421.171	93.25
421.394	99.25
421.617	88.25
421.839	88.25
422.062	87.25
422.285	93.25
422.507	99.25
422.73	118.25
422.953	103.25
423.175	98.25
423.398	105.25
423.621	101.25
423.843	96.25
424.066	101.25
424.288	93.25
424.511	102.25
424.733	96.25
424.956	106.25
425.178	115.25
425.401	99.25
425.623	105.25
425.846	99.25
426.068	94.25
426.291	110.25
426.513	90.25
426.735	108.25
426.958	125.25
427.18	114.25
427.402	158.25
427.625	221.25
427.847	196.25
428.069	201.25
428.292	105.25
428.514	94.25
428.736	100.25
428.958	92.25
429.181	91.25
429.403	86.25
429.625	77.25
429.847	103.25
430.069	96.25
430.292	94.25
430.514	82.25
430.736	87.25
430.958	92.25
431.18	88.25
431.402	96.25
431.624	96.25
431.846	82.25
432.068	95.25
432.29	91.25
432.512	98.25
432.734	101.25
432.956	86.25
433.178	106.25
433.4	98.25
433.622	103.25
433.844	83.25
434.066	105.25
434.287	93.25
434.509	93.25
434.731	85.25
434.953	85.25
435.175	94.25
435.397	104.25
435.618	91.25
435.84	105.25
436.062	136.25
436.284	141.25
436.505	101.25
436.727	110.25
436.949	102.25
437.17	93.25
437.392	113.25
437.614	88.25
437.835	122.25
438.057	118.25
438.278	109.25
438.5	114.25
438.721	131.25
438.943	93.25
439.165	97.25
439.386	89.25
439.608	102.25
439.829	111.25
440.05	151.25
440.272	170.25
440.493	103.25
440.715	86.25
440.936	95.25
441.158	86.25
441.379	88.25
441.6	102.25
441.822	107.25
442.043	100.25
442.264	126.25
442.486	102.25
442.707	102.25
442.928	114.25
443.149	145.25
443.371	136.25
443.592	133.25
443.813	123.25
444.034	120.25
444.255	102.25
444.476	94.25
444.698	98.25
444.919	95.25
445.14	150.25
445.361	124.25
445.582	119.25
445.803	145.25
446.024	152.25
446.245	148.25
446.466	128.25
446.687	97.25
446.908	82.25
447.129	99.25
447.35	96.25
447.571	100.25
447.792	102.25
448.013	91.25
448.234	125.25
448.455	115.25
448.675	118.25
448.896	125.25
449.117	116.25
449.338	117.25
449.559	157.25
449.779	157.25
450	110.25
450.221	105.25
450.442	107.25
450.662	107.25
450.883	108.25
451.104	123.25
451.324	87.25
451.545	91.25
451.766	86.25
451.986	90.25
452.207	88.25
452.428	95.25
452.648	111.25
452.869	109.25
453.089	143.25
453.31	122.25
453.53	112.25
453.751	98.25
453.971	120.25
454.192	110.25
454.412	102.25
454.633	95.25
454.853	85.25
455.073	95.25
455.294	92.25
455.514	105.25
455.734	100.25
455.955	93.25
456.175	97.25
456.395	102.25
456.616	88.25
456.836	89.25
457.056	74.25
457.276	103.25
457.497	93.25
457.717	89.25
457.937	94.25
458.157	96.25
458.377	115.25
458.598	111.25
458.818	183.25
459.038	212.25
459.258	144.25
459.478	98.25
459.698	88.25
459.918	82.25
460.138	79.25
460.358	95.25
460.578	81.25
460.798	92.25
461.018	113.25
461.238	85.25
461.458	89.25
461.678	75.25
461.898	94.25
462.118	99.25
462.338	91.25
462.558	93.25
462.777	92.25
462.997	104.25
463.217	93.25
463.437	85.25
463.657	78.25
463.876	79.25
464.096	105.25
464.316	102.25
464.536	107.25
464.755	93.25
464.975	109.25
465.195	208.25
465.414	195.25
465.634	108.25
465.854	96.25
466.073	88.25
466.293	91.25
466.512	104.25
466.732	106.25
466.951	91.25
467.171	108.25
467.391	105.25
467.61	135.25
467.829	178.25
468.049	435.25
468.268	618.25
468.488	182.25
468.707	114.25
468.927	105.25
469.146	104.25
469.365	87.25
469.585	86.25
469.804	100.25
470.023	101.25
470.243	107.25
470.462	99.25
470.681	132.25
470.901	96.25
471.12	106.25
471.339	104.25
471.558	120.25
471.777	142.25
471.997	262.25
472.216	814.25
472.435	1769.25
472.654	443.25
472.873	146.25
473.092	120.25
473.311	99.25
473.53	93.25
473.749	86.25
473.968	91.25
474.187	128.25
474.406	116.25
474.625	94.25
474.844	79.25
475.063	89.25
475.282	99.25
475.501	92.25
475.72	95.25
475.939	84.25
476.158	90.25
476.377	99.25
476.596	74.25
476.814	110.25
477.033	111.25
477.252	98.25
477.471	108.25
477.69	103.25
477.908	93.25
478.127	99.25
478.346	98.25
478.564	108.25
478.783	104.25
479.002	116.25
479.22	116.25
479.439	130.25
479.658	125.25
479.876	119.25
480.095	119.25
480.313	132.25
480.532	154.25
480.751	237.25
480.969	758.25
481.188	3086.25
481.406	1808.25
481.624	284.25
481.843	130.25
482.061	102.25
482.28	122.25
482.498	105.25
482.717	85.25
482.935	107.25
483.153	92.25
483.372	94.25
483.59	95.25
483.808	93.25
484.027	95.25
484.245	96.25
484.463	103.25
484.681	114.25
484.9	110.25
485.118	110.25
485.336	103.25
485.554	94.25
485.772	100.25
485.99	110.25
486.209	104.25
486.427	103.25
486.645	131.25
486.863	120.25
487.081	113.25
487.299	102.25
487.517	98.25
487.735	100.25
487.953	96.25
488.171	104.25
488.389	90.25
488.607	104.25
488.825	82.25
489.043	108.25
489.261	111.25
489.479	98.25
489.696	97.25
489.914	104.25
490.132	88.25
490.35	92.25
490.568	94.25
490.786	84.25
491.003	86.25
491.221	87.25
491.439	103.25
491.657	86.25
491.874	90.25
492.092	104.25
492.31	99.25
492.527	99.25
492.745	102.25
492.963	88.25
493.18	96.25
493.398	95.25
493.615	90.25
493.833	93.25
494.05	85.25
494.268	83.25
494.485	93.25
494.703	105.25
494.92	101.25
495.138	94.25
495.355	93.25
495.573	100.25
495.79	90.25
496.008	103.25
496.225	95.25
496.442	86.25
496.66	99.25
496.877	105.25
497.094	98.25
497.312	100.25
497.529	87.25
497.746	80.25
497.963	102.25
498.181	92.25
498.398	98.25
498.615	96.25
498.832	105.25
499.049	96.25
499.267	99.25
499.484	103.25
499.701	99.25
499.918	88.25
500.135	92.25
500.352	103.25
500.569	90.25
500.786	92.25
501.003	95.25
501.22	104.25
501.437	97.25
501.654	106.25
501.871	133.25
502.088	86.25
502.305	102.25
502.522	96.25
502.739	96.25
502.956	100.25
503.172	92.25
503.389	101.25
503.606	108.25
503.823	104.25
504.04	98.25
504.256	117.25
504.473	91.25
504.69	91.25
504.907	95.25
505.123	93.25
505.34	105.25
505.557	96.25
505.773	87.25
505.99	91.25
506.207	86.25
506.423	84.25
506.64	90.25
506.856	84.25
507.073	85.25
507.289	91.25
507.506	95.25
507.722	117.25
507.939	110.25
508.155	104.25
508.372	102.25
508.588	93.25
508.805	106.25
509.021	95.25
509.238	115.25
509.454	96.25
509.67	115.25
509.887	104.25
510.103	134.25
510.319	226.25
510.536	782.25
510.752	2627.25
510.968	735.25
511.184	168.25
511.401	123.25
511.617	116.25
511.833	107.25
512.049	107.25
