Data from Circ_2001_H10_HRD10591_00097.txt Node
Date: Wed Jan 03 10:45:58 EST 2024
User: Yrep
Spectrometer: HR+D1059
Trigger mode: 1
Integration Time (sec): 1.000000E-1
Scans to average: 1
Electric dark correction enabled: true
Nonlinearity correction enabled: false
Boxcar width: 0
XAxis mode: Wavelengths
Number of Pixels in Spectrum: 2048
>>>>>Begin Spectral Data<<<<<
223.165	-13.56
223.4	-13.56
223.635	-13.56
223.869	-23.56
224.104	-23.56
224.338	-7.56
224.573	-10.56
224.808	-12.56
225.042	-5.56
225.277	-12.56
225.511	2.44
225.746	2.44
225.98	3.44
226.215	12.44
226.449	16.44
226.683	15.44
226.918	20.44
227.152	36.44
227.387	39.44
227.621	42.44
227.856	42.44
228.09	53.44
228.324	58.44
228.559	52.44
228.793	47.44
229.027	71.44
229.262	74.44
229.496	86.44
229.73	91.44
229.964	74.44
230.199	82.44
230.433	91.44
230.667	80.44
230.901	86.44
231.136	74.44
231.37	75.44
231.604	65.44
231.838	84.44
232.072	89.44
232.306	81.44
232.541	69.44
232.775	85.44
233.009	79.44
233.243	78.44
233.477	86.44
233.711	86.44
233.945	86.44
234.179	101.44
234.413	90.44
234.647	87.44
234.881	73.44
235.115	75.44
235.349	81.44
235.583	88.44
235.817	94.44
236.051	89.44
236.285	87.44
236.519	85.44
236.753	85.44
236.987	87.44
237.221	79.44
237.455	84.44
237.689	77.44
237.922	77.44
238.156	60.44
238.39	71.44
238.624	78.44
238.858	74.44
239.091	90.44
239.325	81.44
239.559	90.44
239.793	82.44
240.027	82.44
240.26	87.44
240.494	92.44
240.728	81.44
240.961	80.44
241.195	91.44
241.429	73.44
241.662	72.44
241.896	78.44
242.13	83.44
242.363	76.44
242.597	78.44
242.83	86.44
243.064	73.44
243.298	69.44
243.531	78.44
243.765	79.44
243.998	97.44
244.232	70.44
244.465	105.44
244.699	92.44
244.932	77.44
245.166	74.44
245.399	77.44
245.633	72.44
245.866	91.44
246.099	83.44
246.333	90.44
246.566	73.44
246.8	82.44
247.033	81.44
247.266	68.44
247.5	82.44
247.733	81.44
247.966	92.44
248.2	85.44
248.433	79.44
248.666	89.44
248.899	86.44
249.133	84.44
249.366	103.44
249.599	87.44
249.832	86.44
250.066	90.44
250.299	75.44
250.532	89.44
250.765	82.44
250.998	81.44
251.231	79.44
251.465	93.44
251.698	87.44
251.931	87.44
252.164	77.44
252.397	86.44
252.63	75.44
252.863	82.44
253.096	78.44
253.329	84.44
253.562	87.44
253.795	78.44
254.028	102.44
254.261	81.44
254.494	75.44
254.727	95.44
254.96	97.44
255.193	78.44
255.426	81.44
255.659	80.44
255.892	85.44
256.124	85.44
256.357	83.44
256.59	69.44
256.823	85.44
257.056	92.44
257.289	87.44
257.521	85.44
257.754	91.44
257.987	80.44
258.22	96.44
258.452	98.44
258.685	79.44
258.918	85.44
259.151	78.44
259.383	93.44
259.616	94.44
259.849	84.44
260.081	87.44
260.314	86.44
260.547	94.44
260.779	90.44
261.012	111.44
261.244	91.44
261.477	95.44
261.71	101.44
261.942	133.44
262.175	130.44
262.407	103.44
262.64	96.44
262.872	102.44
263.105	80.44
263.337	85.44
263.57	81.44
263.802	90.44
264.035	81.44
264.267	90.44
264.499	88.44
264.732	85.44
264.964	74.44
265.197	86.44
265.429	83.44
265.661	99.44
265.894	84.44
266.126	84.44
266.358	86.44
266.591	90.44
266.823	88.44
267.055	82.44
267.287	99.44
267.52	84.44
267.752	92.44
267.984	83.44
268.216	85.44
268.448	102.44
268.681	84.44
268.913	89.44
269.145	92.44
269.377	93.44
269.609	94.44
269.841	98.44
270.073	87.44
270.306	88.44
270.538	70.44
270.77	91.44
271.002	86.44
271.234	77.44
271.466	95.44
271.698	93.44
271.93	86.44
272.162	89.44
272.394	83.44
272.626	103.44
272.858	90.44
273.09	86.44
273.322	89.44
273.553	78.44
273.785	80.44
274.017	86.44
274.249	84.44
274.481	95.44
274.713	98.44
274.945	84.44
275.176	102.44
275.408	99.44
275.64	113.44
275.872	118.44
276.104	102.44
276.335	98.44
276.567	98.44
276.799	135.44
277.031	153.44
277.262	174.44
277.494	131.44
277.726	99.44
277.957	92.44
278.189	85.44
278.421	97.44
278.652	88.44
278.884	88.44
279.115	92.44
279.347	104.44
279.579	90.44
279.81	113.44
280.042	177.44
280.273	227.44
280.505	167.44
280.736	105.44
280.968	96.44
281.199	87.44
281.431	90.44
281.662	107.44
281.894	90.44
282.125	115.44
282.356	120.44
282.588	165.44
282.819	146.44
283.051	84.44
283.282	90.44
283.513	93.44
283.745	97.44
283.976	98.44
284.207	85.44
284.439	84.44
284.67	87.44
284.901	89.44
285.132	96.44
285.364	81.44
285.595	89.44
285.826	86.44
286.057	87.44
286.288	93.44
286.52	88.44
286.751	93.44
286.982	90.44
287.213	87.44
287.444	91.44
287.675	87.44
287.906	94.44
288.138	110.44
288.369	89.44
288.6	88.44
288.831	90.44
289.062	86.44
289.293	86.44
289.524	78.44
289.755	99.44
289.986	88.44
290.217	90.44
290.448	94.44
290.679	87.44
290.91	86.44
291.141	87.44
291.371	96.44
291.602	91.44
291.833	103.44
292.064	94.44
292.295	95.44
292.526	83.44
292.757	79.44
292.987	95.44
293.218	94.44
293.449	97.44
293.68	87.44
293.91	92.44
294.141	87.44
294.372	88.44
294.603	91.44
294.833	114.44
295.064	87.44
295.295	86.44
295.525	94.44
295.756	98.44
295.987	112.44
296.217	139.44
296.448	136.44
296.679	110.44
296.909	93.44
297.14	91.44
297.37	92.44
297.601	93.44
297.831	88.44
298.062	100.44
298.292	94.44
298.523	88.44
298.753	90.44
298.984	97.44
299.214	90.44
299.445	94.44
299.675	100.44
299.905	105.44
300.136	99.44
300.366	90.44
300.597	93.44
300.827	98.44
301.057	119.44
301.288	113.44
301.518	94.44
301.748	93.44
301.979	106.44
302.209	101.44
302.439	88.44
302.669	93.44
302.9	89.44
303.13	96.44
303.36	122.44
303.59	118.44
303.82	133.44
304.051	87.44
304.281	84.44
304.511	104.44
304.741	97.44
304.971	93.44
305.201	94.44
305.431	89.44
305.661	89.44
305.891	97.44
306.121	104.44
306.352	114.44
306.582	105.44
306.812	117.44
307.042	113.44
307.272	145.44
307.502	162.44
307.731	149.44
307.961	119.44
308.191	101.44
308.421	95.44
308.651	103.44
308.881	81.44
309.111	93.44
309.341	113.44
309.571	103.44
309.8	93.44
310.03	103.44
310.26	105.44
310.49	91.44
310.72	98.44
310.949	110.44
311.179	111.44
311.409	108.44
311.639	110.44
311.868	93.44
312.098	90.44
312.328	92.44
312.557	110.44
312.787	117.44
313.017	102.44
313.246	107.44
313.476	98.44
313.706	91.44
313.935	105.44
314.165	103.44
314.394	110.44
314.624	105.44
314.853	109.44
315.083	99.44
315.312	105.44
315.542	89.44
315.771	93.44
316.001	87.44
316.23	94.44
316.46	92.44
316.689	103.44
316.919	97.44
317.148	107.44
317.377	90.44
317.607	105.44
317.836	109.44
318.065	81.44
318.295	89.44
318.524	79.44
318.753	87.44
318.983	91.44
319.212	103.44
319.441	127.44
319.67	122.44
319.9	106.44
320.129	95.44
320.358	104.44
320.587	95.44
320.816	108.44
321.046	105.44
321.275	100.44
321.504	95.44
321.733	101.44
321.962	108.44
322.191	107.44
322.42	110.44
322.649	123.44
322.878	130.44
323.108	126.44
323.337	145.44
323.566	155.44
323.795	169.44
324.024	250.44
324.253	446.44
324.482	987.44
324.71	2012.44
324.939	2586.44
325.168	966.44
325.397	282.44
325.626	152.44
325.855	137.44
326.084	134.44
326.313	161.44
326.542	186.44
326.77	270.44
326.999	522.44
327.228	1065.44
327.457	1999.44
327.686	1507.44
327.914	508.44
328.143	479.44
328.372	542.44
328.6	327.44
328.829	177.44
329.058	174.44
329.287	159.44
329.515	166.44
329.744	232.44
329.972	419.44
330.201	823.44
330.43	1203.44
330.658	542.44
330.887	256.44
331.115	179.44
331.344	136.44
331.572	113.44
331.801	137.44
332.03	126.44
332.258	113.44
332.486	110.44
332.715	98.44
332.943	105.44
333.172	110.44
333.4	112.44
333.629	151.44
333.857	216.44
334.085	389.44
334.314	769.44
334.542	1456.44
334.771	1363.44
334.999	387.44
335.227	164.44
335.455	127.44
335.684	110.44
335.912	110.44
336.14	104.44
336.369	102.44
336.597	109.44
336.825	100.44
337.053	115.44
337.281	82.44
337.51	103.44
337.738	105.44
337.966	101.44
338.194	93.44
338.422	99.44
338.65	110.44
338.878	106.44
339.106	89.44
339.334	90.44
339.562	92.44
339.79	100.44
340.018	102.44
340.246	106.44
340.474	101.44
340.702	123.44
340.93	94.44
341.158	89.44
341.386	106.44
341.614	103.44
341.842	112.44
342.07	99.44
342.298	81.44
342.526	93.44
342.754	85.44
342.981	87.44
343.209	94.44
343.437	107.44
343.665	90.44
343.893	84.44
344.12	92.44
344.348	106.44
344.576	95.44
344.804	89.44
345.031	104.44
345.259	98.44
345.487	111.44
345.714	104.44
345.942	90.44
346.17	104.44
346.397	119.44
346.625	105.44
346.853	96.44
347.08	87.44
347.308	114.44
347.535	113.44
347.763	110.44
347.99	99.44
348.218	115.44
348.445	109.44
348.673	107.44
348.9	89.44
349.128	110.44
349.355	99.44
349.583	85.44
349.81	97.44
350.037	98.44
350.265	99.44
350.492	98.44
350.72	98.44
350.947	113.44
351.174	117.44
351.402	121.44
351.629	100.44
351.856	115.44
352.083	118.44
352.311	108.44
352.538	110.44
352.765	114.44
352.992	106.44
353.22	111.44
353.447	96.44
353.674	104.44
353.901	98.44
354.128	96.44
354.355	108.44
354.583	104.44
354.81	101.44
355.037	94.44
355.264	84.44
355.491	89.44
355.718	89.44
355.945	96.44
356.172	94.44
356.399	87.44
356.626	71.44
356.853	82.44
357.08	96.44
357.307	109.44
357.534	99.44
357.761	94.44
357.988	109.44
358.215	100.44
358.441	98.44
358.668	95.44
358.895	97.44
359.122	95.44
359.349	93.44
359.576	95.44
359.802	108.44
360.029	141.44
360.256	134.44
360.483	105.44
360.709	97.44
360.936	94.44
361.163	108.44
361.39	102.44
361.616	93.44
361.843	93.44
362.07	98.44
362.296	109.44
362.523	111.44
362.749	102.44
362.976	95.44
363.203	105.44
363.429	84.44
363.656	95.44
363.882	102.44
364.109	90.44
364.335	97.44
364.562	90.44
364.788	88.44
365.015	88.44
365.241	113.44
365.468	109.44
365.694	119.44
365.92	97.44
366.147	91.44
366.373	94.44
366.599	94.44
366.826	102.44
367.052	83.44
367.278	93.44
367.505	103.44
367.731	109.44
367.957	95.44
368.184	98.44
368.41	103.44
368.636	121.44
368.862	126.44
369.089	118.44
369.315	95.44
369.541	96.44
369.767	93.44
369.993	107.44
370.219	91.44
370.445	92.44
370.672	86.44
370.898	92.44
371.124	88.44
371.35	81.44
371.576	88.44
371.802	78.44
372.028	85.44
372.254	87.44
372.48	90.44
372.706	99.44
372.932	105.44
373.158	94.44
373.384	96.44
373.61	91.44
373.835	101.44
374.061	99.44
374.287	94.44
374.513	94.44
374.739	90.44
374.965	92.44
375.191	82.44
375.416	86.44
375.642	96.44
375.868	91.44
376.094	91.44
376.319	105.44
376.545	101.44
376.771	77.44
376.997	83.44
377.222	86.44
377.448	99.44
377.674	94.44
377.899	87.44
378.125	90.44
378.35	93.44
378.576	95.44
378.802	80.44
379.027	79.44
379.253	91.44
379.478	93.44
379.704	92.44
379.929	99.44
380.155	76.44
380.38	87.44
380.606	94.44
380.831	105.44
381.057	92.44
381.282	74.44
381.507	89.44
381.733	91.44
381.958	98.44
382.184	90.44
382.409	106.44
382.634	101.44
382.86	101.44
383.085	90.44
383.31	87.44
383.535	108.44
383.761	89.44
383.986	94.44
384.211	99.44
384.436	98.44
384.662	112.44
384.887	106.44
385.112	109.44
385.337	102.44
385.562	115.44
385.787	112.44
386.013	107.44
386.238	105.44
386.463	98.44
386.688	109.44
386.913	90.44
387.138	97.44
387.363	100.44
387.588	90.44
387.813	106.44
388.038	95.44
388.263	104.44
388.488	105.44
388.713	101.44
388.938	77.44
389.163	90.44
389.387	101.44
389.612	98.44
389.837	74.44
390.062	91.44
390.287	86.44
390.512	85.44
390.736	89.44
390.961	86.44
391.186	90.44
391.411	101.44
391.636	84.44
391.86	88.44
392.085	84.44
392.31	79.44
392.534	83.44
392.759	87.44
392.984	82.44
393.208	81.44
393.433	83.44
393.658	89.44
393.882	87.44
394.107	92.44
394.331	93.44
394.556	91.44
394.78	95.44
395.005	90.44
395.229	93.44
395.454	80.44
395.678	84.44
395.903	101.44
396.127	94.44
396.352	95.44
396.576	86.44
396.801	105.44
397.025	85.44
397.249	92.44
397.474	83.44
397.698	101.44
397.922	92.44
398.147	67.44
398.371	95.44
398.595	74.44
398.82	93.44
399.044	85.44
399.268	95.44
399.492	89.44
399.717	90.44
399.941	85.44
400.165	110.44
400.389	96.44
400.613	87.44
400.837	77.44
401.062	82.44
401.286	90.44
401.51	99.44
401.734	86.44
401.958	92.44
402.182	149.44
402.406	177.44
402.63	154.44
402.854	100.44
403.078	83.44
403.302	90.44
403.526	88.44
403.75	91.44
403.974	95.44
404.198	106.44
404.422	97.44
404.645	101.44
404.869	88.44
405.093	121.44
405.317	143.44
405.541	128.44
405.765	94.44
405.988	133.44
406.212	214.44
406.436	303.44
406.66	205.44
406.883	110.44
407.107	102.44
407.331	102.44
407.555	92.44
407.778	99.44
408.002	99.44
408.226	90.44
408.449	89.44
408.673	90.44
408.896	84.44
409.12	94.44
409.344	79.44
409.567	84.44
409.791	91.44
410.014	97.44
410.238	100.44
410.461	87.44
410.685	99.44
410.908	93.44
411.132	97.44
411.355	106.44
411.578	87.44
411.802	75.44
412.025	100.44
412.249	108.44
412.472	101.44
412.695	123.44
412.919	102.44
413.142	100.44
413.365	92.44
413.589	90.44
413.812	90.44
414.035	93.44
414.258	89.44
414.482	93.44
414.705	85.44
414.928	81.44
415.151	84.44
415.374	98.44
415.597	93.44
415.821	97.44
416.044	96.44
416.267	93.44
416.49	87.44
416.713	89.44
416.936	82.44
417.159	99.44
417.382	107.44
417.605	95.44
417.828	113.44
418.051	97.44
418.274	85.44
418.497	95.44
418.72	103.44
418.943	94.44
419.166	94.44
419.389	103.44
419.611	97.44
419.834	86.44
420.057	92.44
420.28	101.44
420.503	85.44
420.726	94.44
420.948	80.44
421.171	104.44
421.394	110.44
421.617	95.44
421.839	83.44
422.062	107.44
422.285	91.44
422.507	108.44
422.73	105.44
422.953	97.44
423.175	80.44
423.398	86.44
423.621	93.44
423.843	83.44
424.066	90.44
424.288	85.44
424.511	85.44
424.733	85.44
424.956	108.44
425.178	93.44
425.401	111.44
425.623	106.44
425.846	87.44
426.068	110.44
426.291	99.44
426.513	90.44
426.735	99.44
426.958	94.44
427.18	114.44
427.402	164.44
427.625	233.44
427.847	213.44
428.069	201.44
428.292	118.44
428.514	105.44
428.736	95.44
428.958	92.44
429.181	94.44
429.403	94.44
429.625	78.44
429.847	98.44
430.069	116.44
430.292	98.44
430.514	79.44
430.736	84.44
430.958	94.44
431.18	88.44
431.402	82.44
431.624	78.44
431.846	90.44
432.068	84.44
432.29	80.44
432.512	90.44
432.734	93.44
432.956	105.44
433.178	97.44
433.4	92.44
433.622	108.44
433.844	101.44
434.066	101.44
434.287	99.44
434.509	98.44
434.731	93.44
434.953	94.44
435.175	94.44
435.397	84.44
435.618	93.44
435.84	115.44
436.062	127.44
436.284	124.44
436.505	109.44
436.727	116.44
436.949	106.44
437.17	99.44
437.392	86.44
437.614	92.44
437.835	120.44
438.057	130.44
438.278	108.44
438.5	110.44
438.721	130.44
438.943	113.44
439.165	98.44
439.386	98.44
439.608	103.44
439.829	110.44
440.05	139.44
440.272	167.44
440.493	116.44
440.715	97.44
440.936	92.44
441.158	91.44
441.379	92.44
441.6	101.44
441.822	100.44
442.043	104.44
442.264	123.44
442.486	114.44
442.707	87.44
442.928	121.44
443.149	150.44
443.371	163.44
443.592	124.44
443.813	121.44
444.034	117.44
444.255	89.44
444.476	88.44
444.698	83.44
444.919	104.44
445.14	141.44
445.361	120.44
445.582	124.44
445.803	173.44
446.024	177.44
446.245	147.44
446.466	126.44
446.687	105.44
446.908	83.44
447.129	92.44
447.35	90.44
447.571	90.44
447.792	105.44
448.013	111.44
448.234	115.44
448.455	117.44
448.675	125.44
448.896	129.44
449.117	103.44
449.338	110.44
449.559	150.44
449.779	138.44
450	95.44
450.221	83.44
450.442	96.44
450.662	102.44
450.883	120.44
451.104	142.44
451.324	105.44
451.545	103.44
451.766	88.44
451.986	101.44
452.207	95.44
452.428	104.44
452.648	102.44
452.869	133.44
453.089	127.44
453.31	146.44
453.53	104.44
453.751	87.44
453.971	113.44
454.192	129.44
454.412	105.44
454.633	97.44
454.853	82.44
455.073	81.44
455.294	99.44
455.514	96.44
455.734	93.44
455.955	83.44
456.175	82.44
456.395	94.44
456.616	87.44
456.836	79.44
457.056	98.44
457.276	89.44
457.497	87.44
457.717	90.44
457.937	97.44
458.157	95.44
458.377	87.44
458.598	110.44
458.818	179.44
459.038	209.44
459.258	141.44
459.478	105.44
459.698	92.44
459.918	91.44
460.138	90.44
460.358	92.44
460.578	106.44
460.798	99.44
461.018	97.44
461.238	90.44
461.458	86.44
461.678	83.44
461.898	82.44
462.118	93.44
462.338	91.44
462.558	92.44
462.777	93.44
462.997	94.44
463.217	112.44
463.437	80.44
463.657	83.44
463.876	85.44
464.096	93.44
464.316	94.44
464.536	103.44
464.755	106.44
464.975	133.44
465.195	211.44
465.414	216.44
465.634	104.44
465.854	92.44
466.073	85.44
466.293	91.44
466.512	86.44
466.732	89.44
466.951	98.44
467.171	103.44
467.391	113.44
467.61	142.44
467.829	197.44
468.049	486.44
468.268	714.44
468.488	190.44
468.707	106.44
468.927	109.44
469.146	103.44
469.365	89.44
469.585	93.44
469.804	107.44
470.023	102.44
470.243	100.44
470.462	104.44
470.681	120.44
470.901	106.44
471.12	90.44
471.339	99.44
471.558	116.44
471.777	146.44
471.997	277.44
472.216	940.44
472.435	2121.44
472.654	494.44
472.873	155.44
473.092	111.44
473.311	94.44
473.53	84.44
473.749	86.44
473.968	107.44
474.187	112.44
474.406	100.44
474.625	77.44
474.844	104.44
475.063	82.44
475.282	100.44
475.501	86.44
475.72	98.44
475.939	85.44
476.158	93.44
476.377	100.44
476.596	84.44
476.814	84.44
477.033	100.44
477.252	102.44
477.471	92.44
477.69	77.44
477.908	98.44
478.127	99.44
478.346	106.44
478.564	101.44
478.783	110.44
479.002	100.44
479.22	116.44
479.439	125.44
479.658	134.44
479.876	108.44
480.095	119.44
480.313	109.44
480.532	149.44
480.751	255.44
480.969	874.44
481.188	3668.44
481.406	2062.44
481.624	312.44
481.843	119.44
482.061	111.44
482.28	103.44
482.498	96.44
482.717	106.44
482.935	96.44
483.153	85.44
483.372	95.44
483.59	85.44
483.808	87.44
484.027	85.44
484.245	101.44
484.463	101.44
484.681	101.44
484.9	102.44
485.118	84.44
485.336	101.44
485.554	106.44
485.772	108.44
485.99	108.44
486.209	99.44
486.427	99.44
486.645	110.44
486.863	104.44
487.081	96.44
487.299	96.44
487.517	102.44
487.735	95.44
487.953	94.44
488.171	95.44
488.389	88.44
488.607	105.44
488.825	92.44
489.043	79.44
489.261	88.44
489.479	97.44
489.696	84.44
489.914	93.44
490.132	86.44
490.35	90.44
490.568	98.44
490.786	89.44
491.003	78.44
491.221	89.44
491.439	97.44
491.657	105.44
491.874	91.44
492.092	92.44
492.31	97.44
492.527	96.44
492.745	87.44
492.963	82.44
493.18	82.44
493.398	107.44
493.615	75.44
493.833	92.44
494.05	87.44
494.268	89.44
494.485	94.44
494.703	103.44
494.92	92.44
495.138	90.44
495.355	107.44
495.573	100.44
495.79	116.44
496.008	102.44
496.225	93.44
496.442	79.44
496.66	87.44
496.877	96.44
497.094	93.44
497.312	97.44
497.529	98.44
497.746	89.44
497.963	92.44
498.181	85.44
498.398	98.44
498.615	107.44
498.832	121.44
499.049	93.44
499.267	91.44
499.484	87.44
499.701	98.44
499.918	109.44
500.135	84.44
500.352	83.44
500.569	98.44
500.786	94.44
501.003	112.44
501.22	94.44
501.437	95.44
501.654	105.44
501.871	117.44
502.088	95.44
502.305	85.44
502.522	90.44
502.739	85.44
502.956	96.44
503.172	104.44
503.389	104.44
503.606	118.44
503.823	106.44
504.04	91.44
504.256	95.44
504.473	92.44
504.69	89.44
504.907	76.44
505.123	92.44
505.34	100.44
505.557	84.44
505.773	88.44
505.99	88.44
506.207	89.44
506.423	100.44
506.64	101.44
506.856	99.44
507.073	83.44
507.289	97.44
507.506	104.44
507.722	118.44
507.939	132.44
508.155	100.44
508.372	90.44
508.588	93.44
508.805	101.44
509.021	101.44
509.238	103.44
509.454	106.44
509.67	89.44
509.887	107.44
510.103	139.44
510.319	233.44
510.536	838.44
510.752	2718.44
510.968	775.44
511.184	173.44
511.401	125.44
511.617	116.44
511.833	107.44
512.049	110.44
512.265	99.44
512.481	95.44
512.698	115.44
512.914	96.44
513.13	94.44
