Data from Circ_2001_H10_HRD10591_00099.txt Node
Date: Wed Jan 03 10:45:58 EST 2024
User: Yrep
Spectrometer: HR+D1059
Trigger mode: 1
Integration Time (sec): 1.000000E-1
Scans to average: 1
Electric dark correction enabled: true
Nonlinearity correction enabled: false
Boxcar width: 0
XAxis mode: Wavelengths
Number of Pixels in Spectrum: 2048
>>>>>Begin Spectral Data<<<<<
223.165	-21.19
223.4	-21.19
223.635	-21.19
223.869	-21.19
224.104	-17.19
224.338	-15.19
224.573	-30.19
224.808	3.81
225.042	-13.19
225.277	-2.19
225.511	-14.19
225.746	3.81
225.98	23.81
226.215	21.81
226.449	13.81
226.683	20.81
226.918	12.81
227.152	33.81
227.387	11.81
227.621	30.81
227.856	31.81
228.09	44.81
228.324	48.81
228.559	45.81
228.793	55.81
229.027	64.81
229.262	70.81
229.496	88.81
229.73	96.81
229.964	98.81
230.199	79.81
230.433	78.81
230.667	75.81
230.901	68.81
231.136	61.81
231.37	68.81
231.604	71.81
231.838	74.81
232.072	95.81
232.306	77.81
232.541	84.81
232.775	77.81
233.009	73.81
233.243	78.81
233.477	78.81
233.711	69.81
233.945	83.81
234.179	81.81
234.413	84.81
234.647	82.81
234.881	78.81
235.115	81.81
235.349	78.81
235.583	77.81
235.817	77.81
236.051	80.81
236.285	84.81
236.519	76.81
236.753	61.81
236.987	79.81
237.221	81.81
237.455	80.81
237.689	75.81
237.922	76.81
238.156	77.81
238.39	79.81
238.624	76.81
238.858	67.81
239.091	73.81
239.325	83.81
239.559	79.81
239.793	64.81
240.027	78.81
240.26	73.81
240.494	65.81
240.728	75.81
240.961	66.81
241.195	57.81
241.429	72.81
241.662	68.81
241.896	66.81
242.13	69.81
242.363	83.81
242.597	60.81
242.83	70.81
243.064	87.81
243.298	79.81
243.531	75.81
243.765	72.81
243.998	77.81
244.232	85.81
244.465	96.81
244.699	74.81
244.932	71.81
245.166	73.81
245.399	69.81
245.633	74.81
245.866	76.81
246.099	85.81
246.333	82.81
246.566	87.81
246.8	68.81
247.033	61.81
247.266	76.81
247.5	75.81
247.733	81.81
247.966	78.81
248.2	68.81
248.433	78.81
248.666	98.81
248.899	83.81
249.133	94.81
249.366	94.81
249.599	105.81
249.832	92.81
250.066	80.81
250.299	82.81
250.532	93.81
250.765	76.81
250.998	75.81
251.231	76.81
251.465	87.81
251.698	63.81
251.931	71.81
252.164	88.81
252.397	67.81
252.63	75.81
252.863	80.81
253.096	63.81
253.329	75.81
253.562	80.81
253.795	87.81
254.028	77.81
254.261	85.81
254.494	93.81
254.727	78.81
254.96	88.81
255.193	84.81
255.426	83.81
255.659	63.81
255.892	91.81
256.124	96.81
256.357	88.81
256.59	80.81
256.823	83.81
257.056	79.81
257.289	87.81
257.521	69.81
257.754	80.81
257.987	79.81
258.22	85.81
258.452	95.81
258.685	79.81
258.918	82.81
259.151	74.81
259.383	81.81
259.616	76.81
259.849	86.81
260.081	84.81
260.314	74.81
260.547	87.81
260.779	87.81
261.012	99.81
261.244	83.81
261.477	95.81
261.71	95.81
261.942	127.81
262.175	141.81
262.407	87.81
262.64	86.81
262.872	77.81
263.105	93.81
263.337	76.81
263.57	80.81
263.802	78.81
264.035	75.81
264.267	84.81
264.499	63.81
264.732	86.81
264.964	75.81
265.197	76.81
265.429	80.81
265.661	86.81
265.894	69.81
266.126	87.81
266.358	81.81
266.591	71.81
266.823	95.81
267.055	73.81
267.287	74.81
267.52	83.81
267.752	79.81
267.984	93.81
268.216	99.81
268.448	85.81
268.681	91.81
268.913	77.81
269.145	93.81
269.377	84.81
269.609	63.81
269.841	76.81
270.073	81.81
270.306	86.81
270.538	82.81
270.77	92.81
271.002	96.81
271.234	86.81
271.466	91.81
271.698	69.81
271.93	87.81
272.162	91.81
272.394	87.81
272.626	87.81
272.858	71.81
273.09	71.81
273.322	73.81
273.553	83.81
273.785	77.81
274.017	74.81
274.249	75.81
274.481	78.81
274.713	76.81
274.945	81.81
275.176	89.81
275.408	95.81
275.64	96.81
275.872	117.81
276.104	104.81
276.335	89.81
276.567	110.81
276.799	142.81
277.031	164.81
277.262	182.81
277.494	142.81
277.726	97.81
277.957	96.81
278.189	97.81
278.421	94.81
278.652	86.81
278.884	87.81
279.115	90.81
279.347	87.81
279.579	103.81
279.81	135.81
280.042	193.81
280.273	239.81
280.505	153.81
280.736	108.81
280.968	88.81
281.199	83.81
281.431	71.81
281.662	88.81
281.894	84.81
282.125	94.81
282.356	140.81
282.588	166.81
282.819	135.81
283.051	85.81
283.282	89.81
283.513	86.81
283.745	90.81
283.976	97.81
284.207	78.81
284.439	95.81
284.67	89.81
284.901	80.81
285.132	86.81
285.364	97.81
285.595	91.81
285.826	88.81
286.057	89.81
286.288	88.81
286.52	65.81
286.751	68.81
286.982	77.81
287.213	70.81
287.444	91.81
287.675	89.81
287.906	79.81
288.138	89.81
288.369	72.81
288.6	79.81
288.831	87.81
289.062	88.81
289.293	97.81
289.524	67.81
289.755	79.81
289.986	95.81
290.217	79.81
290.448	71.81
290.679	81.81
290.91	82.81
291.141	70.81
291.371	75.81
291.602	83.81
291.833	75.81
292.064	89.81
292.295	68.81
292.526	98.81
292.757	98.81
292.987	91.81
293.218	88.81
293.449	69.81
293.68	74.81
293.91	84.81
294.141	88.81
294.372	103.81
294.603	79.81
294.833	79.81
295.064	89.81
295.295	92.81
295.525	78.81
295.756	103.81
295.987	126.81
296.217	151.81
296.448	133.81
296.679	77.81
296.909	86.81
297.14	85.81
297.37	83.81
297.601	86.81
297.831	91.81
298.062	103.81
298.292	95.81
298.523	83.81
298.753	89.81
298.984	84.81
299.214	93.81
299.445	89.81
299.675	105.81
299.905	89.81
300.136	89.81
300.366	103.81
300.597	92.81
300.827	99.81
301.057	97.81
301.288	103.81
301.518	105.81
301.748	113.81
301.979	124.81
302.209	108.81
302.439	84.81
302.669	97.81
302.9	87.81
303.13	87.81
303.36	102.81
303.59	124.81
303.82	137.81
304.051	103.81
304.281	87.81
304.511	76.81
304.741	96.81
304.971	72.81
305.201	84.81
305.431	74.81
305.661	84.81
305.891	95.81
306.121	105.81
306.352	102.81
306.582	117.81
306.812	100.81
307.042	111.81
307.272	129.81
307.502	171.81
307.731	155.81
307.961	113.81
308.191	82.81
308.421	85.81
308.651	83.81
308.881	90.81
309.111	75.81
309.341	78.81
309.571	95.81
309.8	97.81
310.03	98.81
310.26	98.81
310.49	81.81
310.72	91.81
310.949	118.81
311.179	96.81
311.409	95.81
311.639	86.81
311.868	93.81
312.098	80.81
312.328	101.81
312.557	93.81
312.787	129.81
313.017	114.81
313.246	92.81
313.476	89.81
313.706	97.81
313.935	100.81
314.165	117.81
314.394	88.81
314.624	100.81
314.853	100.81
315.083	85.81
315.312	98.81
315.542	82.81
315.771	100.81
316.001	96.81
316.23	82.81
316.46	85.81
316.689	94.81
316.919	85.81
317.148	83.81
317.377	86.81
317.607	84.81
317.836	79.81
318.065	98.81
318.295	87.81
318.524	83.81
318.753	97.81
318.983	88.81
319.212	103.81
319.441	107.81
319.67	108.81
319.9	111.81
320.129	87.81
320.358	100.81
320.587	91.81
320.816	100.81
321.046	107.81
321.275	89.81
321.504	94.81
321.733	101.81
321.962	104.81
322.191	97.81
322.42	104.81
322.649	107.81
322.878	127.81
323.108	112.81
323.337	143.81
323.566	165.81
323.795	190.81
324.024	245.81
324.253	512.81
324.482	1044.81
324.71	2261.81
324.939	3009.81
325.168	1057.81
325.397	295.81
325.626	183.81
325.855	141.81
326.084	123.81
326.313	148.81
326.542	175.81
326.77	277.81
326.999	559.81
327.228	1173.81
327.457	2174.81
327.686	1740.81
327.914	580.81
328.143	523.81
328.372	621.81
328.6	345.81
328.829	183.81
329.058	192.81
329.287	190.81
329.515	175.81
329.744	237.81
329.972	455.81
330.201	963.81
330.43	1335.81
330.658	592.81
330.887	285.81
331.115	176.81
331.344	128.81
331.572	108.81
331.801	128.81
332.03	130.81
332.258	127.81
332.486	111.81
332.715	107.81
332.943	112.81
333.172	120.81
333.4	113.81
333.629	148.81
333.857	239.81
334.085	429.81
334.314	884.81
334.542	1715.81
334.771	1607.81
334.999	430.81
335.227	177.81
335.455	130.81
335.684	100.81
335.912	120.81
336.14	111.81
336.369	114.81
336.597	103.81
336.825	109.81
337.053	94.81
337.281	92.81
337.51	88.81
337.738	88.81
337.966	96.81
338.194	109.81
338.422	92.81
338.65	94.81
338.878	94.81
339.106	98.81
339.334	89.81
339.562	89.81
339.79	88.81
340.018	108.81
340.246	101.81
340.474	105.81
340.702	93.81
340.93	100.81
341.158	84.81
341.386	101.81
341.614	88.81
341.842	89.81
342.07	95.81
342.298	88.81
342.526	88.81
342.754	96.81
342.981	93.81
343.209	95.81
343.437	75.81
343.665	90.81
343.893	87.81
344.12	86.81
344.348	75.81
344.576	92.81
344.804	101.81
345.031	112.81
345.259	99.81
345.487	108.81
345.714	90.81
345.942	99.81
346.17	71.81
346.397	101.81
346.625	90.81
346.853	83.81
347.08	105.81
347.308	110.81
347.535	89.81
347.763	96.81
347.99	75.81
348.218	97.81
348.445	116.81
348.673	107.81
348.9	88.81
349.128	106.81
349.355	84.81
349.583	77.81
349.81	100.81
350.037	94.81
350.265	92.81
350.492	92.81
350.72	83.81
350.947	104.81
351.174	107.81
351.402	129.81
351.629	83.81
351.856	91.81
352.083	94.81
352.311	108.81
352.538	116.81
352.765	118.81
352.992	109.81
353.22	126.81
353.447	107.81
353.674	103.81
353.901	89.81
354.128	94.81
354.355	93.81
354.583	106.81
354.81	105.81
355.037	94.81
355.264	80.81
355.491	103.81
355.718	95.81
355.945	81.81
356.172	99.81
356.399	85.81
356.626	92.81
356.853	96.81
357.08	85.81
357.307	93.81
357.534	95.81
357.761	84.81
357.988	88.81
358.215	104.81
358.441	93.81
358.668	98.81
358.895	96.81
359.122	89.81
359.349	71.81
359.576	97.81
359.802	102.81
360.029	129.81
360.256	139.81
360.483	105.81
360.709	89.81
360.936	84.81
361.163	92.81
361.39	90.81
361.616	92.81
361.843	98.81
362.07	99.81
362.296	105.81
362.523	79.81
362.749	92.81
362.976	88.81
363.203	83.81
363.429	91.81
363.656	97.81
363.882	81.81
364.109	92.81
364.335	94.81
364.562	97.81
364.788	105.81
365.015	79.81
365.241	111.81
365.468	113.81
365.694	103.81
365.92	89.81
366.147	100.81
366.373	94.81
366.599	87.81
366.826	93.81
367.052	82.81
367.278	77.81
367.505	92.81
367.731	85.81
367.957	89.81
368.184	94.81
368.41	97.81
368.636	128.81
368.862	135.81
369.089	110.81
369.315	96.81
369.541	87.81
369.767	92.81
369.993	104.81
370.219	92.81
370.445	84.81
370.672	88.81
370.898	90.81
371.124	77.81
371.35	103.81
371.576	72.81
371.802	84.81
372.028	97.81
372.254	99.81
372.48	95.81
372.706	78.81
372.932	89.81
373.158	81.81
373.384	85.81
373.61	77.81
373.835	92.81
374.061	90.81
374.287	102.81
374.513	79.81
374.739	101.81
374.965	93.81
375.191	77.81
375.416	87.81
375.642	97.81
375.868	78.81
376.094	85.81
376.319	85.81
376.545	71.81
376.771	88.81
376.997	93.81
377.222	84.81
377.448	87.81
377.674	81.81
377.899	91.81
378.125	85.81
378.35	92.81
378.576	73.81
378.802	74.81
379.027	98.81
379.253	82.81
379.478	93.81
379.704	109.81
379.929	91.81
380.155	91.81
380.38	78.81
380.606	94.81
380.831	90.81
381.057	94.81
381.282	95.81
381.507	99.81
381.733	94.81
381.958	94.81
382.184	95.81
382.409	100.81
382.634	88.81
382.86	79.81
383.085	107.81
383.31	107.81
383.535	88.81
383.761	94.81
383.986	104.81
384.211	87.81
384.436	98.81
384.662	87.81
384.887	106.81
385.112	98.81
385.337	95.81
385.562	98.81
385.787	94.81
386.013	100.81
386.238	110.81
386.463	93.81
386.688	98.81
386.913	91.81
387.138	83.81
387.363	100.81
387.588	103.81
387.813	88.81
388.038	85.81
388.263	90.81
388.488	89.81
388.713	102.81
388.938	87.81
389.163	98.81
389.387	97.81
389.612	95.81
389.837	86.81
390.062	89.81
390.287	95.81
390.512	85.81
390.736	94.81
390.961	95.81
391.186	79.81
391.411	82.81
391.636	98.81
391.86	98.81
392.085	95.81
392.31	94.81
392.534	86.81
392.759	79.81
392.984	90.81
393.208	96.81
393.433	78.81
393.658	89.81
393.882	84.81
394.107	74.81
394.331	74.81
394.556	76.81
394.78	87.81
395.005	91.81
395.229	89.81
395.454	69.81
395.678	96.81
395.903	93.81
396.127	101.81
396.352	81.81
396.576	99.81
396.801	77.81
397.025	79.81
397.249	85.81
397.474	95.81
397.698	83.81
397.922	84.81
398.147	94.81
398.371	79.81
398.595	67.81
398.82	73.81
399.044	78.81
399.268	78.81
399.492	89.81
399.717	83.81
399.941	88.81
400.165	83.81
400.389	79.81
400.613	75.81
400.837	87.81
401.062	95.81
401.286	92.81
401.51	87.81
401.734	92.81
401.958	108.81
402.182	146.81
402.406	187.81
402.63	139.81
402.854	107.81
403.078	83.81
403.302	81.81
403.526	80.81
403.75	93.81
403.974	94.81
404.198	82.81
404.422	97.81
404.645	103.81
404.869	102.81
405.093	101.81
405.317	142.81
405.541	139.81
405.765	123.81
405.988	136.81
406.212	191.81
406.436	302.81
406.66	207.81
406.883	112.81
407.107	105.81
407.331	107.81
407.555	109.81
407.778	112.81
408.002	98.81
408.226	82.81
408.449	89.81
408.673	76.81
408.896	92.81
409.12	107.81
409.344	106.81
409.567	89.81
409.791	87.81
410.014	103.81
410.238	82.81
410.461	95.81
410.685	93.81
410.908	84.81
411.132	114.81
411.355	96.81
411.578	108.81
411.802	86.81
412.025	93.81
412.249	93.81
412.472	119.81
412.695	131.81
412.919	108.81
413.142	83.81
413.365	95.81
413.589	88.81
413.812	92.81
414.035	84.81
414.258	78.81
414.482	83.81
414.705	84.81
414.928	85.81
415.151	102.81
415.374	103.81
415.597	92.81
415.821	91.81
416.044	83.81
416.267	88.81
416.49	102.81
416.713	88.81
416.936	83.81
417.159	86.81
417.382	93.81
417.605	105.81
417.828	113.81
418.051	89.81
418.274	72.81
418.497	79.81
418.72	94.81
418.943	101.81
419.166	78.81
419.389	91.81
419.611	93.81
419.834	81.81
420.057	73.81
420.28	85.81
420.503	97.81
420.726	92.81
420.948	113.81
421.171	104.81
421.394	79.81
421.617	86.81
421.839	91.81
422.062	97.81
422.285	91.81
422.507	88.81
422.73	107.81
422.953	94.81
423.175	80.81
423.398	82.81
423.621	77.81
423.843	76.81
424.066	77.81
424.288	71.81
424.511	83.81
424.733	117.81
424.956	116.81
425.178	104.81
425.401	101.81
425.623	104.81
425.846	94.81
426.068	101.81
426.291	94.81
426.513	94.81
426.735	95.81
426.958	101.81
427.18	120.81
427.402	166.81
427.625	245.81
427.847	231.81
428.069	221.81
428.292	125.81
428.514	105.81
428.736	91.81
428.958	81.81
429.181	85.81
429.403	80.81
429.625	85.81
429.847	91.81
430.069	98.81
430.292	92.81
430.514	85.81
430.736	74.81
430.958	86.81
431.18	88.81
431.402	88.81
431.624	80.81
431.846	86.81
432.068	79.81
432.29	79.81
432.512	77.81
432.734	85.81
432.956	98.81
433.178	102.81
433.4	97.81
433.622	95.81
433.844	104.81
434.066	79.81
434.287	73.81
434.509	94.81
434.731	87.81
434.953	82.81
435.175	81.81
435.397	98.81
435.618	85.81
435.84	106.81
436.062	135.81
436.284	137.81
436.505	106.81
436.727	109.81
436.949	83.81
437.17	93.81
437.392	84.81
437.614	100.81
437.835	124.81
438.057	143.81
438.278	126.81
438.5	119.81
438.721	130.81
438.943	104.81
439.165	94.81
439.386	72.81
439.608	92.81
439.829	101.81
440.05	157.81
440.272	177.81
440.493	117.81
440.715	77.81
440.936	100.81
441.158	93.81
441.379	86.81
441.6	114.81
441.822	95.81
442.043	95.81
442.264	96.81
442.486	93.81
442.707	97.81
442.928	114.81
443.149	165.81
443.371	159.81
443.592	141.81
443.813	118.81
444.034	137.81
444.255	82.81
444.476	87.81
444.698	85.81
444.919	93.81
445.14	135.81
445.361	120.81
445.582	151.81
445.803	193.81
446.024	173.81
446.245	158.81
446.466	131.81
446.687	103.81
446.908	95.81
447.129	79.81
447.35	94.81
447.571	97.81
447.792	89.81
448.013	107.81
448.234	115.81
448.455	110.81
448.675	124.81
448.896	140.81
449.117	116.81
449.338	112.81
449.559	146.81
449.779	161.81
450	97.81
450.221	73.81
450.442	107.81
450.662	111.81
450.883	120.81
451.104	125.81
451.324	100.81
451.545	93.81
451.766	104.81
451.986	82.81
452.207	74.81
452.428	95.81
452.648	93.81
452.869	125.81
453.089	129.81
453.31	140.81
453.53	111.81
453.751	100.81
453.971	118.81
454.192	133.81
454.412	78.81
454.633	77.81
454.853	71.81
455.073	80.81
455.294	103.81
455.514	103.81
455.734	87.81
455.955	91.81
456.175	92.81
456.395	82.81
456.616	78.81
456.836	94.81
457.056	91.81
457.276	91.81
457.497	78.81
457.717	88.81
457.937	92.81
458.157	93.81
458.377	108.81
458.598	125.81
458.818	206.81
459.038	220.81
459.258	141.81
459.478	110.81
459.698	94.81
459.918	87.81
460.138	83.81
460.358	86.81
460.578	80.81
460.798	104.81
461.018	88.81
461.238	94.81
461.458	85.81
461.678	78.81
461.898	85.81
462.118	96.81
462.338	71.81
462.558	99.81
462.777	91.81
462.997	95.81
463.217	101.81
463.437	96.81
463.657	89.81
463.876	89.81
464.096	91.81
464.316	105.81
464.536	95.81
464.755	91.81
464.975	128.81
465.195	224.81
465.414	216.81
465.634	102.81
465.854	90.81
466.073	82.81
466.293	85.81
466.512	85.81
466.732	96.81
466.951	80.81
467.171	97.81
467.391	111.81
467.61	134.81
467.829	210.81
468.049	553.81
468.268	785.81
468.488	208.81
468.707	93.81
468.927	89.81
469.146	95.81
469.365	82.81
469.585	92.81
469.804	106.81
470.023	108.81
470.243	103.81
470.462	111.81
470.681	136.81
470.901	120.81
471.12	89.81
471.339	105.81
471.558	111.81
471.777	143.81
471.997	297.81
472.216	1080.81
472.435	2400.81
472.654	561.81
472.873	157.81
473.092	111.81
473.311	90.81
473.53	78.81
473.749	93.81
473.968	105.81
474.187	111.81
474.406	114.81
474.625	73.81
474.844	82.81
475.063	86.81
475.282	87.81
475.501	74.81
475.72	92.81
475.939	95.81
476.158	81.81
476.377	87.81
476.596	74.81
476.814	87.81
477.033	107.81
477.252	101.81
477.471	100.81
477.69	92.81
477.908	95.81
478.127	84.81
478.346	85.81
478.564	97.81
478.783	105.81
479.002	87.81
479.22	99.81
479.439	128.81
479.658	115.81
479.876	120.81
480.095	116.81
480.313	124.81
480.532	165.81
480.751	265.81
480.969	966.81
481.188	4179.81
481.406	2383.81
481.624	341.81
481.843	135.81
482.061	104.81
482.28	107.81
482.498	93.81
482.717	93.81
482.935	89.81
483.153	86.81
483.372	101.81
483.59	89.81
483.808	76.81
484.027	90.81
484.245	90.81
484.463	84.81
484.681	97.81
484.9	91.81
485.118	83.81
485.336	94.81
485.554	107.81
485.772	108.81
485.99	111.81
486.209	101.81
486.427	102.81
486.645	107.81
486.863	123.81
487.081	93.81
487.299	105.81
487.517	105.81
487.735	82.81
487.953	103.81
488.171	89.81
488.389	97.81
488.607	84.81
488.825	83.81
489.043	84.81
489.261	86.81
489.479	82.81
489.696	75.81
489.914	93.81
490.132	85.81
490.35	92.81
490.568	74.81
490.786	84.81
491.003	79.81
491.221	99.81
491.439	75.81
491.657	79.81
491.874	99.81
492.092	98.81
492.31	93.81
492.527	101.81
492.745	100.81
492.963	91.81
493.18	93.81
493.398	90.81
493.615	77.81
493.833	89.81
494.05	78.81
494.268	82.81
494.485	84.81
494.703	82.81
494.92	83.81
495.138	74.81
495.355	92.81
495.573	98.81
495.79	94.81
496.008	88.81
496.225	95.81
496.442	78.81
496.66	91.81
496.877	91.81
497.094	110.81
497.312	88.81
497.529	79.81
497.746	80.81
497.963	68.81
498.181	91.81
498.398	100.81
498.615	98.81
498.832	108.81
499.049	81.81
499.267	91.81
499.484	83.81
499.701	87.81
499.918	94.81
500.135	80.81
500.352	85.81
500.569	89.81
500.786	79.81
501.003	90.81
501.22	88.81
501.437	101.81
501.654	77.81
501.871	124.81
502.088	107.81
502.305	93.81
502.522	69.81
502.739	87.81
502.956	88.81
503.172	84.81
503.389	83.81
503.606	124.81
503.823	109.81
504.04	99.81
504.256	75.81
504.473	83.81
504.69	87.81
504.907	87.81
505.123	82.81
505.34	77.81
505.557	92.81
505.773	83.81
505.99	89.81
506.207	76.81
506.423	93.81
506.64	101.81
506.856	92.81
507.073	78.81
507.289	94.81
507.506	102.81
507.722	128.81
507.939	123.81
508.155	81.81
508.372	83.81
508.588	97.81
508.805	90.81
509.021	97.81
509.238	99.81
509.454	97.81
509.67	106.81
509.887	114.81
510.103	133.81
510.319	228.81
510.536	851.81
510.752	2987.81
510.968	812.81
511.184	177.81
511.401	131.81
511.617	97.81
511.833	99.81
512.049	99.81
512.265	97.81
512.481	84.81
512.698	88.81
512.914	97.81
513.13	85.81
513.346	86.81
513.562	79.81
513.778	88.81
513.994	104.81
514.21	103.81
514.426	146.81
