Data from Circ_2001_H10_HRD10591_00023.txt Node
Date: Wed Jan 03 10:45:43 EST 2024
User: Yrep
Spectrometer: HR+D1059
Trigger mode: 1
Integration Time (sec): 1.000000E-1
Scans to average: 1
Electric dark correction enabled: true
Nonlinearity correction enabled: false
Boxcar width: 0
XAxis mode: Wavelengths
Number of Pixels in Spectrum: 2048
>>>>>Begin Spectral Data<<<<<
223.165	-11.06
223.4	-11.06
223.635	-11.06
223.869	-21.06
224.104	-26.06
224.338	-23.06
224.573	-20.06
224.808	-9.06
225.042	-2.06
225.277	-3.06
225.511	1.94
225.746	15.94
225.98	11.94
226.215	12.94
226.449	20.94
226.683	11.94
226.918	17.94
227.152	21.94
227.387	25.94
227.621	20.94
227.856	44.94
228.09	59.94
228.324	55.94
228.559	49.94
228.793	52.94
229.027	53.94
229.262	68.94
229.496	84.94
229.73	81.94
229.964	79.94
230.199	79.94
230.433	77.94
230.667	78.94
230.901	76.94
231.136	69.94
231.37	73.94
231.604	83.94
231.838	91.94
232.072	76.94
232.306	77.94
232.541	85.94
232.775	82.94
233.009	80.94
233.243	87.94
233.477	74.94
233.711	81.94
233.945	74.94
234.179	67.94
234.413	86.94
234.647	78.94
234.881	76.94
235.115	80.94
235.349	73.94
235.583	83.94
235.817	80.94
236.051	74.94
236.285	88.94
236.519	77.94
236.753	74.94
236.987	69.94
237.221	79.94
237.455	85.94
237.689	87.94
237.922	75.94
238.156	87.94
238.39	74.94
238.624	64.94
238.858	82.94
239.091	73.94
239.325	85.94
239.559	90.94
239.793	75.94
240.027	85.94
240.26	62.94
240.494	81.94
240.728	78.94
240.961	70.94
241.195	70.94
241.429	64.94
241.662	93.94
241.896	88.94
242.13	75.94
242.363	74.94
242.597	82.94
242.83	70.94
243.064	73.94
243.298	92.94
243.531	89.94
243.765	84.94
243.998	59.94
244.232	80.94
244.465	84.94
244.699	76.94
244.932	89.94
245.166	67.94
245.399	66.94
245.633	92.94
245.866	76.94
246.099	79.94
246.333	76.94
246.566	88.94
246.8	92.94
247.033	77.94
247.266	95.94
247.5	87.94
247.733	77.94
247.966	84.94
248.2	86.94
248.433	75.94
248.666	81.94
248.899	93.94
249.133	82.94
249.366	110.94
249.599	100.94
249.832	68.94
250.066	82.94
250.299	75.94
250.532	82.94
250.765	75.94
250.998	92.94
251.231	75.94
251.465	82.94
251.698	83.94
251.931	89.94
252.164	83.94
252.397	80.94
252.63	86.94
252.863	77.94
253.096	80.94
253.329	77.94
253.562	91.94
253.795	96.94
254.028	77.94
254.261	92.94
254.494	80.94
254.727	87.94
254.96	85.94
255.193	77.94
255.426	72.94
255.659	85.94
255.892	93.94
256.124	81.94
256.357	74.94
256.59	88.94
256.823	77.94
257.056	85.94
257.289	84.94
257.521	69.94
257.754	90.94
257.987	89.94
258.22	87.94
258.452	81.94
258.685	77.94
258.918	79.94
259.151	82.94
259.383	88.94
259.616	82.94
259.849	86.94
260.081	91.94
260.314	81.94
260.547	87.94
260.779	86.94
261.012	87.94
261.244	85.94
261.477	103.94
261.71	104.94
261.942	113.94
262.175	116.94
262.407	71.94
262.64	59.94
262.872	77.94
263.105	73.94
263.337	94.94
263.57	89.94
263.802	93.94
264.035	84.94
264.267	89.94
264.499	86.94
264.732	76.94
264.964	78.94
265.197	90.94
265.429	88.94
265.661	88.94
265.894	75.94
266.126	88.94
266.358	72.94
266.591	85.94
266.823	88.94
267.055	73.94
267.287	106.94
267.52	88.94
267.752	93.94
267.984	89.94
268.216	88.94
268.448	70.94
268.681	98.94
268.913	80.94
269.145	74.94
269.377	86.94
269.609	74.94
269.841	78.94
270.073	79.94
270.306	77.94
270.538	86.94
270.77	82.94
271.002	75.94
271.234	88.94
271.466	85.94
271.698	80.94
271.93	92.94
272.162	93.94
272.394	88.94
272.626	69.94
272.858	96.94
273.09	90.94
273.322	94.94
273.553	86.94
273.785	81.94
274.017	93.94
274.249	81.94
274.481	71.94
274.713	83.94
274.945	84.94
275.176	89.94
275.408	82.94
275.64	108.94
275.872	110.94
276.104	94.94
276.335	94.94
276.567	96.94
276.799	112.94
277.031	132.94
277.262	123.94
277.494	115.94
277.726	85.94
277.957	89.94
278.189	90.94
278.421	85.94
278.652	93.94
278.884	83.94
279.115	84.94
279.347	95.94
279.579	86.94
279.81	120.94
280.042	136.94
280.273	142.94
280.505	117.94
280.736	88.94
280.968	101.94
281.199	104.94
281.431	98.94
281.662	92.94
281.894	95.94
282.125	86.94
282.356	117.94
282.588	139.94
282.819	125.94
283.051	87.94
283.282	97.94
283.513	94.94
283.745	87.94
283.976	73.94
284.207	82.94
284.439	78.94
284.67	88.94
284.901	80.94
285.132	93.94
285.364	90.94
285.595	93.94
285.826	98.94
286.057	96.94
286.288	82.94
286.52	90.94
286.751	76.94
286.982	60.94
287.213	93.94
287.444	89.94
287.675	82.94
287.906	89.94
288.138	71.94
288.369	103.94
288.6	93.94
288.831	98.94
289.062	91.94
289.293	76.94
289.524	94.94
289.755	78.94
289.986	84.94
290.217	82.94
290.448	84.94
290.679	83.94
290.91	84.94
291.141	80.94
291.371	88.94
291.602	95.94
291.833	88.94
292.064	74.94
292.295	102.94
292.526	78.94
292.757	97.94
292.987	89.94
293.218	68.94
293.449	80.94
293.68	86.94
293.91	84.94
294.141	100.94
294.372	86.94
294.603	94.94
294.833	97.94
295.064	96.94
295.295	82.94
295.525	93.94
295.756	91.94
295.987	108.94
296.217	129.94
296.448	132.94
296.679	99.94
296.909	94.94
297.14	94.94
297.37	97.94
297.601	98.94
297.831	93.94
298.062	94.94
298.292	96.94
298.523	82.94
298.753	98.94
298.984	82.94
299.214	91.94
299.445	99.94
299.675	100.94
299.905	110.94
300.136	106.94
300.366	93.94
300.597	89.94
300.827	95.94
301.057	107.94
301.288	109.94
301.518	89.94
301.748	91.94
301.979	98.94
302.209	91.94
302.439	91.94
302.669	86.94
302.9	92.94
303.13	108.94
303.36	114.94
303.59	98.94
303.82	132.94
304.051	104.94
304.281	101.94
304.511	83.94
304.741	79.94
304.971	90.94
305.201	98.94
305.431	97.94
305.661	91.94
305.891	103.94
306.121	96.94
306.352	98.94
306.582	97.94
306.812	92.94
307.042	103.94
307.272	122.94
307.502	128.94
307.731	124.94
307.961	105.94
308.191	81.94
308.421	100.94
308.651	100.94
308.881	96.94
309.111	101.94
309.341	94.94
309.571	101.94
309.8	106.94
310.03	99.94
310.26	104.94
310.49	103.94
310.72	103.94
310.949	106.94
311.179	104.94
311.409	98.94
311.639	93.94
311.868	94.94
312.098	99.94
312.328	100.94
312.557	103.94
312.787	108.94
313.017	111.94
313.246	98.94
313.476	105.94
313.706	90.94
313.935	94.94
314.165	88.94
314.394	102.94
314.624	98.94
314.853	91.94
315.083	92.94
315.312	98.94
315.542	96.94
315.771	91.94
316.001	88.94
316.23	98.94
316.46	102.94
316.689	105.94
316.919	106.94
317.148	107.94
317.377	98.94
317.607	93.94
317.836	97.94
318.065	95.94
318.295	96.94
318.524	91.94
318.753	92.94
318.983	94.94
319.212	108.94
319.441	110.94
319.67	102.94
319.9	94.94
320.129	102.94
320.358	109.94
320.587	103.94
320.816	106.94
321.046	95.94
321.275	91.94
321.504	106.94
321.733	91.94
321.962	106.94
322.191	112.94
322.42	92.94
322.649	103.94
322.878	116.94
323.108	117.94
323.337	132.94
323.566	152.94
323.795	155.94
324.024	217.94
324.253	454.94
324.482	935.94
324.71	1882.94
324.939	2477.94
325.168	880.94
325.397	236.94
325.626	167.94
325.855	129.94
326.084	144.94
326.313	156.94
326.542	169.94
326.77	250.94
326.999	522.94
327.228	1072.94
327.457	1880.94
327.686	1517.94
327.914	466.94
328.143	363.94
328.372	384.94
328.6	222.94
328.829	128.94
329.058	134.94
329.287	141.94
329.515	146.94
329.744	182.94
329.972	304.94
330.201	539.94
330.43	723.94
330.658	356.94
330.887	194.94
331.115	141.94
331.344	106.94
331.572	111.94
331.801	112.94
332.03	121.94
332.258	106.94
332.486	110.94
332.715	113.94
332.943	106.94
333.172	109.94
333.4	111.94
333.629	136.94
333.857	148.94
334.085	290.94
334.314	536.94
334.542	942.94
334.771	875.94
334.999	269.94
335.227	129.94
335.455	108.94
335.684	131.94
335.912	121.94
336.14	111.94
336.369	101.94
336.597	104.94
336.825	90.94
337.053	106.94
337.281	89.94
337.51	99.94
337.738	84.94
337.966	95.94
338.194	118.94
338.422	100.94
338.65	85.94
338.878	105.94
339.106	99.94
339.334	94.94
339.562	112.94
339.79	97.94
340.018	95.94
340.246	110.94
340.474	93.94
340.702	89.94
340.93	97.94
341.158	95.94
341.386	100.94
341.614	110.94
341.842	97.94
342.07	107.94
342.298	96.94
342.526	95.94
342.754	101.94
342.981	91.94
343.209	91.94
343.437	94.94
343.665	97.94
343.893	104.94
344.12	89.94
344.348	89.94
344.576	87.94
344.804	93.94
345.031	102.94
345.259	100.94
345.487	92.94
345.714	96.94
345.942	95.94
346.17	102.94
346.397	87.94
346.625	93.94
346.853	103.94
347.08	106.94
347.308	98.94
347.535	101.94
347.763	103.94
347.99	106.94
348.218	101.94
348.445	108.94
348.673	96.94
348.9	94.94
349.128	92.94
349.355	88.94
349.583	93.94
349.81	95.94
350.037	98.94
350.265	103.94
350.492	97.94
350.72	95.94
350.947	101.94
351.174	105.94
351.402	119.94
351.629	115.94
351.856	101.94
352.083	106.94
352.311	122.94
352.538	124.94
352.765	124.94
352.992	122.94
353.22	115.94
353.447	97.94
353.674	105.94
353.901	100.94
354.128	94.94
354.355	86.94
354.583	97.94
354.81	96.94
355.037	106.94
355.264	105.94
355.491	99.94
355.718	97.94
355.945	87.94
356.172	106.94
356.399	100.94
356.626	106.94
356.853	88.94
357.08	95.94
357.307	94.94
357.534	89.94
357.761	100.94
357.988	87.94
358.215	102.94
358.441	105.94
358.668	100.94
358.895	98.94
359.122	97.94
359.349	93.94
359.576	115.94
359.802	103.94
360.029	130.94
360.256	119.94
360.483	100.94
360.709	80.94
360.936	105.94
361.163	96.94
361.39	101.94
361.616	96.94
361.843	108.94
362.07	107.94
362.296	110.94
362.523	97.94
362.749	105.94
362.976	92.94
363.203	90.94
363.429	94.94
363.656	91.94
363.882	93.94
364.109	100.94
364.335	86.94
364.562	94.94
364.788	108.94
365.015	77.94
365.241	94.94
365.468	110.94
365.694	115.94
365.92	107.94
366.147	100.94
366.373	76.94
366.599	98.94
366.826	86.94
367.052	98.94
367.278	93.94
367.505	97.94
367.731	104.94
367.957	102.94
368.184	94.94
368.41	96.94
368.636	120.94
368.862	138.94
369.089	98.94
369.315	102.94
369.541	95.94
369.767	93.94
369.993	102.94
370.219	97.94
370.445	91.94
370.672	86.94
370.898	83.94
371.124	70.94
371.35	100.94
371.576	103.94
371.802	92.94
372.028	94.94
372.254	82.94
372.48	88.94
372.706	102.94
372.932	84.94
373.158	94.94
373.384	109.94
373.61	97.94
373.835	87.94
374.061	98.94
374.287	93.94
374.513	89.94
374.739	88.94
374.965	94.94
375.191	79.94
375.416	89.94
375.642	102.94
375.868	97.94
376.094	92.94
376.319	81.94
376.545	90.94
376.771	102.94
376.997	94.94
377.222	95.94
377.448	90.94
377.674	92.94
377.899	83.94
378.125	100.94
378.35	93.94
378.576	95.94
378.802	92.94
379.027	90.94
379.253	94.94
379.478	92.94
379.704	94.94
379.929	100.94
380.155	86.94
380.38	97.94
380.606	97.94
380.831	98.94
381.057	95.94
381.282	102.94
381.507	91.94
381.733	98.94
381.958	90.94
382.184	102.94
382.409	107.94
382.634	94.94
382.86	109.94
383.085	87.94
383.31	102.94
383.535	98.94
383.761	107.94
383.986	101.94
384.211	108.94
384.436	107.94
384.662	95.94
384.887	93.94
385.112	116.94
385.337	110.94
385.562	115.94
385.787	117.94
386.013	129.94
386.238	123.94
386.463	119.94
386.688	133.94
386.913	110.94
387.138	119.94
387.363	112.94
387.588	106.94
387.813	97.94
388.038	119.94
388.263	114.94
388.488	117.94
388.713	103.94
388.938	104.94
389.163	83.94
389.387	97.94
389.612	76.94
389.837	96.94
390.062	93.94
390.287	100.94
390.512	91.94
390.736	90.94
390.961	93.94
391.186	80.94
391.411	104.94
391.636	86.94
391.86	80.94
392.085	98.94
392.31	99.94
392.534	88.94
392.759	77.94
392.984	90.94
393.208	91.94
393.433	108.94
393.658	96.94
393.882	86.94
394.107	94.94
394.331	83.94
394.556	90.94
394.78	95.94
395.005	93.94
395.229	86.94
395.454	96.94
395.678	97.94
395.903	92.94
396.127	84.94
396.352	93.94
396.576	106.94
396.801	89.94
397.025	77.94
397.249	88.94
397.474	87.94
397.698	91.94
397.922	86.94
398.147	92.94
398.371	74.94
398.595	84.94
398.82	96.94
399.044	93.94
399.268	88.94
399.492	90.94
399.717	86.94
399.941	96.94
400.165	107.94
400.389	92.94
400.613	88.94
400.837	90.94
401.062	91.94
401.286	86.94
401.51	86.94
401.734	98.94
401.958	97.94
402.182	133.94
402.406	147.94
402.63	129.94
402.854	100.94
403.078	109.94
403.302	89.94
403.526	83.94
403.75	97.94
403.974	83.94
404.198	95.94
404.422	99.94
404.645	82.94
404.869	118.94
405.093	115.94
405.317	117.94
405.541	110.94
405.765	105.94
405.988	121.94
406.212	193.94
406.436	247.94
406.66	154.94
406.883	87.94
407.107	83.94
407.331	97.94
407.555	106.94
407.778	98.94
408.002	99.94
408.226	101.94
408.449	90.94
408.673	97.94
408.896	104.94
409.12	94.94
409.344	94.94
409.567	91.94
409.791	102.94
410.014	105.94
410.238	92.94
410.461	86.94
410.685	105.94
410.908	76.94
411.132	98.94
411.355	100.94
411.578	89.94
411.802	74.94
412.025	102.94
412.249	110.94
412.472	113.94
412.695	120.94
412.919	107.94
413.142	87.94
413.365	76.94
413.589	102.94
413.812	82.94
414.035	84.94
414.258	102.94
414.482	92.94
414.705	100.94
414.928	97.94
415.151	89.94
415.374	88.94
415.597	87.94
415.821	81.94
416.044	98.94
416.267	99.94
416.49	98.94
416.713	89.94
416.936	85.94
417.159	77.94
417.382	92.94
417.605	92.94
417.828	102.94
418.051	93.94
418.274	78.94
418.497	97.94
418.72	87.94
418.943	86.94
419.166	92.94
419.389	81.94
419.611	87.94
419.834	88.94
420.057	89.94
420.28	114.94
420.503	89.94
420.726	101.94
420.948	94.94
421.171	95.94
421.394	90.94
421.617	89.94
421.839	100.94
422.062	93.94
422.285	99.94
422.507	113.94
422.73	117.94
422.953	89.94
423.175	95.94
423.398	82.94
423.621	105.94
423.843	94.94
424.066	90.94
424.288	93.94
424.511	98.94
424.733	106.94
424.956	120.94
425.178	96.94
425.401	119.94
425.623	109.94
425.846	96.94
426.068	108.94
426.291	88.94
426.513	94.94
426.735	90.94
426.958	107.94
427.18	110.94
427.402	147.94
427.625	213.94
427.847	192.94
428.069	188.94
428.292	119.94
428.514	85.94
428.736	88.94
428.958	102.94
429.181	100.94
429.403	86.94
429.625	100.94
429.847	97.94
430.069	112.94
430.292	95.94
430.514	89.94
430.736	68.94
430.958	85.94
431.18	84.94
431.402	80.94
431.624	86.94
431.846	84.94
432.068	86.94
432.29	94.94
432.512	92.94
432.734	76.94
432.956	97.94
433.178	98.94
433.4	101.94
433.622	88.94
433.844	107.94
434.066	86.94
434.287	96.94
434.509	96.94
434.731	95.94
434.953	92.94
435.175	95.94
435.397	110.94
435.618	100.94
435.84	108.94
436.062	127.94
436.284	116.94
436.505	89.94
436.727	107.94
436.949	96.94
437.17	80.94
437.392	86.94
437.614	104.94
437.835	119.94
438.057	139.94
438.278	118.94
438.5	113.94
438.721	139.94
438.943	105.94
439.165	81.94
439.386	89.94
439.608	112.94
439.829	104.94
440.05	117.94
440.272	154.94
440.493	94.94
440.715	77.94
440.936	86.94
441.158	93.94
441.379	92.94
441.6	102.94
441.822	86.94
442.043	99.94
442.264	100.94
442.486	112.94
442.707	91.94
442.928	106.94
443.149	136.94
443.371	144.94
443.592	129.94
443.813	120.94
444.034	124.94
444.255	88.94
444.476	92.94
444.698	90.94
444.919	97.94
445.14	131.94
445.361	128.94
445.582	119.94
445.803	140.94
446.024	148.94
446.245	150.94
446.466	120.94
446.687	100.94
446.908	101.94
447.129	93.94
447.35	98.94
447.571	89.94
447.792	87.94
448.013	103.94
448.234	102.94
448.455	113.94
448.675	111.94
448.896	111.94
449.117	103.94
449.338	113.94
449.559	133.94
449.779	131.94
450	98.94
450.221	91.94
450.442	92.94
450.662	109.94
450.883	114.94
451.104	117.94
451.324	104.94
451.545	79.94
451.766	93.94
451.986	83.94
452.207	88.94
452.428	89.94
452.648	104.94
452.869	113.94
453.089	121.94
453.31	120.94
453.53	93.94
453.751	99.94
453.971	98.94
454.192	131.94
454.412	91.94
454.633	88.94
454.853	97.94
455.073	66.94
455.294	101.94
455.514	98.94
455.734	89.94
455.955	91.94
456.175	92.94
456.395	78.94
456.616	82.94
456.836	86.94
457.056	84.94
457.276	85.94
457.497	93.94
457.717	97.94
457.937	89.94
458.157	81.94
458.377	93.94
458.598	104.94
458.818	157.94
459.038	180.94
459.258	135.94
459.478	92.94
459.698	78.94
459.918	97.94
460.138	101.94
460.358	84.94
460.578	77.94
460.798	90.94
461.018	92.94
461.238	71.94
461.458	88.94
461.678	85.94
461.898	90.94
462.118	98.94
462.338	81.94
462.558	89.94
462.777	91.94
462.997	95.94
463.217	90.94
463.437	100.94
463.657	99.94
463.876	97.94
464.096	79.94
464.316	94.94
464.536	102.94
464.755	89.94
464.975	122.94
465.195	175.94
465.414	193.94
465.634	116.94
465.854	92.94
466.073	93.94
466.293	86.94
466.512	88.94
466.732	90.94
466.951	84.94
467.171	90.94
467.391	84.94
467.61	108.94
467.829	159.94
468.049	330.94
468.268	446.94
468.488	136.94
468.707	92.94
468.927	86.94
469.146	90.94
469.365	94.94
469.585	94.94
469.804	104.94
470.023	99.94
470.243	94.94
470.462	108.94
470.681	108.94
470.901	106.94
471.12	92.94
471.339	97.94
471.558	105.94
471.777	111.94
471.997	198.94
472.216	625.94
472.435	1260.94
472.654	334.94
472.873	129.94
473.092	99.94
473.311	94.94
473.53	89.94
473.749	80.94
473.968	89.94
474.187	103.94
474.406	102.94
474.625	82.94
474.844	98.94
475.063	98.94
475.282	85.94
475.501	83.94
475.72	103.94
475.939	86.94
476.158	88.94
476.377	92.94
476.596	86.94
476.814	93.94
477.033	85.94
477.252	92.94
477.471	93.94
477.69	89.94
477.908	97.94
478.127	93.94
478.346	98.94
478.564	90.94
478.783	108.94
479.002	93.94
479.22	108.94
479.439	121.94
479.658	123.94
479.876	125.94
480.095	110.94
480.313	123.94
480.532	135.94
480.751	192.94
480.969	594.94
481.188	2213.94
481.406	1274.94
481.624	220.94
481.843	104.94
482.061	80.94
482.28	93.94
482.498	92.94
482.717	85.94
482.935	104.94
483.153	88.94
483.372	96.94
483.59	84.94
483.808	91.94
484.027	88.94
484.245	94.94
484.463	92.94
484.681	98.94
484.9	103.94
485.118	101.94
485.336	95.94
485.554	95.94
485.772	95.94
485.99	93.94
486.209	94.94
486.427	103.94
486.645	116.94
486.863	113.94
487.081	104.94
487.299	99.94
487.517	114.94
487.735	101.94
487.953	88.94
488.171	90.94
488.389	92.94
488.607	102.94
488.825	85.94
489.043	94.94
489.261	90.94
489.479	89.94
489.696	89.94
489.914	71.94
490.132	83.94
490.35	93.94
490.568	96.94
490.786	82.94
491.003	86.94
491.221	85.94
491.439	94.94
491.657	103.94
491.874	88.94
492.092	77.94
492.31	94.94
492.527	89.94
492.745	94.94
492.963	84.94
493.18	85.94
493.398	96.94
493.615	89.94
493.833	106.94
494.05	107.94
494.268	92.94
494.485	89.94
494.703	99.94
494.92	108.94
495.138	93.94
495.355	85.94
495.573	100.94
495.79	88.94
496.008	79.94
496.225	98.94
496.442	80.94
496.66	95.94
496.877	88.94
497.094	89.94
497.312	88.94
497.529	64.94
497.746	86.94
497.963	78.94
498.181	99.94
498.398	79.94
498.615	105.94
498.832	105.94
499.049	93.94
499.267	69.94
499.484	93.94
499.701	79.94
499.918	86.94
500.135	89.94
500.352	79.94
500.569	82.94
500.786	89.94
501.003	74.94
501.22	100.94
501.437	103.94
501.654	113.94
501.871	123.94
502.088	101.94
502.305	86.94
502.522	86.94
502.739	83.94
502.956	83.94
503.172	93.94
503.389	94.94
503.606	109.94
503.823	109.94
504.04	95.94
504.256	90.94
504.473	99.94
504.69	98.94
504.907	97.94
505.123	86.94
505.34	84.94
505.557	92.94
505.773	97.94
505.99	84.94
506.207	83.94
506.423	85.94
506.64	91.94
506.856	91.94
507.073	101.94
507.289	100.94
507.506	87.94
507.722	115.94
507.939	116.94
508.155	101.94
508.372	88.94
508.588	91.94
508.805	98.94
509.021	94.94
509.238	97.94
509.454	82.94
509.67	92.94
509.887	103.94
510.103	128.94
510.319	215.94
510.536	723.94
510.752	2352.94
510.968	669.94
511.184	172.94
511.401	121.94
511.617	105.94
511.833	95.94
512.049	79.94
512.265	107.94
512.481	93.94
512.698	91.94
512.914	96.94
513.13	95.94
513.346	96.94
513.562	96.94
513.778	91.94
