Data from Circ_2001_H10_HRD10591_00083.txt Node
Date: Wed Jan 03 10:45:55 EST 2024
User: Yrep
Spectrometer: HR+D1059
Trigger mode: 1
Integration Time (sec): 1.000000E-1
Scans to average: 1
Electric dark correction enabled: true
Nonlinearity correction enabled: false
Boxcar width: 0
XAxis mode: Wavelengths
Number of Pixels in Spectrum: 2048
>>>>>Begin Spectral Data<<<<<
223.165	-25.25
223.4	-25.25
223.635	-25.25
223.869	-17.25
224.104	-14.25
224.338	-13.25
224.573	-26.25
224.808	-1.25
225.042	-19.25
225.277	-3.25
225.511	-0.25
225.746	-1.25
225.98	12.75
226.215	16.75
226.449	22.75
226.683	13.75
226.918	19.75
227.152	35.75
227.387	27.75
227.621	38.75
227.856	45.75
228.09	48.75
228.324	43.75
228.559	65.75
228.793	51.75
229.027	61.75
229.262	67.75
229.496	75.75
229.73	86.75
229.964	92.75
230.199	84.75
230.433	70.75
230.667	79.75
230.901	73.75
231.136	73.75
231.37	69.75
231.604	74.75
231.838	75.75
232.072	85.75
232.306	83.75
232.541	78.75
232.775	71.75
233.009	85.75
233.243	87.75
233.477	88.75
233.711	83.75
233.945	72.75
234.179	92.75
234.413	69.75
234.647	84.75
234.881	94.75
235.115	68.75
235.349	86.75
235.583	85.75
235.817	88.75
236.051	77.75
236.285	70.75
236.519	73.75
236.753	76.75
236.987	83.75
237.221	85.75
237.455	101.75
237.689	90.75
237.922	80.75
238.156	86.75
238.39	93.75
238.624	75.75
238.858	90.75
239.091	81.75
239.325	80.75
239.559	85.75
239.793	99.75
240.027	99.75
240.26	100.75
240.494	76.75
240.728	78.75
240.961	77.75
241.195	84.75
241.429	63.75
241.662	78.75
241.896	62.75
242.13	76.75
242.363	77.75
242.597	69.75
242.83	79.75
243.064	75.75
243.298	75.75
243.531	79.75
243.765	79.75
243.998	81.75
244.232	79.75
244.465	82.75
244.699	89.75
244.932	77.75
245.166	85.75
245.399	76.75
245.633	94.75
245.866	84.75
246.099	78.75
246.333	85.75
246.566	92.75
246.8	81.75
247.033	86.75
247.266	94.75
247.5	86.75
247.733	69.75
247.966	85.75
248.2	91.75
248.433	88.75
248.666	83.75
248.899	100.75
249.133	85.75
249.366	94.75
249.599	101.75
249.832	75.75
250.066	92.75
250.299	102.75
250.532	94.75
250.765	75.75
250.998	87.75
251.231	73.75
251.465	83.75
251.698	74.75
251.931	107.75
252.164	101.75
252.397	75.75
252.63	77.75
252.863	81.75
253.096	76.75
253.329	77.75
253.562	84.75
253.795	90.75
254.028	82.75
254.261	84.75
254.494	84.75
254.727	91.75
254.96	85.75
255.193	79.75
255.426	93.75
255.659	77.75
255.892	86.75
256.124	93.75
256.357	89.75
256.59	91.75
256.823	85.75
257.056	82.75
257.289	90.75
257.521	83.75
257.754	76.75
257.987	85.75
258.22	102.75
258.452	105.75
258.685	91.75
258.918	96.75
259.151	88.75
259.383	84.75
259.616	83.75
259.849	86.75
260.081	102.75
260.314	95.75
260.547	84.75
260.779	95.75
261.012	89.75
261.244	103.75
261.477	97.75
261.71	110.75
261.942	143.75
262.175	120.75
262.407	89.75
262.64	78.75
262.872	77.75
263.105	83.75
263.337	81.75
263.57	80.75
263.802	83.75
264.035	96.75
264.267	78.75
264.499	73.75
264.732	86.75
264.964	71.75
265.197	85.75
265.429	94.75
265.661	91.75
265.894	90.75
266.126	96.75
266.358	94.75
266.591	95.75
266.823	78.75
267.055	82.75
267.287	79.75
267.52	86.75
267.752	84.75
267.984	92.75
268.216	90.75
268.448	88.75
268.681	100.75
268.913	89.75
269.145	79.75
269.377	74.75
269.609	84.75
269.841	90.75
270.073	94.75
270.306	90.75
270.538	85.75
270.77	78.75
271.002	82.75
271.234	91.75
271.466	87.75
271.698	87.75
271.93	92.75
272.162	108.75
272.394	112.75
272.626	85.75
272.858	74.75
273.09	77.75
273.322	86.75
273.553	92.75
273.785	86.75
274.017	91.75
274.249	86.75
274.481	86.75
274.713	95.75
274.945	92.75
275.176	70.75
275.408	107.75
275.64	105.75
275.872	105.75
276.104	98.75
276.335	90.75
276.567	104.75
276.799	125.75
277.031	160.75
277.262	162.75
277.494	137.75
277.726	95.75
277.957	83.75
278.189	86.75
278.421	94.75
278.652	84.75
278.884	87.75
279.115	90.75
279.347	100.75
279.579	93.75
279.81	121.75
280.042	165.75
280.273	205.75
280.505	148.75
280.736	116.75
280.968	101.75
281.199	105.75
281.431	77.75
281.662	77.75
281.894	98.75
282.125	105.75
282.356	133.75
282.588	158.75
282.819	141.75
283.051	94.75
283.282	85.75
283.513	91.75
283.745	93.75
283.976	92.75
284.207	83.75
284.439	81.75
284.67	93.75
284.901	79.75
285.132	90.75
285.364	80.75
285.595	99.75
285.826	98.75
286.057	88.75
286.288	94.75
286.52	86.75
286.751	97.75
286.982	86.75
287.213	75.75
287.444	89.75
287.675	86.75
287.906	77.75
288.138	97.75
288.369	91.75
288.6	99.75
288.831	91.75
289.062	89.75
289.293	101.75
289.524	89.75
289.755	99.75
289.986	84.75
290.217	85.75
290.448	81.75
290.679	84.75
290.91	79.75
291.141	91.75
291.371	95.75
291.602	87.75
291.833	73.75
292.064	86.75
292.295	94.75
292.526	97.75
292.757	92.75
292.987	95.75
293.218	98.75
293.449	86.75
293.68	84.75
293.91	95.75
294.141	85.75
294.372	98.75
294.603	82.75
294.833	90.75
295.064	95.75
295.295	95.75
295.525	89.75
295.756	95.75
295.987	123.75
296.217	142.75
296.448	135.75
296.679	102.75
296.909	78.75
297.14	93.75
297.37	102.75
297.601	78.75
297.831	84.75
298.062	96.75
298.292	88.75
298.523	85.75
298.753	97.75
298.984	105.75
299.214	98.75
299.445	80.75
299.675	86.75
299.905	87.75
300.136	105.75
300.366	105.75
300.597	90.75
300.827	87.75
301.057	102.75
301.288	104.75
301.518	85.75
301.748	95.75
301.979	111.75
302.209	101.75
302.439	101.75
302.669	97.75
302.9	99.75
303.13	95.75
303.36	102.75
303.59	103.75
303.82	130.75
304.051	108.75
304.281	97.75
304.511	91.75
304.741	80.75
304.971	91.75
305.201	79.75
305.431	85.75
305.661	104.75
305.891	102.75
306.121	94.75
306.352	116.75
306.582	106.75
306.812	96.75
307.042	118.75
307.272	144.75
307.502	157.75
307.731	154.75
307.961	122.75
308.191	101.75
308.421	104.75
308.651	101.75
308.881	99.75
309.111	101.75
309.341	101.75
309.571	101.75
309.8	101.75
310.03	105.75
310.26	102.75
310.49	99.75
310.72	110.75
310.949	109.75
311.179	109.75
311.409	95.75
311.639	99.75
311.868	108.75
312.098	104.75
312.328	89.75
312.557	101.75
312.787	129.75
313.017	116.75
313.246	91.75
313.476	101.75
313.706	93.75
313.935	105.75
314.165	95.75
314.394	105.75
314.624	104.75
314.853	117.75
315.083	104.75
315.312	95.75
315.542	90.75
315.771	100.75
316.001	83.75
316.23	79.75
316.46	78.75
316.689	83.75
316.919	111.75
317.148	97.75
317.377	110.75
317.607	100.75
317.836	95.75
318.065	89.75
318.295	104.75
318.524	95.75
318.753	94.75
318.983	116.75
319.212	118.75
319.441	106.75
319.67	114.75
319.9	86.75
320.129	102.75
320.358	98.75
320.587	110.75
320.816	99.75
321.046	111.75
321.275	106.75
321.504	119.75
321.733	95.75
321.962	103.75
322.191	117.75
322.42	114.75
322.649	123.75
322.878	116.75
323.108	129.75
323.337	138.75
323.566	145.75
323.795	165.75
324.024	238.75
324.253	513.75
324.482	1081.75
324.71	2253.75
324.939	2952.75
325.168	1047.75
325.397	288.75
325.626	169.75
325.855	144.75
326.084	146.75
326.313	149.75
326.542	187.75
326.77	291.75
326.999	606.75
327.228	1247.75
327.457	2270.75
327.686	1795.75
327.914	555.75
328.143	453.75
328.372	534.75
328.6	327.75
328.829	181.75
329.058	183.75
329.287	185.75
329.515	168.75
329.744	234.75
329.972	421.75
330.201	854.75
330.43	1154.75
330.658	497.75
330.887	249.75
331.115	169.75
331.344	131.75
331.572	119.75
331.801	118.75
332.03	124.75
332.258	108.75
332.486	107.75
332.715	104.75
332.943	112.75
333.172	115.75
333.4	114.75
333.629	154.75
333.857	209.75
334.085	404.75
334.314	799.75
334.542	1522.75
334.771	1329.75
334.999	353.75
335.227	173.75
335.455	116.75
335.684	116.75
335.912	103.75
336.14	95.75
336.369	121.75
336.597	117.75
336.825	120.75
337.053	103.75
337.281	114.75
337.51	103.75
337.738	100.75
337.966	107.75
338.194	105.75
338.422	108.75
338.65	102.75
338.878	104.75
339.106	99.75
339.334	88.75
339.562	83.75
339.79	98.75
340.018	115.75
340.246	102.75
340.474	102.75
340.702	111.75
340.93	107.75
341.158	93.75
341.386	91.75
341.614	100.75
341.842	96.75
342.07	103.75
342.298	102.75
342.526	90.75
342.754	107.75
342.981	85.75
343.209	90.75
343.437	109.75
343.665	95.75
343.893	91.75
344.12	84.75
344.348	81.75
344.576	98.75
344.804	106.75
345.031	106.75
345.259	97.75
345.487	98.75
345.714	108.75
345.942	98.75
346.17	85.75
346.397	97.75
346.625	100.75
346.853	86.75
347.08	109.75
347.308	92.75
347.535	105.75
347.763	106.75
347.99	103.75
348.218	105.75
348.445	110.75
348.673	112.75
348.9	102.75
349.128	98.75
349.355	82.75
349.583	93.75
349.81	105.75
350.037	88.75
350.265	99.75
350.492	113.75
350.72	92.75
350.947	102.75
351.174	118.75
351.402	136.75
351.629	114.75
351.856	111.75
352.083	114.75
352.311	114.75
352.538	114.75
352.765	115.75
352.992	118.75
353.22	121.75
353.447	118.75
353.674	99.75
353.901	93.75
354.128	93.75
354.355	93.75
354.583	80.75
354.81	102.75
355.037	91.75
355.264	98.75
355.491	88.75
355.718	75.75
355.945	95.75
356.172	84.75
356.399	94.75
356.626	95.75
356.853	85.75
357.08	79.75
357.307	105.75
357.534	92.75
357.761	94.75
357.988	105.75
358.215	107.75
358.441	85.75
358.668	85.75
358.895	93.75
359.122	82.75
359.349	86.75
359.576	103.75
359.802	113.75
360.029	131.75
360.256	125.75
360.483	110.75
360.709	95.75
360.936	86.75
361.163	105.75
361.39	103.75
361.616	100.75
361.843	87.75
362.07	101.75
362.296	112.75
362.523	86.75
362.749	84.75
362.976	95.75
363.203	86.75
363.429	104.75
363.656	92.75
363.882	98.75
364.109	105.75
364.335	95.75
364.562	96.75
364.788	93.75
365.015	96.75
365.241	95.75
365.468	106.75
365.694	120.75
365.92	103.75
366.147	101.75
366.373	94.75
366.599	95.75
366.826	86.75
367.052	100.75
367.278	92.75
367.505	93.75
367.731	100.75
367.957	95.75
368.184	86.75
368.41	105.75
368.636	110.75
368.862	110.75
369.089	117.75
369.315	103.75
369.541	94.75
369.767	90.75
369.993	99.75
370.219	109.75
370.445	95.75
370.672	95.75
370.898	90.75
371.124	91.75
371.35	86.75
371.576	87.75
371.802	86.75
372.028	105.75
372.254	87.75
372.48	86.75
372.706	88.75
372.932	92.75
373.158	93.75
373.384	88.75
373.61	88.75
373.835	89.75
374.061	91.75
374.287	90.75
374.513	83.75
374.739	95.75
374.965	67.75
375.191	85.75
375.416	85.75
375.642	100.75
375.868	95.75
376.094	98.75
376.319	83.75
376.545	84.75
376.771	92.75
376.997	97.75
377.222	86.75
377.448	104.75
377.674	93.75
377.899	88.75
378.125	96.75
378.35	96.75
378.576	87.75
378.802	88.75
379.027	93.75
379.253	93.75
379.478	92.75
379.704	93.75
379.929	86.75
380.155	92.75
380.38	99.75
380.606	99.75
380.831	91.75
381.057	93.75
381.282	106.75
381.507	100.75
381.733	115.75
381.958	97.75
382.184	108.75
382.409	92.75
382.634	94.75
382.86	105.75
383.085	105.75
383.31	85.75
383.535	106.75
383.761	97.75
383.986	88.75
384.211	102.75
384.436	103.75
384.662	98.75
384.887	101.75
385.112	86.75
385.337	108.75
385.562	112.75
385.787	109.75
386.013	121.75
386.238	102.75
386.463	103.75
386.688	88.75
386.913	106.75
387.138	93.75
387.363	106.75
387.588	98.75
387.813	112.75
388.038	100.75
388.263	110.75
388.488	94.75
388.713	86.75
388.938	102.75
389.163	80.75
389.387	102.75
389.612	111.75
389.837	97.75
390.062	86.75
390.287	100.75
390.512	84.75
390.736	82.75
390.961	88.75
391.186	109.75
391.411	93.75
391.636	78.75
391.86	92.75
392.085	85.75
392.31	85.75
392.534	90.75
392.759	94.75
392.984	82.75
393.208	93.75
393.433	97.75
393.658	92.75
393.882	95.75
394.107	98.75
394.331	87.75
394.556	99.75
394.78	93.75
395.005	80.75
395.229	86.75
395.454	79.75
395.678	102.75
395.903	89.75
396.127	91.75
396.352	89.75
396.576	86.75
396.801	103.75
397.025	93.75
397.249	83.75
397.474	98.75
397.698	79.75
397.922	87.75
398.147	94.75
398.371	87.75
398.595	81.75
398.82	90.75
399.044	82.75
399.268	94.75
399.492	91.75
399.717	93.75
399.941	90.75
400.165	94.75
400.389	83.75
400.613	74.75
400.837	101.75
401.062	97.75
401.286	74.75
401.51	92.75
401.734	92.75
401.958	115.75
402.182	139.75
402.406	186.75
402.63	123.75
402.854	99.75
403.078	111.75
403.302	87.75
403.526	82.75
403.75	90.75
403.974	91.75
404.198	100.75
404.422	88.75
404.645	90.75
404.869	100.75
405.093	109.75
405.317	129.75
405.541	130.75
405.765	110.75
405.988	112.75
406.212	191.75
406.436	259.75
406.66	174.75
406.883	112.75
407.107	88.75
407.331	99.75
407.555	112.75
407.778	114.75
408.002	84.75
408.226	79.75
408.449	79.75
408.673	88.75
408.896	97.75
409.12	108.75
409.344	92.75
409.567	83.75
409.791	89.75
410.014	86.75
410.238	87.75
410.461	91.75
410.685	97.75
410.908	97.75
411.132	111.75
411.355	110.75
411.578	98.75
411.802	96.75
412.025	98.75
412.249	107.75
412.472	120.75
412.695	135.75
412.919	116.75
413.142	95.75
413.365	82.75
413.589	92.75
413.812	95.75
414.035	88.75
414.258	82.75
414.482	86.75
414.705	85.75
414.928	91.75
415.151	82.75
415.374	96.75
415.597	91.75
415.821	90.75
416.044	80.75
416.267	92.75
416.49	86.75
416.713	82.75
416.936	106.75
417.159	99.75
417.382	106.75
417.605	83.75
417.828	98.75
418.051	87.75
418.274	85.75
418.497	107.75
418.72	95.75
418.943	85.75
419.166	100.75
419.389	93.75
419.611	101.75
419.834	97.75
420.057	98.75
420.28	101.75
420.503	79.75
420.726	87.75
420.948	87.75
421.171	96.75
421.394	103.75
421.617	100.75
421.839	90.75
422.062	89.75
422.285	85.75
422.507	106.75
422.73	110.75
422.953	93.75
423.175	93.75
423.398	88.75
423.621	72.75
423.843	90.75
424.066	91.75
424.288	88.75
424.511	107.75
424.733	103.75
424.956	131.75
425.178	124.75
425.401	111.75
425.623	110.75
425.846	101.75
426.068	104.75
426.291	86.75
426.513	90.75
426.735	97.75
426.958	95.75
427.18	117.75
427.402	189.75
427.625	237.75
427.847	237.75
428.069	222.75
428.292	98.75
428.514	95.75
428.736	89.75
428.958	89.75
429.181	110.75
429.403	88.75
429.625	81.75
429.847	100.75
430.069	119.75
430.292	103.75
430.514	82.75
430.736	91.75
430.958	98.75
431.18	92.75
431.402	98.75
431.624	104.75
431.846	82.75
432.068	90.75
432.29	93.75
432.512	104.75
432.734	86.75
432.956	92.75
433.178	117.75
433.4	100.75
433.622	93.75
433.844	92.75
434.066	104.75
434.287	94.75
434.509	80.75
434.731	103.75
434.953	110.75
435.175	97.75
435.397	102.75
435.618	93.75
435.84	120.75
436.062	120.75
436.284	126.75
436.505	110.75
436.727	127.75
436.949	105.75
437.17	87.75
437.392	106.75
437.614	91.75
437.835	120.75
438.057	129.75
438.278	131.75
438.5	108.75
438.721	140.75
438.943	119.75
439.165	88.75
439.386	90.75
439.608	90.75
439.829	126.75
440.05	150.75
440.272	190.75
440.493	109.75
440.715	86.75
440.936	91.75
441.158	86.75
441.379	88.75
441.6	99.75
441.822	92.75
442.043	102.75
442.264	123.75
442.486	109.75
442.707	113.75
442.928	120.75
443.149	164.75
443.371	153.75
443.592	110.75
443.813	122.75
444.034	120.75
444.255	95.75
444.476	88.75
444.698	86.75
444.919	88.75
445.14	138.75
445.361	152.75
445.582	141.75
445.803	177.75
446.024	173.75
446.245	178.75
446.466	126.75
446.687	97.75
446.908	92.75
447.129	102.75
447.35	87.75
447.571	97.75
447.792	92.75
448.013	99.75
448.234	114.75
448.455	115.75
448.675	117.75
448.896	132.75
449.117	109.75
449.338	120.75
449.559	165.75
449.779	160.75
450	119.75
450.221	110.75
450.442	84.75
450.662	94.75
450.883	119.75
451.104	134.75
451.324	106.75
451.545	90.75
451.766	105.75
451.986	81.75
452.207	83.75
452.428	100.75
452.648	106.75
452.869	114.75
453.089	125.75
453.31	122.75
453.53	101.75
453.751	112.75
453.971	106.75
454.192	133.75
454.412	87.75
454.633	96.75
454.853	95.75
455.073	94.75
455.294	101.75
455.514	101.75
455.734	93.75
455.955	101.75
456.175	94.75
456.395	94.75
456.616	90.75
456.836	90.75
457.056	89.75
457.276	94.75
457.497	86.75
457.717	95.75
457.937	95.75
458.157	82.75
458.377	98.75
458.598	133.75
458.818	172.75
459.038	194.75
459.258	127.75
459.478	99.75
459.698	80.75
459.918	90.75
460.138	100.75
460.358	73.75
460.578	97.75
460.798	97.75
461.018	93.75
461.238	102.75
461.458	97.75
461.678	89.75
461.898	83.75
462.118	87.75
462.338	86.75
462.558	102.75
462.777	95.75
462.997	107.75
463.217	108.75
463.437	86.75
463.657	91.75
463.876	77.75
464.096	97.75
464.316	102.75
464.536	111.75
464.755	106.75
464.975	125.75
465.195	204.75
465.414	216.75
465.634	101.75
465.854	95.75
466.073	99.75
466.293	87.75
466.512	97.75
466.732	103.75
466.951	88.75
467.171	101.75
467.391	103.75
467.61	151.75
467.829	197.75
468.049	460.75
468.268	666.75
468.488	191.75
468.707	103.75
468.927	98.75
469.146	90.75
469.365	100.75
469.585	91.75
469.804	93.75
470.023	108.75
470.243	108.75
470.462	119.75
470.681	125.75
470.901	93.75
471.12	87.75
471.339	97.75
471.558	117.75
471.777	154.75
471.997	244.75
472.216	963.75
472.435	1943.75
472.654	480.75
472.873	153.75
473.092	111.75
473.311	102.75
473.53	79.75
473.749	88.75
473.968	102.75
474.187	119.75
474.406	113.75
474.625	88.75
474.844	101.75
475.063	83.75
475.282	95.75
475.501	98.75
475.72	103.75
475.939	93.75
476.158	97.75
476.377	91.75
476.596	99.75
476.814	96.75
477.033	100.75
477.252	92.75
477.471	89.75
477.69	90.75
477.908	96.75
478.127	99.75
478.346	89.75
478.564	89.75
478.783	98.75
479.002	97.75
479.22	108.75
479.439	129.75
479.658	126.75
479.876	122.75
480.095	105.75
480.313	124.75
480.532	157.75
480.751	258.75
480.969	884.75
481.188	3509.75
481.406	1978.75
481.624	305.75
481.843	124.75
482.061	114.75
482.28	99.75
482.498	92.75
482.717	99.75
482.935	93.75
483.153	95.75
483.372	86.75
483.59	93.75
483.808	82.75
484.027	108.75
484.245	95.75
484.463	95.75
484.681	91.75
484.9	91.75
485.118	96.75
485.336	104.75
485.554	86.75
485.772	133.75
485.99	99.75
486.209	99.75
486.427	103.75
486.645	127.75
486.863	129.75
487.081	114.75
487.299	92.75
487.517	90.75
487.735	106.75
487.953	91.75
488.171	102.75
488.389	104.75
488.607	99.75
488.825	87.75
489.043	75.75
489.261	83.75
489.479	101.75
489.696	82.75
489.914	111.75
490.132	90.75
490.35	90.75
490.568	92.75
490.786	93.75
491.003	89.75
491.221	95.75
491.439	92.75
491.657	101.75
491.874	97.75
492.092	99.75
492.31	99.75
492.527	89.75
492.745	91.75
492.963	101.75
493.18	100.75
493.398	92.75
493.615	85.75
493.833	90.75
494.05	87.75
494.268	86.75
494.485	87.75
494.703	93.75
494.92	93.75
495.138	83.75
495.355	101.75
495.573	98.75
495.79	88.75
496.008	92.75
496.225	89.75
496.442	92.75
496.66	96.75
496.877	100.75
497.094	89.75
497.312	95.75
497.529	84.75
497.746	93.75
497.963	79.75
498.181	93.75
498.398	100.75
498.615	116.75
498.832	118.75
499.049	93.75
499.267	102.75
499.484	86.75
499.701	90.75
499.918	93.75
500.135	92.75
500.352	95.75
500.569	91.75
500.786	95.75
501.003	92.75
501.22	92.75
501.437	94.75
501.654	101.75
501.871	115.75
502.088	98.75
502.305	85.75
502.522	98.75
502.739	81.75
502.956	91.75
503.172	116.75
503.389	113.75
503.606	105.75
503.823	110.75
504.04	109.75
504.256	88.75
504.473	81.75
504.69	105.75
504.907	102.75
505.123	91.75
505.34	82.75
505.557	89.75
505.773	96.75
505.99	85.75
506.207	85.75
506.423	97.75
506.64	89.75
506.856	91.75
507.073	97.75
507.289	90.75
507.506	92.75
507.722	125.75
507.939	131.75
508.155	113.75
508.372	100.75
508.588	90.75
508.805	99.75
509.021	97.75
509.238	101.75
509.454	100.75
509.67	104.75
509.887	106.75
510.103	129.75
510.319	227.75
510.536	760.75
510.752	2399.75
510.968	683.75
511.184	159.75
511.401	113.75
511.617	114.75
511.833	108.75
512.049	97.75
512.265	109.75
512.481	96.75
512.698	85.75
