Data from Circ_2001_H10_HRD10591_00072.txt Node
Date: Wed Jan 03 10:45:53 EST 2024
User: Yrep
Spectrometer: HR+D1059
Trigger mode: 1
Integration Time (sec): 1.000000E-1
Scans to average: 1
Electric dark correction enabled: true
Nonlinearity correction enabled: false
Boxcar width: 0
XAxis mode: Wavelengths
Number of Pixels in Spectrum: 2048
>>>>>Begin Spectral Data<<<<<
223.165	-28.62
223.4	-28.62
223.635	-28.62
223.869	-20.62
224.104	-10.62
224.338	-19.62
224.573	-23.62
224.808	-21.62
225.042	2.38
225.277	-9.62
225.511	8.38
225.746	-6.62
225.98	18.38
226.215	17.38
226.449	15.38
226.683	25.38
226.918	17.38
227.152	36.38
227.387	35.38
227.621	43.38
227.856	41.38
228.09	45.38
228.324	50.38
228.559	46.38
228.793	64.38
229.027	64.38
229.262	58.38
229.496	73.38
229.73	92.38
229.964	82.38
230.199	65.38
230.433	86.38
230.667	77.38
230.901	74.38
231.136	82.38
231.37	74.38
231.604	70.38
231.838	72.38
232.072	80.38
232.306	80.38
232.541	58.38
232.775	92.38
233.009	69.38
233.243	85.38
233.477	69.38
233.711	97.38
233.945	92.38
234.179	84.38
234.413	78.38
234.647	73.38
234.881	73.38
235.115	84.38
235.349	92.38
235.583	71.38
235.817	78.38
236.051	77.38
236.285	56.38
236.519	89.38
236.753	91.38
236.987	79.38
237.221	84.38
237.455	93.38
237.689	93.38
237.922	84.38
238.156	82.38
238.39	82.38
238.624	86.38
238.858	92.38
239.091	71.38
239.325	85.38
239.559	78.38
239.793	74.38
240.027	83.38
240.26	88.38
240.494	82.38
240.728	77.38
240.961	63.38
241.195	86.38
241.429	79.38
241.662	72.38
241.896	78.38
242.13	76.38
242.363	89.38
242.597	85.38
242.83	81.38
243.064	83.38
243.298	75.38
243.531	87.38
243.765	85.38
243.998	75.38
244.232	83.38
244.465	75.38
244.699	68.38
244.932	83.38
245.166	91.38
245.399	97.38
245.633	91.38
245.866	78.38
246.099	68.38
246.333	74.38
246.566	86.38
246.8	77.38
247.033	84.38
247.266	75.38
247.5	78.38
247.733	84.38
247.966	90.38
248.2	81.38
248.433	70.38
248.666	72.38
248.899	81.38
249.133	84.38
249.366	108.38
249.599	92.38
249.832	86.38
250.066	96.38
250.299	81.38
250.532	89.38
250.765	82.38
250.998	70.38
251.231	88.38
251.465	103.38
251.698	74.38
251.931	74.38
252.164	75.38
252.397	84.38
252.63	77.38
252.863	73.38
253.096	68.38
253.329	91.38
253.562	83.38
253.795	79.38
254.028	84.38
254.261	79.38
254.494	74.38
254.727	84.38
254.96	89.38
255.193	78.38
255.426	77.38
255.659	91.38
255.892	84.38
256.124	87.38
256.357	90.38
256.59	91.38
256.823	97.38
257.056	85.38
257.289	83.38
257.521	83.38
257.754	68.38
257.987	76.38
258.22	85.38
258.452	97.38
258.685	74.38
258.918	83.38
259.151	75.38
259.383	80.38
259.616	88.38
259.849	79.38
260.081	86.38
260.314	99.38
260.547	89.38
260.779	85.38
261.012	96.38
261.244	93.38
261.477	92.38
261.71	80.38
261.942	131.38
262.175	116.38
262.407	87.38
262.64	91.38
262.872	92.38
263.105	79.38
263.337	76.38
263.57	88.38
263.802	73.38
264.035	89.38
264.267	83.38
264.499	92.38
264.732	73.38
264.964	73.38
265.197	76.38
265.429	69.38
265.661	90.38
265.894	81.38
266.126	92.38
266.358	77.38
266.591	89.38
266.823	84.38
267.055	83.38
267.287	96.38
267.52	87.38
267.752	83.38
267.984	102.38
268.216	86.38
268.448	89.38
268.681	80.38
268.913	87.38
269.145	81.38
269.377	86.38
269.609	89.38
269.841	93.38
270.073	77.38
270.306	91.38
270.538	88.38
270.77	88.38
271.002	98.38
271.234	91.38
271.466	85.38
271.698	93.38
271.93	94.38
272.162	97.38
272.394	77.38
272.626	100.38
272.858	71.38
273.09	90.38
273.322	73.38
273.553	80.38
273.785	87.38
274.017	85.38
274.249	79.38
274.481	73.38
274.713	79.38
274.945	89.38
275.176	94.38
275.408	98.38
275.64	93.38
275.872	114.38
276.104	93.38
276.335	86.38
276.567	115.38
276.799	118.38
277.031	144.38
277.262	157.38
277.494	131.38
277.726	90.38
277.957	101.38
278.189	101.38
278.421	81.38
278.652	81.38
278.884	98.38
279.115	100.38
279.347	94.38
279.579	101.38
279.81	113.38
280.042	164.38
280.273	186.38
280.505	130.38
280.736	104.38
280.968	87.38
281.199	79.38
281.431	86.38
281.662	97.38
281.894	96.38
282.125	101.38
282.356	123.38
282.588	134.38
282.819	105.38
283.051	85.38
283.282	92.38
283.513	94.38
283.745	83.38
283.976	92.38
284.207	95.38
284.439	87.38
284.67	98.38
284.901	93.38
285.132	75.38
285.364	87.38
285.595	99.38
285.826	89.38
286.057	85.38
286.288	85.38
286.52	74.38
286.751	76.38
286.982	81.38
287.213	104.38
287.444	85.38
287.675	93.38
287.906	107.38
288.138	103.38
288.369	104.38
288.6	96.38
288.831	100.38
289.062	101.38
289.293	80.38
289.524	88.38
289.755	91.38
289.986	79.38
290.217	86.38
290.448	78.38
290.679	85.38
290.91	97.38
291.141	104.38
291.371	84.38
291.602	80.38
291.833	106.38
292.064	97.38
292.295	68.38
292.526	82.38
292.757	70.38
292.987	90.38
293.218	100.38
293.449	90.38
293.68	74.38
293.91	87.38
294.141	87.38
294.372	75.38
294.603	98.38
294.833	88.38
295.064	93.38
295.295	90.38
295.525	90.38
295.756	115.38
295.987	112.38
296.217	141.38
296.448	108.38
296.679	101.38
296.909	88.38
297.14	83.38
297.37	97.38
297.601	93.38
297.831	89.38
298.062	87.38
298.292	79.38
298.523	89.38
298.753	96.38
298.984	104.38
299.214	93.38
299.445	92.38
299.675	102.38
299.905	100.38
300.136	94.38
300.366	91.38
300.597	95.38
300.827	91.38
301.057	96.38
301.288	108.38
301.518	90.38
301.748	103.38
301.979	107.38
302.209	99.38
302.439	88.38
302.669	91.38
302.9	88.38
303.13	96.38
303.36	102.38
303.59	105.38
303.82	139.38
304.051	95.38
304.281	108.38
304.511	100.38
304.741	80.38
304.971	77.38
305.201	95.38
305.431	97.38
305.661	113.38
305.891	91.38
306.121	101.38
306.352	100.38
306.582	99.38
306.812	73.38
307.042	104.38
307.272	118.38
307.502	140.38
307.731	135.38
307.961	106.38
308.191	99.38
308.421	99.38
308.651	89.38
308.881	107.38
309.111	94.38
309.341	98.38
309.571	98.38
309.8	87.38
310.03	111.38
310.26	100.38
310.49	98.38
310.72	103.38
310.949	98.38
311.179	105.38
311.409	96.38
311.639	102.38
311.868	100.38
312.098	92.38
312.328	79.38
312.557	111.38
312.787	112.38
313.017	106.38
313.246	93.38
313.476	92.38
313.706	103.38
313.935	97.38
314.165	117.38
314.394	112.38
314.624	93.38
314.853	96.38
315.083	97.38
315.312	83.38
315.542	90.38
315.771	97.38
316.001	103.38
316.23	90.38
316.46	84.38
316.689	88.38
316.919	88.38
317.148	107.38
317.377	99.38
317.607	90.38
317.836	95.38
318.065	90.38
318.295	86.38
318.524	77.38
318.753	84.38
318.983	88.38
319.212	102.38
319.441	100.38
319.67	106.38
319.9	107.38
320.129	105.38
320.358	95.38
320.587	91.38
320.816	85.38
321.046	88.38
321.275	97.38
321.504	116.38
321.733	109.38
321.962	115.38
322.191	106.38
322.42	114.38
322.649	124.38
322.878	101.38
323.108	129.38
323.337	129.38
323.566	121.38
323.795	160.38
324.024	225.38
324.253	421.38
324.482	882.38
324.71	1842.38
324.939	2371.38
325.168	861.38
325.397	250.38
325.626	160.38
325.855	137.38
326.084	121.38
326.313	139.38
326.542	160.38
326.77	236.38
326.999	481.38
327.228	1000.38
327.457	1820.38
327.686	1435.38
327.914	469.38
328.143	384.38
328.372	432.38
328.6	264.38
328.829	166.38
329.058	157.38
329.287	155.38
329.515	147.38
329.744	200.38
329.972	324.38
330.201	663.38
330.43	901.38
330.658	420.38
330.887	207.38
331.115	144.38
331.344	109.38
331.572	114.38
331.801	108.38
332.03	129.38
332.258	122.38
332.486	104.38
332.715	112.38
332.943	105.38
333.172	106.38
333.4	124.38
333.629	136.38
333.857	191.38
334.085	322.38
334.314	625.38
334.542	1147.38
334.771	1053.38
334.999	289.38
335.227	133.38
335.455	115.38
335.684	106.38
335.912	96.38
336.14	91.38
336.369	114.38
336.597	108.38
336.825	99.38
337.053	106.38
337.281	110.38
337.51	95.38
337.738	96.38
337.966	102.38
338.194	96.38
338.422	94.38
338.65	88.38
338.878	88.38
339.106	90.38
339.334	104.38
339.562	91.38
339.79	102.38
340.018	103.38
340.246	94.38
340.474	93.38
340.702	81.38
340.93	92.38
341.158	89.38
341.386	95.38
341.614	88.38
341.842	91.38
342.07	92.38
342.298	82.38
342.526	93.38
342.754	75.38
342.981	79.38
343.209	96.38
343.437	84.38
343.665	85.38
343.893	101.38
344.12	86.38
344.348	85.38
344.576	94.38
344.804	87.38
345.031	91.38
345.259	98.38
345.487	103.38
345.714	96.38
345.942	97.38
346.17	97.38
346.397	97.38
346.625	101.38
346.853	90.38
347.08	90.38
347.308	99.38
347.535	111.38
347.763	104.38
347.99	92.38
348.218	100.38
348.445	102.38
348.673	98.38
348.9	91.38
349.128	97.38
349.355	91.38
349.583	97.38
349.81	87.38
350.037	88.38
350.265	95.38
350.492	99.38
350.72	100.38
350.947	96.38
351.174	101.38
351.402	100.38
351.629	101.38
351.856	92.38
352.083	105.38
352.311	106.38
352.538	114.38
352.765	108.38
352.992	121.38
353.22	108.38
353.447	99.38
353.674	89.38
353.901	87.38
354.128	84.38
354.355	95.38
354.583	94.38
354.81	95.38
355.037	94.38
355.264	80.38
355.491	96.38
355.718	96.38
355.945	84.38
356.172	102.38
356.399	96.38
356.626	104.38
356.853	93.38
357.08	95.38
357.307	100.38
357.534	109.38
357.761	93.38
357.988	92.38
358.215	89.38
358.441	81.38
358.668	82.38
358.895	78.38
359.122	89.38
359.349	90.38
359.576	87.38
359.802	96.38
360.029	127.38
360.256	124.38
360.483	110.38
360.709	78.38
360.936	89.38
361.163	93.38
361.39	94.38
361.616	97.38
361.843	101.38
362.07	97.38
362.296	89.38
362.523	97.38
362.749	91.38
362.976	98.38
363.203	108.38
363.429	89.38
363.656	93.38
363.882	88.38
364.109	86.38
364.335	87.38
364.562	79.38
364.788	107.38
365.015	88.38
365.241	97.38
365.468	113.38
365.694	107.38
365.92	107.38
366.147	83.38
366.373	84.38
366.599	89.38
366.826	97.38
367.052	91.38
367.278	88.38
367.505	86.38
367.731	87.38
367.957	85.38
368.184	100.38
368.41	95.38
368.636	119.38
368.862	124.38
369.089	112.38
369.315	91.38
369.541	92.38
369.767	92.38
369.993	100.38
370.219	88.38
370.445	90.38
370.672	87.38
370.898	82.38
371.124	99.38
371.35	86.38
371.576	92.38
371.802	85.38
372.028	87.38
372.254	73.38
372.48	84.38
372.706	92.38
372.932	76.38
373.158	94.38
373.384	96.38
373.61	100.38
373.835	89.38
374.061	87.38
374.287	96.38
374.513	90.38
374.739	85.38
374.965	89.38
375.191	80.38
375.416	86.38
375.642	84.38
375.868	100.38
376.094	96.38
376.319	97.38
376.545	89.38
376.771	96.38
376.997	83.38
377.222	93.38
377.448	97.38
377.674	93.38
377.899	87.38
378.125	82.38
378.35	92.38
378.576	83.38
378.802	95.38
379.027	100.38
379.253	83.38
379.478	83.38
379.704	99.38
379.929	89.38
380.155	103.38
380.38	99.38
380.606	94.38
380.831	98.38
381.057	96.38
381.282	97.38
381.507	105.38
381.733	99.38
381.958	87.38
382.184	97.38
382.409	83.38
382.634	103.38
382.86	92.38
383.085	99.38
383.31	94.38
383.535	98.38
383.761	91.38
383.986	89.38
384.211	96.38
384.436	101.38
384.662	103.38
384.887	95.38
385.112	86.38
385.337	91.38
385.562	102.38
385.787	123.38
386.013	100.38
386.238	99.38
386.463	110.38
386.688	119.38
386.913	95.38
387.138	104.38
387.363	104.38
387.588	86.38
387.813	98.38
388.038	101.38
388.263	116.38
388.488	111.38
388.713	83.38
388.938	95.38
389.163	96.38
389.387	94.38
389.612	92.38
389.837	83.38
390.062	84.38
390.287	71.38
390.512	88.38
390.736	86.38
390.961	88.38
391.186	87.38
391.411	96.38
391.636	85.38
391.86	84.38
392.085	80.38
392.31	81.38
392.534	99.38
392.759	97.38
392.984	79.38
393.208	92.38
393.433	85.38
393.658	91.38
393.882	99.38
394.107	90.38
394.331	82.38
394.556	104.38
394.78	91.38
395.005	85.38
395.229	88.38
395.454	82.38
395.678	79.38
395.903	88.38
396.127	80.38
396.352	88.38
396.576	92.38
396.801	100.38
397.025	107.38
397.249	85.38
397.474	78.38
397.698	96.38
397.922	96.38
398.147	85.38
398.371	97.38
398.595	97.38
398.82	91.38
399.044	92.38
399.268	90.38
399.492	88.38
399.717	85.38
399.941	97.38
400.165	86.38
400.389	80.38
400.613	87.38
400.837	93.38
401.062	94.38
401.286	99.38
401.51	88.38
401.734	87.38
401.958	111.38
402.182	123.38
402.406	167.38
402.63	129.38
402.854	102.38
403.078	76.38
403.302	83.38
403.526	84.38
403.75	88.38
403.974	81.38
404.198	85.38
404.422	87.38
404.645	85.38
404.869	105.38
405.093	118.38
405.317	107.38
405.541	125.38
405.765	108.38
405.988	122.38
406.212	184.38
406.436	245.38
406.66	157.38
406.883	104.38
407.107	86.38
407.331	105.38
407.555	97.38
407.778	107.38
408.002	94.38
408.226	89.38
408.449	90.38
408.673	103.38
408.896	98.38
409.12	103.38
409.344	77.38
409.567	93.38
409.791	99.38
410.014	88.38
410.238	99.38
410.461	89.38
410.685	81.38
410.908	99.38
411.132	114.38
411.355	94.38
411.578	87.38
411.802	97.38
412.025	99.38
412.249	91.38
412.472	102.38
412.695	124.38
412.919	111.38
413.142	92.38
413.365	84.38
413.589	99.38
413.812	93.38
414.035	83.38
414.258	88.38
414.482	93.38
414.705	92.38
414.928	87.38
415.151	80.38
415.374	76.38
415.597	89.38
415.821	94.38
416.044	81.38
416.267	92.38
416.49	93.38
416.713	98.38
416.936	91.38
417.159	100.38
417.382	82.38
417.605	90.38
417.828	101.38
418.051	105.38
418.274	84.38
418.497	73.38
418.72	79.38
418.943	97.38
419.166	86.38
419.389	85.38
419.611	102.38
419.834	97.38
420.057	92.38
420.28	73.38
420.503	84.38
420.726	88.38
420.948	90.38
421.171	99.38
421.394	87.38
421.617	92.38
421.839	106.38
422.062	99.38
422.285	96.38
422.507	96.38
422.73	103.38
422.953	103.38
423.175	87.38
423.398	92.38
423.621	79.38
423.843	87.38
424.066	92.38
424.288	89.38
424.511	89.38
424.733	106.38
424.956	117.38
425.178	106.38
425.401	105.38
425.623	97.38
425.846	80.38
426.068	96.38
426.291	98.38
426.513	93.38
426.735	107.38
426.958	78.38
427.18	113.38
427.402	155.38
427.625	219.38
427.847	204.38
428.069	184.38
428.292	112.38
428.514	87.38
428.736	96.38
428.958	89.38
429.181	91.38
429.403	90.38
429.625	85.38
429.847	109.38
430.069	111.38
430.292	95.38
430.514	67.38
430.736	81.38
430.958	69.38
431.18	87.38
431.402	78.38
431.624	62.38
431.846	102.38
432.068	83.38
432.29	80.38
432.512	87.38
432.734	80.38
432.956	84.38
433.178	99.38
433.4	100.38
433.622	84.38
433.844	90.38
434.066	91.38
434.287	76.38
434.509	94.38
434.731	76.38
434.953	88.38
435.175	97.38
435.397	97.38
435.618	98.38
435.84	120.38
436.062	123.38
436.284	124.38
436.505	105.38
436.727	94.38
436.949	80.38
437.17	75.38
437.392	76.38
437.614	96.38
437.835	104.38
438.057	117.38
438.278	122.38
438.5	106.38
438.721	143.38
438.943	109.38
439.165	81.38
439.386	89.38
439.608	91.38
439.829	88.38
440.05	128.38
440.272	157.38
440.493	115.38
440.715	96.38
440.936	86.38
441.158	103.38
441.379	93.38
441.6	102.38
441.822	99.38
442.043	79.38
442.264	107.38
442.486	97.38
442.707	98.38
442.928	111.38
443.149	137.38
443.371	152.38
443.592	130.38
443.813	129.38
444.034	120.38
444.255	81.38
444.476	80.38
444.698	99.38
444.919	94.38
445.14	136.38
445.361	125.38
445.582	135.38
445.803	152.38
446.024	155.38
446.245	147.38
446.466	129.38
446.687	88.38
446.908	82.38
447.129	94.38
447.35	103.38
447.571	99.38
447.792	88.38
448.013	108.38
448.234	114.38
448.455	101.38
448.675	120.38
448.896	123.38
449.117	97.38
449.338	115.38
449.559	123.38
449.779	142.38
450	91.38
450.221	91.38
450.442	85.38
450.662	94.38
450.883	104.38
451.104	128.38
451.324	101.38
451.545	90.38
451.766	103.38
451.986	79.38
452.207	92.38
452.428	88.38
452.648	90.38
452.869	113.38
453.089	128.38
453.31	118.38
453.53	99.38
453.751	101.38
453.971	100.38
454.192	113.38
454.412	84.38
454.633	97.38
454.853	86.38
455.073	103.38
455.294	89.38
455.514	99.38
455.734	105.38
455.955	90.38
456.175	85.38
456.395	87.38
456.616	93.38
456.836	90.38
457.056	92.38
457.276	107.38
457.497	98.38
457.717	89.38
457.937	81.38
458.157	93.38
458.377	91.38
458.598	114.38
458.818	163.38
459.038	170.38
459.258	125.38
459.478	95.38
459.698	81.38
459.918	98.38
460.138	102.38
460.358	96.38
460.578	84.38
460.798	84.38
461.018	108.38
461.238	91.38
461.458	89.38
461.678	83.38
461.898	83.38
462.118	83.38
462.338	97.38
462.558	92.38
462.777	91.38
462.997	95.38
463.217	108.38
463.437	86.38
463.657	86.38
463.876	91.38
464.096	102.38
464.316	96.38
464.536	102.38
464.755	78.38
464.975	118.38
465.195	179.38
465.414	168.38
465.634	107.38
465.854	97.38
466.073	90.38
466.293	86.38
466.512	115.38
466.732	83.38
466.951	107.38
467.171	91.38
467.391	113.38
467.61	137.38
467.829	152.38
468.049	401.38
468.268	556.38
468.488	159.38
468.707	104.38
468.927	82.38
469.146	93.38
469.365	96.38
469.585	93.38
469.804	100.38
470.023	96.38
470.243	91.38
470.462	101.38
470.681	116.38
470.901	106.38
471.12	107.38
471.339	106.38
471.558	105.38
471.777	135.38
471.997	227.38
472.216	777.38
472.435	1605.38
472.654	399.38
472.873	147.38
473.092	114.38
473.311	81.38
473.53	86.38
473.749	98.38
473.968	96.38
474.187	121.38
474.406	102.38
474.625	87.38
474.844	93.38
475.063	86.38
475.282	99.38
475.501	83.38
475.72	95.38
475.939	90.38
476.158	89.38
476.377	88.38
476.596	105.38
476.814	98.38
477.033	98.38
477.252	99.38
477.471	84.38
477.69	106.38
477.908	93.38
478.127	104.38
478.346	92.38
478.564	95.38
478.783	107.38
479.002	101.38
479.22	100.38
479.439	108.38
479.658	113.38
479.876	112.38
480.095	92.38
480.313	111.38
480.532	135.38
480.751	218.38
480.969	716.38
481.188	2767.38
481.406	1583.38
481.624	268.38
481.843	132.38
482.061	102.38
482.28	83.38
482.498	97.38
482.717	81.38
482.935	92.38
483.153	95.38
483.372	83.38
483.59	96.38
483.808	98.38
484.027	91.38
484.245	97.38
484.463	100.38
484.681	90.38
484.9	93.38
485.118	96.38
485.336	103.38
485.554	104.38
485.772	118.38
485.99	103.38
486.209	92.38
486.427	90.38
486.645	106.38
486.863	129.38
487.081	98.38
487.299	92.38
487.517	91.38
487.735	98.38
487.953	98.38
488.171	85.38
488.389	88.38
488.607	81.38
488.825	82.38
489.043	91.38
489.261	90.38
489.479	76.38
489.696	81.38
489.914	87.38
490.132	98.38
490.35	81.38
490.568	80.38
490.786	88.38
491.003	91.38
491.221	97.38
491.439	98.38
491.657	103.38
491.874	95.38
492.092	89.38
492.31	101.38
492.527	89.38
492.745	84.38
492.963	93.38
493.18	104.38
493.398	79.38
493.615	101.38
493.833	94.38
494.05	88.38
494.268	84.38
494.485	76.38
494.703	98.38
494.92	79.38
495.138	93.38
495.355	95.38
495.573	70.38
495.79	89.38
496.008	83.38
496.225	100.38
496.442	87.38
496.66	93.38
496.877	100.38
497.094	92.38
497.312	79.38
497.529	75.38
497.746	89.38
497.963	79.38
498.181	85.38
498.398	84.38
498.615	107.38
498.832	118.38
499.049	106.38
499.267	95.38
499.484	87.38
499.701	87.38
499.918	77.38
500.135	75.38
500.352	80.38
500.569	90.38
500.786	99.38
501.003	95.38
501.22	101.38
501.437	91.38
501.654	105.38
501.871	101.38
502.088	109.38
502.305	88.38
502.522	98.38
502.739	91.38
502.956	86.38
503.172	101.38
503.389	92.38
503.606	91.38
503.823	104.38
504.04	104.38
504.256	97.38
504.473	85.38
504.69	91.38
504.907	94.38
505.123	99.38
505.34	92.38
505.557	97.38
505.773	112.38
505.99	90.38
506.207	97.38
506.423	89.38
506.64	95.38
506.856	89.38
507.073	94.38
507.289	96.38
507.506	79.38
507.722	119.38
507.939	96.38
508.155	97.38
508.372	94.38
508.588	97.38
508.805	103.38
509.021	84.38
509.238	93.38
509.454	95.38
509.67	109.38
509.887	101.38
510.103	126.38
510.319	213.38
510.536	695.38
510.752	2289.38
510.968	634.38
511.184	162.38
511.401	106.38
511.617	105.38
511.833	98.38
512.049	98.38
512.265	87.38
512.481	101.38
512.698	73.38
512.914	95.38
513.13	90.38
513.346	90.38
513.562	100.38
513.778	103.38
513.994	100.38
514.21	104.38
