Data from Circ_2001_H10_HRD10591_00049.txt Node
Date: Wed Jan 03 10:45:48 EST 2024
User: Yrep
Spectrometer: HR+D1059
Trigger mode: 1
Integration Time (sec): 1.000000E-1
Scans to average: 1
Electric dark correction enabled: true
Nonlinearity correction enabled: false
Boxcar width: 0
XAxis mode: Wavelengths
Number of Pixels in Spectrum: 2048
>>>>>Begin Spectral Data<<<<<
223.165	-28.75
223.4	-28.75
223.635	-28.75
223.869	-25.75
224.104	-29.75
224.338	-7.75
224.573	-12.75
224.808	-12.75
225.042	-8.75
225.277	-10.75
225.511	6.25
225.746	2.25
225.98	4.25
226.215	19.25
226.449	28.25
226.683	16.25
226.918	42.25
227.152	18.25
227.387	39.25
227.621	42.25
227.856	54.25
228.09	48.25
228.324	56.25
228.559	54.25
228.793	59.25
229.027	60.25
229.262	50.25
229.496	70.25
229.73	99.25
229.964	71.25
230.199	78.25
230.433	75.25
230.667	84.25
230.901	82.25
231.136	69.25
231.37	87.25
231.604	75.25
231.838	86.25
232.072	71.25
232.306	86.25
232.541	95.25
232.775	75.25
233.009	96.25
233.243	94.25
233.477	78.25
233.711	82.25
233.945	80.25
234.179	84.25
234.413	97.25
234.647	79.25
234.881	75.25
235.115	81.25
235.349	90.25
235.583	86.25
235.817	76.25
236.051	85.25
236.285	81.25
236.519	75.25
236.753	67.25
236.987	91.25
237.221	78.25
237.455	70.25
237.689	88.25
237.922	79.25
238.156	68.25
238.39	78.25
238.624	68.25
238.858	78.25
239.091	67.25
239.325	90.25
239.559	97.25
239.793	82.25
240.027	77.25
240.26	74.25
240.494	61.25
240.728	77.25
240.961	86.25
241.195	70.25
241.429	82.25
241.662	83.25
241.896	78.25
242.13	67.25
242.363	75.25
242.597	88.25
242.83	68.25
243.064	82.25
243.298	75.25
243.531	84.25
243.765	87.25
243.998	78.25
244.232	75.25
244.465	77.25
244.699	92.25
244.932	66.25
245.166	78.25
245.399	89.25
245.633	89.25
245.866	73.25
246.099	75.25
246.333	80.25
246.566	69.25
246.8	61.25
247.033	84.25
247.266	69.25
247.5	76.25
247.733	82.25
247.966	78.25
248.2	86.25
248.433	80.25
248.666	81.25
248.899	89.25
249.133	78.25
249.366	104.25
249.599	92.25
249.832	98.25
250.066	88.25
250.299	90.25
250.532	73.25
250.765	76.25
250.998	61.25
251.231	80.25
251.465	82.25
251.698	73.25
251.931	93.25
252.164	77.25
252.397	80.25
252.63	83.25
252.863	86.25
253.096	73.25
253.329	92.25
253.562	72.25
253.795	89.25
254.028	77.25
254.261	98.25
254.494	84.25
254.727	85.25
254.96	82.25
255.193	70.25
255.426	79.25
255.659	57.25
255.892	88.25
256.124	89.25
256.357	85.25
256.59	81.25
256.823	78.25
257.056	90.25
257.289	78.25
257.521	93.25
257.754	63.25
257.987	94.25
258.22	77.25
258.452	87.25
258.685	78.25
258.918	72.25
259.151	73.25
259.383	86.25
259.616	86.25
259.849	84.25
260.081	79.25
260.314	97.25
260.547	92.25
260.779	83.25
261.012	80.25
261.244	101.25
261.477	85.25
261.71	100.25
261.942	118.25
262.175	105.25
262.407	90.25
262.64	76.25
262.872	93.25
263.105	82.25
263.337	89.25
263.57	77.25
263.802	87.25
264.035	80.25
264.267	86.25
264.499	76.25
264.732	89.25
264.964	78.25
265.197	68.25
265.429	83.25
265.661	72.25
265.894	78.25
266.126	84.25
266.358	94.25
266.591	67.25
266.823	84.25
267.055	83.25
267.287	92.25
267.52	67.25
267.752	89.25
267.984	75.25
268.216	93.25
268.448	103.25
268.681	80.25
268.913	73.25
269.145	89.25
269.377	82.25
269.609	89.25
269.841	80.25
270.073	90.25
270.306	74.25
270.538	86.25
270.77	87.25
271.002	97.25
271.234	90.25
271.466	89.25
271.698	89.25
271.93	94.25
272.162	91.25
272.394	88.25
272.626	74.25
272.858	93.25
273.09	94.25
273.322	89.25
273.553	91.25
273.785	86.25
274.017	82.25
274.249	92.25
274.481	93.25
274.713	90.25
274.945	94.25
275.176	86.25
275.408	88.25
275.64	92.25
275.872	91.25
276.104	82.25
276.335	105.25
276.567	91.25
276.799	117.25
277.031	116.25
277.262	128.25
277.494	98.25
277.726	84.25
277.957	104.25
278.189	79.25
278.421	83.25
278.652	92.25
278.884	105.25
279.115	86.25
279.347	89.25
279.579	89.25
279.81	91.25
280.042	114.25
280.273	139.25
280.505	113.25
280.736	88.25
280.968	97.25
281.199	87.25
281.431	83.25
281.662	85.25
281.894	87.25
282.125	91.25
282.356	97.25
282.588	130.25
282.819	114.25
283.051	89.25
283.282	77.25
283.513	88.25
283.745	94.25
283.976	87.25
284.207	86.25
284.439	93.25
284.67	89.25
284.901	105.25
285.132	96.25
285.364	83.25
285.595	81.25
285.826	92.25
286.057	85.25
286.288	101.25
286.52	82.25
286.751	101.25
286.982	99.25
287.213	95.25
287.444	98.25
287.675	90.25
287.906	88.25
288.138	102.25
288.369	92.25
288.6	89.25
288.831	91.25
289.062	79.25
289.293	80.25
289.524	99.25
289.755	88.25
289.986	111.25
290.217	76.25
290.448	83.25
290.679	91.25
290.91	103.25
291.141	87.25
291.371	88.25
291.602	87.25
291.833	87.25
292.064	91.25
292.295	88.25
292.526	90.25
292.757	86.25
292.987	95.25
293.218	85.25
293.449	91.25
293.68	93.25
293.91	96.25
294.141	85.25
294.372	81.25
294.603	87.25
294.833	89.25
295.064	86.25
295.295	76.25
295.525	105.25
295.756	100.25
295.987	100.25
296.217	138.25
296.448	107.25
296.679	92.25
296.909	97.25
297.14	80.25
297.37	88.25
297.601	94.25
297.831	95.25
298.062	86.25
298.292	94.25
298.523	88.25
298.753	82.25
298.984	93.25
299.214	90.25
299.445	94.25
299.675	80.25
299.905	84.25
300.136	92.25
300.366	92.25
300.597	90.25
300.827	85.25
301.057	95.25
301.288	106.25
301.518	108.25
301.748	98.25
301.979	101.25
302.209	94.25
302.439	88.25
302.669	84.25
302.9	99.25
303.13	91.25
303.36	88.25
303.59	100.25
303.82	107.25
304.051	108.25
304.281	98.25
304.511	98.25
304.741	95.25
304.971	88.25
305.201	103.25
305.431	82.25
305.661	81.25
305.891	86.25
306.121	96.25
306.352	108.25
306.582	119.25
306.812	89.25
307.042	115.25
307.272	121.25
307.502	128.25
307.731	124.25
307.961	108.25
308.191	86.25
308.421	87.25
308.651	104.25
308.881	89.25
309.111	89.25
309.341	97.25
309.571	97.25
309.8	105.25
310.03	92.25
310.26	92.25
310.49	87.25
310.72	105.25
310.949	95.25
311.179	111.25
311.409	94.25
311.639	86.25
311.868	97.25
312.098	85.25
312.328	101.25
312.557	114.25
312.787	108.25
313.017	93.25
313.246	81.25
313.476	93.25
313.706	90.25
313.935	96.25
314.165	94.25
314.394	93.25
314.624	98.25
314.853	90.25
315.083	88.25
315.312	90.25
315.542	107.25
315.771	99.25
316.001	80.25
316.23	104.25
316.46	90.25
316.689	93.25
316.919	98.25
317.148	80.25
317.377	67.25
317.607	80.25
317.836	89.25
318.065	79.25
318.295	83.25
318.524	95.25
318.753	91.25
318.983	97.25
319.212	94.25
319.441	112.25
319.67	102.25
319.9	99.25
320.129	105.25
320.358	100.25
320.587	101.25
320.816	101.25
321.046	94.25
321.275	100.25
321.504	91.25
321.733	90.25
321.962	100.25
322.191	93.25
322.42	108.25
322.649	107.25
322.878	121.25
323.108	116.25
323.337	104.25
323.566	132.25
323.795	157.25
324.024	211.25
324.253	356.25
324.482	772.25
324.71	1571.25
324.939	2037.25
325.168	752.25
325.397	236.25
325.626	132.25
325.855	132.25
326.084	138.25
326.313	139.25
326.542	155.25
326.77	229.25
326.999	427.25
327.228	888.25
327.457	1583.25
327.686	1243.25
327.914	393.25
328.143	303.25
328.372	332.25
328.6	207.25
328.829	160.25
329.058	147.25
329.287	134.25
329.515	135.25
329.744	154.25
329.972	246.25
330.201	449.25
330.43	604.25
330.658	296.25
330.887	159.25
331.115	116.25
331.344	113.25
331.572	99.25
331.801	107.25
332.03	105.25
332.258	99.25
332.486	92.25
332.715	98.25
332.943	114.25
333.172	105.25
333.4	104.25
333.629	116.25
333.857	162.25
334.085	240.25
334.314	434.25
334.542	768.25
334.771	701.25
334.999	226.25
335.227	135.25
335.455	112.25
335.684	93.25
335.912	121.25
336.14	108.25
336.369	116.25
336.597	116.25
336.825	82.25
337.053	98.25
337.281	87.25
337.51	76.25
337.738	94.25
337.966	93.25
338.194	81.25
338.422	104.25
338.65	100.25
338.878	108.25
339.106	86.25
339.334	102.25
339.562	92.25
339.79	104.25
340.018	99.25
340.246	92.25
340.474	111.25
340.702	93.25
340.93	95.25
341.158	92.25
341.386	98.25
341.614	100.25
341.842	95.25
342.07	86.25
342.298	85.25
342.526	81.25
342.754	86.25
342.981	85.25
343.209	80.25
343.437	102.25
343.665	86.25
343.893	98.25
344.12	89.25
344.348	93.25
344.576	91.25
344.804	80.25
345.031	99.25
345.259	95.25
345.487	118.25
345.714	107.25
345.942	93.25
346.17	104.25
346.397	78.25
346.625	88.25
346.853	97.25
347.08	91.25
347.308	95.25
347.535	87.25
347.763	94.25
347.99	97.25
348.218	99.25
348.445	101.25
348.673	90.25
348.9	94.25
349.128	98.25
349.355	90.25
349.583	98.25
349.81	85.25
350.037	98.25
350.265	84.25
350.492	116.25
350.72	98.25
350.947	90.25
351.174	124.25
351.402	119.25
351.629	102.25
351.856	105.25
352.083	90.25
352.311	103.25
352.538	124.25
352.765	109.25
352.992	106.25
353.22	107.25
353.447	110.25
353.674	93.25
353.901	114.25
354.128	105.25
354.355	94.25
354.583	95.25
354.81	98.25
355.037	100.25
355.264	90.25
355.491	88.25
355.718	77.25
355.945	99.25
356.172	91.25
356.399	104.25
356.626	98.25
356.853	93.25
357.08	93.25
357.307	108.25
357.534	99.25
357.761	92.25
357.988	93.25
358.215	98.25
358.441	85.25
358.668	102.25
358.895	102.25
359.122	96.25
359.349	87.25
359.576	83.25
359.802	84.25
360.029	107.25
360.256	106.25
360.483	101.25
360.709	81.25
360.936	85.25
361.163	87.25
361.39	98.25
361.616	95.25
361.843	88.25
362.07	94.25
362.296	90.25
362.523	91.25
362.749	81.25
362.976	85.25
363.203	90.25
363.429	85.25
363.656	89.25
363.882	82.25
364.109	81.25
364.335	79.25
364.562	93.25
364.788	96.25
365.015	97.25
365.241	76.25
365.468	98.25
365.694	94.25
365.92	102.25
366.147	95.25
366.373	82.25
366.599	89.25
366.826	96.25
367.052	98.25
367.278	92.25
367.505	83.25
367.731	105.25
367.957	97.25
368.184	81.25
368.41	97.25
368.636	100.25
368.862	106.25
369.089	96.25
369.315	91.25
369.541	87.25
369.767	102.25
369.993	105.25
370.219	83.25
370.445	89.25
370.672	83.25
370.898	78.25
371.124	83.25
371.35	88.25
371.576	95.25
371.802	88.25
372.028	76.25
372.254	85.25
372.48	87.25
372.706	94.25
372.932	86.25
373.158	65.25
373.384	100.25
373.61	76.25
373.835	96.25
374.061	79.25
374.287	91.25
374.513	92.25
374.739	93.25
374.965	87.25
375.191	100.25
375.416	97.25
375.642	93.25
375.868	87.25
376.094	96.25
376.319	84.25
376.545	88.25
376.771	89.25
376.997	88.25
377.222	101.25
377.448	92.25
377.674	94.25
377.899	109.25
378.125	106.25
378.35	88.25
378.576	90.25
378.802	91.25
379.027	98.25
379.253	82.25
379.478	93.25
379.704	93.25
379.929	92.25
380.155	97.25
380.38	96.25
380.606	90.25
380.831	92.25
381.057	90.25
381.282	103.25
381.507	107.25
381.733	88.25
381.958	105.25
382.184	100.25
382.409	114.25
382.634	85.25
382.86	91.25
383.085	97.25
383.31	103.25
383.535	103.25
383.761	92.25
383.986	87.25
384.211	100.25
384.436	87.25
384.662	103.25
384.887	101.25
385.112	118.25
385.337	108.25
385.562	102.25
385.787	92.25
386.013	119.25
386.238	118.25
386.463	94.25
386.688	107.25
386.913	94.25
387.138	94.25
387.363	92.25
387.588	101.25
387.813	100.25
388.038	103.25
388.263	108.25
388.488	105.25
388.713	91.25
388.938	93.25
389.163	85.25
389.387	83.25
389.612	99.25
389.837	88.25
390.062	95.25
390.287	97.25
390.512	88.25
390.736	110.25
390.961	94.25
391.186	101.25
391.411	91.25
391.636	91.25
391.86	96.25
392.085	86.25
392.31	81.25
392.534	85.25
392.759	94.25
392.984	85.25
393.208	91.25
393.433	93.25
393.658	94.25
393.882	91.25
394.107	86.25
394.331	83.25
394.556	85.25
394.78	96.25
395.005	95.25
395.229	83.25
395.454	103.25
395.678	84.25
395.903	92.25
396.127	99.25
396.352	70.25
396.576	93.25
396.801	75.25
397.025	87.25
397.249	80.25
397.474	81.25
397.698	85.25
397.922	83.25
398.147	81.25
398.371	82.25
398.595	94.25
398.82	87.25
399.044	90.25
399.268	79.25
399.492	94.25
399.717	86.25
399.941	87.25
400.165	96.25
400.389	80.25
400.613	80.25
400.837	85.25
401.062	85.25
401.286	92.25
401.51	86.25
401.734	94.25
401.958	94.25
402.182	125.25
402.406	138.25
402.63	124.25
402.854	108.25
403.078	82.25
403.302	93.25
403.526	105.25
403.75	89.25
403.974	91.25
404.198	87.25
404.422	82.25
404.645	85.25
404.869	82.25
405.093	106.25
405.317	125.25
405.541	118.25
405.765	113.25
405.988	112.25
406.212	172.25
406.436	216.25
406.66	134.25
406.883	95.25
407.107	82.25
407.331	100.25
407.555	87.25
407.778	93.25
408.002	101.25
408.226	90.25
408.449	95.25
408.673	96.25
408.896	84.25
409.12	102.25
409.344	80.25
409.567	97.25
409.791	102.25
410.014	84.25
410.238	91.25
410.461	79.25
410.685	102.25
410.908	103.25
411.132	105.25
411.355	104.25
411.578	90.25
411.802	96.25
412.025	94.25
412.249	110.25
412.472	87.25
412.695	112.25
412.919	100.25
413.142	93.25
413.365	82.25
413.589	107.25
413.812	92.25
414.035	93.25
414.258	93.25
414.482	102.25
414.705	91.25
414.928	77.25
415.151	85.25
415.374	101.25
415.597	94.25
415.821	91.25
416.044	86.25
416.267	88.25
416.49	83.25
416.713	87.25
416.936	92.25
417.159	91.25
417.382	91.25
417.605	85.25
417.828	102.25
418.051	96.25
418.274	85.25
418.497	102.25
418.72	83.25
418.943	91.25
419.166	98.25
419.389	86.25
419.611	87.25
419.834	82.25
420.057	85.25
420.28	74.25
420.503	86.25
420.726	90.25
420.948	90.25
421.171	99.25
421.394	84.25
421.617	103.25
421.839	91.25
422.062	74.25
422.285	76.25
422.507	90.25
422.73	98.25
422.953	93.25
423.175	95.25
423.398	100.25
423.621	92.25
423.843	81.25
424.066	89.25
424.288	81.25
424.511	99.25
424.733	84.25
424.956	101.25
425.178	98.25
425.401	86.25
425.623	105.25
425.846	92.25
426.068	90.25
426.291	74.25
426.513	93.25
426.735	85.25
426.958	113.25
427.18	102.25
427.402	142.25
427.625	170.25
427.847	157.25
428.069	141.25
428.292	117.25
428.514	93.25
428.736	97.25
428.958	92.25
429.181	97.25
429.403	84.25
429.625	94.25
429.847	102.25
430.069	98.25
430.292	91.25
430.514	81.25
430.736	69.25
430.958	93.25
431.18	82.25
431.402	109.25
431.624	93.25
431.846	92.25
432.068	100.25
432.29	95.25
432.512	77.25
432.734	84.25
432.956	106.25
433.178	99.25
433.4	95.25
433.622	102.25
433.844	102.25
434.066	92.25
434.287	86.25
434.509	88.25
434.731	75.25
434.953	92.25
435.175	73.25
435.397	82.25
435.618	82.25
435.84	92.25
436.062	121.25
436.284	111.25
436.505	110.25
436.727	94.25
436.949	80.25
437.17	86.25
437.392	89.25
437.614	82.25
437.835	101.25
438.057	116.25
438.278	122.25
438.5	114.25
438.721	113.25
438.943	104.25
439.165	85.25
439.386	84.25
439.608	102.25
439.829	104.25
440.05	116.25
440.272	141.25
440.493	99.25
440.715	93.25
440.936	104.25
441.158	83.25
441.379	86.25
441.6	104.25
441.822	91.25
442.043	89.25
442.264	101.25
442.486	92.25
442.707	87.25
442.928	98.25
443.149	129.25
443.371	145.25
443.592	109.25
443.813	112.25
444.034	105.25
444.255	87.25
444.476	85.25
444.698	85.25
444.919	78.25
445.14	128.25
445.361	129.25
445.582	109.25
445.803	132.25
446.024	125.25
446.245	126.25
446.466	94.25
446.687	85.25
446.908	87.25
447.129	81.25
447.35	84.25
447.571	95.25
447.792	93.25
448.013	90.25
448.234	104.25
448.455	77.25
448.675	84.25
448.896	109.25
449.117	104.25
449.338	92.25
449.559	123.25
449.779	125.25
450	92.25
450.221	91.25
450.442	83.25
450.662	82.25
450.883	102.25
451.104	104.25
451.324	103.25
451.545	87.25
451.766	105.25
451.986	76.25
452.207	104.25
452.428	84.25
452.648	107.25
452.869	101.25
453.089	115.25
453.31	105.25
453.53	85.25
453.751	82.25
453.971	110.25
454.192	102.25
454.412	98.25
454.633	82.25
454.853	66.25
455.073	95.25
455.294	96.25
455.514	96.25
455.734	94.25
455.955	93.25
456.175	91.25
456.395	86.25
456.616	80.25
456.836	90.25
457.056	84.25
457.276	86.25
457.497	85.25
457.717	94.25
457.937	88.25
458.157	92.25
458.377	86.25
458.598	112.25
458.818	156.25
459.038	169.25
459.258	121.25
459.478	92.25
459.698	88.25
459.918	82.25
460.138	78.25
460.358	72.25
460.578	73.25
460.798	97.25
461.018	99.25
461.238	85.25
461.458	66.25
461.678	82.25
461.898	63.25
462.118	89.25
462.338	85.25
462.558	77.25
462.777	85.25
462.997	89.25
463.217	105.25
463.437	91.25
463.657	83.25
463.876	87.25
464.096	77.25
464.316	85.25
464.536	91.25
464.755	102.25
464.975	117.25
465.195	164.25
465.414	163.25
465.634	88.25
465.854	83.25
466.073	80.25
466.293	76.25
466.512	99.25
466.732	66.25
466.951	87.25
467.171	100.25
467.391	101.25
467.61	112.25
467.829	154.25
468.049	308.25
468.268	406.25
468.488	154.25
468.707	104.25
468.927	92.25
469.146	97.25
469.365	86.25
469.585	82.25
469.804	107.25
470.023	99.25
470.243	86.25
470.462	90.25
470.681	101.25
470.901	90.25
471.12	94.25
471.339	88.25
471.558	109.25
471.777	115.25
471.997	193.25
472.216	551.25
472.435	1110.25
472.654	306.25
472.873	117.25
473.092	109.25
473.311	91.25
473.53	83.25
473.749	90.25
473.968	93.25
474.187	104.25
474.406	105.25
474.625	90.25
474.844	85.25
475.063	73.25
475.282	94.25
475.501	79.25
475.72	92.25
475.939	90.25
476.158	81.25
476.377	96.25
476.596	88.25
476.814	88.25
477.033	96.25
477.252	82.25
477.471	85.25
477.69	83.25
477.908	102.25
478.127	95.25
478.346	91.25
478.564	102.25
478.783	107.25
479.002	88.25
479.22	101.25
479.439	99.25
479.658	107.25
479.876	116.25
480.095	106.25
480.313	92.25
480.532	116.25
480.751	198.25
480.969	525.25
481.188	1938.25
481.406	1106.25
481.624	200.25
481.843	113.25
482.061	98.25
482.28	93.25
482.498	89.25
482.717	91.25
482.935	83.25
483.153	98.25
483.372	94.25
483.59	108.25
483.808	86.25
484.027	88.25
484.245	102.25
484.463	96.25
484.681	105.25
484.9	84.25
485.118	101.25
485.336	89.25
485.554	102.25
485.772	103.25
485.99	100.25
486.209	120.25
486.427	94.25
486.645	114.25
486.863	122.25
487.081	94.25
487.299	104.25
487.517	101.25
487.735	101.25
487.953	103.25
488.171	96.25
488.389	100.25
488.607	108.25
488.825	89.25
489.043	94.25
489.261	91.25
489.479	88.25
489.696	81.25
489.914	85.25
490.132	75.25
490.35	88.25
490.568	86.25
490.786	82.25
491.003	84.25
491.221	98.25
491.439	98.25
491.657	100.25
491.874	89.25
492.092	102.25
492.31	103.25
492.527	93.25
492.745	104.25
492.963	78.25
493.18	93.25
493.398	96.25
493.615	97.25
493.833	97.25
494.05	88.25
494.268	92.25
494.485	89.25
494.703	77.25
494.92	90.25
495.138	107.25
495.355	85.25
495.573	110.25
495.79	92.25
496.008	82.25
496.225	95.25
496.442	87.25
496.66	105.25
496.877	93.25
497.094	93.25
497.312	93.25
497.529	86.25
497.746	107.25
497.963	98.25
498.181	86.25
498.398	96.25
498.615	98.25
498.832	98.25
499.049	92.25
499.267	98.25
499.484	94.25
499.701	87.25
499.918	95.25
500.135	94.25
500.352	84.25
500.569	102.25
500.786	91.25
501.003	88.25
501.22	101.25
501.437	82.25
501.654	98.25
501.871	114.25
502.088	93.25
502.305	92.25
502.522	83.25
502.739	81.25
502.956	89.25
503.172	91.25
503.389	111.25
503.606	117.25
503.823	101.25
504.04	84.25
504.256	86.25
504.473	85.25
504.69	110.25
504.907	78.25
505.123	102.25
505.34	77.25
505.557	86.25
505.773	92.25
505.99	97.25
506.207	94.25
506.423	92.25
506.64	92.25
506.856	87.25
507.073	83.25
507.289	103.25
507.506	101.25
507.722	113.25
507.939	116.25
508.155	97.25
508.372	94.25
508.588	88.25
508.805	97.25
509.021	112.25
509.238	93.25
509.454	82.25
509.67	104.25
509.887	100.25
510.103	124.25
510.319	205.25
510.536	645.25
510.752	2057.25
510.968	584.25
511.184	146.25
511.401	100.25
511.617	91.25
511.833	92.25
512.049	90.25
512.265	86.25
512.481	82.25
512.698	84.25
512.914	82.25
513.13	106.25
513.346	111.25
513.562	100.25
513.778	95.25
513.994	104.25
514.21	108.25
514.426	121.25
514.642	128.25
514.858	115.25
