Data from Circ_2001_H10_HRD10591_00077.txt Node
Date: Wed Jan 03 10:45:54 EST 2024
User: Yrep
Spectrometer: HR+D1059
Trigger mode: 1
Integration Time (sec): 1.000000E-1
Scans to average: 1
Electric dark correction enabled: true
Nonlinearity correction enabled: false
Boxcar width: 0
XAxis mode: Wavelengths
Number of Pixels in Spectrum: 2048
>>>>>Begin Spectral Data<<<<<
223.165	-10.69
223.4	-10.69
223.635	-10.69
223.869	-27.69
224.104	-26.69
224.338	-12.69
224.573	-15.69
224.808	-15.69
225.042	-11.69
225.277	-6.69
225.511	-3.69
225.746	17.31
225.98	6.31
226.215	17.31
226.449	32.31
226.683	21.31
226.918	9.31
227.152	27.31
227.387	41.31
227.621	34.31
227.856	47.31
228.09	65.31
228.324	36.31
228.559	46.31
228.793	49.31
229.027	57.31
229.262	63.31
229.496	74.31
229.73	92.31
229.964	82.31
230.199	82.31
230.433	82.31
230.667	76.31
230.901	75.31
231.136	75.31
231.37	57.31
231.604	67.31
231.838	65.31
232.072	78.31
232.306	83.31
232.541	86.31
232.775	66.31
233.009	88.31
233.243	68.31
233.477	89.31
233.711	88.31
233.945	86.31
234.179	86.31
234.413	75.31
234.647	89.31
234.881	73.31
235.115	75.31
235.349	78.31
235.583	75.31
235.817	83.31
236.051	80.31
236.285	78.31
236.519	96.31
236.753	83.31
236.987	83.31
237.221	69.31
237.455	91.31
237.689	76.31
237.922	83.31
238.156	74.31
238.39	70.31
238.624	64.31
238.858	76.31
239.091	76.31
239.325	76.31
239.559	79.31
239.793	76.31
240.027	79.31
240.26	81.31
240.494	62.31
240.728	66.31
240.961	78.31
241.195	59.31
241.429	80.31
241.662	93.31
241.896	88.31
242.13	70.31
242.363	70.31
242.597	87.31
242.83	78.31
243.064	83.31
243.298	86.31
243.531	87.31
243.765	78.31
243.998	71.31
244.232	89.31
244.465	87.31
244.699	79.31
244.932	74.31
245.166	75.31
245.399	79.31
245.633	78.31
245.866	78.31
246.099	76.31
246.333	83.31
246.566	78.31
246.8	79.31
247.033	68.31
247.266	72.31
247.5	75.31
247.733	58.31
247.966	77.31
248.2	97.31
248.433	75.31
248.666	80.31
248.899	79.31
249.133	96.31
249.366	98.31
249.599	100.31
249.832	82.31
250.066	83.31
250.299	97.31
250.532	91.31
250.765	80.31
250.998	78.31
251.231	67.31
251.465	91.31
251.698	80.31
251.931	86.31
252.164	74.31
252.397	92.31
252.63	90.31
252.863	65.31
253.096	75.31
253.329	77.31
253.562	90.31
253.795	73.31
254.028	74.31
254.261	81.31
254.494	83.31
254.727	84.31
254.96	92.31
255.193	79.31
255.426	76.31
255.659	77.31
255.892	92.31
256.124	82.31
256.357	88.31
256.59	83.31
256.823	84.31
257.056	103.31
257.289	91.31
257.521	76.31
257.754	86.31
257.987	77.31
258.22	92.31
258.452	91.31
258.685	88.31
258.918	81.31
259.151	103.31
259.383	92.31
259.616	79.31
259.849	82.31
260.081	89.31
260.314	80.31
260.547	86.31
260.779	89.31
261.012	99.31
261.244	98.31
261.477	93.31
261.71	97.31
261.942	109.31
262.175	115.31
262.407	99.31
262.64	81.31
262.872	78.31
263.105	91.31
263.337	79.31
263.57	74.31
263.802	91.31
264.035	76.31
264.267	91.31
264.499	84.31
264.732	91.31
264.964	85.31
265.197	81.31
265.429	85.31
265.661	87.31
265.894	77.31
266.126	81.31
266.358	86.31
266.591	97.31
266.823	78.31
267.055	78.31
267.287	88.31
267.52	86.31
267.752	77.31
267.984	81.31
268.216	89.31
268.448	91.31
268.681	88.31
268.913	98.31
269.145	82.31
269.377	87.31
269.609	88.31
269.841	85.31
270.073	74.31
270.306	81.31
270.538	84.31
270.77	90.31
271.002	102.31
271.234	105.31
271.466	91.31
271.698	94.31
271.93	80.31
272.162	92.31
272.394	96.31
272.626	81.31
272.858	82.31
273.09	81.31
273.322	83.31
273.553	76.31
273.785	80.31
274.017	72.31
274.249	76.31
274.481	80.31
274.713	80.31
274.945	84.31
275.176	97.31
275.408	86.31
275.64	88.31
275.872	113.31
276.104	82.31
276.335	102.31
276.567	108.31
276.799	127.31
277.031	150.31
277.262	137.31
277.494	131.31
277.726	93.31
277.957	95.31
278.189	84.31
278.421	90.31
278.652	77.31
278.884	96.31
279.115	92.31
279.347	91.31
279.579	97.31
279.81	101.31
280.042	160.31
280.273	171.31
280.505	140.31
280.736	111.31
280.968	101.31
281.199	87.31
281.431	96.31
281.662	75.31
281.894	91.31
282.125	111.31
282.356	127.31
282.588	140.31
282.819	111.31
283.051	98.31
283.282	76.31
283.513	93.31
283.745	93.31
283.976	93.31
284.207	83.31
284.439	87.31
284.67	84.31
284.901	78.31
285.132	85.31
285.364	80.31
285.595	87.31
285.826	86.31
286.057	83.31
286.288	92.31
286.52	77.31
286.751	78.31
286.982	76.31
287.213	87.31
287.444	104.31
287.675	97.31
287.906	83.31
288.138	79.31
288.369	78.31
288.6	86.31
288.831	78.31
289.062	100.31
289.293	94.31
289.524	75.31
289.755	85.31
289.986	83.31
290.217	85.31
290.448	79.31
290.679	96.31
290.91	99.31
291.141	90.31
291.371	106.31
291.602	87.31
291.833	92.31
292.064	91.31
292.295	74.31
292.526	89.31
292.757	99.31
292.987	86.31
293.218	88.31
293.449	86.31
293.68	90.31
293.91	91.31
294.141	97.31
294.372	82.31
294.603	76.31
294.833	69.31
295.064	86.31
295.295	94.31
295.525	84.31
295.756	105.31
295.987	120.31
296.217	126.31
296.448	121.31
296.679	69.31
296.909	84.31
297.14	77.31
297.37	82.31
297.601	90.31
297.831	86.31
298.062	85.31
298.292	92.31
298.523	102.31
298.753	76.31
298.984	91.31
299.214	88.31
299.445	91.31
299.675	102.31
299.905	105.31
300.136	79.31
300.366	88.31
300.597	88.31
300.827	90.31
301.057	95.31
301.288	95.31
301.518	96.31
301.748	92.31
301.979	117.31
302.209	88.31
302.439	84.31
302.669	91.31
302.9	90.31
303.13	105.31
303.36	104.31
303.59	106.31
303.82	122.31
304.051	103.31
304.281	87.31
304.511	95.31
304.741	86.31
304.971	96.31
305.201	89.31
305.431	86.31
305.661	94.31
305.891	89.31
306.121	98.31
306.352	110.31
306.582	117.31
306.812	102.31
307.042	115.31
307.272	140.31
307.502	142.31
307.731	134.31
307.961	102.31
308.191	101.31
308.421	99.31
308.651	91.31
308.881	91.31
309.111	91.31
309.341	83.31
309.571	110.31
309.8	113.31
310.03	103.31
310.26	90.31
310.49	103.31
310.72	92.31
310.949	104.31
311.179	104.31
311.409	92.31
311.639	92.31
311.868	90.31
312.098	119.31
312.328	86.31
312.557	107.31
312.787	119.31
313.017	109.31
313.246	101.31
313.476	97.31
313.706	81.31
313.935	93.31
314.165	111.31
314.394	102.31
314.624	93.31
314.853	91.31
315.083	91.31
315.312	92.31
315.542	87.31
315.771	87.31
316.001	101.31
316.23	88.31
316.46	92.31
316.689	78.31
316.919	69.31
317.148	90.31
317.377	102.31
317.607	90.31
317.836	86.31
318.065	91.31
318.295	95.31
318.524	85.31
318.753	81.31
318.983	86.31
319.212	97.31
319.441	103.31
319.67	103.31
319.9	90.31
320.129	104.31
320.358	102.31
320.587	85.31
320.816	112.31
321.046	106.31
321.275	100.31
321.504	97.31
321.733	91.31
321.962	96.31
322.191	89.31
322.42	110.31
322.649	92.31
322.878	124.31
323.108	117.31
323.337	122.31
323.566	136.31
323.795	173.31
324.024	225.31
324.253	436.31
324.482	980.31
324.71	1964.31
324.939	2567.31
325.168	898.31
325.397	264.31
325.626	167.31
325.855	141.31
326.084	136.31
326.313	126.31
326.542	157.31
326.77	256.31
326.999	528.31
327.228	1091.31
327.457	1976.31
327.686	1558.31
327.914	482.31
328.143	412.31
328.372	437.31
328.6	249.31
328.829	141.31
329.058	161.31
329.287	173.31
329.515	170.31
329.744	201.31
329.972	371.31
330.201	656.31
330.43	907.31
330.658	425.31
330.887	218.31
331.115	162.31
331.344	111.31
331.572	107.31
331.801	111.31
332.03	119.31
332.258	118.31
332.486	95.31
332.715	105.31
332.943	92.31
333.172	120.31
333.4	120.31
333.629	148.31
333.857	172.31
334.085	329.31
334.314	671.31
334.542	1180.31
334.771	1076.31
334.999	298.31
335.227	150.31
335.455	122.31
335.684	105.31
335.912	83.31
336.14	99.31
336.369	104.31
336.597	105.31
336.825	108.31
337.053	101.31
337.281	91.31
337.51	99.31
337.738	101.31
337.966	97.31
338.194	109.31
338.422	91.31
338.65	108.31
338.878	87.31
339.106	107.31
339.334	96.31
339.562	94.31
339.79	88.31
340.018	91.31
340.246	95.31
340.474	98.31
340.702	81.31
340.93	97.31
341.158	94.31
341.386	94.31
341.614	103.31
341.842	103.31
342.07	95.31
342.298	84.31
342.526	84.31
342.754	91.31
342.981	87.31
343.209	91.31
343.437	102.31
343.665	96.31
343.893	88.31
344.12	100.31
344.348	90.31
344.576	92.31
344.804	85.31
345.031	91.31
345.259	116.31
345.487	92.31
345.714	99.31
345.942	88.31
346.17	91.31
346.397	97.31
346.625	101.31
346.853	102.31
347.08	75.31
347.308	95.31
347.535	111.31
347.763	97.31
347.99	99.31
348.218	108.31
348.445	102.31
348.673	99.31
348.9	102.31
349.128	104.31
349.355	91.31
349.583	80.31
349.81	79.31
350.037	91.31
350.265	86.31
350.492	96.31
350.72	98.31
350.947	105.31
351.174	102.31
351.402	110.31
351.629	95.31
351.856	115.31
352.083	107.31
352.311	85.31
352.538	105.31
352.765	103.31
352.992	128.31
353.22	119.31
353.447	111.31
353.674	102.31
353.901	93.31
354.128	110.31
354.355	95.31
354.583	94.31
354.81	94.31
355.037	91.31
355.264	82.31
355.491	92.31
355.718	87.31
355.945	83.31
356.172	77.31
356.399	84.31
356.626	97.31
356.853	99.31
357.08	87.31
357.307	110.31
357.534	86.31
357.761	107.31
357.988	90.31
358.215	88.31
358.441	88.31
358.668	96.31
358.895	86.31
359.122	93.31
359.349	82.31
359.576	91.31
359.802	97.31
360.029	119.31
360.256	111.31
360.483	105.31
360.709	78.31
360.936	101.31
361.163	99.31
361.39	104.31
361.616	91.31
361.843	80.31
362.07	99.31
362.296	95.31
362.523	93.31
362.749	92.31
362.976	97.31
363.203	66.31
363.429	87.31
363.656	84.31
363.882	96.31
364.109	71.31
364.335	92.31
364.562	90.31
364.788	101.31
365.015	91.31
365.241	95.31
365.468	97.31
365.694	107.31
365.92	102.31
366.147	91.31
366.373	93.31
366.599	86.31
366.826	87.31
367.052	96.31
367.278	85.31
367.505	93.31
367.731	102.31
367.957	92.31
368.184	90.31
368.41	93.31
368.636	110.31
368.862	120.31
369.089	120.31
369.315	86.31
369.541	79.31
369.767	94.31
369.993	95.31
370.219	87.31
370.445	75.31
370.672	76.31
370.898	88.31
371.124	94.31
371.35	98.31
371.576	96.31
371.802	73.31
372.028	83.31
372.254	86.31
372.48	79.31
372.706	82.31
372.932	76.31
373.158	86.31
373.384	72.31
373.61	80.31
373.835	96.31
374.061	89.31
374.287	97.31
374.513	86.31
374.739	87.31
374.965	83.31
375.191	87.31
375.416	92.31
375.642	89.31
375.868	81.31
376.094	96.31
376.319	74.31
376.545	89.31
376.771	75.31
376.997	103.31
377.222	91.31
377.448	77.31
377.674	79.31
377.899	92.31
378.125	92.31
378.35	86.31
378.576	95.31
378.802	82.31
379.027	98.31
379.253	82.31
379.478	96.31
379.704	96.31
379.929	88.31
380.155	89.31
380.38	97.31
380.606	92.31
380.831	79.31
381.057	91.31
381.282	95.31
381.507	90.31
381.733	96.31
381.958	104.31
382.184	90.31
382.409	118.31
382.634	98.31
382.86	92.31
383.085	108.31
383.31	102.31
383.535	90.31
383.761	96.31
383.986	105.31
384.211	96.31
384.436	86.31
384.662	80.31
384.887	102.31
385.112	98.31
385.337	96.31
385.562	97.31
385.787	105.31
386.013	92.31
386.238	119.31
386.463	104.31
386.688	122.31
386.913	103.31
387.138	91.31
387.363	93.31
387.588	92.31
387.813	85.31
388.038	103.31
388.263	92.31
388.488	89.31
388.713	83.31
388.938	91.31
389.163	89.31
389.387	83.31
389.612	89.31
389.837	88.31
390.062	91.31
390.287	101.31
390.512	80.31
390.736	78.31
390.961	88.31
391.186	89.31
391.411	80.31
391.636	83.31
391.86	70.31
392.085	88.31
392.31	85.31
392.534	75.31
392.759	99.31
392.984	78.31
393.208	91.31
393.433	98.31
393.658	88.31
393.882	85.31
394.107	81.31
394.331	99.31
394.556	90.31
394.78	101.31
395.005	84.31
395.229	82.31
395.454	95.31
395.678	99.31
395.903	79.31
396.127	98.31
396.352	92.31
396.576	76.31
396.801	85.31
397.025	92.31
397.249	73.31
397.474	92.31
397.698	79.31
397.922	75.31
398.147	81.31
398.371	91.31
398.595	82.31
398.82	84.31
399.044	75.31
399.268	75.31
399.492	90.31
399.717	81.31
399.941	83.31
400.165	110.31
400.389	92.31
400.613	75.31
400.837	88.31
401.062	87.31
401.286	85.31
401.51	98.31
401.734	89.31
401.958	98.31
402.182	113.31
402.406	166.31
402.63	134.31
402.854	94.31
403.078	89.31
403.302	77.31
403.526	86.31
403.75	77.31
403.974	87.31
404.198	93.31
404.422	84.31
404.645	80.31
404.869	95.31
405.093	116.31
405.317	118.31
405.541	109.31
405.765	103.31
405.988	134.31
406.212	155.31
406.436	236.31
406.66	148.31
406.883	123.31
407.107	98.31
407.331	113.31
407.555	108.31
407.778	100.31
408.002	79.31
408.226	86.31
408.449	87.31
408.673	70.31
408.896	91.31
409.12	94.31
409.344	93.31
409.567	91.31
409.791	92.31
410.014	94.31
410.238	87.31
410.461	66.31
410.685	106.31
410.908	87.31
411.132	110.31
411.355	99.31
411.578	101.31
411.802	90.31
412.025	93.31
412.249	103.31
412.472	112.31
412.695	123.31
412.919	106.31
413.142	88.31
413.365	89.31
413.589	96.31
413.812	89.31
414.035	82.31
414.258	90.31
414.482	82.31
414.705	95.31
414.928	93.31
415.151	79.31
415.374	95.31
415.597	91.31
415.821	77.31
416.044	89.31
416.267	92.31
416.49	86.31
416.713	85.31
416.936	94.31
417.159	91.31
417.382	87.31
417.605	89.31
417.828	108.31
418.051	98.31
418.274	86.31
418.497	96.31
418.72	90.31
418.943	87.31
419.166	87.31
419.389	91.31
419.611	86.31
419.834	85.31
420.057	68.31
420.28	99.31
420.503	95.31
420.726	88.31
420.948	80.31
421.171	103.31
421.394	105.31
421.617	90.31
421.839	83.31
422.062	74.31
422.285	99.31
422.507	97.31
422.73	86.31
422.953	115.31
423.175	85.31
423.398	86.31
423.621	90.31
423.843	76.31
424.066	82.31
424.288	99.31
424.511	89.31
424.733	112.31
424.956	111.31
425.178	90.31
425.401	99.31
425.623	103.31
425.846	95.31
426.068	90.31
426.291	95.31
426.513	91.31
426.735	90.31
426.958	97.31
427.18	109.31
427.402	162.31
427.625	205.31
427.847	200.31
428.069	192.31
428.292	107.31
428.514	86.31
428.736	103.31
428.958	86.31
429.181	83.31
429.403	68.31
429.625	82.31
429.847	91.31
430.069	95.31
430.292	101.31
430.514	87.31
430.736	86.31
430.958	93.31
431.18	79.31
431.402	73.31
431.624	78.31
431.846	92.31
432.068	80.31
432.29	84.31
432.512	83.31
432.734	84.31
432.956	87.31
433.178	97.31
433.4	95.31
433.622	85.31
433.844	96.31
434.066	86.31
434.287	97.31
434.509	95.31
434.731	88.31
434.953	93.31
435.175	99.31
435.397	100.31
435.618	101.31
435.84	103.31
436.062	121.31
436.284	126.31
436.505	98.31
436.727	122.31
436.949	107.31
437.17	86.31
437.392	77.31
437.614	87.31
437.835	92.31
438.057	120.31
438.278	122.31
438.5	108.31
438.721	127.31
438.943	91.31
439.165	104.31
439.386	98.31
439.608	91.31
439.829	105.31
440.05	132.31
440.272	159.31
440.493	100.31
440.715	87.31
440.936	87.31
441.158	91.31
441.379	107.31
441.6	98.31
441.822	102.31
442.043	94.31
442.264	102.31
442.486	97.31
442.707	87.31
442.928	101.31
443.149	148.31
443.371	142.31
443.592	117.31
443.813	110.31
444.034	115.31
444.255	80.31
444.476	88.31
444.698	98.31
444.919	97.31
445.14	131.31
445.361	121.31
445.582	126.31
445.803	156.31
446.024	149.31
446.245	154.31
446.466	131.31
446.687	91.31
446.908	82.31
447.129	86.31
447.35	97.31
447.571	80.31
447.792	89.31
448.013	95.31
448.234	115.31
448.455	112.31
448.675	118.31
448.896	115.31
449.117	107.31
449.338	107.31
449.559	130.31
449.779	157.31
450	84.31
450.221	102.31
450.442	92.31
450.662	111.31
450.883	123.31
451.104	112.31
451.324	96.31
451.545	86.31
451.766	99.31
451.986	94.31
452.207	81.31
452.428	95.31
452.648	97.31
452.869	127.31
453.089	115.31
453.31	113.31
453.53	94.31
453.751	93.31
453.971	95.31
454.192	113.31
454.412	91.31
454.633	98.31
454.853	92.31
455.073	85.31
455.294	100.31
455.514	90.31
455.734	97.31
455.955	87.31
456.175	80.31
456.395	93.31
456.616	75.31
456.836	85.31
457.056	91.31
457.276	86.31
457.497	77.31
457.717	81.31
457.937	98.31
458.157	81.31
458.377	90.31
458.598	117.31
458.818	178.31
459.038	178.31
459.258	128.31
459.478	82.31
459.698	89.31
459.918	95.31
460.138	83.31
460.358	89.31
460.578	92.31
460.798	76.31
461.018	82.31
461.238	88.31
461.458	76.31
461.678	91.31
461.898	83.31
462.118	89.31
462.338	84.31
462.558	92.31
462.777	88.31
462.997	85.31
463.217	92.31
463.437	87.31
463.657	81.31
463.876	80.31
464.096	98.31
464.316	103.31
464.536	91.31
464.755	82.31
464.975	104.31
465.195	168.31
465.414	187.31
465.634	105.31
465.854	85.31
466.073	78.31
466.293	80.31
466.512	99.31
466.732	98.31
466.951	85.31
467.171	97.31
467.391	108.31
467.61	126.31
467.829	164.31
468.049	401.31
468.268	550.31
468.488	162.31
468.707	93.31
468.927	100.31
469.146	86.31
469.365	80.31
469.585	89.31
469.804	112.31
470.023	94.31
470.243	94.31
470.462	106.31
470.681	111.31
470.901	98.31
471.12	99.31
471.339	89.31
471.558	109.31
471.777	142.31
471.997	233.31
472.216	804.31
472.435	1689.31
472.654	419.31
472.873	140.31
473.092	96.31
473.311	111.31
473.53	99.31
473.749	83.31
473.968	89.31
474.187	113.31
474.406	113.31
474.625	81.31
474.844	87.31
475.063	96.31
475.282	94.31
475.501	94.31
475.72	94.31
475.939	81.31
476.158	94.31
476.377	91.31
476.596	101.31
476.814	88.31
477.033	101.31
477.252	98.31
477.471	90.31
477.69	87.31
477.908	87.31
478.127	87.31
478.346	102.31
478.564	107.31
478.783	107.31
479.002	97.31
479.22	103.31
479.439	102.31
479.658	111.31
479.876	114.31
480.095	107.31
480.313	125.31
480.532	151.31
480.751	210.31
480.969	744.31
481.188	2844.31
481.406	1622.31
481.624	255.31
481.843	110.31
482.061	98.31
482.28	87.31
482.498	85.31
482.717	70.31
482.935	92.31
483.153	103.31
483.372	95.31
483.59	94.31
483.808	102.31
484.027	108.31
484.245	93.31
484.463	91.31
484.681	84.31
484.9	87.31
485.118	111.31
485.336	106.31
485.554	97.31
485.772	92.31
485.99	101.31
486.209	106.31
486.427	107.31
486.645	105.31
486.863	113.31
487.081	91.31
487.299	80.31
487.517	89.31
487.735	92.31
487.953	81.31
488.171	91.31
488.389	95.31
488.607	89.31
488.825	95.31
489.043	96.31
489.261	89.31
489.479	94.31
489.696	105.31
489.914	92.31
490.132	93.31
490.35	90.31
490.568	94.31
490.786	87.31
491.003	88.31
491.221	88.31
491.439	88.31
491.657	89.31
491.874	91.31
492.092	90.31
492.31	91.31
492.527	88.31
492.745	98.31
492.963	88.31
493.18	84.31
493.398	103.31
493.615	82.31
493.833	87.31
494.05	91.31
494.268	84.31
494.485	85.31
494.703	89.31
494.92	104.31
495.138	95.31
495.355	91.31
495.573	88.31
495.79	99.31
496.008	97.31
496.225	89.31
496.442	75.31
496.66	73.31
496.877	85.31
497.094	87.31
497.312	89.31
497.529	89.31
497.746	95.31
497.963	74.31
498.181	107.31
498.398	91.31
498.615	110.31
498.832	114.31
499.049	87.31
499.267	85.31
499.484	87.31
499.701	84.31
499.918	95.31
500.135	91.31
500.352	88.31
500.569	90.31
500.786	98.31
501.003	87.31
501.22	89.31
501.437	99.31
501.654	93.31
501.871	107.31
502.088	94.31
502.305	89.31
502.522	88.31
502.739	89.31
502.956	95.31
503.172	83.31
503.389	81.31
503.606	110.31
503.823	98.31
504.04	91.31
504.256	91.31
504.473	95.31
504.69	78.31
504.907	89.31
505.123	92.31
505.34	107.31
505.557	89.31
505.773	90.31
505.99	76.31
506.207	96.31
506.423	88.31
506.64	91.31
506.856	93.31
507.073	84.31
507.289	81.31
507.506	101.31
507.722	115.31
507.939	113.31
508.155	90.31
508.372	105.31
508.588	105.31
508.805	91.31
509.021	82.31
509.238	86.31
509.454	80.31
509.67	102.31
509.887	108.31
510.103	138.31
510.319	212.31
510.536	727.31
510.752	2275.31
510.968	647.31
511.184	160.31
511.401	103.31
511.617	97.31
511.833	99.31
512.049	96.31
512.265	85.31
512.481	85.31
512.698	99.31
512.914	94.31
513.13	102.31
513.346	73.31
513.562	91.31
513.778	82.31
513.994	100.31
514.21	102.31
514.426	123.31
514.642	140.31
514.858	143.31
