Data from Circ_2001_H10_HRD10591_00086.txt Node
Date: Wed Jan 03 10:45:56 EST 2024
User: Yrep
Spectrometer: HR+D1059
Trigger mode: 1
Integration Time (sec): 1.000000E-1
Scans to average: 1
Electric dark correction enabled: true
Nonlinearity correction enabled: false
Boxcar width: 0
XAxis mode: Wavelengths
Number of Pixels in Spectrum: 2048
>>>>>Begin Spectral Data<<<<<
223.165	-5.38
223.4	-5.38
223.635	-5.38
223.869	-10.38
224.104	-31.38
224.338	-28.38
224.573	-5.38
224.808	-6.38
225.042	-7.38
225.277	2.62
225.511	8.62
225.746	-1.38
225.98	-10.38
226.215	13.62
226.449	18.62
226.683	11.62
226.918	24.62
227.152	26.62
227.387	40.62
227.621	42.62
227.856	45.62
228.09	53.62
228.324	46.62
228.559	64.62
228.793	57.62
229.027	68.62
229.262	69.62
229.496	73.62
229.73	86.62
229.964	74.62
230.199	84.62
230.433	90.62
230.667	63.62
230.901	80.62
231.136	76.62
231.37	90.62
231.604	85.62
231.838	82.62
232.072	90.62
232.306	79.62
232.541	83.62
232.775	74.62
233.009	82.62
233.243	92.62
233.477	77.62
233.711	74.62
233.945	88.62
234.179	84.62
234.413	95.62
234.647	71.62
234.881	68.62
235.115	65.62
235.349	80.62
235.583	85.62
235.817	97.62
236.051	71.62
236.285	83.62
236.519	82.62
236.753	83.62
236.987	76.62
237.221	106.62
237.455	97.62
237.689	66.62
237.922	73.62
238.156	76.62
238.39	72.62
238.624	76.62
238.858	72.62
239.091	62.62
239.325	77.62
239.559	69.62
239.793	93.62
240.027	73.62
240.26	82.62
240.494	73.62
240.728	74.62
240.961	73.62
241.195	95.62
241.429	90.62
241.662	82.62
241.896	74.62
242.13	67.62
242.363	79.62
242.597	74.62
242.83	73.62
243.064	72.62
243.298	75.62
243.531	73.62
243.765	78.62
243.998	81.62
244.232	83.62
244.465	96.62
244.699	82.62
244.932	83.62
245.166	74.62
245.399	76.62
245.633	77.62
245.866	84.62
246.099	71.62
246.333	65.62
246.566	72.62
246.8	67.62
247.033	100.62
247.266	89.62
247.5	83.62
247.733	77.62
247.966	85.62
248.2	91.62
248.433	85.62
248.666	74.62
248.899	85.62
249.133	86.62
249.366	85.62
249.599	92.62
249.832	75.62
250.066	72.62
250.299	78.62
250.532	71.62
250.765	82.62
250.998	80.62
251.231	89.62
251.465	71.62
251.698	85.62
251.931	84.62
252.164	87.62
252.397	83.62
252.63	90.62
252.863	76.62
253.096	79.62
253.329	78.62
253.562	84.62
253.795	64.62
254.028	88.62
254.261	63.62
254.494	83.62
254.727	77.62
254.96	86.62
255.193	94.62
255.426	93.62
255.659	92.62
255.892	92.62
256.124	78.62
256.357	80.62
256.59	90.62
256.823	87.62
257.056	84.62
257.289	76.62
257.521	92.62
257.754	73.62
257.987	83.62
258.22	101.62
258.452	90.62
258.685	94.62
258.918	84.62
259.151	82.62
259.383	98.62
259.616	84.62
259.849	93.62
260.081	81.62
260.314	91.62
260.547	74.62
260.779	100.62
261.012	93.62
261.244	105.62
261.477	96.62
261.71	102.62
261.942	116.62
262.175	109.62
262.407	82.62
262.64	76.62
262.872	85.62
263.105	82.62
263.337	80.62
263.57	77.62
263.802	89.62
264.035	98.62
264.267	79.62
264.499	85.62
264.732	86.62
264.964	81.62
265.197	81.62
265.429	92.62
265.661	85.62
265.894	85.62
266.126	85.62
266.358	84.62
266.591	78.62
266.823	71.62
267.055	87.62
267.287	86.62
267.52	90.62
267.752	75.62
267.984	91.62
268.216	87.62
268.448	81.62
268.681	68.62
268.913	92.62
269.145	89.62
269.377	85.62
269.609	86.62
269.841	88.62
270.073	100.62
270.306	90.62
270.538	87.62
270.77	87.62
271.002	86.62
271.234	78.62
271.466	74.62
271.698	74.62
271.93	88.62
272.162	92.62
272.394	88.62
272.626	93.62
272.858	92.62
273.09	86.62
273.322	78.62
273.553	86.62
273.785	80.62
274.017	79.62
274.249	84.62
274.481	87.62
274.713	98.62
274.945	81.62
275.176	101.62
275.408	81.62
275.64	98.62
275.872	116.62
276.104	82.62
276.335	87.62
276.567	109.62
276.799	130.62
277.031	142.62
277.262	155.62
277.494	134.62
277.726	100.62
277.957	90.62
278.189	91.62
278.421	79.62
278.652	83.62
278.884	84.62
279.115	83.62
279.347	95.62
279.579	97.62
279.81	109.62
280.042	163.62
280.273	200.62
280.505	146.62
280.736	91.62
280.968	84.62
281.199	85.62
281.431	98.62
281.662	83.62
281.894	93.62
282.125	96.62
282.356	114.62
282.588	120.62
282.819	108.62
283.051	102.62
283.282	88.62
283.513	92.62
283.745	96.62
283.976	86.62
284.207	90.62
284.439	90.62
284.67	72.62
284.901	99.62
285.132	71.62
285.364	84.62
285.595	87.62
285.826	99.62
286.057	90.62
286.288	79.62
286.52	90.62
286.751	85.62
286.982	86.62
287.213	89.62
287.444	71.62
287.675	98.62
287.906	94.62
288.138	84.62
288.369	74.62
288.6	98.62
288.831	83.62
289.062	63.62
289.293	95.62
289.524	87.62
289.755	85.62
289.986	92.62
290.217	79.62
290.448	84.62
290.679	72.62
290.91	90.62
291.141	89.62
291.371	78.62
291.602	80.62
291.833	70.62
292.064	87.62
292.295	99.62
292.526	89.62
292.757	110.62
292.987	86.62
293.218	90.62
293.449	92.62
293.68	91.62
293.91	106.62
294.141	89.62
294.372	86.62
294.603	89.62
294.833	83.62
295.064	87.62
295.295	98.62
295.525	95.62
295.756	95.62
295.987	121.62
296.217	159.62
296.448	126.62
296.679	100.62
296.909	83.62
297.14	91.62
297.37	84.62
297.601	95.62
297.831	79.62
298.062	95.62
298.292	97.62
298.523	108.62
298.753	77.62
298.984	91.62
299.214	94.62
299.445	77.62
299.675	95.62
299.905	104.62
300.136	90.62
300.366	89.62
300.597	84.62
300.827	104.62
301.057	99.62
301.288	104.62
301.518	94.62
301.748	81.62
301.979	121.62
302.209	99.62
302.439	88.62
302.669	84.62
302.9	84.62
303.13	89.62
303.36	99.62
303.59	112.62
303.82	120.62
304.051	99.62
304.281	87.62
304.511	90.62
304.741	83.62
304.971	85.62
305.201	80.62
305.431	89.62
305.661	68.62
305.891	83.62
306.121	100.62
306.352	94.62
306.582	110.62
306.812	109.62
307.042	109.62
307.272	123.62
307.502	149.62
307.731	137.62
307.961	116.62
308.191	93.62
308.421	78.62
308.651	83.62
308.881	81.62
309.111	100.62
309.341	90.62
309.571	104.62
309.8	105.62
310.03	97.62
310.26	95.62
310.49	99.62
310.72	102.62
310.949	128.62
311.179	113.62
311.409	93.62
311.639	95.62
311.868	98.62
312.098	100.62
312.328	96.62
312.557	103.62
312.787	111.62
313.017	102.62
313.246	80.62
313.476	99.62
313.706	102.62
313.935	96.62
314.165	95.62
314.394	115.62
314.624	95.62
314.853	108.62
315.083	84.62
315.312	112.62
315.542	93.62
315.771	83.62
316.001	101.62
316.23	74.62
316.46	89.62
316.689	98.62
316.919	92.62
317.148	95.62
317.377	87.62
317.607	100.62
317.836	89.62
318.065	92.62
318.295	85.62
318.524	95.62
318.753	93.62
318.983	90.62
319.212	106.62
319.441	124.62
319.67	100.62
319.9	92.62
320.129	80.62
320.358	99.62
320.587	97.62
320.816	102.62
321.046	105.62
321.275	118.62
321.504	110.62
321.733	102.62
321.962	110.62
322.191	110.62
322.42	115.62
322.649	107.62
322.878	103.62
323.108	116.62
323.337	130.62
323.566	147.62
323.795	161.62
324.024	222.62
324.253	445.62
324.482	978.62
324.71	2025.62
324.939	2646.62
325.168	955.62
325.397	258.62
325.626	164.62
325.855	148.62
326.084	143.62
326.313	137.62
326.542	166.62
326.77	244.62
326.999	523.62
327.228	1097.62
327.457	1940.62
327.686	1578.62
327.914	512.62
328.143	417.62
328.372	477.62
328.6	275.62
328.829	154.62
329.058	161.62
329.287	166.62
329.515	142.62
329.744	199.62
329.972	360.62
330.201	704.62
330.43	958.62
330.658	466.62
330.887	228.62
331.115	158.62
331.344	120.62
331.572	106.62
331.801	103.62
332.03	108.62
332.258	94.62
332.486	99.62
332.715	98.62
332.943	92.62
333.172	113.62
333.4	119.62
333.629	118.62
333.857	193.62
334.085	339.62
334.314	687.62
334.542	1215.62
334.771	1115.62
334.999	306.62
335.227	141.62
335.455	114.62
335.684	107.62
335.912	107.62
336.14	103.62
336.369	115.62
336.597	90.62
336.825	91.62
337.053	91.62
337.281	91.62
337.51	110.62
337.738	106.62
337.966	89.62
338.194	92.62
338.422	103.62
338.65	94.62
338.878	82.62
339.106	86.62
339.334	91.62
339.562	90.62
339.79	92.62
340.018	84.62
340.246	104.62
340.474	92.62
340.702	92.62
340.93	90.62
341.158	88.62
341.386	91.62
341.614	99.62
341.842	103.62
342.07	103.62
342.298	89.62
342.526	106.62
342.754	83.62
342.981	84.62
343.209	95.62
343.437	96.62
343.665	86.62
343.893	96.62
344.12	93.62
344.348	98.62
344.576	89.62
344.804	90.62
345.031	102.62
345.259	106.62
345.487	97.62
345.714	113.62
345.942	88.62
346.17	93.62
346.397	85.62
346.625	98.62
346.853	90.62
347.08	81.62
347.308	92.62
347.535	101.62
347.763	101.62
347.99	104.62
348.218	94.62
348.445	101.62
348.673	104.62
348.9	98.62
349.128	95.62
349.355	86.62
349.583	105.62
349.81	86.62
350.037	103.62
350.265	96.62
350.492	97.62
350.72	98.62
350.947	103.62
351.174	106.62
351.402	95.62
351.629	113.62
351.856	91.62
352.083	96.62
352.311	105.62
352.538	107.62
352.765	96.62
352.992	112.62
353.22	105.62
353.447	100.62
353.674	104.62
353.901	88.62
354.128	94.62
354.355	103.62
354.583	100.62
354.81	98.62
355.037	87.62
355.264	86.62
355.491	93.62
355.718	93.62
355.945	84.62
356.172	98.62
356.399	102.62
356.626	88.62
356.853	99.62
357.08	102.62
357.307	90.62
357.534	96.62
357.761	83.62
357.988	90.62
358.215	100.62
358.441	82.62
358.668	90.62
358.895	78.62
359.122	92.62
359.349	98.62
359.576	86.62
359.802	105.62
360.029	143.62
360.256	120.62
360.483	111.62
360.709	92.62
360.936	89.62
361.163	98.62
361.39	88.62
361.616	89.62
361.843	102.62
362.07	103.62
362.296	96.62
362.523	103.62
362.749	97.62
362.976	83.62
363.203	91.62
363.429	70.62
363.656	80.62
363.882	107.62
364.109	110.62
364.335	98.62
364.562	75.62
364.788	99.62
365.015	94.62
365.241	99.62
365.468	103.62
365.694	112.62
365.92	104.62
366.147	88.62
366.373	89.62
366.599	89.62
366.826	80.62
367.052	87.62
367.278	97.62
367.505	90.62
367.731	83.62
367.957	95.62
368.184	103.62
368.41	91.62
368.636	120.62
368.862	110.62
369.089	102.62
369.315	89.62
369.541	96.62
369.767	102.62
369.993	102.62
370.219	106.62
370.445	87.62
370.672	88.62
370.898	87.62
371.124	92.62
371.35	73.62
371.576	94.62
371.802	86.62
372.028	96.62
372.254	88.62
372.48	84.62
372.706	86.62
372.932	88.62
373.158	88.62
373.384	92.62
373.61	85.62
373.835	86.62
374.061	87.62
374.287	91.62
374.513	82.62
374.739	88.62
374.965	81.62
375.191	94.62
375.416	95.62
375.642	99.62
375.868	87.62
376.094	83.62
376.319	84.62
376.545	66.62
376.771	85.62
376.997	80.62
377.222	68.62
377.448	90.62
377.674	78.62
377.899	76.62
378.125	82.62
378.35	79.62
378.576	80.62
378.802	91.62
379.027	89.62
379.253	93.62
379.478	96.62
379.704	102.62
379.929	89.62
380.155	87.62
380.38	99.62
380.606	98.62
380.831	105.62
381.057	92.62
381.282	89.62
381.507	74.62
381.733	103.62
381.958	98.62
382.184	89.62
382.409	96.62
382.634	84.62
382.86	75.62
383.085	89.62
383.31	94.62
383.535	93.62
383.761	90.62
383.986	89.62
384.211	95.62
384.436	82.62
384.662	90.62
384.887	99.62
385.112	103.62
385.337	103.62
385.562	90.62
385.787	101.62
386.013	95.62
386.238	99.62
386.463	99.62
386.688	123.62
386.913	114.62
387.138	81.62
387.363	100.62
387.588	98.62
387.813	93.62
388.038	115.62
388.263	92.62
388.488	98.62
388.713	97.62
388.938	80.62
389.163	103.62
389.387	94.62
389.612	92.62
389.837	104.62
390.062	102.62
390.287	91.62
390.512	107.62
390.736	76.62
390.961	83.62
391.186	90.62
391.411	89.62
391.636	90.62
391.86	91.62
392.085	84.62
392.31	90.62
392.534	92.62
392.759	90.62
392.984	75.62
393.208	83.62
393.433	86.62
393.658	84.62
393.882	78.62
394.107	103.62
394.331	81.62
394.556	95.62
394.78	99.62
395.005	85.62
395.229	90.62
395.454	79.62
395.678	86.62
395.903	76.62
396.127	87.62
396.352	83.62
396.576	94.62
396.801	88.62
397.025	74.62
397.249	74.62
397.474	89.62
397.698	83.62
397.922	92.62
398.147	94.62
398.371	86.62
398.595	82.62
398.82	86.62
399.044	91.62
399.268	78.62
399.492	89.62
399.717	97.62
399.941	91.62
400.165	99.62
400.389	98.62
400.613	79.62
400.837	87.62
401.062	87.62
401.286	86.62
401.51	93.62
401.734	91.62
401.958	106.62
402.182	135.62
402.406	168.62
402.63	131.62
402.854	93.62
403.078	96.62
403.302	86.62
403.526	79.62
403.75	80.62
403.974	79.62
404.198	88.62
404.422	94.62
404.645	89.62
404.869	91.62
405.093	94.62
405.317	130.62
405.541	120.62
405.765	94.62
405.988	130.62
406.212	178.62
406.436	241.62
406.66	170.62
406.883	96.62
407.107	92.62
407.331	109.62
407.555	106.62
407.778	90.62
408.002	86.62
408.226	97.62
408.449	88.62
408.673	82.62
408.896	68.62
409.12	90.62
409.344	75.62
409.567	97.62
409.791	78.62
410.014	88.62
410.238	74.62
410.461	80.62
410.685	102.62
410.908	96.62
411.132	100.62
411.355	90.62
411.578	87.62
411.802	100.62
412.025	84.62
412.249	106.62
412.472	105.62
412.695	112.62
412.919	114.62
413.142	92.62
413.365	98.62
413.589	105.62
413.812	81.62
414.035	75.62
414.258	98.62
414.482	89.62
414.705	96.62
414.928	93.62
415.151	70.62
415.374	89.62
415.597	85.62
415.821	89.62
416.044	85.62
416.267	90.62
416.49	88.62
416.713	81.62
416.936	91.62
417.159	70.62
417.382	92.62
417.605	90.62
417.828	84.62
418.051	87.62
418.274	86.62
418.497	91.62
418.72	90.62
418.943	94.62
419.166	78.62
419.389	81.62
419.611	81.62
419.834	94.62
420.057	82.62
420.28	100.62
420.503	90.62
420.726	72.62
420.948	94.62
421.171	100.62
421.394	97.62
421.617	83.62
421.839	78.62
422.062	88.62
422.285	98.62
422.507	94.62
422.73	99.62
422.953	87.62
423.175	88.62
423.398	88.62
423.621	89.62
423.843	90.62
424.066	106.62
424.288	80.62
424.511	90.62
424.733	94.62
424.956	105.62
425.178	95.62
425.401	97.62
425.623	97.62
425.846	91.62
426.068	81.62
426.291	89.62
426.513	90.62
426.735	93.62
426.958	88.62
427.18	107.62
427.402	150.62
427.625	206.62
427.847	211.62
428.069	198.62
428.292	118.62
428.514	101.62
428.736	70.62
428.958	84.62
429.181	98.62
429.403	97.62
429.625	76.62
429.847	84.62
430.069	86.62
430.292	87.62
430.514	95.62
430.736	89.62
430.958	82.62
431.18	89.62
431.402	89.62
431.624	84.62
431.846	84.62
432.068	88.62
432.29	81.62
432.512	78.62
432.734	92.62
432.956	93.62
433.178	78.62
433.4	91.62
433.622	95.62
433.844	88.62
434.066	78.62
434.287	87.62
434.509	99.62
434.731	97.62
434.953	76.62
435.175	82.62
435.397	91.62
435.618	74.62
435.84	102.62
436.062	117.62
436.284	117.62
436.505	100.62
436.727	95.62
436.949	102.62
437.17	88.62
437.392	100.62
437.614	98.62
437.835	103.62
438.057	105.62
438.278	114.62
438.5	118.62
438.721	120.62
438.943	98.62
439.165	89.62
439.386	100.62
439.608	90.62
439.829	96.62
440.05	129.62
440.272	160.62
440.493	111.62
440.715	96.62
440.936	101.62
441.158	90.62
441.379	87.62
441.6	105.62
441.822	100.62
442.043	90.62
442.264	103.62
442.486	100.62
442.707	93.62
442.928	118.62
443.149	131.62
443.371	147.62
443.592	115.62
443.813	121.62
444.034	102.62
444.255	101.62
444.476	95.62
444.698	97.62
444.919	91.62
445.14	135.62
445.361	133.62
445.582	122.62
445.803	163.62
446.024	166.62
446.245	142.62
446.466	132.62
446.687	92.62
446.908	84.62
447.129	77.62
447.35	92.62
447.571	88.62
447.792	90.62
448.013	105.62
448.234	102.62
448.455	105.62
448.675	111.62
448.896	98.62
449.117	95.62
449.338	94.62
449.559	117.62
449.779	144.62
450	102.62
450.221	87.62
450.442	80.62
450.662	96.62
450.883	122.62
451.104	110.62
451.324	110.62
451.545	93.62
451.766	92.62
451.986	86.62
452.207	94.62
452.428	97.62
452.648	109.62
452.869	117.62
453.089	122.62
453.31	120.62
453.53	97.62
453.751	94.62
453.971	106.62
454.192	120.62
454.412	90.62
454.633	94.62
454.853	99.62
455.073	71.62
455.294	91.62
455.514	95.62
455.734	90.62
455.955	83.62
456.175	89.62
456.395	83.62
456.616	90.62
456.836	74.62
457.056	65.62
457.276	96.62
457.497	82.62
457.717	80.62
457.937	103.62
458.157	84.62
458.377	68.62
458.598	118.62
458.818	147.62
459.038	182.62
459.258	152.62
459.478	90.62
459.698	88.62
459.918	92.62
460.138	78.62
460.358	87.62
460.578	79.62
460.798	100.62
461.018	90.62
461.238	86.62
461.458	80.62
461.678	72.62
461.898	93.62
462.118	84.62
462.338	86.62
462.558	96.62
462.777	87.62
462.997	96.62
463.217	103.62
463.437	75.62
463.657	79.62
463.876	90.62
464.096	87.62
464.316	93.62
464.536	88.62
464.755	99.62
464.975	124.62
465.195	185.62
465.414	194.62
465.634	89.62
465.854	89.62
466.073	79.62
466.293	81.62
466.512	79.62
466.732	84.62
466.951	97.62
467.171	97.62
467.391	104.62
467.61	141.62
467.829	168.62
468.049	439.62
468.268	609.62
468.488	177.62
468.707	82.62
468.927	81.62
469.146	75.62
469.365	93.62
469.585	103.62
469.804	92.62
470.023	106.62
470.243	96.62
470.462	107.62
470.681	113.62
470.901	106.62
471.12	105.62
471.339	104.62
471.558	106.62
471.777	123.62
471.997	246.62
472.216	824.62
472.435	1774.62
472.654	426.62
472.873	154.62
473.092	92.62
473.311	87.62
473.53	103.62
473.749	107.62
473.968	100.62
474.187	110.62
474.406	96.62
474.625	79.62
474.844	97.62
475.063	90.62
475.282	98.62
475.501	83.62
475.72	100.62
475.939	81.62
476.158	87.62
476.377	89.62
476.596	86.62
476.814	84.62
477.033	114.62
477.252	94.62
477.471	101.62
477.69	90.62
477.908	95.62
478.127	87.62
478.346	78.62
478.564	86.62
478.783	87.62
479.002	102.62
479.22	85.62
479.439	116.62
479.658	142.62
479.876	109.62
480.095	111.62
480.313	127.62
480.532	143.62
480.751	230.62
480.969	754.62
481.188	3067.62
481.406	1739.62
481.624	284.62
481.843	133.62
482.061	103.62
482.28	98.62
482.498	83.62
482.717	90.62
482.935	96.62
483.153	97.62
483.372	96.62
483.59	98.62
483.808	80.62
484.027	80.62
484.245	82.62
484.463	99.62
484.681	107.62
484.9	87.62
485.118	103.62
485.336	83.62
485.554	102.62
485.772	99.62
485.99	111.62
486.209	105.62
486.427	105.62
486.645	111.62
486.863	122.62
487.081	111.62
487.299	98.62
487.517	104.62
487.735	98.62
487.953	86.62
488.171	100.62
488.389	97.62
488.607	92.62
488.825	98.62
489.043	87.62
489.261	97.62
489.479	91.62
489.696	98.62
489.914	81.62
490.132	82.62
490.35	79.62
490.568	83.62
490.786	95.62
491.003	81.62
491.221	97.62
491.439	87.62
491.657	95.62
491.874	89.62
492.092	88.62
492.31	100.62
492.527	94.62
492.745	80.62
492.963	86.62
493.18	92.62
493.398	90.62
493.615	89.62
493.833	102.62
494.05	95.62
494.268	105.62
494.485	90.62
494.703	78.62
494.92	89.62
495.138	88.62
495.355	86.62
495.573	99.62
495.79	97.62
496.008	85.62
496.225	102.62
496.442	91.62
496.66	92.62
496.877	91.62
497.094	87.62
497.312	98.62
497.529	95.62
497.746	89.62
497.963	86.62
498.181	93.62
498.398	92.62
498.615	105.62
498.832	102.62
499.049	92.62
499.267	71.62
499.484	93.62
499.701	97.62
499.918	96.62
500.135	89.62
500.352	91.62
500.569	96.62
500.786	84.62
501.003	88.62
501.22	84.62
501.437	102.62
501.654	109.62
501.871	113.62
502.088	101.62
502.305	100.62
502.522	88.62
502.739	95.62
502.956	95.62
503.172	88.62
503.389	116.62
503.606	126.62
503.823	118.62
504.04	102.62
504.256	95.62
504.473	99.62
504.69	101.62
504.907	85.62
505.123	87.62
505.34	84.62
505.557	78.62
505.773	84.62
505.99	87.62
506.207	85.62
506.423	86.62
506.64	88.62
506.856	92.62
507.073	76.62
507.289	91.62
507.506	106.62
507.722	115.62
507.939	113.62
508.155	106.62
508.372	89.62
508.588	90.62
508.805	99.62
509.021	83.62
509.238	88.62
509.454	102.62
509.67	81.62
509.887	102.62
510.103	105.62
510.319	213.62
510.536	731.62
510.752	2421.62
510.968	695.62
511.184	145.62
511.401	99.62
511.617	107.62
511.833	116.62
512.049	109.62
512.265	82.62
512.481	95.62
512.698	89.62
512.914	91.62
513.13	93.62
513.346	94.62
513.562	96.62
513.778	97.62
513.994	101.62
514.21	102.62
514.426	113.62
514.642	168.62
