Data from Circ_2001_H10_HRD10591_00091.txt Node
Date: Wed Jan 03 10:45:57 EST 2024
User: Yrep
Spectrometer: HR+D1059
Trigger mode: 1
Integration Time (sec): 1.000000E-1
Scans to average: 1
Electric dark correction enabled: true
Nonlinearity correction enabled: false
Boxcar width: 0
XAxis mode: Wavelengths
Number of Pixels in Spectrum: 2048
>>>>>Begin Spectral Data<<<<<
223.165	-20.06
223.4	-20.06
223.635	-20.06
223.869	-10.06
224.104	-19.06
224.338	-18.06
224.573	-10.06
224.808	-14.06
225.042	-11.06
225.277	-17.06
225.511	0.94
225.746	13.94
225.98	9.94
226.215	7.94
226.449	20.94
226.683	20.94
226.918	9.94
227.152	34.94
227.387	25.94
227.621	39.94
227.856	34.94
228.09	44.94
228.324	38.94
228.559	51.94
228.793	56.94
229.027	57.94
229.262	80.94
229.496	75.94
229.73	89.94
229.964	94.94
230.199	68.94
230.433	70.94
230.667	81.94
230.901	91.94
231.136	80.94
231.37	86.94
231.604	93.94
231.838	70.94
232.072	93.94
232.306	97.94
232.541	84.94
232.775	74.94
233.009	60.94
233.243	93.94
233.477	73.94
233.711	81.94
233.945	74.94
234.179	80.94
234.413	91.94
234.647	79.94
234.881	95.94
235.115	70.94
235.349	66.94
235.583	73.94
235.817	82.94
236.051	85.94
236.285	73.94
236.519	82.94
236.753	80.94
236.987	83.94
237.221	71.94
237.455	72.94
237.689	92.94
237.922	80.94
238.156	70.94
238.39	83.94
238.624	74.94
238.858	91.94
239.091	75.94
239.325	80.94
239.559	86.94
239.793	64.94
240.027	68.94
240.26	80.94
240.494	78.94
240.728	79.94
240.961	80.94
241.195	73.94
241.429	75.94
241.662	82.94
241.896	67.94
242.13	80.94
242.363	97.94
242.597	81.94
242.83	75.94
243.064	70.94
243.298	80.94
243.531	84.94
243.765	76.94
243.998	78.94
244.232	72.94
244.465	82.94
244.699	82.94
244.932	84.94
245.166	83.94
245.399	88.94
245.633	77.94
245.866	72.94
246.099	74.94
246.333	66.94
246.566	88.94
246.8	80.94
247.033	81.94
247.266	72.94
247.5	89.94
247.733	72.94
247.966	82.94
248.2	88.94
248.433	67.94
248.666	80.94
248.899	93.94
249.133	81.94
249.366	92.94
249.599	90.94
249.832	84.94
250.066	88.94
250.299	87.94
250.532	85.94
250.765	80.94
250.998	78.94
251.231	82.94
251.465	89.94
251.698	83.94
251.931	90.94
252.164	76.94
252.397	70.94
252.63	86.94
252.863	87.94
253.096	83.94
253.329	84.94
253.562	82.94
253.795	91.94
254.028	90.94
254.261	82.94
254.494	75.94
254.727	91.94
254.96	99.94
255.193	91.94
255.426	85.94
255.659	79.94
255.892	84.94
256.124	86.94
256.357	80.94
256.59	89.94
256.823	93.94
257.056	77.94
257.289	78.94
257.521	82.94
257.754	74.94
257.987	87.94
258.22	78.94
258.452	92.94
258.685	104.94
258.918	84.94
259.151	74.94
259.383	84.94
259.616	64.94
259.849	80.94
260.081	101.94
260.314	83.94
260.547	81.94
260.779	83.94
261.012	109.94
261.244	106.94
261.477	104.94
261.71	94.94
261.942	114.94
262.175	127.94
262.407	86.94
262.64	92.94
262.872	86.94
263.105	82.94
263.337	79.94
263.57	89.94
263.802	70.94
264.035	89.94
264.267	81.94
264.499	87.94
264.732	94.94
264.964	77.94
265.197	92.94
265.429	81.94
265.661	85.94
265.894	87.94
266.126	72.94
266.358	90.94
266.591	78.94
266.823	93.94
267.055	91.94
267.287	86.94
267.52	80.94
267.752	83.94
267.984	88.94
268.216	88.94
268.448	85.94
268.681	96.94
268.913	97.94
269.145	87.94
269.377	81.94
269.609	80.94
269.841	82.94
270.073	85.94
270.306	82.94
270.538	87.94
270.77	84.94
271.002	82.94
271.234	89.94
271.466	91.94
271.698	82.94
271.93	92.94
272.162	86.94
272.394	100.94
272.626	91.94
272.858	86.94
273.09	85.94
273.322	88.94
273.553	93.94
273.785	81.94
274.017	73.94
274.249	80.94
274.481	83.94
274.713	80.94
274.945	103.94
275.176	92.94
275.408	91.94
275.64	100.94
275.872	101.94
276.104	91.94
276.335	88.94
276.567	96.94
276.799	130.94
277.031	132.94
277.262	155.94
277.494	113.94
277.726	92.94
277.957	99.94
278.189	74.94
278.421	85.94
278.652	104.94
278.884	89.94
279.115	73.94
279.347	84.94
279.579	86.94
279.81	106.94
280.042	152.94
280.273	183.94
280.505	137.94
280.736	92.94
280.968	88.94
281.199	89.94
281.431	90.94
281.662	98.94
281.894	86.94
282.125	97.94
282.356	118.94
282.588	149.94
282.819	109.94
283.051	85.94
283.282	86.94
283.513	80.94
283.745	80.94
283.976	99.94
284.207	81.94
284.439	95.94
284.67	77.94
284.901	82.94
285.132	81.94
285.364	90.94
285.595	92.94
285.826	88.94
286.057	90.94
286.288	90.94
286.52	90.94
286.751	81.94
286.982	92.94
287.213	93.94
287.444	89.94
287.675	100.94
287.906	70.94
288.138	103.94
288.369	99.94
288.6	96.94
288.831	91.94
289.062	109.94
289.293	86.94
289.524	99.94
289.755	87.94
289.986	84.94
290.217	84.94
290.448	88.94
290.679	88.94
290.91	82.94
291.141	84.94
291.371	73.94
291.602	83.94
291.833	92.94
292.064	86.94
292.295	107.94
292.526	102.94
292.757	85.94
292.987	102.94
293.218	97.94
293.449	87.94
293.68	86.94
293.91	81.94
294.141	93.94
294.372	81.94
294.603	103.94
294.833	96.94
295.064	85.94
295.295	98.94
295.525	89.94
295.756	106.94
295.987	113.94
296.217	129.94
296.448	129.94
296.679	101.94
296.909	98.94
297.14	97.94
297.37	80.94
297.601	94.94
297.831	92.94
298.062	94.94
298.292	89.94
298.523	97.94
298.753	91.94
298.984	91.94
299.214	85.94
299.445	94.94
299.675	100.94
299.905	87.94
300.136	88.94
300.366	84.94
300.597	86.94
300.827	108.94
301.057	111.94
301.288	111.94
301.518	99.94
301.748	89.94
301.979	93.94
302.209	100.94
302.439	95.94
302.669	84.94
302.9	94.94
303.13	92.94
303.36	105.94
303.59	120.94
303.82	125.94
304.051	103.94
304.281	87.94
304.511	102.94
304.741	103.94
304.971	90.94
305.201	94.94
305.431	93.94
305.661	93.94
305.891	75.94
306.121	99.94
306.352	104.94
306.582	116.94
306.812	102.94
307.042	100.94
307.272	134.94
307.502	149.94
307.731	132.94
307.961	119.94
308.191	108.94
308.421	102.94
308.651	91.94
308.881	91.94
309.111	101.94
309.341	103.94
309.571	96.94
309.8	99.94
310.03	109.94
310.26	103.94
310.49	96.94
310.72	125.94
310.949	105.94
311.179	101.94
311.409	96.94
311.639	99.94
311.868	88.94
312.098	110.94
312.328	100.94
312.557	109.94
312.787	116.94
313.017	98.94
313.246	104.94
313.476	102.94
313.706	89.94
313.935	95.94
314.165	115.94
314.394	100.94
314.624	120.94
314.853	102.94
315.083	109.94
315.312	97.94
315.542	78.94
315.771	91.94
316.001	97.94
316.23	81.94
316.46	84.94
316.689	98.94
316.919	91.94
317.148	91.94
317.377	100.94
317.607	107.94
317.836	87.94
318.065	101.94
318.295	94.94
318.524	112.94
318.753	105.94
318.983	101.94
319.212	119.94
319.441	119.94
319.67	121.94
319.9	94.94
320.129	99.94
320.358	102.94
320.587	103.94
320.816	100.94
321.046	120.94
321.275	117.94
321.504	93.94
321.733	88.94
321.962	95.94
322.191	100.94
322.42	102.94
322.649	105.94
322.878	112.94
323.108	128.94
323.337	133.94
323.566	149.94
323.795	164.94
324.024	242.94
324.253	445.94
324.482	971.94
324.71	1956.94
324.939	2603.94
325.168	933.94
325.397	276.94
325.626	178.94
325.855	132.94
326.084	130.94
326.313	134.94
326.542	169.94
326.77	250.94
326.999	510.94
327.228	1046.94
327.457	1967.94
327.686	1550.94
327.914	477.94
328.143	416.94
328.372	484.94
328.6	274.94
328.829	144.94
329.058	158.94
329.287	166.94
329.515	149.94
329.744	205.94
329.972	333.94
330.201	665.94
330.43	974.94
330.658	444.94
330.887	230.94
331.115	165.94
331.344	105.94
331.572	105.94
331.801	117.94
332.03	100.94
332.258	105.94
332.486	106.94
332.715	108.94
332.943	90.94
333.172	109.94
333.4	131.94
333.629	130.94
333.857	186.94
334.085	332.94
334.314	624.94
334.542	1161.94
334.771	1134.94
334.999	318.94
335.227	152.94
335.455	118.94
335.684	106.94
335.912	108.94
336.14	99.94
336.369	109.94
336.597	118.94
336.825	100.94
337.053	99.94
337.281	89.94
337.51	89.94
337.738	91.94
337.966	89.94
338.194	101.94
338.422	114.94
338.65	94.94
338.878	91.94
339.106	97.94
339.334	82.94
339.562	108.94
339.79	90.94
340.018	84.94
340.246	100.94
340.474	91.94
340.702	106.94
340.93	100.94
341.158	103.94
341.386	92.94
341.614	101.94
341.842	94.94
342.07	84.94
342.298	104.94
342.526	91.94
342.754	88.94
342.981	87.94
343.209	94.94
343.437	96.94
343.665	79.94
343.893	81.94
344.12	97.94
344.348	85.94
344.576	91.94
344.804	84.94
345.031	101.94
345.259	100.94
345.487	97.94
345.714	86.94
345.942	100.94
346.17	101.94
346.397	91.94
346.625	90.94
346.853	101.94
347.08	99.94
347.308	93.94
347.535	102.94
347.763	104.94
347.99	87.94
348.218	94.94
348.445	117.94
348.673	100.94
348.9	102.94
349.128	92.94
349.355	101.94
349.583	82.94
349.81	89.94
350.037	107.94
350.265	96.94
350.492	90.94
350.72	99.94
350.947	90.94
351.174	101.94
351.402	123.94
351.629	115.94
351.856	92.94
352.083	94.94
352.311	104.94
352.538	110.94
352.765	113.94
352.992	122.94
353.22	118.94
353.447	102.94
353.674	86.94
353.901	103.94
354.128	82.94
354.355	82.94
354.583	99.94
354.81	95.94
355.037	93.94
355.264	89.94
355.491	85.94
355.718	77.94
355.945	100.94
356.172	97.94
356.399	87.94
356.626	90.94
356.853	81.94
357.08	104.94
357.307	95.94
357.534	86.94
357.761	93.94
357.988	81.94
358.215	89.94
358.441	87.94
358.668	107.94
358.895	97.94
359.122	89.94
359.349	92.94
359.576	97.94
359.802	92.94
360.029	126.94
360.256	117.94
360.483	112.94
360.709	94.94
360.936	101.94
361.163	101.94
361.39	110.94
361.616	107.94
361.843	102.94
362.07	97.94
362.296	107.94
362.523	98.94
362.749	91.94
362.976	86.94
363.203	100.94
363.429	90.94
363.656	98.94
363.882	91.94
364.109	97.94
364.335	92.94
364.562	101.94
364.788	96.94
365.015	99.94
365.241	104.94
365.468	118.94
365.694	114.94
365.92	84.94
366.147	92.94
366.373	95.94
366.599	85.94
366.826	94.94
367.052	96.94
367.278	102.94
367.505	114.94
367.731	107.94
367.957	86.94
368.184	94.94
368.41	104.94
368.636	106.94
368.862	118.94
369.089	123.94
369.315	81.94
369.541	101.94
369.767	98.94
369.993	92.94
370.219	100.94
370.445	85.94
370.672	84.94
370.898	93.94
371.124	92.94
371.35	83.94
371.576	99.94
371.802	92.94
372.028	82.94
372.254	91.94
372.48	99.94
372.706	94.94
372.932	91.94
373.158	93.94
373.384	110.94
373.61	83.94
373.835	100.94
374.061	92.94
374.287	102.94
374.513	100.94
374.739	101.94
374.965	80.94
375.191	90.94
375.416	81.94
375.642	79.94
375.868	85.94
376.094	91.94
376.319	86.94
376.545	87.94
376.771	81.94
376.997	81.94
377.222	85.94
377.448	81.94
377.674	96.94
377.899	102.94
378.125	85.94
378.35	79.94
378.576	86.94
378.802	86.94
379.027	101.94
379.253	94.94
379.478	91.94
379.704	81.94
379.929	89.94
380.155	102.94
380.38	80.94
380.606	94.94
380.831	99.94
381.057	102.94
381.282	93.94
381.507	103.94
381.733	89.94
381.958	108.94
382.184	105.94
382.409	90.94
382.634	112.94
382.86	96.94
383.085	103.94
383.31	90.94
383.535	107.94
383.761	96.94
383.986	99.94
384.211	89.94
384.436	96.94
384.662	99.94
384.887	117.94
385.112	92.94
385.337	93.94
385.562	94.94
385.787	103.94
386.013	100.94
386.238	98.94
386.463	108.94
386.688	105.94
386.913	98.94
387.138	94.94
387.363	106.94
387.588	90.94
387.813	99.94
388.038	99.94
388.263	103.94
388.488	124.94
388.713	89.94
388.938	90.94
389.163	99.94
389.387	96.94
389.612	91.94
389.837	85.94
390.062	98.94
390.287	102.94
390.512	86.94
390.736	89.94
390.961	76.94
391.186	84.94
391.411	104.94
391.636	93.94
391.86	72.94
392.085	88.94
392.31	79.94
392.534	82.94
392.759	87.94
392.984	86.94
393.208	86.94
393.433	93.94
393.658	102.94
393.882	91.94
394.107	99.94
394.331	89.94
394.556	98.94
394.78	103.94
395.005	80.94
395.229	93.94
395.454	81.94
395.678	88.94
395.903	86.94
396.127	91.94
396.352	94.94
396.576	84.94
396.801	99.94
397.025	88.94
397.249	89.94
397.474	94.94
397.698	82.94
397.922	91.94
398.147	78.94
398.371	82.94
398.595	82.94
398.82	88.94
399.044	72.94
399.268	83.94
399.492	91.94
399.717	97.94
399.941	94.94
400.165	103.94
400.389	94.94
400.613	94.94
400.837	86.94
401.062	84.94
401.286	97.94
401.51	101.94
401.734	109.94
401.958	103.94
402.182	143.94
402.406	177.94
402.63	123.94
402.854	99.94
403.078	86.94
403.302	88.94
403.526	94.94
403.75	84.94
403.974	98.94
404.198	91.94
404.422	94.94
404.645	78.94
404.869	102.94
405.093	115.94
405.317	121.94
405.541	126.94
405.765	94.94
405.988	119.94
406.212	201.94
406.436	249.94
406.66	158.94
406.883	105.94
407.107	98.94
407.331	85.94
407.555	112.94
407.778	106.94
408.002	101.94
408.226	84.94
408.449	84.94
408.673	86.94
408.896	82.94
409.12	106.94
409.344	85.94
409.567	106.94
409.791	98.94
410.014	97.94
410.238	98.94
410.461	88.94
410.685	98.94
410.908	99.94
411.132	113.94
411.355	113.94
411.578	96.94
411.802	76.94
412.025	88.94
412.249	80.94
412.472	108.94
412.695	135.94
412.919	101.94
413.142	102.94
413.365	93.94
413.589	101.94
413.812	108.94
414.035	102.94
414.258	84.94
414.482	104.94
414.705	91.94
414.928	92.94
415.151	94.94
415.374	86.94
415.597	103.94
415.821	101.94
416.044	92.94
416.267	77.94
416.49	98.94
416.713	100.94
416.936	87.94
417.159	85.94
417.382	106.94
417.605	91.94
417.828	99.94
418.051	107.94
418.274	85.94
418.497	99.94
418.72	81.94
418.943	80.94
419.166	93.94
419.389	84.94
419.611	76.94
419.834	86.94
420.057	82.94
420.28	85.94
420.503	91.94
420.726	87.94
420.948	94.94
421.171	88.94
421.394	96.94
421.617	105.94
421.839	101.94
422.062	84.94
422.285	103.94
422.507	110.94
422.73	105.94
422.953	98.94
423.175	96.94
423.398	85.94
423.621	94.94
423.843	94.94
424.066	88.94
424.288	90.94
424.511	87.94
424.733	101.94
424.956	116.94
425.178	103.94
425.401	107.94
425.623	122.94
425.846	86.94
426.068	96.94
426.291	84.94
426.513	92.94
426.735	99.94
426.958	98.94
427.18	107.94
427.402	152.94
427.625	201.94
427.847	187.94
428.069	194.94
428.292	113.94
428.514	93.94
428.736	100.94
428.958	94.94
429.181	85.94
429.403	94.94
429.625	96.94
429.847	89.94
430.069	114.94
430.292	116.94
430.514	92.94
430.736	96.94
430.958	80.94
431.18	92.94
431.402	87.94
431.624	104.94
431.846	89.94
432.068	89.94
432.29	83.94
432.512	90.94
432.734	97.94
432.956	83.94
433.178	103.94
433.4	109.94
433.622	94.94
433.844	91.94
434.066	98.94
434.287	91.94
434.509	90.94
434.731	90.94
434.953	98.94
435.175	77.94
435.397	91.94
435.618	93.94
435.84	110.94
436.062	142.94
436.284	126.94
436.505	101.94
436.727	90.94
436.949	98.94
437.17	90.94
437.392	84.94
437.614	88.94
437.835	112.94
438.057	141.94
438.278	105.94
438.5	120.94
438.721	122.94
438.943	102.94
439.165	96.94
439.386	70.94
439.608	94.94
439.829	105.94
440.05	121.94
440.272	156.94
440.493	108.94
440.715	88.94
440.936	100.94
441.158	88.94
441.379	90.94
441.6	91.94
441.822	109.94
442.043	112.94
442.264	103.94
442.486	105.94
442.707	83.94
442.928	114.94
443.149	163.94
443.371	147.94
443.592	134.94
443.813	114.94
444.034	114.94
444.255	86.94
444.476	96.94
444.698	92.94
444.919	82.94
445.14	139.94
445.361	124.94
445.582	130.94
445.803	166.94
446.024	152.94
446.245	152.94
446.466	130.94
446.687	89.94
446.908	88.94
447.129	87.94
447.35	102.94
447.571	98.94
447.792	100.94
448.013	109.94
448.234	121.94
448.455	98.94
448.675	117.94
448.896	116.94
449.117	106.94
449.338	94.94
449.559	130.94
449.779	142.94
450	112.94
450.221	86.94
450.442	98.94
450.662	104.94
450.883	123.94
451.104	108.94
451.324	89.94
451.545	89.94
451.766	98.94
451.986	86.94
452.207	84.94
452.428	86.94
452.648	112.94
452.869	112.94
453.089	115.94
453.31	124.94
453.53	80.94
453.751	84.94
453.971	98.94
454.192	120.94
454.412	89.94
454.633	97.94
454.853	87.94
455.073	85.94
455.294	103.94
455.514	104.94
455.734	95.94
455.955	89.94
456.175	102.94
456.395	91.94
456.616	99.94
456.836	85.94
457.056	87.94
457.276	84.94
457.497	77.94
457.717	87.94
457.937	93.94
458.157	92.94
458.377	96.94
458.598	100.94
458.818	179.94
459.038	188.94
459.258	132.94
459.478	101.94
459.698	73.94
459.918	101.94
460.138	82.94
460.358	93.94
460.578	92.94
460.798	104.94
461.018	91.94
461.238	83.94
461.458	101.94
461.678	84.94
461.898	92.94
462.118	87.94
462.338	87.94
462.558	92.94
462.777	80.94
462.997	81.94
463.217	95.94
463.437	112.94
463.657	98.94
463.876	102.94
464.096	86.94
464.316	95.94
464.536	108.94
464.755	77.94
464.975	119.94
465.195	198.94
465.414	200.94
465.634	115.94
465.854	93.94
466.073	83.94
466.293	88.94
466.512	83.94
466.732	82.94
466.951	93.94
467.171	101.94
467.391	103.94
467.61	137.94
467.829	184.94
468.049	401.94
468.268	605.94
468.488	177.94
468.707	98.94
468.927	84.94
469.146	93.94
469.365	95.94
469.585	90.94
469.804	99.94
470.023	104.94
470.243	95.94
470.462	110.94
470.681	125.94
470.901	101.94
471.12	111.94
471.339	88.94
471.558	108.94
471.777	124.94
471.997	225.94
472.216	779.94
472.435	1691.94
472.654	423.94
472.873	148.94
473.092	103.94
473.311	112.94
473.53	104.94
473.749	96.94
473.968	107.94
474.187	106.94
474.406	95.94
474.625	92.94
474.844	90.94
475.063	76.94
475.282	84.94
475.501	88.94
475.72	93.94
475.939	102.94
476.158	93.94
476.377	92.94
476.596	85.94
476.814	95.94
477.033	111.94
477.252	105.94
477.471	100.94
477.69	86.94
477.908	86.94
478.127	86.94
478.346	81.94
478.564	106.94
478.783	109.94
479.002	106.94
479.22	103.94
479.439	125.94
479.658	114.94
479.876	114.94
480.095	104.94
480.313	121.94
480.532	134.94
480.751	223.94
480.969	718.94
481.188	2899.94
481.406	1686.94
481.624	277.94
481.843	131.94
482.061	104.94
482.28	97.94
482.498	100.94
482.717	97.94
482.935	97.94
483.153	105.94
483.372	91.94
483.59	75.94
483.808	84.94
484.027	87.94
484.245	102.94
484.463	89.94
484.681	100.94
484.9	81.94
485.118	99.94
485.336	90.94
485.554	88.94
485.772	92.94
485.99	109.94
486.209	103.94
486.427	115.94
486.645	133.94
486.863	122.94
487.081	98.94
487.299	119.94
487.517	104.94
487.735	77.94
487.953	93.94
488.171	110.94
488.389	106.94
488.607	100.94
488.825	98.94
489.043	86.94
489.261	96.94
489.479	87.94
489.696	83.94
489.914	89.94
490.132	74.94
490.35	97.94
490.568	91.94
490.786	98.94
491.003	76.94
491.221	85.94
491.439	84.94
491.657	95.94
491.874	95.94
492.092	98.94
492.31	97.94
492.527	99.94
492.745	85.94
492.963	83.94
493.18	83.94
493.398	104.94
493.615	99.94
493.833	97.94
494.05	91.94
494.268	84.94
494.485	97.94
494.703	83.94
494.92	84.94
495.138	82.94
495.355	99.94
495.573	108.94
495.79	80.94
496.008	98.94
496.225	82.94
496.442	92.94
496.66	83.94
496.877	86.94
497.094	91.94
497.312	86.94
497.529	88.94
497.746	85.94
497.963	97.94
498.181	96.94
498.398	93.94
498.615	95.94
498.832	108.94
499.049	103.94
499.267	87.94
499.484	98.94
499.701	92.94
499.918	88.94
500.135	85.94
500.352	99.94
500.569	88.94
500.786	88.94
501.003	82.94
501.22	87.94
501.437	99.94
501.654	93.94
501.871	114.94
502.088	93.94
502.305	101.94
502.522	88.94
502.739	87.94
502.956	97.94
503.172	83.94
503.389	98.94
503.606	119.94
503.823	95.94
504.04	100.94
504.256	84.94
504.473	95.94
504.69	91.94
504.907	97.94
505.123	104.94
505.34	93.94
505.557	90.94
505.773	92.94
505.99	104.94
506.207	90.94
506.423	91.94
506.64	87.94
506.856	96.94
507.073	91.94
507.289	100.94
507.506	109.94
507.722	111.94
507.939	117.94
508.155	104.94
508.372	85.94
508.588	105.94
508.805	104.94
509.021	104.94
509.238	101.94
509.454	100.94
509.67	103.94
509.887	115.94
510.103	136.94
510.319	216.94
510.536	760.94
510.752	2518.94
510.968	716.94
511.184	168.94
511.401	133.94
511.617	104.94
511.833	99.94
512.049	88.94
512.265	98.94
512.481	88.94
512.698	92.94
512.914	94.94
513.13	98.94
513.346	92.94
513.562	86.94
