Data from Circ_2001_H10_HRD10591_00093.txt Node
Date: Wed Jan 03 10:45:57 EST 2024
User: Yrep
Spectrometer: HR+D1059
Trigger mode: 1
Integration Time (sec): 1.000000E-1
Scans to average: 1
Electric dark correction enabled: true
Nonlinearity correction enabled: false
Boxcar width: 0
XAxis mode: Wavelengths
Number of Pixels in Spectrum: 2048
>>>>>Begin Spectral Data<<<<<
223.165	-20.25
223.4	-20.25
223.635	-20.25
223.869	-19.25
224.104	-16.25
224.338	-18.25
224.573	-18.25
224.808	-7.25
225.042	-6.25
225.277	-13.25
225.511	8.75
225.746	2.75
225.98	8.75
226.215	-1.25
226.449	17.75
226.683	24.75
226.918	16.75
227.152	40.75
227.387	56.75
227.621	42.75
227.856	44.75
228.09	41.75
228.324	35.75
228.559	48.75
228.793	158.75
229.027	449.75
229.262	519.75
229.496	612.75
229.73	804.75
229.964	808.75
230.199	556.75
230.433	497.75
230.667	478.75
230.901	472.75
231.136	446.75
231.37	458.75
231.604	478.75
231.838	494.75
232.072	463.75
232.306	456.75
232.541	493.75
232.775	469.75
233.009	493.75
233.243	468.75
233.477	504.75
233.711	510.75
233.945	536.75
234.179	512.75
234.413	526.75
234.647	514.75
234.881	526.75
235.115	553.75
235.349	574.75
235.583	594.75
235.817	609.75
236.051	643.75
236.285	616.75
236.519	637.75
236.753	726.75
236.987	928.75
237.221	1372.75
237.455	1494.75
237.689	874.75
237.922	740.75
238.156	758.75
238.39	707.75
238.624	687.75
238.858	687.75
239.091	708.75
239.325	709.75
239.559	716.75
239.793	753.75
240.027	813.75
240.26	946.75
240.494	1006.75
240.728	956.75
240.961	916.75
241.195	845.75
241.429	861.75
241.662	833.75
241.896	817.75
242.13	841.75
242.363	851.75
242.597	879.75
242.83	919.75
243.064	884.75
243.298	892.75
243.531	914.75
243.765	929.75
243.998	924.75
244.232	952.75
244.465	950.75
244.699	975.75
244.932	970.75
245.166	984.75
245.399	997.75
245.633	1004.75
245.866	998.75
246.099	1017.75
246.333	1013.75
246.566	1055.75
246.8	1040.75
247.033	1086.75
247.266	1115.75
247.5	1138.75
247.733	1208.75
247.966	1214.75
248.2	1203.75
248.433	1273.75
248.666	1321.75
248.899	1435.75
249.133	1563.75
249.366	1611.75
249.599	1512.75
249.832	1552.75
250.066	1785.75
250.299	2344.75
250.532	3075.75
250.765	2814.75
250.998	2414.75
251.231	1976.75
251.465	1740.75
251.698	1660.75
251.931	1586.75
252.164	1566.75
252.397	1523.75
252.63	1599.75
252.863	1661.75
253.096	1800.75
253.329	1849.75
253.562	1761.75
253.795	1680.75
254.028	1715.75
254.261	1747.75
254.494	1994.75
254.727	2285.75
254.96	2358.75
255.193	2219.75
255.426	2332.75
255.659	2836.75
255.892	4217.75
256.124	5481.75
256.357	4466.75
256.59	3154.75
256.823	2533.75
257.056	2289.75
257.289	2104.75
257.521	1984.75
257.754	1947.75
257.987	1848.75
258.22	1840.75
258.452	1826.75
258.685	1790.75
258.918	1818.75
259.151	1852.75
259.383	1882.75
259.616	1847.75
259.849	1932.75
260.081	2092.75
260.314	2206.75
260.547	2101.75
260.779	1923.75
261.012	1946.75
261.244	1945.75
261.477	1869.75
261.71	1913.75
261.942	1913.75
262.175	2021.75
262.407	1872.75
262.64	1792.75
262.872	1770.75
263.105	1781.75
263.337	1818.75
263.57	1812.75
263.802	1838.75
264.035	1835.75
264.267	1828.75
264.499	1814.75
264.732	1839.75
264.964	1811.75
265.197	1862.75
265.429	1870.75
265.661	1870.75
265.894	1861.75
266.126	1897.75
266.358	1952.75
266.591	1974.75
266.823	2015.75
267.055	2026.75
267.287	2048.75
267.52	2010.75
267.752	2009.75
267.984	1980.75
268.216	1985.75
268.448	2108.75
268.681	2108.75
268.913	2292.75
269.145	2440.75
269.377	2380.75
269.609	2338.75
269.841	2336.75
270.073	2448.75
270.306	2676.75
270.538	2798.75
270.77	2656.75
271.002	2497.75
271.234	2523.75
271.466	2618.75
271.698	2783.75
271.93	2789.75
272.162	2813.75
272.394	2673.75
272.626	2592.75
272.858	2450.75
273.09	2468.75
273.322	2422.75
273.553	2438.75
273.785	2407.75
274.017	2432.75
274.249	2448.75
274.481	2494.75
274.713	2537.75
274.945	2625.75
275.176	2610.75
275.408	2645.75
275.64	2708.75
275.872	2720.75
276.104	2736.75
276.335	2744.75
276.567	2916.75
276.799	3134.75
277.031	3537.75
277.262	3713.75
277.494	3436.75
277.726	3112.75
277.957	2983.75
278.189	2890.75
278.421	2824.75
278.652	2779.75
278.884	2788.75
279.115	2782.75
279.347	2830.75
279.579	2931.75
279.81	3061.75
280.042	3293.75
280.273	3642.75
280.505	3405.75
280.736	3151.75
280.968	2954.75
281.199	2905.75
281.431	2873.75
281.662	2910.75
281.894	2828.75
282.125	2897.75
282.356	3072.75
282.588	3234.75
282.819	2994.75
283.051	2849.75
283.282	2824.75
283.513	2846.75
283.745	2850.75
283.976	2874.75
284.207	2928.75
284.439	2841.75
284.67	2885.75
284.901	2865.75
285.132	2902.75
285.364	2808.75
285.595	2871.75
285.826	2878.75
286.057	2932.75
286.288	2946.75
286.52	2909.75
286.751	2894.75
286.982	2941.75
287.213	2980.75
287.444	3015.75
287.675	2995.75
287.906	3122.75
288.138	3209.75
288.369	3147.75
288.6	3154.75
288.831	3137.75
289.062	3021.75
289.293	3058.75
289.524	3057.75
289.755	3011.75
289.986	3032.75
290.217	3046.75
290.448	3072.75
290.679	2989.75
290.91	3072.75
291.141	3068.75
291.371	3021.75
291.602	3011.75
291.833	3017.75
292.064	2992.75
292.295	3014.75
292.526	3052.75
292.757	2999.75
292.987	2968.75
293.218	2976.75
293.449	3073.75
293.68	3046.75
293.91	3031.75
294.141	2999.75
294.372	2969.75
294.603	3025.75
294.833	3097.75
295.064	3084.75
295.295	3050.75
295.525	3043.75
295.756	3159.75
295.987	3198.75
296.217	3423.75
296.448	3363.75
296.679	3164.75
296.909	3175.75
297.14	3145.75
297.37	3126.75
297.601	3140.75
297.831	3221.75
298.062	3213.75
298.292	3202.75
298.523	3316.75
298.753	3315.75
298.984	3286.75
299.214	3303.75
299.445	3247.75
299.675	3337.75
299.905	3407.75
300.136	3338.75
300.366	3367.75
300.597	3377.75
300.827	3450.75
301.057	3563.75
301.288	3626.75
301.518	3546.75
301.748	3539.75
301.979	3705.75
302.209	3615.75
302.439	3689.75
302.669	3609.75
302.9	3516.75
303.13	3505.75
303.36	3617.75
303.59	3645.75
303.82	3806.75
304.051	3758.75
304.281	3567.75
304.511	3476.75
304.741	3516.75
304.971	3509.75
305.201	3481.75
305.431	3472.75
305.661	3480.75
305.891	3509.75
306.121	3474.75
306.352	3556.75
306.582	3609.75
306.812	3519.75
307.042	3645.75
307.272	3857.75
307.502	3959.75
307.731	3897.75
307.961	3666.75
308.191	3607.75
308.421	3539.75
308.651	3608.75
308.881	3611.75
309.111	3613.75
309.341	3620.75
309.571	3734.75
309.8	3785.75
310.03	3922.75
310.26	3878.75
310.49	3903.75
310.72	4055.75
310.949	4105.75
311.179	4082.75
311.409	3896.75
311.639	3953.75
311.868	3960.75
312.098	3974.75
312.328	4090.75
312.557	4287.75
312.787	4365.75
313.017	4178.75
313.246	4006.75
313.476	3982.75
313.706	3970.75
313.935	4173.75
314.165	4285.75
314.394	4261.75
314.624	4200.75
314.853	4102.75
315.083	3947.75
315.312	3939.75
315.542	3961.75
315.771	3906.75
316.001	3943.75
316.23	3919.75
316.46	3942.75
316.689	3980.75
316.919	4071.75
317.148	4183.75
317.377	4104.75
317.607	3996.75
317.836	4032.75
318.065	3927.75
318.295	3949.75
318.524	3982.75
318.753	3991.75
318.983	4067.75
319.212	3992.75
319.441	4048.75
319.67	4129.75
319.9	4008.75
320.129	4039.75
320.358	4009.75
320.587	4075.75
320.816	4176.75
321.046	4189.75
321.275	4115.75
321.504	4196.75
321.733	4169.75
321.962	4297.75
322.191	4353.75
322.42	4602.75
322.649	4665.75
322.878	4762.75
323.108	4949.75
323.337	5177.75
323.566	5378.75
323.795	5760.75
324.024	6397.75
324.253	8510.75
324.482	12910.75
324.71	15610.75
324.939	15610.75
325.168	13935.75
325.397	7230.75
325.626	5896.75
325.855	5599.75
326.084	5552.75
326.313	5630.75
326.542	5868.75
326.77	6754.75
326.999	8621.75
327.228	12482.75
327.457	15610.75
327.686	15229.75
327.914	10372.75
328.143	10617.75
328.372	11235.75
328.6	9070.75
328.829	7650.75
329.058	7766.75
329.287	7952.75
329.515	8128.75
329.744	9372.75
329.972	12103.75
330.201	14848.75
330.43	15610.75
330.658	12393.75
330.887	9464.75
331.115	7831.75
331.344	6863.75
331.572	6543.75
331.801	6631.75
332.03	6498.75
332.258	6412.75
332.486	6465.75
332.715	6686.75
332.943	6945.75
333.172	7440.75
333.4	8094.75
333.629	8870.75
333.857	10494.75
334.085	13186.75
334.314	15610.75
334.542	15610.75
334.771	15610.75
334.999	12826.75
335.227	8889.75
335.455	7523.75
335.684	6894.75
335.912	6561.75
336.14	6252.75
336.369	6060.75
336.597	6093.75
336.825	5909.75
337.053	5667.75
337.281	5504.75
337.51	5389.75
337.738	5405.75
337.966	5312.75
338.194	5400.75
338.422	5199.75
338.65	5068.75
338.878	5072.75
339.106	5015.75
339.334	4989.75
339.562	4917.75
339.79	4797.75
340.018	4844.75
340.246	4812.75
340.474	4849.75
340.702	4806.75
340.93	4731.75
341.158	4740.75
341.386	4812.75
341.614	4812.75
341.842	4733.75
342.07	4574.75
342.298	4628.75
342.526	4588.75
342.754	4576.75
342.981	4662.75
343.209	4706.75
343.437	4881.75
343.665	5103.75
343.893	5363.75
344.12	5406.75
344.348	5236.75
344.576	5054.75
344.804	5028.75
345.031	5015.75
345.259	4876.75
345.487	4774.75
345.714	4643.75
345.942	4533.75
346.17	4541.75
346.397	4460.75
346.625	4432.75
346.853	4529.75
347.08	4441.75
347.308	4557.75
347.535	4635.75
347.763	4680.75
347.99	4550.75
348.218	4626.75
348.445	4680.75
348.673	4578.75
348.9	4406.75
349.128	4301.75
349.355	4371.75
349.583	4322.75
349.81	4327.75
350.037	4280.75
350.265	4300.75
350.492	4311.75
350.72	4354.75
350.947	4396.75
351.174	4505.75
351.402	4589.75
351.629	4458.75
351.856	4434.75
352.083	4580.75
352.311	4540.75
352.538	4582.75
352.765	4526.75
352.992	4489.75
353.22	4441.75
353.447	4380.75
353.674	4307.75
353.901	4328.75
354.128	4228.75
354.355	4204.75
354.583	4240.75
354.81	4183.75
355.037	4229.75
355.264	4160.75
355.491	4130.75
355.718	4228.75
355.945	4144.75
356.172	4219.75
356.399	4190.75
356.626	4189.75
356.853	4167.75
357.08	4189.75
357.307	4086.75
357.534	4132.75
357.761	4135.75
357.988	4151.75
358.215	4189.75
358.441	4143.75
358.668	4200.75
358.895	4207.75
359.122	4263.75
359.349	4402.75
359.576	4542.75
359.802	4810.75
360.029	5069.75
360.256	4997.75
360.483	4707.75
360.709	4469.75
360.936	4421.75
361.163	4521.75
361.39	4532.75
361.616	4472.75
361.843	4404.75
362.07	4479.75
362.296	4501.75
362.523	4368.75
362.749	4476.75
362.976	4422.75
363.203	4309.75
363.429	4310.75
363.656	4339.75
363.882	4311.75
364.109	4243.75
364.335	4295.75
364.562	4280.75
364.788	4249.75
365.015	4269.75
365.241	4321.75
365.468	4368.75
365.694	4433.75
365.92	4386.75
366.147	4321.75
366.373	4263.75
366.599	4304.75
366.826	4255.75
367.052	4230.75
367.278	4361.75
367.505	4308.75
367.731	4306.75
367.957	4350.75
368.184	4349.75
368.41	4446.75
368.636	4495.75
368.862	4449.75
369.089	4368.75
369.315	4324.75
369.541	4286.75
369.767	4401.75
369.993	4385.75
370.219	4386.75
370.445	4416.75
370.672	4430.75
370.898	4424.75
371.124	4416.75
371.35	4512.75
371.576	4487.75
371.802	4449.75
372.028	4425.75
372.254	4415.75
372.48	4498.75
372.706	4594.75
372.932	4685.75
373.158	4570.75
373.384	4508.75
373.61	4476.75
373.835	4548.75
374.061	4497.75
374.287	4624.75
374.513	4730.75
374.739	4793.75
374.965	4870.75
375.191	4800.75
375.416	4752.75
375.642	4629.75
375.868	4615.75
376.094	4600.75
376.319	4452.75
376.545	4480.75
376.771	4496.75
376.997	4466.75
377.222	4423.75
377.448	4398.75
377.674	4460.75
377.899	4410.75
378.125	4438.75
378.35	4368.75
378.576	4341.75
378.802	4326.75
379.027	4388.75
379.253	4406.75
379.478	4358.75
379.704	4404.75
379.929	4509.75
380.155	4472.75
380.38	4487.75
380.606	4535.75
380.831	4403.75
381.057	4499.75
381.282	4506.75
381.507	4449.75
381.733	4526.75
381.958	4610.75
382.184	4560.75
382.409	4671.75
382.634	4667.75
382.86	4729.75
383.085	4725.75
383.31	4844.75
383.535	4876.75
383.761	5010.75
383.986	5022.75
384.211	5093.75
384.436	5192.75
384.662	5182.75
384.887	5244.75
385.112	5283.75
385.337	5351.75
385.562	5347.75
385.787	5356.75
386.013	5414.75
386.238	5506.75
386.463	5453.75
386.688	5413.75
386.913	5279.75
387.138	5312.75
387.363	5324.75
387.588	5193.75
387.813	5241.75
388.038	5217.75
388.263	5208.75
388.488	5290.75
388.713	5250.75
388.938	5291.75
389.163	5254.75
389.387	5216.75
389.612	5118.75
389.837	5184.75
390.062	5177.75
390.287	5200.75
390.512	5253.75
390.736	5231.75
390.961	5389.75
391.186	5453.75
391.411	5590.75
391.636	5751.75
391.86	5856.75
392.085	5865.75
392.31	5849.75
392.534	5754.75
392.759	5618.75
392.984	5560.75
393.208	5440.75
393.433	5385.75
393.658	5413.75
393.882	5509.75
394.107	5515.75
394.331	5547.75
394.556	5517.75
394.78	5559.75
395.005	5629.75
395.229	5647.75
395.454	5862.75
395.678	6036.75
395.903	5942.75
396.127	5936.75
396.352	5805.75
396.576	5635.75
396.801	5636.75
397.025	5676.75
397.249	5848.75
397.474	5907.75
397.698	5948.75
397.922	6142.75
398.147	6203.75
398.371	6334.75
398.595	6448.75
398.82	6769.75
399.044	7340.75
399.268	7997.75
399.492	9014.75
399.717	9592.75
399.941	9397.75
400.165	8825.75
400.389	8211.75
400.613	7396.75
400.837	6984.75
401.062	6824.75
401.286	6751.75
401.51	6662.75
401.734	6564.75
401.958	6822.75
402.182	6960.75
402.406	7080.75
402.63	7045.75
402.854	7141.75
403.078	7175.75
403.302	7461.75
403.526	7546.75
403.75	7663.75
403.974	7690.75
404.198	7733.75
404.422	7988.75
404.645	8062.75
404.869	8288.75
405.093	8936.75
405.317	9580.75
405.541	9480.75
405.765	8441.75
405.988	8004.75
406.212	8002.75
406.436	8173.75
406.66	8104.75
406.883	8030.75
407.107	8548.75
407.331	8967.75
407.555	9510.75
407.778	9093.75
408.002	8496.75
408.226	8088.75
408.449	8004.75
408.673	7864.75
408.896	8032.75
409.12	8080.75
409.344	7698.75
409.567	7356.75
409.791	7294.75
410.014	7249.75
410.238	7142.75
410.461	7297.75
410.685	7219.75
410.908	7346.75
411.132	7603.75
411.355	7599.75
411.578	7248.75
411.802	7166.75
412.025	7460.75
412.249	8009.75
412.472	8840.75
412.695	9500.75
412.919	8674.75
413.142	8022.75
413.365	7622.75
413.589	7344.75
413.812	7048.75
414.035	6928.75
414.258	6911.75
414.482	6919.75
414.705	6830.75
414.928	6767.75
415.151	6748.75
415.374	6703.75
415.597	6636.75
415.821	6575.75
416.044	6629.75
416.267	6634.75
416.49	6507.75
416.713	6550.75
416.936	6643.75
417.159	6709.75
417.382	6806.75
417.605	6982.75
417.828	7086.75
418.051	6954.75
418.274	6793.75
418.497	6624.75
418.72	6781.75
418.943	6700.75
419.166	7225.75
419.389	7565.75
419.611	7698.75
419.834	7649.75
420.057	7868.75
420.28	8295.75
420.503	7924.75
420.726	7620.75
420.948	7468.75
421.171	7659.75
421.394	7420.75
421.617	6912.75
421.839	6725.75
422.062	6918.75
422.285	6988.75
422.507	7657.75
422.73	8128.75
422.953	7544.75
423.175	7175.75
423.398	7173.75
423.621	7085.75
423.843	7374.75
424.066	7327.75
424.288	7198.75
424.511	7450.75
424.733	7929.75
424.956	8357.75
425.178	7883.75
425.401	7944.75
425.623	7820.75
425.846	6884.75
426.068	6845.75
426.291	6791.75
426.513	6685.75
426.735	6852.75
426.958	7288.75
427.18	8216.75
427.402	9567.75
427.625	10194.75
427.847	9378.75
428.069	9202.75
428.292	7648.75
428.514	6782.75
428.736	6455.75
428.958	6288.75
429.181	6041.75
429.403	5985.75
429.625	6118.75
429.847	6445.75
430.069	6992.75
430.292	6500.75
430.514	6006.75
430.736	5933.75
430.958	5860.75
431.18	5846.75
431.402	5817.75
431.624	5788.75
431.846	5838.75
432.068	5871.75
432.29	5994.75
432.512	5813.75
432.734	5944.75
432.956	5879.75
433.178	6023.75
433.4	5962.75
433.622	5862.75
433.844	5851.75
434.066	5947.75
434.287	5963.75
434.509	6166.75
434.731	6400.75
434.953	6531.75
435.175	6651.75
435.397	6636.75
435.618	6695.75
435.84	7106.75
436.062	8069.75
436.284	7919.75
436.505	6582.75
436.727	6387.75
436.949	6065.75
437.17	5956.75
437.392	5876.75
437.614	6094.75
437.835	6510.75
438.057	7494.75
438.278	8069.75
438.5	7957.75
438.721	8875.75
438.943	7602.75
439.165	6404.75
439.386	6298.75
439.608	6342.75
439.829	6512.75
440.05	7009.75
440.272	7423.75
440.493	6633.75
440.715	6245.75
440.936	6220.75
441.158	6265.75
441.379	6356.75
441.6	6682.75
441.822	6946.75
442.043	7382.75
442.264	8130.75
442.486	7748.75
442.707	6988.75
442.928	6841.75
443.149	7176.75
443.371	7358.75
443.592	7749.75
443.813	8804.75
444.034	8625.75
444.255	7478.75
444.476	7389.75
444.698	7638.75
444.919	7521.75
445.14	7400.75
445.361	7392.75
445.582	7684.75
445.803	8430.75
446.024	9062.75
446.245	8617.75
446.466	7488.75
446.687	6532.75
446.908	6176.75
447.129	5879.75
447.35	5769.75
447.571	5742.75
447.792	5665.75
448.013	5755.75
448.234	6005.75
448.455	6672.75
448.675	7884.75
448.896	8332.75
449.117	6800.75
449.338	6983.75
449.559	8356.75
449.779	8607.75
450	6434.75
450.221	5865.75
450.442	5676.75
450.662	5636.75
450.883	5753.75
451.104	5946.75
451.324	5708.75
451.545	5490.75
451.766	5302.75
451.986	5161.75
452.207	5140.75
452.428	5093.75
452.648	5252.75
452.869	5274.75
453.089	5318.75
453.31	5401.75
453.53	5173.75
453.751	5200.75
453.971	5248.75
454.192	5396.75
454.412	5160.75
454.633	5079.75
454.853	4983.75
455.073	5051.75
455.294	5465.75
455.514	6025.75
455.734	5437.75
455.955	4966.75
456.175	4817.75
456.395	4785.75
456.616	4752.75
456.836	4809.75
457.056	4792.75
457.276	4733.75
457.497	4972.75
457.717	4929.75
457.937	4970.75
458.157	5100.75
458.377	5182.75
458.598	5581.75
458.818	6473.75
459.038	7198.75
459.258	6843.75
459.478	6143.75
459.698	5975.75
459.918	6035.75
460.138	6208.75
460.358	6466.75
460.578	6423.75
460.798	6508.75
461.018	6487.75
461.238	6446.75
461.458	6311.75
461.678	6377.75
461.898	6477.75
462.118	6454.75
462.338	6836.75
462.558	7010.75
462.777	7278.75
462.997	7906.75
463.217	8288.75
463.437	8056.75
463.657	7524.75
463.876	7287.75
464.096	7408.75
464.316	7368.75
464.536	7493.75
464.755	7151.75
464.975	7164.75
465.195	7592.75
465.414	7709.75
465.634	6559.75
465.854	6155.75
466.073	5820.75
466.293	5767.75
466.512	5524.75
466.732	5578.75
466.951	5524.75
467.171	5575.75
467.391	5743.75
467.61	5877.75
467.829	6281.75
468.049	7886.75
468.268	9487.75
468.488	6970.75
468.707	6037.75
468.927	5796.75
469.146	5530.75
469.365	5558.75
469.585	5599.75
469.804	5854.75
470.023	5890.75
470.243	5847.75
470.462	5983.75
470.681	6103.75
470.901	5975.75
471.12	5847.75
471.339	5941.75
471.558	5977.75
471.777	6167.75
471.997	6970.75
472.216	10744.75
472.435	15302.75
472.654	11608.75
472.873	8070.75
473.092	7024.75
473.311	6489.75
473.53	6274.75
473.749	6169.75
473.968	6488.75
474.187	7549.75
474.406	6901.75
474.625	5839.75
474.844	5614.75
475.063	5510.75
475.282	5543.75
475.501	5662.75
475.72	5565.75
475.939	5658.75
476.158	5572.75
476.377	5673.75
476.596	5694.75
476.814	5858.75
477.033	5860.75
477.252	5873.75
477.471	6055.75
477.69	6170.75
477.908	6137.75
478.127	6327.75
478.346	6411.75
478.564	6535.75
478.783	6634.75
479.002	6851.75
479.22	6860.75
479.439	7111.75
479.658	7298.75
479.876	7382.75
480.095	7718.75
480.313	8184.75
480.532	8451.75
480.751	9285.75
480.969	12880.75
481.188	15610.75
481.406	15610.75
481.624	14092.75
481.843	10381.75
482.061	9113.75
482.28	8360.75
482.498	7898.75
482.717	7578.75
482.935	7376.75
483.153	7117.75
483.372	7130.75
483.59	6909.75
483.808	6789.75
484.027	6828.75
484.245	6735.75
484.463	6761.75
484.681	6815.75
484.9	6883.75
485.118	6855.75
485.336	6925.75
485.554	6967.75
485.772	6984.75
485.99	6985.75
486.209	7035.75
486.427	7077.75
486.645	7113.75
486.863	7383.75
487.081	7134.75
487.299	7104.75
487.517	7082.75
