Data from Circ_2001_H10_HRD10591_00026.txt Node
Date: Wed Jan 03 10:45:44 EST 2024
User: Yrep
Spectrometer: HR+D1059
Trigger mode: 1
Integration Time (sec): 1.000000E-1
Scans to average: 1
Electric dark correction enabled: true
Nonlinearity correction enabled: false
Boxcar width: 0
XAxis mode: Wavelengths
Number of Pixels in Spectrum: 2048
>>>>>Begin Spectral Data<<<<<
223.165	-12
223.4	-12
223.635	-12
223.869	-23
224.104	-15
224.338	-18
224.573	-12
224.808	-11
225.042	-6
225.277	-13
225.511	2
225.746	0
225.98	8
226.215	5
226.449	11
226.683	20
226.918	23
227.152	41
227.387	30
227.621	37
227.856	37
228.09	52
228.324	54
228.559	51
228.793	52
229.027	69
229.262	58
229.496	61
229.73	80
229.964	96
230.199	85
230.433	72
230.667	82
230.901	81
231.136	80
231.37	77
231.604	85
231.838	81
232.072	85
232.306	87
232.541	80
232.775	74
233.009	62
233.243	85
233.477	80
233.711	88
233.945	77
234.179	80
234.413	94
234.647	87
234.881	84
235.115	85
235.349	80
235.583	66
235.817	83
236.051	82
236.285	83
236.519	93
236.753	92
236.987	92
237.221	90
237.455	99
237.689	82
237.922	75
238.156	54
238.39	74
238.624	78
238.858	84
239.091	81
239.325	83
239.559	80
239.793	69
240.027	82
240.26	73
240.494	75
240.728	85
240.961	76
241.195	76
241.429	87
241.662	72
241.896	93
242.13	78
242.363	90
242.597	85
242.83	74
243.064	82
243.298	89
243.531	78
243.765	68
243.998	80
244.232	90
244.465	99
244.699	88
244.932	82
245.166	92
245.399	73
245.633	90
245.866	85
246.099	69
246.333	67
246.566	77
246.8	86
247.033	81
247.266	88
247.5	89
247.733	90
247.966	86
248.2	75
248.433	74
248.666	74
248.899	78
249.133	91
249.366	85
249.599	84
249.832	81
250.066	82
250.299	81
250.532	92
250.765	86
250.998	92
251.231	88
251.465	78
251.698	77
251.931	93
252.164	91
252.397	75
252.63	77
252.863	89
253.096	74
253.329	79
253.562	84
253.795	92
254.028	74
254.261	71
254.494	87
254.727	96
254.96	82
255.193	91
255.426	84
255.659	85
255.892	91
256.124	83
256.357	90
256.59	86
256.823	81
257.056	81
257.289	86
257.521	86
257.754	81
257.987	89
258.22	96
258.452	100
258.685	94
258.918	92
259.151	66
259.383	84
259.616	93
259.849	90
260.081	91
260.314	88
260.547	94
260.779	101
261.012	96
261.244	97
261.477	93
261.71	109
261.942	122
262.175	122
262.407	95
262.64	76
262.872	78
263.105	75
263.337	81
263.57	89
263.802	80
264.035	83
264.267	84
264.499	93
264.732	77
264.964	110
265.197	87
265.429	84
265.661	79
265.894	83
266.126	72
266.358	79
266.591	75
266.823	108
267.055	83
267.287	100
267.52	75
267.752	82
267.984	87
268.216	87
268.448	88
268.681	74
268.913	61
269.145	90
269.377	78
269.609	81
269.841	93
270.073	95
270.306	92
270.538	85
270.77	86
271.002	107
271.234	101
271.466	85
271.698	76
271.93	86
272.162	88
272.394	90
272.626	96
272.858	93
273.09	82
273.322	89
273.553	97
273.785	94
274.017	89
274.249	96
274.481	88
274.713	98
274.945	92
275.176	92
275.408	101
275.64	92
275.872	102
276.104	103
276.335	103
276.567	109
276.799	126
277.031	132
277.262	146
277.494	120
277.726	90
277.957	82
278.189	86
278.421	98
278.652	86
278.884	97
279.115	97
279.347	90
279.579	100
279.81	107
280.042	131
280.273	171
280.505	119
280.736	105
280.968	102
281.199	83
281.431	94
281.662	89
281.894	98
282.125	88
282.356	110
282.588	154
282.819	121
283.051	87
283.282	88
283.513	86
283.745	83
283.976	93
284.207	88
284.439	94
284.67	76
284.901	87
285.132	83
285.364	100
285.595	99
285.826	78
286.057	92
286.288	94
286.52	83
286.751	90
286.982	84
287.213	75
287.444	97
287.675	90
287.906	85
288.138	93
288.369	100
288.6	89
288.831	81
289.062	84
289.293	94
289.524	84
289.755	97
289.986	96
290.217	98
290.448	85
290.679	76
290.91	93
291.141	97
291.371	89
291.602	90
291.833	102
292.064	81
292.295	101
292.526	89
292.757	108
292.987	104
293.218	81
293.449	88
293.68	86
293.91	90
294.141	80
294.372	87
294.603	87
294.833	92
295.064	92
295.295	93
295.525	104
295.756	128
295.987	134
296.217	155
296.448	120
296.679	101
296.909	98
297.14	88
297.37	86
297.601	76
297.831	93
298.062	98
298.292	86
298.523	77
298.753	82
298.984	86
299.214	98
299.445	109
299.675	98
299.905	90
300.136	88
300.366	80
300.597	86
300.827	98
301.057	80
301.288	101
301.518	91
301.748	99
301.979	104
302.209	105
302.439	89
302.669	100
302.9	98
303.13	96
303.36	110
303.59	114
303.82	117
304.051	97
304.281	77
304.511	85
304.741	97
304.971	89
305.201	95
305.431	104
305.661	97
305.891	107
306.121	99
306.352	109
306.582	112
306.812	104
307.042	113
307.272	120
307.502	146
307.731	116
307.961	102
308.191	94
308.421	88
308.651	111
308.881	94
309.111	97
309.341	96
309.571	110
309.8	104
310.03	105
310.26	97
310.49	88
310.72	94
310.949	118
311.179	118
311.409	103
311.639	109
311.868	100
312.098	106
312.328	92
312.557	113
312.787	103
313.017	105
313.246	101
313.476	91
313.706	93
313.935	101
314.165	104
314.394	101
314.624	91
314.853	100
315.083	103
315.312	104
315.542	97
315.771	90
316.001	88
316.23	101
316.46	83
316.689	101
316.919	112
317.148	108
317.377	104
317.607	90
317.836	90
318.065	111
318.295	101
318.524	85
318.753	84
318.983	88
319.212	109
319.441	112
319.67	106
319.9	93
320.129	102
320.358	92
320.587	96
320.816	92
321.046	103
321.275	109
321.504	97
321.733	84
321.962	101
322.191	94
322.42	98
322.649	116
322.878	114
323.108	124
323.337	144
323.566	148
323.795	147
324.024	222
324.253	434
324.482	906
324.71	1853
324.939	2362
325.168	888
325.397	259
325.626	148
325.855	129
326.084	132
326.313	141
326.542	162
326.77	258
326.999	525
327.228	1040
327.457	1848
327.686	1491
327.914	454
328.143	392
328.372	430
328.6	250
328.829	171
329.058	174
329.287	156
329.515	135
329.744	190
329.972	317
330.201	614
330.43	814
330.658	396
330.887	204
331.115	158
331.344	121
331.572	128
331.801	118
332.03	116
332.258	107
332.486	106
332.715	106
332.943	111
333.172	112
333.4	128
333.629	134
333.857	195
334.085	328
334.314	603
334.542	1048
334.771	970
334.999	282
335.227	135
335.455	108
335.684	112
335.912	115
336.14	116
336.369	109
336.597	121
336.825	103
337.053	81
337.281	95
337.51	113
337.738	104
337.966	95
338.194	105
338.422	100
338.65	105
338.878	93
339.106	82
339.334	88
339.562	98
339.79	87
340.018	92
340.246	101
340.474	106
340.702	88
340.93	94
341.158	101
341.386	91
341.614	82
341.842	105
342.07	91
342.298	93
342.526	78
342.754	95
342.981	86
343.209	105
343.437	88
343.665	91
343.893	94
344.12	87
344.348	98
344.576	115
344.804	109
345.031	102
345.259	104
345.487	107
345.714	114
345.942	101
346.17	101
346.397	107
346.625	85
346.853	97
347.08	86
347.308	103
347.535	106
347.763	114
347.99	102
348.218	106
348.445	117
348.673	102
348.9	109
349.128	100
349.355	104
349.583	105
349.81	105
350.037	89
350.265	104
350.492	90
350.72	94
350.947	103
351.174	116
351.402	120
351.629	118
351.856	102
352.083	102
352.311	116
352.538	101
352.765	118
352.992	117
353.22	110
353.447	104
353.674	98
353.901	101
354.128	105
354.355	83
354.583	94
354.81	114
355.037	101
355.264	101
355.491	90
355.718	109
355.945	78
356.172	99
356.399	91
356.626	88
356.853	96
357.08	87
357.307	98
357.534	98
357.761	89
357.988	101
358.215	95
358.441	93
358.668	101
358.895	108
359.122	82
359.349	110
359.576	108
359.802	104
360.029	134
360.256	128
360.483	98
360.709	81
360.936	96
361.163	104
361.39	100
361.616	104
361.843	88
362.07	108
362.296	104
362.523	89
362.749	82
362.976	98
363.203	89
363.429	107
363.656	114
363.882	98
364.109	92
364.335	89
364.562	91
364.788	99
365.015	90
365.241	86
365.468	129
365.694	101
365.92	99
366.147	98
366.373	91
366.599	99
366.826	91
367.052	84
367.278	99
367.505	92
367.731	93
367.957	91
368.184	96
368.41	101
368.636	115
368.862	120
369.089	128
369.315	102
369.541	93
369.767	84
369.993	100
370.219	100
370.445	91
370.672	96
370.898	94
371.124	101
371.35	98
371.576	87
371.802	83
372.028	88
372.254	85
372.48	92
372.706	97
372.932	88
373.158	81
373.384	97
373.61	100
373.835	100
374.061	112
374.287	102
374.513	88
374.739	91
374.965	99
375.191	77
375.416	92
375.642	96
375.868	96
376.094	93
376.319	77
376.545	95
376.771	93
376.997	90
377.222	91
377.448	95
377.674	98
377.899	91
378.125	86
378.35	97
378.576	90
378.802	98
379.027	109
379.253	97
379.478	93
379.704	92
379.929	86
380.155	84
380.38	91
380.606	101
380.831	94
381.057	98
381.282	98
381.507	92
381.733	91
381.958	101
382.184	104
382.409	104
382.634	118
382.86	99
383.085	112
383.31	99
383.535	92
383.761	90
383.986	98
384.211	97
384.436	98
384.662	103
384.887	122
385.112	120
385.337	105
385.562	95
385.787	106
386.013	113
386.238	121
386.463	117
386.688	128
386.913	110
387.138	131
387.363	114
387.588	94
387.813	97
388.038	105
388.263	108
388.488	122
388.713	103
388.938	102
389.163	101
389.387	101
389.612	93
389.837	99
390.062	104
390.287	87
390.512	93
390.736	89
390.961	81
391.186	109
391.411	102
391.636	80
391.86	81
392.085	84
392.31	84
392.534	89
392.759	85
392.984	92
393.208	94
393.433	108
393.658	107
393.882	77
394.107	90
394.331	70
394.556	88
394.78	80
395.005	99
395.229	88
395.454	92
395.678	98
395.903	101
396.127	92
396.352	93
396.576	86
396.801	90
397.025	101
397.249	99
397.474	110
397.698	91
397.922	77
398.147	87
398.371	88
398.595	99
398.82	90
399.044	96
399.268	91
399.492	86
399.717	99
399.941	99
400.165	91
400.389	101
400.613	78
400.837	89
401.062	91
401.286	102
401.51	83
401.734	98
401.958	106
402.182	131
402.406	163
402.63	140
402.854	88
403.078	95
403.302	72
403.526	85
403.75	96
403.974	96
404.198	77
404.422	98
404.645	88
404.869	97
405.093	100
405.317	118
405.541	126
405.765	100
405.988	130
406.212	186
406.436	258
406.66	164
406.883	120
407.107	99
407.331	108
407.555	97
407.778	104
408.002	101
408.226	102
408.449	102
408.673	85
408.896	96
409.12	105
409.344	96
409.567	79
409.791	102
410.014	92
410.238	98
410.461	97
410.685	97
410.908	109
411.132	116
411.355	89
411.578	99
411.802	94
412.025	87
412.249	105
412.472	103
412.695	96
412.919	108
413.142	91
413.365	80
413.589	89
413.812	83
414.035	93
414.258	89
414.482	90
414.705	95
414.928	83
415.151	101
415.374	92
415.597	93
415.821	106
416.044	91
416.267	107
416.49	76
416.713	74
416.936	77
417.159	93
417.382	89
417.605	109
417.828	118
418.051	96
418.274	80
418.497	97
418.72	95
418.943	102
419.166	85
419.389	83
419.611	104
419.834	80
420.057	92
420.28	99
420.503	85
420.726	89
420.948	99
421.171	98
421.394	94
421.617	91
421.839	93
422.062	104
422.285	107
422.507	104
422.73	108
422.953	112
423.175	71
423.398	84
423.621	87
423.843	89
424.066	84
424.288	90
424.511	88
424.733	98
424.956	102
425.178	103
425.401	107
425.623	92
425.846	100
426.068	106
426.291	100
426.513	86
426.735	88
426.958	97
427.18	98
427.402	171
427.625	218
427.847	190
428.069	171
428.292	128
428.514	104
428.736	92
428.958	91
429.181	99
429.403	90
429.625	81
429.847	84
430.069	107
430.292	95
430.514	91
430.736	84
430.958	74
431.18	97
431.402	82
431.624	85
431.846	73
432.068	82
432.29	93
432.512	82
432.734	96
432.956	95
433.178	92
433.4	107
433.622	89
433.844	84
434.066	82
434.287	99
434.509	77
434.731	92
434.953	95
435.175	94
435.397	117
435.618	103
435.84	103
436.062	119
436.284	115
436.505	100
436.727	105
436.949	86
437.17	87
437.392	78
437.614	98
437.835	112
438.057	123
438.278	110
438.5	109
438.721	131
438.943	111
439.165	89
439.386	84
439.608	97
439.829	116
440.05	137
440.272	151
440.493	110
440.715	92
440.936	87
441.158	85
441.379	84
441.6	73
441.822	93
442.043	112
442.264	112
442.486	117
442.707	101
442.928	107
443.149	158
443.371	152
443.592	107
443.813	125
444.034	111
444.255	92
444.476	94
444.698	102
444.919	86
445.14	151
445.361	116
445.582	100
445.803	146
446.024	136
446.245	152
446.466	117
446.687	90
446.908	75
447.129	103
447.35	95
447.571	101
447.792	113
448.013	93
448.234	116
448.455	95
448.675	120
448.896	124
449.117	119
449.338	121
449.559	123
449.779	153
450	90
450.221	103
450.442	103
450.662	103
450.883	102
451.104	114
451.324	101
451.545	97
451.766	91
451.986	93
452.207	80
452.428	102
452.648	117
452.869	115
453.089	129
453.31	142
453.53	96
453.751	100
453.971	121
454.192	118
454.412	106
454.633	91
454.853	95
455.073	77
455.294	92
455.514	109
455.734	102
455.955	92
456.175	97
456.395	93
456.616	94
456.836	88
457.056	88
457.276	81
457.497	94
457.717	96
457.937	84
458.157	91
458.377	100
458.598	111
458.818	174
459.038	171
459.258	119
459.478	88
459.698	81
459.918	83
460.138	81
460.358	85
460.578	85
460.798	94
461.018	78
461.238	91
461.458	91
461.678	85
461.898	85
462.118	90
462.338	82
462.558	85
462.777	80
462.997	95
463.217	112
463.437	90
463.657	92
463.876	93
464.096	88
464.316	94
464.536	93
464.755	107
464.975	114
465.195	204
465.414	201
465.634	102
465.854	85
466.073	84
466.293	82
466.512	88
466.732	84
466.951	96
467.171	86
467.391	103
467.61	119
467.829	186
468.049	359
468.268	485
468.488	154
468.707	107
468.927	84
469.146	99
469.365	95
469.585	113
469.804	102
470.023	105
470.243	106
470.462	110
470.681	116
470.901	101
471.12	106
471.339	91
471.558	109
471.777	117
471.997	216
472.216	687
472.435	1442
472.654	356
472.873	137
473.092	100
473.311	79
473.53	90
473.749	92
473.968	95
474.187	118
474.406	100
474.625	89
474.844	103
475.063	90
475.282	102
475.501	92
475.72	99
475.939	87
476.158	89
476.377	86
476.596	97
476.814	88
477.033	88
477.252	94
477.471	88
477.69	99
477.908	96
478.127	91
478.346	98
478.564	115
478.783	94
479.002	96
479.22	100
479.439	108
479.658	124
479.876	109
480.095	100
480.313	133
480.532	130
480.751	225
480.969	667
481.188	2533
481.406	1412
481.624	252
481.843	105
482.061	105
482.28	110
482.498	91
482.717	87
482.935	91
483.153	97
483.372	76
483.59	97
483.808	84
484.027	89
484.245	89
484.463	111
484.681	100
484.9	90
485.118	88
485.336	107
485.554	94
485.772	102
485.99	109
486.209	108
486.427	118
486.645	132
486.863	126
487.081	115
487.299	91
487.517	106
487.735	107
487.953	115
488.171	81
488.389	98
488.607	97
488.825	109
489.043	89
489.261	89
489.479	91
489.696	73
489.914	85
490.132	85
490.35	98
490.568	81
490.786	112
491.003	79
491.221	95
491.439	105
491.657	99
491.874	92
492.092	100
492.31	90
492.527	98
492.745	102
492.963	92
493.18	90
493.398	88
493.615	101
493.833	106
494.05	93
494.268	100
494.485	98
494.703	82
494.92	82
495.138	91
495.355	98
495.573	89
495.79	88
496.008	100
496.225	100
496.442	87
496.66	85
496.877	91
497.094	92
497.312	92
497.529	105
497.746	92
497.963	85
498.181	82
498.398	100
498.615	116
498.832	102
499.049	91
499.267	88
499.484	86
499.701	107
499.918	86
500.135	96
500.352	91
500.569	94
500.786	94
501.003	86
501.22	93
501.437	105
501.654	103
501.871	101
502.088	97
502.305	109
502.522	85
502.739	101
502.956	79
503.172	95
503.389	103
503.606	106
503.823	113
504.04	101
504.256	92
504.473	92
504.69	88
504.907	85
505.123	98
505.34	98
505.557	85
505.773	80
505.99	91
506.207	81
506.423	84
506.64	96
506.856	78
507.073	88
507.289	93
507.506	111
507.722	116
507.939	111
508.155	87
508.372	91
508.588	100
508.805	104
509.021	110
509.238	91
509.454	87
509.67	116
509.887	111
510.103	125
510.319	228
510.536	801
510.752	2527
510.968	711
511.184	183
511.401	126
511.617	97
511.833	102
512.049	96
512.265	93
512.481	85
512.698	96
512.914	76
513.13	101
513.346	88
513.562	80
513.778	98
513.994	103
514.21	106
514.426	129
514.642	154
514.858	135
515.074	191
515.29	574
515.506	1842
515.721	656
515.937	174
516.153	126
516.369	104
516.585	106
516.801	97
517.016	82
517.232	99
517.448	83
517.664	89
517.879	96
518.095	98
518.311	100
518.527	95
518.742	94
518.958	82
519.173	98
519.389	105
519.605	94
519.82	107
520.036	117
520.251	115
520.467	131
520.682	110
520.898	109
521.113	135
521.329	161
521.544	242
521.76	740
521.975	3053
522.19	1783
522.406	376
522.621	127
522.836	111
523.052	93
523.267	102
523.482	119
523.698	105
523.913	123
524.128	123
524.343	97
524.559	100
524.774	94
524.989	92
525.204	100
525.419	105
525.634	94
525.849	97
526.064	81
526.28	89
526.495	95
526.71	86
526.925	98
527.14	91
527.355	84
527.57	98
527.785	94
527.999	95
528.214	93
528.429	98
528.644	94
528.859	96
529.074	99
529.289	124
529.503	208
529.718	115
529.933	107
530.148	80
530.363	95
530.577	88
530.792	93
531.007	85
531.221	93
531.436	100
531.651	93
531.865	82
532.08	75
532.295	98
532.509	94
532.724	94
532.938	112
533.153	90
533.367	93
533.582	100
533.796	77
534.011	101
534.225	100
534.44	83
534.654	86
534.868	95
535.083	93
535.297	94
535.511	111
535.726	110
535.94	102
536.154	91
536.369	84
536.583	91
536.797	101
537.011	88
537.225	81
537.44	90
537.654	96
537.868	97
538.082	85
538.296	103
538.51	84
538.724	88
538.938	88
539.153	106
539.367	111
539.581	89
539.795	93
540.009	83
540.222	84
540.436	100
540.65	89
540.864	95
541.078	111
541.292	81
541.506	102
541.72	93
541.934	101
542.147	78
542.361	78
542.575	82
542.789	90
543.002	116
543.216	105
543.43	107
543.644	100
543.857	91
544.071	84
544.285	99
544.498	102
544.712	102
544.925	81
545.139	104
545.352	82
545.566	92
545.779	89
545.993	84
546.206	88
546.42	85
546.633	86
546.847	102
547.06	79
547.274	92
547.487	101
547.7	82
547.914	92
548.127	85
548.34	101
548.554	89
548.767	95
548.98	71
549.193	103
549.407	83
549.62	80
549.833	86
550.046	96
550.259	102
550.473	86
550.686	97
550.899	99
551.112	98
551.325	93
551.538	89
551.751	91
551.964	91
552.177	98
552.39	88
552.603	85
552.816	90
553.029	90
553.242	84
553.455	105
553.667	89
553.88	97
554.093	103
554.306	96
554.519	103
554.732	92
554.944	74
555.157	92
555.37	100
555.583	110
555.795	104
556.008	89
556.221	88
556.433	91
556.646	94
556.859	85
557.071	94
557.284	73
557.496	97
557.709	106
557.921	77
558.134	89
558.346	82
558.559	85
558.771	86
558.984	75
559.196	90
559.409	90
559.621	104
559.833	101
560.046	91
560.258	107
560.47	117
560.683	95
560.895	104
561.107	86
561.32	84
561.532	88
561.744	84
561.956	87
562.168	88
562.381	103
562.593	81
562.805	101
563.017	96
563.229	98
563.441	99
563.653	93
563.865	84
564.077	80
564.289	92
564.501	104
564.713	100
564.925	102
565.137	113
565.349	101
565.561	80
565.773	85
565.985	94
566.197	88
566.408	83
566.62	84
566.832	91
567.044	97
567.255	87
567.467	97
567.679	87
567.891	86
568.102	84
568.314	76
568.526	91
568.737	89
568.949	100
569.161	94
569.372	91
569.584	102
569.795	92
570.007	108
570.218	242
570.43	147
570.641	91
570.853	92
571.064	81
571.276	67
571.487	90
571.698	91
571.91	88
572.121	89
572.333	94
572.544	86
572.755	81
572.966	89
573.178	75
573.389	97
573.6	76
573.811	94
574.023	86
574.234	82
574.445	103
574.656	96
574.867	102
575.078	94
575.289	90
575.501	91
575.712	91
575.923	75
576.134	88
576.345	82
576.556	85
576.767	96
576.978	97
577.188	97
577.399	91
577.61	94
577.821	94
578.032	122
578.243	285
578.454	780
578.665	221
578.875	103
579.086	104
579.297	81
579.508	88
579.718	85
579.929	92
580.14	93
580.35	88
