Data from Circ_2001_H10_HRD10591_00006.txt Node
Date: Wed Jan 03 10:45:40 EST 2024
User: Yrep
Spectrometer: HR+D1059
Trigger mode: 1
Integration Time (sec): 1.000000E-1
Scans to average: 1
Electric dark correction enabled: true
Nonlinearity correction enabled: false
Boxcar width: 0
XAxis mode: Wavelengths
Number of Pixels in Spectrum: 2048
>>>>>Begin Spectral Data<<<<<
223.165	-22.12
223.4	-22.12
223.635	-22.12
223.869	-15.12
224.104	-13.12
224.338	-25.12
224.573	-17.12
224.808	-4.12
225.042	-12.12
225.277	-6.12
225.511	3.88
225.746	-4.12
225.98	9.88
226.215	2.88
226.449	18.88
226.683	21.88
226.918	29.88
227.152	31.88
227.387	38.88
227.621	40.88
227.856	44.88
228.09	36.88
228.324	39.88
228.559	60.88
228.793	63.88
229.027	72.88
229.262	54.88
229.496	77.88
229.73	81.88
229.964	78.88
230.199	76.88
230.433	65.88
230.667	85.88
230.901	85.88
231.136	85.88
231.37	77.88
231.604	77.88
231.838	87.88
232.072	74.88
232.306	90.88
232.541	94.88
232.775	66.88
233.009	74.88
233.243	90.88
233.477	83.88
233.711	84.88
233.945	86.88
234.179	78.88
234.413	81.88
234.647	90.88
234.881	85.88
235.115	73.88
235.349	89.88
235.583	88.88
235.817	77.88
236.051	88.88
236.285	88.88
236.519	75.88
236.753	86.88
236.987	77.88
237.221	93.88
237.455	77.88
237.689	76.88
237.922	79.88
238.156	70.88
238.39	77.88
238.624	75.88
238.858	76.88
239.091	73.88
239.325	69.88
239.559	82.88
239.793	90.88
240.027	78.88
240.26	83.88
240.494	78.88
240.728	79.88
240.961	67.88
241.195	88.88
241.429	70.88
241.662	83.88
241.896	85.88
242.13	85.88
242.363	83.88
242.597	77.88
242.83	88.88
243.064	85.88
243.298	86.88
243.531	78.88
243.765	89.88
243.998	89.88
244.232	93.88
244.465	97.88
244.699	83.88
244.932	77.88
245.166	74.88
245.399	94.88
245.633	65.88
245.866	89.88
246.099	73.88
246.333	83.88
246.566	84.88
246.8	89.88
247.033	80.88
247.266	73.88
247.5	81.88
247.733	85.88
247.966	81.88
248.2	84.88
248.433	83.88
248.666	82.88
248.899	89.88
249.133	94.88
249.366	95.88
249.599	101.88
249.832	74.88
250.066	79.88
250.299	80.88
250.532	87.88
250.765	69.88
250.998	78.88
251.231	93.88
251.465	75.88
251.698	79.88
251.931	100.88
252.164	104.88
252.397	78.88
252.63	87.88
252.863	75.88
253.096	82.88
253.329	76.88
253.562	82.88
253.795	79.88
254.028	78.88
254.261	84.88
254.494	71.88
254.727	78.88
254.96	80.88
255.193	68.88
255.426	72.88
255.659	89.88
255.892	88.88
256.124	84.88
256.357	98.88
256.59	83.88
256.823	87.88
257.056	85.88
257.289	80.88
257.521	84.88
257.754	81.88
257.987	95.88
258.22	84.88
258.452	93.88
258.685	80.88
258.918	91.88
259.151	71.88
259.383	84.88
259.616	68.88
259.849	75.88
260.081	87.88
260.314	75.88
260.547	75.88
260.779	81.88
261.012	102.88
261.244	91.88
261.477	94.88
261.71	104.88
261.942	105.88
262.175	115.88
262.407	80.88
262.64	78.88
262.872	80.88
263.105	95.88
263.337	76.88
263.57	89.88
263.802	82.88
264.035	88.88
264.267	82.88
264.499	104.88
264.732	94.88
264.964	83.88
265.197	83.88
265.429	93.88
265.661	73.88
265.894	77.88
266.126	86.88
266.358	83.88
266.591	80.88
266.823	93.88
267.055	97.88
267.287	104.88
267.52	73.88
267.752	90.88
267.984	76.88
268.216	102.88
268.448	88.88
268.681	78.88
268.913	90.88
269.145	88.88
269.377	88.88
269.609	89.88
269.841	78.88
270.073	81.88
270.306	82.88
270.538	90.88
270.77	81.88
271.002	81.88
271.234	84.88
271.466	91.88
271.698	77.88
271.93	68.88
272.162	95.88
272.394	83.88
272.626	89.88
272.858	80.88
273.09	84.88
273.322	78.88
273.553	85.88
273.785	95.88
274.017	80.88
274.249	90.88
274.481	85.88
274.713	86.88
274.945	94.88
275.176	97.88
275.408	94.88
275.64	91.88
275.872	97.88
276.104	102.88
276.335	86.88
276.567	91.88
276.799	119.88
277.031	91.88
277.262	109.88
277.494	109.88
277.726	97.88
277.957	92.88
278.189	80.88
278.421	98.88
278.652	95.88
278.884	79.88
279.115	92.88
279.347	89.88
279.579	98.88
279.81	89.88
280.042	108.88
280.273	128.88
280.505	110.88
280.736	101.88
280.968	84.88
281.199	86.88
281.431	80.88
281.662	91.88
281.894	102.88
282.125	89.88
282.356	106.88
282.588	147.88
282.819	110.88
283.051	92.88
283.282	85.88
283.513	98.88
283.745	100.88
283.976	75.88
284.207	88.88
284.439	85.88
284.67	97.88
284.901	90.88
285.132	92.88
285.364	86.88
285.595	104.88
285.826	80.88
286.057	85.88
286.288	72.88
286.52	94.88
286.751	85.88
286.982	85.88
287.213	90.88
287.444	90.88
287.675	73.88
287.906	94.88
288.138	80.88
288.369	94.88
288.6	93.88
288.831	95.88
289.062	85.88
289.293	88.88
289.524	86.88
289.755	82.88
289.986	86.88
290.217	73.88
290.448	82.88
290.679	85.88
290.91	86.88
291.141	91.88
291.371	92.88
291.602	70.88
291.833	98.88
292.064	96.88
292.295	87.88
292.526	82.88
292.757	100.88
292.987	92.88
293.218	96.88
293.449	98.88
293.68	99.88
293.91	83.88
294.141	95.88
294.372	85.88
294.603	91.88
294.833	90.88
295.064	103.88
295.295	82.88
295.525	94.88
295.756	114.88
295.987	122.88
296.217	148.88
296.448	133.88
296.679	92.88
296.909	99.88
297.14	92.88
297.37	93.88
297.601	98.88
297.831	83.88
298.062	86.88
298.292	83.88
298.523	100.88
298.753	81.88
298.984	96.88
299.214	80.88
299.445	89.88
299.675	87.88
299.905	92.88
300.136	91.88
300.366	94.88
300.597	85.88
300.827	98.88
301.057	104.88
301.288	115.88
301.518	100.88
301.748	92.88
301.979	92.88
302.209	94.88
302.439	101.88
302.669	105.88
302.9	83.88
303.13	96.88
303.36	104.88
303.59	108.88
303.82	105.88
304.051	87.88
304.281	93.88
304.511	92.88
304.741	92.88
304.971	93.88
305.201	89.88
305.431	90.88
305.661	94.88
305.891	93.88
306.121	85.88
306.352	92.88
306.582	102.88
306.812	92.88
307.042	105.88
307.272	109.88
307.502	122.88
307.731	113.88
307.961	93.88
308.191	101.88
308.421	86.88
308.651	97.88
308.881	102.88
309.111	84.88
309.341	92.88
309.571	103.88
309.8	104.88
310.03	93.88
310.26	98.88
310.49	107.88
310.72	105.88
310.949	104.88
311.179	96.88
311.409	92.88
311.639	93.88
311.868	84.88
312.098	93.88
312.328	97.88
312.557	101.88
312.787	106.88
313.017	111.88
313.246	94.88
313.476	97.88
313.706	89.88
313.935	99.88
314.165	99.88
314.394	101.88
314.624	101.88
314.853	102.88
315.083	99.88
315.312	110.88
315.542	90.88
315.771	90.88
316.001	98.88
316.23	86.88
316.46	79.88
316.689	90.88
316.919	89.88
317.148	106.88
317.377	94.88
317.607	99.88
317.836	72.88
318.065	82.88
318.295	87.88
318.524	100.88
318.753	94.88
318.983	108.88
319.212	92.88
319.441	103.88
319.67	107.88
319.9	92.88
320.129	90.88
320.358	86.88
320.587	85.88
320.816	109.88
321.046	106.88
321.275	99.88
321.504	96.88
321.733	93.88
321.962	96.88
322.191	99.88
322.42	118.88
322.649	102.88
322.878	116.88
323.108	125.88
323.337	124.88
323.566	113.88
323.795	145.88
324.024	197.88
324.253	397.88
324.482	854.88
324.71	1750.88
324.939	2268.88
325.168	834.88
325.397	257.88
325.626	159.88
325.855	131.88
326.084	123.88
326.313	137.88
326.542	164.88
326.77	230.88
326.999	479.88
327.228	1004.88
327.457	1776.88
327.686	1381.88
327.914	413.88
328.143	283.88
328.372	314.88
328.6	216.88
328.829	164.88
329.058	154.88
329.287	147.88
329.515	135.88
329.744	156.88
329.972	260.88
330.201	427.88
330.43	584.88
330.658	288.88
330.887	179.88
331.115	120.88
331.344	105.88
331.572	111.88
331.801	121.88
332.03	102.88
332.258	99.88
332.486	99.88
332.715	98.88
332.943	112.88
333.172	101.88
333.4	94.88
333.629	135.88
333.857	171.88
334.085	230.88
334.314	416.88
334.542	708.88
334.771	656.88
334.999	226.88
335.227	127.88
335.455	108.88
335.684	104.88
335.912	99.88
336.14	90.88
336.369	97.88
336.597	100.88
336.825	105.88
337.053	92.88
337.281	90.88
337.51	95.88
337.738	110.88
337.966	109.88
338.194	106.88
338.422	104.88
338.65	96.88
338.878	97.88
339.106	80.88
339.334	94.88
339.562	109.88
339.79	113.88
340.018	91.88
340.246	87.88
340.474	93.88
340.702	87.88
340.93	88.88
341.158	101.88
341.386	100.88
341.614	83.88
341.842	97.88
342.07	98.88
342.298	97.88
342.526	85.88
342.754	102.88
342.981	94.88
343.209	87.88
343.437	113.88
343.665	82.88
343.893	95.88
344.12	94.88
344.348	115.88
344.576	104.88
344.804	105.88
345.031	105.88
345.259	94.88
345.487	93.88
345.714	98.88
345.942	94.88
346.17	81.88
346.397	97.88
346.625	89.88
346.853	100.88
347.08	79.88
347.308	94.88
347.535	100.88
347.763	98.88
347.99	106.88
348.218	106.88
348.445	98.88
348.673	101.88
348.9	98.88
349.128	106.88
349.355	94.88
349.583	96.88
349.81	96.88
350.037	92.88
350.265	97.88
350.492	96.88
350.72	88.88
350.947	101.88
351.174	106.88
351.402	104.88
351.629	108.88
351.856	95.88
352.083	110.88
352.311	99.88
352.538	118.88
352.765	106.88
352.992	103.88
353.22	95.88
353.447	112.88
353.674	106.88
353.901	99.88
354.128	87.88
354.355	101.88
354.583	93.88
354.81	92.88
355.037	97.88
355.264	100.88
355.491	89.88
355.718	106.88
355.945	90.88
356.172	92.88
356.399	87.88
356.626	101.88
356.853	101.88
357.08	99.88
357.307	101.88
357.534	102.88
357.761	107.88
357.988	107.88
358.215	106.88
358.441	100.88
358.668	107.88
358.895	91.88
359.122	74.88
359.349	100.88
359.576	101.88
359.802	106.88
360.029	126.88
360.256	116.88
360.483	90.88
360.709	101.88
360.936	105.88
361.163	96.88
361.39	107.88
361.616	85.88
361.843	98.88
362.07	112.88
362.296	93.88
362.523	82.88
362.749	98.88
362.976	87.88
363.203	90.88
363.429	90.88
363.656	95.88
363.882	86.88
364.109	96.88
364.335	92.88
364.562	92.88
364.788	93.88
365.015	82.88
365.241	89.88
365.468	97.88
365.694	91.88
365.92	93.88
366.147	85.88
366.373	78.88
366.599	87.88
366.826	94.88
367.052	90.88
367.278	84.88
367.505	98.88
367.731	87.88
367.957	87.88
368.184	91.88
368.41	100.88
368.636	103.88
368.862	112.88
369.089	107.88
369.315	97.88
369.541	89.88
369.767	99.88
369.993	101.88
370.219	88.88
370.445	96.88
370.672	90.88
370.898	100.88
371.124	90.88
371.35	109.88
371.576	84.88
371.802	73.88
372.028	75.88
372.254	86.88
372.48	89.88
372.706	94.88
372.932	93.88
373.158	88.88
373.384	87.88
373.61	104.88
373.835	82.88
374.061	89.88
374.287	98.88
374.513	94.88
374.739	85.88
374.965	80.88
375.191	96.88
375.416	92.88
375.642	98.88
375.868	97.88
376.094	92.88
376.319	100.88
376.545	90.88
376.771	91.88
376.997	97.88
377.222	104.88
377.448	88.88
377.674	92.88
377.899	100.88
378.125	105.88
378.35	95.88
378.576	102.88
378.802	99.88
379.027	99.88
379.253	97.88
379.478	97.88
379.704	104.88
379.929	98.88
380.155	107.88
380.38	90.88
380.606	87.88
380.831	93.88
381.057	98.88
381.282	100.88
381.507	110.88
381.733	101.88
381.958	99.88
382.184	101.88
382.409	109.88
382.634	108.88
382.86	102.88
383.085	103.88
383.31	107.88
383.535	114.88
383.761	119.88
383.986	120.88
384.211	112.88
384.436	122.88
384.662	125.88
384.887	111.88
385.112	118.88
385.337	130.88
385.562	125.88
385.787	120.88
386.013	122.88
386.238	134.88
386.463	119.88
386.688	134.88
386.913	125.88
387.138	116.88
387.363	109.88
387.588	111.88
387.813	108.88
388.038	105.88
388.263	124.88
388.488	134.88
388.713	98.88
388.938	105.88
389.163	97.88
389.387	105.88
389.612	80.88
389.837	103.88
390.062	84.88
390.287	98.88
390.512	92.88
390.736	105.88
390.961	98.88
391.186	98.88
391.411	90.88
391.636	93.88
391.86	93.88
392.085	85.88
392.31	87.88
392.534	91.88
392.759	71.88
392.984	93.88
393.208	85.88
393.433	109.88
393.658	117.88
393.882	79.88
394.107	88.88
394.331	87.88
394.556	91.88
394.78	93.88
395.005	78.88
395.229	70.88
395.454	89.88
395.678	105.88
395.903	73.88
396.127	100.88
396.352	91.88
396.576	92.88
396.801	86.88
397.025	98.88
397.249	86.88
397.474	95.88
397.698	90.88
397.922	94.88
398.147	92.88
398.371	82.88
398.595	86.88
398.82	72.88
399.044	90.88
399.268	82.88
399.492	91.88
399.717	94.88
399.941	98.88
400.165	91.88
400.389	94.88
400.613	87.88
400.837	92.88
401.062	74.88
401.286	112.88
401.51	80.88
401.734	82.88
401.958	110.88
402.182	126.88
402.406	172.88
402.63	128.88
402.854	103.88
403.078	79.88
403.302	99.88
403.526	94.88
403.75	85.88
403.974	100.88
404.198	86.88
404.422	92.88
404.645	90.88
404.869	101.88
405.093	98.88
405.317	113.88
405.541	119.88
405.765	108.88
405.988	105.88
406.212	159.88
406.436	214.88
406.66	141.88
406.883	96.88
407.107	97.88
407.331	107.88
407.555	102.88
407.778	98.88
408.002	88.88
408.226	92.88
408.449	99.88
408.673	92.88
408.896	102.88
409.12	85.88
409.344	107.88
409.567	94.88
409.791	87.88
410.014	94.88
410.238	105.88
410.461	97.88
410.685	105.88
410.908	99.88
411.132	109.88
411.355	104.88
411.578	94.88
411.802	81.88
412.025	78.88
412.249	98.88
412.472	101.88
412.695	101.88
412.919	118.88
413.142	87.88
413.365	88.88
413.589	84.88
413.812	98.88
414.035	94.88
414.258	83.88
414.482	93.88
414.705	102.88
414.928	108.88
415.151	84.88
415.374	104.88
415.597	93.88
415.821	88.88
416.044	78.88
416.267	97.88
416.49	86.88
416.713	96.88
416.936	98.88
417.159	93.88
417.382	94.88
417.605	98.88
417.828	95.88
418.051	100.88
418.274	90.88
418.497	80.88
418.72	92.88
418.943	89.88
419.166	91.88
419.389	89.88
419.611	100.88
419.834	91.88
420.057	97.88
420.28	100.88
420.503	98.88
420.726	73.88
420.948	89.88
421.171	91.88
421.394	89.88
421.617	89.88
421.839	99.88
422.062	88.88
422.285	86.88
422.507	98.88
422.73	92.88
422.953	99.88
423.175	93.88
423.398	92.88
423.621	93.88
423.843	91.88
424.066	89.88
424.288	85.88
424.511	90.88
424.733	99.88
424.956	98.88
425.178	98.88
425.401	112.88
425.623	93.88
425.846	85.88
426.068	90.88
426.291	95.88
426.513	98.88
426.735	108.88
426.958	105.88
427.18	109.88
427.402	155.88
427.625	185.88
427.847	169.88
428.069	151.88
428.292	107.88
428.514	87.88
428.736	82.88
428.958	85.88
429.181	96.88
429.403	92.88
429.625	77.88
429.847	90.88
430.069	97.88
430.292	100.88
430.514	91.88
430.736	88.88
430.958	75.88
431.18	81.88
431.402	82.88
431.624	80.88
431.846	93.88
432.068	90.88
432.29	89.88
432.512	93.88
432.734	92.88
432.956	94.88
433.178	105.88
433.4	92.88
433.622	91.88
433.844	103.88
434.066	87.88
434.287	97.88
434.509	84.88
434.731	94.88
434.953	82.88
435.175	98.88
435.397	92.88
435.618	70.88
435.84	110.88
436.062	121.88
436.284	129.88
436.505	94.88
436.727	106.88
436.949	91.88
437.17	78.88
437.392	85.88
437.614	84.88
437.835	109.88
438.057	130.88
438.278	118.88
438.5	112.88
438.721	133.88
438.943	83.88
439.165	86.88
439.386	80.88
439.608	86.88
439.829	96.88
440.05	129.88
440.272	122.88
440.493	100.88
440.715	92.88
440.936	84.88
441.158	82.88
441.379	92.88
441.6	124.88
441.822	112.88
442.043	96.88
442.264	110.88
442.486	116.88
442.707	90.88
442.928	114.88
443.149	145.88
443.371	142.88
443.592	115.88
443.813	106.88
444.034	100.88
444.255	90.88
444.476	93.88
444.698	84.88
444.919	88.88
445.14	128.88
445.361	136.88
445.582	129.88
445.803	144.88
446.024	135.88
446.245	154.88
446.466	101.88
446.687	88.88
446.908	82.88
447.129	100.88
447.35	104.88
447.571	82.88
447.792	91.88
448.013	107.88
448.234	117.88
448.455	106.88
448.675	123.88
448.896	112.88
449.117	102.88
449.338	101.88
449.559	130.88
449.779	132.88
450	92.88
450.221	84.88
450.442	104.88
450.662	111.88
450.883	100.88
451.104	106.88
451.324	94.88
451.545	92.88
451.766	94.88
451.986	94.88
452.207	104.88
452.428	96.88
452.648	85.88
452.869	110.88
453.089	98.88
453.31	107.88
453.53	91.88
453.751	93.88
453.971	105.88
454.192	103.88
454.412	97.88
454.633	73.88
454.853	92.88
455.073	83.88
455.294	82.88
455.514	91.88
455.734	87.88
455.955	87.88
456.175	80.88
456.395	97.88
456.616	79.88
456.836	85.88
457.056	90.88
457.276	92.88
457.497	96.88
457.717	93.88
457.937	87.88
458.157	89.88
458.377	91.88
458.598	101.88
458.818	149.88
459.038	196.88
459.258	109.88
459.478	93.88
459.698	72.88
459.918	93.88
460.138	96.88
460.358	72.88
460.578	98.88
460.798	109.88
461.018	83.88
461.238	88.88
461.458	91.88
461.678	104.88
461.898	92.88
462.118	78.88
462.338	83.88
462.558	87.88
462.777	98.88
462.997	88.88
463.217	95.88
463.437	89.88
463.657	97.88
463.876	88.88
464.096	97.88
464.316	100.88
464.536	84.88
464.755	93.88
464.975	102.88
465.195	167.88
465.414	193.88
465.634	110.88
465.854	78.88
466.073	81.88
466.293	85.88
466.512	101.88
466.732	99.88
466.951	88.88
467.171	93.88
467.391	102.88
467.61	111.88
467.829	144.88
468.049	242.88
468.268	358.88
468.488	126.88
468.707	80.88
468.927	84.88
469.146	80.88
469.365	94.88
469.585	92.88
469.804	101.88
470.023	93.88
470.243	106.88
470.462	107.88
470.681	134.88
470.901	96.88
471.12	101.88
471.339	86.88
471.558	93.88
471.777	118.88
471.997	155.88
472.216	481.88
472.435	942.88
472.654	262.88
472.873	120.88
473.092	101.88
473.311	81.88
473.53	76.88
473.749	79.88
473.968	93.88
474.187	104.88
474.406	124.88
474.625	94.88
474.844	76.88
475.063	86.88
475.282	91.88
475.501	76.88
475.72	92.88
475.939	97.88
476.158	84.88
476.377	77.88
476.596	94.88
476.814	89.88
477.033	101.88
477.252	94.88
477.471	91.88
477.69	84.88
477.908	98.88
478.127	95.88
478.346	91.88
478.564	81.88
478.783	102.88
479.002	96.88
479.22	93.88
479.439	106.88
479.658	111.88
479.876	109.88
480.095	94.88
480.313	124.88
480.532	123.88
480.751	173.88
480.969	452.88
481.188	1660.88
481.406	996.88
481.624	197.88
481.843	110.88
482.061	100.88
482.28	91.88
482.498	93.88
482.717	102.88
482.935	86.88
483.153	79.88
483.372	79.88
483.59	105.88
483.808	96.88
484.027	105.88
484.245	83.88
484.463	92.88
484.681	101.88
484.9	97.88
485.118	94.88
485.336	95.88
485.554	113.88
485.772	116.88
485.99	112.88
486.209	104.88
486.427	101.88
486.645	129.88
486.863	139.88
487.081	100.88
487.299	100.88
487.517	96.88
487.735	106.88
487.953	102.88
488.171	95.88
488.389	113.88
488.607	87.88
488.825	85.88
489.043	87.88
489.261	104.88
489.479	81.88
489.696	73.88
489.914	95.88
490.132	87.88
490.35	101.88
490.568	89.88
490.786	100.88
491.003	97.88
491.221	98.88
491.439	94.88
491.657	102.88
491.874	90.88
492.092	92.88
492.31	100.88
492.527	104.88
492.745	98.88
492.963	102.88
493.18	98.88
493.398	102.88
493.615	98.88
493.833	91.88
494.05	78.88
494.268	99.88
494.485	98.88
494.703	78.88
494.92	94.88
495.138	76.88
495.355	96.88
495.573	83.88
495.79	100.88
496.008	107.88
496.225	81.88
496.442	109.88
496.66	81.88
496.877	92.88
497.094	90.88
497.312	95.88
497.529	93.88
497.746	98.88
497.963	84.88
498.181	81.88
498.398	91.88
498.615	101.88
498.832	93.88
499.049	89.88
499.267	92.88
499.484	80.88
499.701	91.88
499.918	95.88
500.135	94.88
500.352	96.88
500.569	77.88
500.786	86.88
501.003	97.88
501.22	91.88
501.437	98.88
501.654	101.88
501.871	110.88
502.088	94.88
502.305	91.88
502.522	98.88
502.739	96.88
502.956	105.88
503.172	96.88
503.389	85.88
503.606	97.88
503.823	99.88
504.04	78.88
504.256	82.88
504.473	78.88
504.69	86.88
504.907	94.88
505.123	113.88
505.34	101.88
505.557	110.88
505.773	103.88
505.99	100.88
506.207	85.88
506.423	88.88
506.64	95.88
506.856	105.88
507.073	95.88
507.289	106.88
507.506	107.88
507.722	112.88
507.939	100.88
508.155	108.88
508.372	101.88
508.588	99.88
508.805	100.88
509.021	87.88
509.238	92.88
509.454	80.88
509.67	89.88
509.887	103.88
510.103	122.88
510.319	215.88
510.536	696.88
510.752	2133.88
510.968	589.88
511.184	146.88
511.401	104.88
511.617	103.88
511.833	88.88
512.049	101.88
512.265	106.88
512.481	105.88
512.698	89.88
512.914	90.88
513.13	93.88
513.346	89.88
513.562	100.88
513.778	99.88
513.994	91.88
