Data from Circ_2001_H10_HRD10591_00037.txt Node
Date: Wed Jan 03 10:45:46 EST 2024
User: Yrep
Spectrometer: HR+D1059
Trigger mode: 1
Integration Time (sec): 1.000000E-1
Scans to average: 1
Electric dark correction enabled: true
Nonlinearity correction enabled: false
Boxcar width: 0
XAxis mode: Wavelengths
Number of Pixels in Spectrum: 2048
>>>>>Begin Spectral Data<<<<<
223.165	-13.5
223.4	-13.5
223.635	-13.5
223.869	-12.5
224.104	-11.5
224.338	-15.5
224.573	-13.5
224.808	-1.5
225.042	-11.5
225.277	-6.5
225.511	-4.5
225.746	0.5
225.98	5.5
226.215	16.5
226.449	10.5
226.683	19.5
226.918	23.5
227.152	14.5
227.387	36.5
227.621	46.5
227.856	45.5
228.09	49.5
228.324	57.5
228.559	42.5
228.793	52.5
229.027	62.5
229.262	65.5
229.496	70.5
229.73	84.5
229.964	74.5
230.199	70.5
230.433	87.5
230.667	86.5
230.901	78.5
231.136	79.5
231.37	87.5
231.604	73.5
231.838	78.5
232.072	82.5
232.306	86.5
232.541	79.5
232.775	72.5
233.009	90.5
233.243	94.5
233.477	71.5
233.711	87.5
233.945	77.5
234.179	87.5
234.413	81.5
234.647	78.5
234.881	78.5
235.115	79.5
235.349	83.5
235.583	83.5
235.817	83.5
236.051	71.5
236.285	67.5
236.519	81.5
236.753	64.5
236.987	77.5
237.221	84.5
237.455	82.5
237.689	73.5
237.922	79.5
238.156	74.5
238.39	64.5
238.624	68.5
238.858	67.5
239.091	82.5
239.325	85.5
239.559	88.5
239.793	84.5
240.027	74.5
240.26	74.5
240.494	96.5
240.728	83.5
240.961	70.5
241.195	78.5
241.429	72.5
241.662	74.5
241.896	73.5
242.13	75.5
242.363	73.5
242.597	95.5
242.83	66.5
243.064	58.5
243.298	97.5
243.531	77.5
243.765	81.5
243.998	72.5
244.232	72.5
244.465	86.5
244.699	82.5
244.932	94.5
245.166	79.5
245.399	84.5
245.633	80.5
245.866	75.5
246.099	80.5
246.333	76.5
246.566	85.5
246.8	72.5
247.033	80.5
247.266	95.5
247.5	86.5
247.733	69.5
247.966	76.5
248.2	74.5
248.433	79.5
248.666	72.5
248.899	83.5
249.133	97.5
249.366	100.5
249.599	98.5
249.832	89.5
250.066	88.5
250.299	73.5
250.532	89.5
250.765	80.5
250.998	86.5
251.231	84.5
251.465	87.5
251.698	86.5
251.931	74.5
252.164	75.5
252.397	77.5
252.63	71.5
252.863	71.5
253.096	92.5
253.329	90.5
253.562	82.5
253.795	73.5
254.028	79.5
254.261	74.5
254.494	74.5
254.727	83.5
254.96	81.5
255.193	81.5
255.426	85.5
255.659	79.5
255.892	76.5
256.124	98.5
256.357	79.5
256.59	85.5
256.823	91.5
257.056	82.5
257.289	86.5
257.521	85.5
257.754	80.5
257.987	88.5
258.22	84.5
258.452	99.5
258.685	98.5
258.918	79.5
259.151	87.5
259.383	85.5
259.616	79.5
259.849	81.5
260.081	81.5
260.314	79.5
260.547	71.5
260.779	79.5
261.012	92.5
261.244	106.5
261.477	107.5
261.71	91.5
261.942	112.5
262.175	109.5
262.407	93.5
262.64	75.5
262.872	76.5
263.105	78.5
263.337	87.5
263.57	76.5
263.802	82.5
264.035	90.5
264.267	72.5
264.499	80.5
264.732	90.5
264.964	82.5
265.197	78.5
265.429	84.5
265.661	85.5
265.894	81.5
266.126	88.5
266.358	74.5
266.591	81.5
266.823	78.5
267.055	89.5
267.287	86.5
267.52	78.5
267.752	76.5
267.984	89.5
268.216	86.5
268.448	90.5
268.681	100.5
268.913	93.5
269.145	73.5
269.377	80.5
269.609	93.5
269.841	78.5
270.073	87.5
270.306	90.5
270.538	92.5
270.77	78.5
271.002	86.5
271.234	83.5
271.466	99.5
271.698	84.5
271.93	93.5
272.162	100.5
272.394	84.5
272.626	76.5
272.858	86.5
273.09	88.5
273.322	74.5
273.553	77.5
273.785	88.5
274.017	92.5
274.249	88.5
274.481	102.5
274.713	81.5
274.945	83.5
275.176	88.5
275.408	86.5
275.64	99.5
275.872	104.5
276.104	90.5
276.335	89.5
276.567	106.5
276.799	123.5
277.031	114.5
277.262	145.5
277.494	128.5
277.726	90.5
277.957	92.5
278.189	97.5
278.421	85.5
278.652	91.5
278.884	93.5
279.115	91.5
279.347	74.5
279.579	88.5
279.81	104.5
280.042	128.5
280.273	146.5
280.505	114.5
280.736	105.5
280.968	91.5
281.199	85.5
281.431	87.5
281.662	83.5
281.894	96.5
282.125	99.5
282.356	120.5
282.588	136.5
282.819	117.5
283.051	92.5
283.282	76.5
283.513	84.5
283.745	90.5
283.976	90.5
284.207	77.5
284.439	88.5
284.67	84.5
284.901	88.5
285.132	80.5
285.364	80.5
285.595	87.5
285.826	89.5
286.057	112.5
286.288	72.5
286.52	96.5
286.751	75.5
286.982	89.5
287.213	83.5
287.444	95.5
287.675	92.5
287.906	82.5
288.138	83.5
288.369	92.5
288.6	96.5
288.831	85.5
289.062	94.5
289.293	81.5
289.524	89.5
289.755	90.5
289.986	77.5
290.217	93.5
290.448	70.5
290.679	85.5
290.91	83.5
291.141	103.5
291.371	82.5
291.602	97.5
291.833	83.5
292.064	79.5
292.295	84.5
292.526	82.5
292.757	89.5
292.987	85.5
293.218	80.5
293.449	83.5
293.68	79.5
293.91	78.5
294.141	87.5
294.372	85.5
294.603	86.5
294.833	85.5
295.064	103.5
295.295	88.5
295.525	86.5
295.756	115.5
295.987	126.5
296.217	134.5
296.448	124.5
296.679	79.5
296.909	88.5
297.14	84.5
297.37	92.5
297.601	87.5
297.831	98.5
298.062	103.5
298.292	85.5
298.523	91.5
298.753	91.5
298.984	86.5
299.214	84.5
299.445	83.5
299.675	90.5
299.905	90.5
300.136	89.5
300.366	75.5
300.597	83.5
300.827	95.5
301.057	101.5
301.288	112.5
301.518	94.5
301.748	99.5
301.979	107.5
302.209	98.5
302.439	91.5
302.669	81.5
302.9	75.5
303.13	82.5
303.36	90.5
303.59	106.5
303.82	121.5
304.051	99.5
304.281	86.5
304.511	98.5
304.741	84.5
304.971	73.5
305.201	103.5
305.431	90.5
305.661	92.5
305.891	99.5
306.121	98.5
306.352	108.5
306.582	104.5
306.812	88.5
307.042	106.5
307.272	131.5
307.502	128.5
307.731	111.5
307.961	106.5
308.191	91.5
308.421	82.5
308.651	100.5
308.881	97.5
309.111	82.5
309.341	103.5
309.571	102.5
309.8	97.5
310.03	111.5
310.26	94.5
310.49	85.5
310.72	88.5
310.949	89.5
311.179	107.5
311.409	99.5
311.639	101.5
311.868	104.5
312.098	98.5
312.328	94.5
312.557	84.5
312.787	93.5
313.017	90.5
313.246	98.5
313.476	91.5
313.706	92.5
313.935	90.5
314.165	116.5
314.394	93.5
314.624	95.5
314.853	98.5
315.083	86.5
315.312	102.5
315.542	91.5
315.771	77.5
316.001	89.5
316.23	87.5
316.46	84.5
316.689	86.5
316.919	104.5
317.148	91.5
317.377	95.5
317.607	94.5
317.836	86.5
318.065	98.5
318.295	92.5
318.524	90.5
318.753	102.5
318.983	103.5
319.212	98.5
319.441	115.5
319.67	116.5
319.9	92.5
320.129	90.5
320.358	87.5
320.587	103.5
320.816	93.5
321.046	99.5
321.275	86.5
321.504	85.5
321.733	95.5
321.962	103.5
322.191	97.5
322.42	96.5
322.649	113.5
322.878	122.5
323.108	113.5
323.337	136.5
323.566	130.5
323.795	157.5
324.024	211.5
324.253	432.5
324.482	962.5
324.71	1946.5
324.939	2516.5
325.168	929.5
325.397	249.5
325.626	159.5
325.855	155.5
326.084	136.5
326.313	146.5
326.542	162.5
326.77	263.5
326.999	501.5
327.228	1104.5
327.457	1960.5
327.686	1554.5
327.914	469.5
328.143	340.5
328.372	406.5
328.6	236.5
328.829	162.5
329.058	146.5
329.287	171.5
329.515	146.5
329.744	177.5
329.972	297.5
330.201	570.5
330.43	775.5
330.658	363.5
330.887	200.5
331.115	147.5
331.344	111.5
331.572	100.5
331.801	109.5
332.03	107.5
332.258	95.5
332.486	98.5
332.715	94.5
332.943	104.5
333.172	114.5
333.4	114.5
333.629	135.5
333.857	185.5
334.085	277.5
334.314	556.5
334.542	1009.5
334.771	891.5
334.999	269.5
335.227	146.5
335.455	112.5
335.684	107.5
335.912	98.5
336.14	111.5
336.369	100.5
336.597	87.5
336.825	91.5
337.053	97.5
337.281	98.5
337.51	96.5
337.738	95.5
337.966	100.5
338.194	95.5
338.422	76.5
338.65	86.5
338.878	98.5
339.106	105.5
339.334	96.5
339.562	105.5
339.79	89.5
340.018	85.5
340.246	87.5
340.474	99.5
340.702	96.5
340.93	86.5
341.158	89.5
341.386	103.5
341.614	84.5
341.842	87.5
342.07	92.5
342.298	103.5
342.526	100.5
342.754	83.5
342.981	92.5
343.209	91.5
343.437	96.5
343.665	82.5
343.893	84.5
344.12	83.5
344.348	91.5
344.576	98.5
344.804	94.5
345.031	99.5
345.259	100.5
345.487	97.5
345.714	96.5
345.942	83.5
346.17	100.5
346.397	100.5
346.625	76.5
346.853	105.5
347.08	91.5
347.308	103.5
347.535	105.5
347.763	86.5
347.99	82.5
348.218	114.5
348.445	113.5
348.673	108.5
348.9	85.5
349.128	100.5
349.355	92.5
349.583	98.5
349.81	107.5
350.037	82.5
350.265	95.5
350.492	93.5
350.72	93.5
350.947	93.5
351.174	113.5
351.402	110.5
351.629	103.5
351.856	98.5
352.083	85.5
352.311	122.5
352.538	108.5
352.765	117.5
352.992	118.5
353.22	111.5
353.447	108.5
353.674	98.5
353.901	92.5
354.128	94.5
354.355	100.5
354.583	103.5
354.81	97.5
355.037	103.5
355.264	105.5
355.491	91.5
355.718	98.5
355.945	99.5
356.172	95.5
356.399	84.5
356.626	102.5
356.853	83.5
357.08	100.5
357.307	91.5
357.534	96.5
357.761	91.5
357.988	105.5
358.215	95.5
358.441	88.5
358.668	89.5
358.895	79.5
359.122	88.5
359.349	79.5
359.576	91.5
359.802	115.5
360.029	119.5
360.256	117.5
360.483	109.5
360.709	92.5
360.936	93.5
361.163	108.5
361.39	108.5
361.616	84.5
361.843	81.5
362.07	91.5
362.296	92.5
362.523	103.5
362.749	98.5
362.976	99.5
363.203	91.5
363.429	83.5
363.656	98.5
363.882	91.5
364.109	112.5
364.335	90.5
364.562	105.5
364.788	107.5
365.015	94.5
365.241	114.5
365.468	115.5
365.694	107.5
365.92	96.5
366.147	81.5
366.373	80.5
366.599	98.5
366.826	83.5
367.052	91.5
367.278	88.5
367.505	87.5
367.731	83.5
367.957	92.5
368.184	88.5
368.41	106.5
368.636	121.5
368.862	115.5
369.089	110.5
369.315	86.5
369.541	102.5
369.767	83.5
369.993	85.5
370.219	80.5
370.445	87.5
370.672	91.5
370.898	89.5
371.124	86.5
371.35	85.5
371.576	88.5
371.802	85.5
372.028	82.5
372.254	95.5
372.48	96.5
372.706	75.5
372.932	84.5
373.158	102.5
373.384	101.5
373.61	80.5
373.835	95.5
374.061	88.5
374.287	94.5
374.513	99.5
374.739	105.5
374.965	103.5
375.191	95.5
375.416	85.5
375.642	71.5
375.868	87.5
376.094	90.5
376.319	86.5
376.545	90.5
376.771	89.5
376.997	87.5
377.222	89.5
377.448	97.5
377.674	89.5
377.899	95.5
378.125	90.5
378.35	103.5
378.576	90.5
378.802	85.5
379.027	90.5
379.253	88.5
379.478	83.5
379.704	96.5
379.929	91.5
380.155	83.5
380.38	94.5
380.606	90.5
380.831	88.5
381.057	101.5
381.282	99.5
381.507	102.5
381.733	94.5
381.958	85.5
382.184	92.5
382.409	84.5
382.634	93.5
382.86	98.5
383.085	97.5
383.31	92.5
383.535	102.5
383.761	97.5
383.986	85.5
384.211	107.5
384.436	92.5
384.662	104.5
384.887	105.5
385.112	113.5
385.337	117.5
385.562	102.5
385.787	97.5
386.013	100.5
386.238	107.5
386.463	114.5
386.688	96.5
386.913	88.5
387.138	89.5
387.363	100.5
387.588	96.5
387.813	98.5
388.038	95.5
388.263	114.5
388.488	119.5
388.713	96.5
388.938	90.5
389.163	94.5
389.387	94.5
389.612	90.5
389.837	85.5
390.062	84.5
390.287	90.5
390.512	97.5
390.736	78.5
390.961	87.5
391.186	95.5
391.411	91.5
391.636	117.5
391.86	80.5
392.085	92.5
392.31	94.5
392.534	104.5
392.759	98.5
392.984	87.5
393.208	91.5
393.433	114.5
393.658	94.5
393.882	94.5
394.107	92.5
394.331	85.5
394.556	94.5
394.78	87.5
395.005	82.5
395.229	74.5
395.454	77.5
395.678	78.5
395.903	85.5
396.127	83.5
396.352	69.5
396.576	87.5
396.801	97.5
397.025	87.5
397.249	94.5
397.474	82.5
397.698	74.5
397.922	89.5
398.147	96.5
398.371	99.5
398.595	81.5
398.82	75.5
399.044	77.5
399.268	83.5
399.492	94.5
399.717	101.5
399.941	71.5
400.165	94.5
400.389	94.5
400.613	86.5
400.837	82.5
401.062	90.5
401.286	93.5
401.51	84.5
401.734	85.5
401.958	99.5
402.182	133.5
402.406	156.5
402.63	111.5
402.854	91.5
403.078	79.5
403.302	83.5
403.526	95.5
403.75	104.5
403.974	84.5
404.198	81.5
404.422	87.5
404.645	78.5
404.869	86.5
405.093	112.5
405.317	111.5
405.541	134.5
405.765	100.5
405.988	126.5
406.212	175.5
406.436	231.5
406.66	155.5
406.883	114.5
407.107	100.5
407.331	88.5
407.555	89.5
407.778	82.5
408.002	110.5
408.226	99.5
408.449	77.5
408.673	89.5
408.896	86.5
409.12	111.5
409.344	95.5
409.567	89.5
409.791	86.5
410.014	101.5
410.238	99.5
410.461	92.5
410.685	96.5
410.908	98.5
411.132	99.5
411.355	104.5
411.578	100.5
411.802	91.5
412.025	94.5
412.249	100.5
412.472	108.5
412.695	110.5
412.919	88.5
413.142	75.5
413.365	85.5
413.589	98.5
413.812	86.5
414.035	100.5
414.258	89.5
414.482	96.5
414.705	79.5
414.928	91.5
415.151	83.5
415.374	86.5
415.597	75.5
415.821	94.5
416.044	98.5
416.267	95.5
416.49	74.5
416.713	86.5
416.936	84.5
417.159	75.5
417.382	102.5
417.605	89.5
417.828	106.5
418.051	76.5
418.274	86.5
418.497	92.5
418.72	91.5
418.943	82.5
419.166	86.5
419.389	79.5
419.611	99.5
419.834	100.5
420.057	94.5
420.28	72.5
420.503	81.5
420.726	89.5
420.948	84.5
421.171	99.5
421.394	86.5
421.617	94.5
421.839	90.5
422.062	91.5
422.285	86.5
422.507	96.5
422.73	93.5
422.953	91.5
423.175	88.5
423.398	89.5
423.621	98.5
423.843	85.5
424.066	94.5
424.288	86.5
424.511	90.5
424.733	95.5
424.956	118.5
425.178	88.5
425.401	101.5
425.623	89.5
425.846	73.5
426.068	91.5
426.291	94.5
426.513	94.5
426.735	83.5
426.958	88.5
427.18	100.5
427.402	156.5
427.625	211.5
427.847	203.5
428.069	191.5
428.292	123.5
428.514	102.5
428.736	90.5
428.958	101.5
429.181	102.5
429.403	88.5
429.625	84.5
429.847	94.5
430.069	107.5
430.292	95.5
430.514	81.5
430.736	99.5
430.958	91.5
431.18	87.5
431.402	88.5
431.624	85.5
431.846	86.5
432.068	100.5
432.29	81.5
432.512	89.5
432.734	99.5
432.956	100.5
433.178	96.5
433.4	108.5
433.622	85.5
433.844	87.5
434.066	84.5
434.287	96.5
434.509	94.5
434.731	88.5
434.953	77.5
435.175	79.5
435.397	87.5
435.618	97.5
435.84	102.5
436.062	122.5
436.284	120.5
436.505	101.5
436.727	120.5
436.949	95.5
437.17	78.5
437.392	96.5
437.614	93.5
437.835	117.5
438.057	123.5
438.278	123.5
438.5	122.5
438.721	124.5
438.943	118.5
439.165	87.5
439.386	103.5
439.608	91.5
439.829	100.5
440.05	130.5
440.272	158.5
440.493	106.5
440.715	85.5
440.936	105.5
441.158	102.5
441.379	90.5
441.6	99.5
441.822	86.5
442.043	98.5
442.264	116.5
442.486	98.5
442.707	100.5
442.928	108.5
443.149	139.5
443.371	150.5
443.592	104.5
443.813	115.5
444.034	108.5
444.255	92.5
444.476	84.5
444.698	86.5
444.919	100.5
445.14	136.5
445.361	134.5
445.582	118.5
445.803	146.5
446.024	162.5
446.245	145.5
446.466	111.5
446.687	75.5
446.908	84.5
447.129	88.5
447.35	80.5
447.571	76.5
447.792	99.5
448.013	90.5
448.234	105.5
448.455	97.5
448.675	119.5
448.896	119.5
449.117	111.5
449.338	112.5
449.559	119.5
449.779	151.5
450	108.5
450.221	79.5
450.442	90.5
450.662	92.5
450.883	119.5
451.104	114.5
451.324	107.5
451.545	85.5
451.766	96.5
451.986	92.5
452.207	116.5
452.428	92.5
452.648	100.5
452.869	104.5
453.089	116.5
453.31	117.5
453.53	106.5
453.751	103.5
453.971	100.5
454.192	122.5
454.412	78.5
454.633	84.5
454.853	81.5
455.073	91.5
455.294	84.5
455.514	97.5
455.734	97.5
455.955	75.5
456.175	81.5
456.395	86.5
456.616	74.5
456.836	81.5
457.056	98.5
457.276	83.5
457.497	90.5
457.717	90.5
457.937	84.5
458.157	97.5
458.377	91.5
458.598	123.5
458.818	144.5
459.038	182.5
459.258	134.5
459.478	90.5
459.698	94.5
459.918	85.5
460.138	84.5
460.358	79.5
460.578	98.5
460.798	92.5
461.018	87.5
461.238	82.5
461.458	84.5
461.678	80.5
461.898	92.5
462.118	88.5
462.338	90.5
462.558	80.5
462.777	73.5
462.997	71.5
463.217	81.5
463.437	94.5
463.657	84.5
463.876	84.5
464.096	73.5
464.316	95.5
464.536	91.5
464.755	92.5
464.975	111.5
465.195	202.5
465.414	172.5
465.634	95.5
465.854	78.5
466.073	94.5
466.293	104.5
466.512	76.5
466.732	102.5
466.951	90.5
467.171	92.5
467.391	105.5
467.61	126.5
467.829	165.5
468.049	346.5
468.268	465.5
468.488	166.5
468.707	96.5
468.927	70.5
469.146	83.5
469.365	76.5
469.585	96.5
469.804	104.5
470.023	105.5
470.243	85.5
470.462	118.5
470.681	115.5
470.901	94.5
471.12	105.5
471.339	104.5
471.558	119.5
471.777	119.5
471.997	207.5
472.216	663.5
472.435	1346.5
472.654	364.5
472.873	123.5
473.092	88.5
473.311	81.5
473.53	83.5
473.749	96.5
473.968	89.5
474.187	115.5
474.406	95.5
474.625	85.5
474.844	95.5
475.063	87.5
475.282	81.5
475.501	77.5
475.72	80.5
475.939	105.5
476.158	95.5
476.377	97.5
476.596	92.5
476.814	85.5
477.033	102.5
477.252	98.5
477.471	91.5
477.69	100.5
477.908	96.5
478.127	89.5
478.346	82.5
478.564	89.5
478.783	96.5
479.002	98.5
479.22	111.5
479.439	108.5
479.658	93.5
479.876	97.5
480.095	101.5
480.313	122.5
480.532	124.5
480.751	197.5
480.969	604.5
481.188	2372.5
481.406	1364.5
481.624	226.5
481.843	119.5
482.061	108.5
482.28	91.5
482.498	111.5
482.717	87.5
482.935	95.5
483.153	85.5
483.372	96.5
483.59	96.5
483.808	94.5
484.027	87.5
484.245	80.5
484.463	91.5
484.681	98.5
484.9	92.5
485.118	105.5
485.336	115.5
485.554	87.5
485.772	101.5
485.99	104.5
486.209	104.5
486.427	111.5
486.645	126.5
486.863	128.5
487.081	93.5
487.299	103.5
487.517	93.5
487.735	84.5
487.953	100.5
488.171	98.5
488.389	89.5
488.607	105.5
488.825	97.5
489.043	90.5
489.261	78.5
489.479	85.5
489.696	82.5
489.914	91.5
490.132	78.5
490.35	90.5
490.568	104.5
490.786	90.5
491.003	78.5
491.221	83.5
491.439	70.5
491.657	83.5
491.874	91.5
492.092	79.5
492.31	89.5
492.527	92.5
492.745	91.5
492.963	92.5
493.18	94.5
493.398	107.5
493.615	64.5
493.833	102.5
494.05	97.5
494.268	91.5
494.485	89.5
494.703	91.5
494.92	74.5
495.138	96.5
495.355	88.5
495.573	93.5
495.79	85.5
496.008	95.5
496.225	87.5
496.442	85.5
496.66	88.5
496.877	98.5
497.094	103.5
497.312	89.5
497.529	97.5
497.746	88.5
497.963	84.5
498.181	95.5
498.398	103.5
498.615	113.5
498.832	99.5
499.049	91.5
499.267	90.5
499.484	83.5
499.701	89.5
499.918	83.5
500.135	93.5
500.352	97.5
500.569	82.5
500.786	91.5
501.003	97.5
501.22	90.5
501.437	99.5
501.654	91.5
501.871	116.5
502.088	98.5
502.305	82.5
502.522	91.5
502.739	90.5
502.956	78.5
503.172	86.5
503.389	91.5
503.606	96.5
503.823	95.5
504.04	83.5
504.256	86.5
504.473	86.5
504.69	80.5
504.907	83.5
505.123	98.5
505.34	87.5
505.557	82.5
505.773	94.5
505.99	87.5
506.207	81.5
506.423	86.5
506.64	84.5
506.856	92.5
507.073	99.5
507.289	96.5
507.506	97.5
507.722	112.5
507.939	107.5
508.155	104.5
508.372	83.5
508.588	96.5
508.805	107.5
509.021	95.5
509.238	101.5
509.454	103.5
509.67	102.5
509.887	115.5
510.103	132.5
510.319	203.5
510.536	745.5
510.752	2304.5
510.968	669.5
511.184	151.5
511.401	123.5
511.617	102.5
511.833	88.5
512.049	91.5
512.265	96.5
512.481	88.5
512.698	88.5
512.914	99.5
513.13	99.5
513.346	95.5
513.562	100.5
513.778	107.5
513.994	97.5
514.21	103.5
514.426	115.5
514.642	164.5
514.858	139.5
515.074	196.5
515.29	502.5
515.506	1702.5
515.721	625.5
515.937	184.5
516.153	117.5
516.369	105.5
516.585	98.5
516.801	104.5
517.016	96.5
517.232	90.5
517.448	84.5
517.664	93.5
517.879	98.5
518.095	90.5
518.311	95.5
518.527	90.5
518.742	95.5
518.958	93.5
519.173	78.5
519.389	91.5
519.605	90.5
519.82	88.5
520.036	112.5
520.251	128.5
520.467	118.5
520.682	108.5
520.898	122.5
521.113	126.5
521.329	161.5
521.544	248.5
521.76	654.5
521.975	2827.5
522.19	1713.5
522.406	363.5
522.621	121.5
522.836	106.5
523.052	90.5
523.267	83.5
523.482	91.5
523.698	101.5
523.913	127.5
524.128	97.5
524.343	83.5
524.559	75.5
524.774	94.5
524.989	99.5
525.204	96.5
525.419	106.5
525.634	86.5
525.849	68.5
526.064	87.5
526.28	100.5
526.495	86.5
526.71	82.5
526.925	94.5
527.14	82.5
527.355	94.5
527.57	82.5
527.785	90.5
527.999	91.5
528.214	80.5
528.429	94.5
528.644	80.5
528.859	89.5
529.074	91.5
529.289	133.5
529.503	213.5
529.718	116.5
529.933	101.5
530.148	99.5
530.363	95.5
530.577	83.5
530.792	77.5
531.007	93.5
531.221	85.5
531.436	100.5
531.651	88.5
531.865	90.5
532.08	87.5
532.295	105.5
532.509	88.5
532.724	94.5
532.938	99.5
533.153	95.5
533.367	101.5
533.582	98.5
533.796	99.5
534.011	101.5
534.225	81.5
