Data from Circ_2001_H10_HRD10591_00019.txt Node
Date: Wed Jan 03 10:45:42 EST 2024
User: Yrep
Spectrometer: HR+D1059
Trigger mode: 1
Integration Time (sec): 1.000000E-1
Scans to average: 1
Electric dark correction enabled: true
Nonlinearity correction enabled: false
Boxcar width: 0
XAxis mode: Wavelengths
Number of Pixels in Spectrum: 2048
>>>>>Begin Spectral Data<<<<<
223.165	-11.56
223.4	-11.56
223.635	-11.56
223.869	-18.56
224.104	-15.56
224.338	-17.56
224.573	-6.56
224.808	-13.56
225.042	-14.56
225.277	-7.56
225.511	2.44
225.746	2.44
225.98	7.44
226.215	5.44
226.449	19.44
226.683	7.44
226.918	31.44
227.152	29.44
227.387	35.44
227.621	33.44
227.856	40.44
228.09	52.44
228.324	49.44
228.559	63.44
228.793	52.44
229.027	67.44
229.262	69.44
229.496	68.44
229.73	79.44
229.964	82.44
230.199	76.44
230.433	56.44
230.667	76.44
230.901	69.44
231.136	88.44
231.37	71.44
231.604	74.44
231.838	67.44
232.072	86.44
232.306	91.44
232.541	83.44
232.775	80.44
233.009	78.44
233.243	72.44
233.477	72.44
233.711	60.44
233.945	83.44
234.179	69.44
234.413	86.44
234.647	78.44
234.881	78.44
235.115	69.44
235.349	68.44
235.583	77.44
235.817	69.44
236.051	71.44
236.285	87.44
236.519	84.44
236.753	71.44
236.987	83.44
237.221	64.44
237.455	75.44
237.689	90.44
237.922	82.44
238.156	79.44
238.39	80.44
238.624	68.44
238.858	71.44
239.091	79.44
239.325	101.44
239.559	76.44
239.793	73.44
240.027	76.44
240.26	82.44
240.494	79.44
240.728	75.44
240.961	65.44
241.195	82.44
241.429	75.44
241.662	74.44
241.896	71.44
242.13	74.44
242.363	87.44
242.597	78.44
242.83	88.44
243.064	81.44
243.298	92.44
243.531	79.44
243.765	73.44
243.998	83.44
244.232	84.44
244.465	92.44
244.699	92.44
244.932	78.44
245.166	87.44
245.399	70.44
245.633	76.44
245.866	84.44
246.099	80.44
246.333	75.44
246.566	87.44
246.8	78.44
247.033	80.44
247.266	76.44
247.5	84.44
247.733	82.44
247.966	76.44
248.2	73.44
248.433	76.44
248.666	80.44
248.899	81.44
249.133	98.44
249.366	113.44
249.599	78.44
249.832	84.44
250.066	89.44
250.299	86.44
250.532	82.44
250.765	83.44
250.998	73.44
251.231	78.44
251.465	73.44
251.698	82.44
251.931	80.44
252.164	83.44
252.397	77.44
252.63	81.44
252.863	79.44
253.096	90.44
253.329	77.44
253.562	87.44
253.795	73.44
254.028	66.44
254.261	86.44
254.494	84.44
254.727	71.44
254.96	83.44
255.193	88.44
255.426	76.44
255.659	75.44
255.892	83.44
256.124	81.44
256.357	80.44
256.59	81.44
256.823	89.44
257.056	84.44
257.289	76.44
257.521	84.44
257.754	94.44
257.987	90.44
258.22	81.44
258.452	90.44
258.685	104.44
258.918	83.44
259.151	85.44
259.383	88.44
259.616	75.44
259.849	79.44
260.081	76.44
260.314	79.44
260.547	101.44
260.779	79.44
261.012	84.44
261.244	91.44
261.477	89.44
261.71	99.44
261.942	97.44
262.175	126.44
262.407	92.44
262.64	87.44
262.872	73.44
263.105	77.44
263.337	92.44
263.57	96.44
263.802	83.44
264.035	75.44
264.267	76.44
264.499	97.44
264.732	74.44
264.964	96.44
265.197	81.44
265.429	83.44
265.661	85.44
265.894	73.44
266.126	89.44
266.358	81.44
266.591	96.44
266.823	91.44
267.055	95.44
267.287	72.44
267.52	80.44
267.752	82.44
267.984	80.44
268.216	90.44
268.448	81.44
268.681	90.44
268.913	83.44
269.145	89.44
269.377	80.44
269.609	78.44
269.841	96.44
270.073	73.44
270.306	87.44
270.538	76.44
270.77	93.44
271.002	93.44
271.234	85.44
271.466	87.44
271.698	93.44
271.93	72.44
272.162	91.44
272.394	91.44
272.626	89.44
272.858	81.44
273.09	99.44
273.322	97.44
273.553	81.44
273.785	84.44
274.017	83.44
274.249	89.44
274.481	90.44
274.713	94.44
274.945	88.44
275.176	89.44
275.408	97.44
275.64	96.44
275.872	84.44
276.104	104.44
276.335	98.44
276.567	87.44
276.799	117.44
277.031	129.44
277.262	122.44
277.494	118.44
277.726	103.44
277.957	101.44
278.189	86.44
278.421	95.44
278.652	98.44
278.884	73.44
279.115	97.44
279.347	97.44
279.579	83.44
279.81	101.44
280.042	135.44
280.273	169.44
280.505	133.44
280.736	92.44
280.968	93.44
281.199	82.44
281.431	86.44
281.662	83.44
281.894	83.44
282.125	96.44
282.356	109.44
282.588	157.44
282.819	121.44
283.051	100.44
283.282	90.44
283.513	89.44
283.745	77.44
283.976	74.44
284.207	93.44
284.439	91.44
284.67	90.44
284.901	79.44
285.132	83.44
285.364	94.44
285.595	97.44
285.826	89.44
286.057	102.44
286.288	81.44
286.52	87.44
286.751	92.44
286.982	84.44
287.213	80.44
287.444	88.44
287.675	93.44
287.906	79.44
288.138	95.44
288.369	96.44
288.6	93.44
288.831	92.44
289.062	97.44
289.293	91.44
289.524	86.44
289.755	94.44
289.986	89.44
290.217	69.44
290.448	80.44
290.679	105.44
290.91	91.44
291.141	106.44
291.371	76.44
291.602	93.44
291.833	86.44
292.064	90.44
292.295	91.44
292.526	106.44
292.757	94.44
292.987	79.44
293.218	84.44
293.449	82.44
293.68	69.44
293.91	87.44
294.141	92.44
294.372	97.44
294.603	96.44
294.833	88.44
295.064	85.44
295.295	86.44
295.525	87.44
295.756	108.44
295.987	108.44
296.217	132.44
296.448	131.44
296.679	90.44
296.909	96.44
297.14	80.44
297.37	89.44
297.601	74.44
297.831	84.44
298.062	86.44
298.292	83.44
298.523	91.44
298.753	97.44
298.984	94.44
299.214	89.44
299.445	88.44
299.675	90.44
299.905	87.44
300.136	87.44
300.366	81.44
300.597	93.44
300.827	89.44
301.057	103.44
301.288	104.44
301.518	106.44
301.748	103.44
301.979	101.44
302.209	100.44
302.439	98.44
302.669	85.44
302.9	93.44
303.13	105.44
303.36	109.44
303.59	116.44
303.82	130.44
304.051	92.44
304.281	93.44
304.511	99.44
304.741	83.44
304.971	81.44
305.201	94.44
305.431	78.44
305.661	97.44
305.891	99.44
306.121	102.44
306.352	98.44
306.582	109.44
306.812	97.44
307.042	111.44
307.272	131.44
307.502	132.44
307.731	122.44
307.961	109.44
308.191	98.44
308.421	96.44
308.651	84.44
308.881	104.44
309.111	104.44
309.341	101.44
309.571	92.44
309.8	85.44
310.03	79.44
310.26	94.44
310.49	94.44
310.72	104.44
310.949	107.44
311.179	100.44
311.409	114.44
311.639	85.44
311.868	91.44
312.098	88.44
312.328	96.44
312.557	101.44
312.787	119.44
313.017	105.44
313.246	101.44
313.476	97.44
313.706	99.44
313.935	96.44
314.165	95.44
314.394	116.44
314.624	102.44
314.853	92.44
315.083	99.44
315.312	81.44
315.542	95.44
315.771	95.44
316.001	98.44
316.23	90.44
316.46	84.44
316.689	88.44
316.919	99.44
317.148	103.44
317.377	89.44
317.607	106.44
317.836	98.44
318.065	92.44
318.295	82.44
318.524	92.44
318.753	103.44
318.983	94.44
319.212	113.44
319.441	127.44
319.67	103.44
319.9	84.44
320.129	87.44
320.358	100.44
320.587	84.44
320.816	108.44
321.046	102.44
321.275	115.44
321.504	96.44
321.733	101.44
321.962	105.44
322.191	95.44
322.42	104.44
322.649	91.44
322.878	106.44
323.108	116.44
323.337	141.44
323.566	140.44
323.795	164.44
324.024	208.44
324.253	414.44
324.482	878.44
324.71	1758.44
324.939	2281.44
325.168	873.44
325.397	258.44
325.626	152.44
325.855	117.44
326.084	138.44
326.313	132.44
326.542	152.44
326.77	247.44
326.999	459.44
327.228	969.44
327.457	1795.44
327.686	1402.44
327.914	436.44
328.143	357.44
328.372	380.44
328.6	251.44
328.829	151.44
329.058	159.44
329.287	145.44
329.515	152.44
329.744	179.44
329.972	274.44
330.201	520.44
330.43	724.44
330.658	364.44
330.887	189.44
331.115	135.44
331.344	99.44
331.572	101.44
331.801	106.44
332.03	89.44
332.258	116.44
332.486	97.44
332.715	99.44
332.943	99.44
333.172	107.44
333.4	99.44
333.629	128.44
333.857	174.44
334.085	271.44
334.314	486.44
334.542	888.44
334.771	856.44
334.999	265.44
335.227	133.44
335.455	113.44
335.684	103.44
335.912	108.44
336.14	98.44
336.369	94.44
336.597	104.44
336.825	104.44
337.053	104.44
337.281	90.44
337.51	100.44
337.738	89.44
337.966	111.44
338.194	102.44
338.422	96.44
338.65	105.44
338.878	91.44
339.106	87.44
339.334	97.44
339.562	93.44
339.79	105.44
340.018	96.44
340.246	103.44
340.474	97.44
340.702	91.44
340.93	96.44
341.158	90.44
341.386	103.44
341.614	104.44
341.842	98.44
342.07	100.44
342.298	94.44
342.526	85.44
342.754	89.44
342.981	92.44
343.209	83.44
343.437	114.44
343.665	89.44
343.893	90.44
344.12	80.44
344.348	89.44
344.576	80.44
344.804	106.44
345.031	107.44
345.259	108.44
345.487	105.44
345.714	97.44
345.942	94.44
346.17	101.44
346.397	87.44
346.625	89.44
346.853	94.44
347.08	99.44
347.308	87.44
347.535	100.44
347.763	98.44
347.99	102.44
348.218	105.44
348.445	109.44
348.673	99.44
348.9	108.44
349.128	85.44
349.355	99.44
349.583	99.44
349.81	86.44
350.037	95.44
350.265	91.44
350.492	99.44
350.72	110.44
350.947	94.44
351.174	119.44
351.402	110.44
351.629	107.44
351.856	104.44
352.083	86.44
352.311	95.44
352.538	104.44
352.765	103.44
352.992	122.44
353.22	118.44
353.447	103.44
353.674	100.44
353.901	93.44
354.128	107.44
354.355	102.44
354.583	98.44
354.81	103.44
355.037	91.44
355.264	107.44
355.491	95.44
355.718	109.44
355.945	88.44
356.172	87.44
356.399	90.44
356.626	95.44
356.853	105.44
357.08	83.44
357.307	85.44
357.534	85.44
357.761	89.44
357.988	89.44
358.215	111.44
358.441	87.44
358.668	93.44
358.895	101.44
359.122	87.44
359.349	94.44
359.576	95.44
359.802	103.44
360.029	135.44
360.256	115.44
360.483	119.44
360.709	94.44
360.936	102.44
361.163	87.44
361.39	100.44
361.616	88.44
361.843	107.44
362.07	102.44
362.296	90.44
362.523	91.44
362.749	68.44
362.976	77.44
363.203	100.44
363.429	88.44
363.656	101.44
363.882	87.44
364.109	88.44
364.335	96.44
364.562	103.44
364.788	84.44
365.015	97.44
365.241	83.44
365.468	102.44
365.694	112.44
365.92	93.44
366.147	94.44
366.373	96.44
366.599	101.44
366.826	82.44
367.052	102.44
367.278	97.44
367.505	88.44
367.731	93.44
367.957	93.44
368.184	107.44
368.41	98.44
368.636	118.44
368.862	108.44
369.089	118.44
369.315	115.44
369.541	93.44
369.767	99.44
369.993	86.44
370.219	105.44
370.445	88.44
370.672	84.44
370.898	94.44
371.124	82.44
371.35	82.44
371.576	90.44
371.802	95.44
372.028	84.44
372.254	90.44
372.48	84.44
372.706	87.44
372.932	87.44
373.158	85.44
373.384	96.44
373.61	100.44
373.835	72.44
374.061	87.44
374.287	91.44
374.513	109.44
374.739	93.44
374.965	88.44
375.191	84.44
375.416	92.44
375.642	94.44
375.868	96.44
376.094	77.44
376.319	99.44
376.545	94.44
376.771	99.44
376.997	96.44
377.222	87.44
377.448	85.44
377.674	74.44
377.899	83.44
378.125	95.44
378.35	102.44
378.576	103.44
378.802	93.44
379.027	93.44
379.253	92.44
379.478	83.44
379.704	89.44
379.929	88.44
380.155	91.44
380.38	89.44
380.606	87.44
380.831	97.44
381.057	97.44
381.282	97.44
381.507	103.44
381.733	99.44
381.958	88.44
382.184	99.44
382.409	99.44
382.634	115.44
382.86	98.44
383.085	109.44
383.31	107.44
383.535	92.44
383.761	103.44
383.986	97.44
384.211	108.44
384.436	114.44
384.662	95.44
384.887	99.44
385.112	105.44
385.337	119.44
385.562	111.44
385.787	117.44
386.013	129.44
386.238	116.44
386.463	114.44
386.688	118.44
386.913	108.44
387.138	100.44
387.363	112.44
387.588	110.44
387.813	100.44
388.038	116.44
388.263	132.44
388.488	114.44
388.713	114.44
388.938	78.44
389.163	89.44
389.387	89.44
389.612	99.44
389.837	82.44
390.062	85.44
390.287	93.44
390.512	74.44
390.736	63.44
390.961	78.44
391.186	92.44
391.411	97.44
391.636	96.44
391.86	76.44
392.085	80.44
392.31	88.44
392.534	88.44
392.759	67.44
392.984	99.44
393.208	90.44
393.433	99.44
393.658	96.44
393.882	90.44
394.107	70.44
394.331	99.44
394.556	84.44
394.78	84.44
395.005	84.44
395.229	100.44
395.454	80.44
395.678	89.44
395.903	88.44
396.127	85.44
396.352	83.44
396.576	96.44
396.801	89.44
397.025	95.44
397.249	86.44
397.474	90.44
397.698	90.44
397.922	81.44
398.147	69.44
398.371	72.44
398.595	81.44
398.82	87.44
399.044	90.44
399.268	81.44
399.492	96.44
399.717	91.44
399.941	81.44
400.165	99.44
400.389	88.44
400.613	97.44
400.837	99.44
401.062	88.44
401.286	79.44
401.51	86.44
401.734	92.44
401.958	113.44
402.182	139.44
402.406	167.44
402.63	129.44
402.854	107.44
403.078	74.44
403.302	92.44
403.526	97.44
403.75	92.44
403.974	83.44
404.198	98.44
404.422	81.44
404.645	92.44
404.869	89.44
405.093	105.44
405.317	111.44
405.541	102.44
405.765	93.44
405.988	115.44
406.212	184.44
406.436	262.44
406.66	173.44
406.883	106.44
407.107	106.44
407.331	92.44
407.555	90.44
407.778	103.44
408.002	83.44
408.226	77.44
408.449	84.44
408.673	85.44
408.896	83.44
409.12	96.44
409.344	82.44
409.567	81.44
409.791	105.44
410.014	89.44
410.238	102.44
410.461	95.44
410.685	96.44
410.908	115.44
411.132	115.44
411.355	105.44
411.578	90.44
411.802	90.44
412.025	86.44
412.249	91.44
412.472	103.44
412.695	111.44
412.919	99.44
413.142	97.44
413.365	99.44
413.589	89.44
413.812	85.44
414.035	90.44
414.258	79.44
414.482	99.44
414.705	80.44
414.928	77.44
415.151	103.44
415.374	97.44
415.597	97.44
415.821	92.44
416.044	99.44
416.267	94.44
416.49	102.44
416.713	89.44
416.936	103.44
417.159	99.44
417.382	96.44
417.605	99.44
417.828	97.44
418.051	88.44
418.274	91.44
418.497	81.44
418.72	83.44
418.943	109.44
419.166	95.44
419.389	76.44
419.611	88.44
419.834	89.44
420.057	94.44
420.28	87.44
420.503	80.44
420.726	83.44
420.948	108.44
421.171	104.44
421.394	96.44
421.617	84.44
421.839	101.44
422.062	102.44
422.285	101.44
422.507	101.44
422.73	96.44
422.953	86.44
423.175	89.44
423.398	92.44
423.621	81.44
423.843	83.44
424.066	85.44
424.288	82.44
424.511	84.44
424.733	93.44
424.956	108.44
425.178	98.44
425.401	113.44
425.623	109.44
425.846	91.44
426.068	86.44
426.291	96.44
426.513	75.44
426.735	95.44
426.958	84.44
427.18	98.44
427.402	154.44
427.625	199.44
427.847	185.44
428.069	172.44
428.292	107.44
428.514	91.44
428.736	83.44
428.958	86.44
429.181	80.44
429.403	74.44
429.625	93.44
429.847	89.44
430.069	101.44
430.292	88.44
430.514	80.44
430.736	97.44
430.958	87.44
431.18	81.44
431.402	96.44
431.624	87.44
431.846	83.44
432.068	101.44
432.29	89.44
432.512	87.44
432.734	74.44
432.956	85.44
433.178	92.44
433.4	88.44
433.622	91.44
433.844	82.44
434.066	110.44
434.287	84.44
434.509	88.44
434.731	97.44
434.953	84.44
435.175	79.44
435.397	92.44
435.618	101.44
435.84	104.44
436.062	140.44
436.284	111.44
436.505	99.44
436.727	101.44
436.949	104.44
437.17	90.44
437.392	75.44
437.614	92.44
437.835	118.44
438.057	139.44
438.278	125.44
438.5	108.44
438.721	115.44
438.943	106.44
439.165	92.44
439.386	94.44
439.608	84.44
439.829	105.44
440.05	129.44
440.272	148.44
440.493	109.44
440.715	91.44
440.936	91.44
441.158	82.44
441.379	85.44
441.6	92.44
441.822	87.44
442.043	97.44
442.264	105.44
442.486	116.44
442.707	95.44
442.928	111.44
443.149	157.44
443.371	143.44
443.592	124.44
443.813	115.44
444.034	97.44
444.255	83.44
444.476	104.44
444.698	88.44
444.919	91.44
445.14	135.44
445.361	120.44
445.582	123.44
445.803	153.44
446.024	135.44
446.245	143.44
446.466	99.44
446.687	102.44
446.908	97.44
447.129	85.44
447.35	80.44
447.571	74.44
447.792	98.44
448.013	105.44
448.234	114.44
448.455	97.44
448.675	114.44
448.896	127.44
449.117	100.44
449.338	93.44
449.559	122.44
449.779	134.44
450	84.44
450.221	100.44
450.442	99.44
450.662	82.44
450.883	105.44
451.104	104.44
451.324	81.44
451.545	86.44
451.766	87.44
451.986	86.44
452.207	92.44
452.428	84.44
452.648	124.44
452.869	110.44
453.089	120.44
453.31	129.44
453.53	104.44
453.751	104.44
453.971	115.44
454.192	115.44
454.412	89.44
454.633	87.44
454.853	81.44
455.073	89.44
455.294	97.44
455.514	101.44
455.734	89.44
455.955	88.44
456.175	88.44
456.395	76.44
456.616	84.44
456.836	81.44
457.056	88.44
457.276	90.44
457.497	97.44
457.717	83.44
457.937	80.44
458.157	88.44
458.377	87.44
458.598	111.44
458.818	162.44
459.038	172.44
459.258	116.44
459.478	103.44
459.698	80.44
459.918	69.44
460.138	97.44
460.358	91.44
460.578	97.44
460.798	105.44
461.018	86.44
461.238	100.44
461.458	89.44
461.678	85.44
461.898	93.44
462.118	76.44
462.338	77.44
462.558	96.44
462.777	111.44
462.997	93.44
463.217	86.44
463.437	92.44
463.657	82.44
463.876	91.44
464.096	84.44
464.316	80.44
464.536	97.44
464.755	116.44
464.975	113.44
465.195	182.44
465.414	192.44
465.634	100.44
465.854	87.44
466.073	101.44
466.293	93.44
466.512	82.44
466.732	83.44
466.951	85.44
467.171	104.44
467.391	103.44
467.61	128.44
467.829	153.44
468.049	321.44
468.268	456.44
468.488	148.44
468.707	89.44
468.927	84.44
469.146	84.44
469.365	84.44
469.585	80.44
469.804	101.44
470.023	96.44
470.243	97.44
470.462	109.44
470.681	119.44
470.901	99.44
471.12	106.44
471.339	90.44
471.558	96.44
471.777	114.44
471.997	189.44
472.216	624.44
472.435	1269.44
472.654	338.44
472.873	137.44
473.092	115.44
473.311	107.44
473.53	97.44
473.749	94.44
473.968	93.44
474.187	94.44
474.406	93.44
474.625	89.44
474.844	76.44
475.063	97.44
475.282	107.44
475.501	79.44
475.72	81.44
475.939	76.44
476.158	91.44
476.377	91.44
476.596	96.44
476.814	98.44
477.033	112.44
477.252	82.44
477.471	100.44
477.69	88.44
477.908	93.44
478.127	92.44
478.346	88.44
478.564	89.44
478.783	107.44
479.002	90.44
479.22	94.44
479.439	114.44
479.658	108.44
479.876	95.44
480.095	96.44
480.313	106.44
480.532	128.44
480.751	199.44
480.969	542.44
481.188	2155.44
481.406	1300.44
481.624	228.44
481.843	111.44
482.061	97.44
482.28	86.44
482.498	92.44
482.717	96.44
482.935	85.44
483.153	89.44
483.372	92.44
483.59	74.44
483.808	93.44
484.027	96.44
484.245	107.44
484.463	93.44
484.681	95.44
484.9	97.44
485.118	90.44
485.336	83.44
485.554	107.44
485.772	110.44
485.99	114.44
486.209	103.44
486.427	98.44
486.645	112.44
486.863	119.44
487.081	104.44
487.299	99.44
487.517	108.44
487.735	92.44
487.953	94.44
488.171	99.44
488.389	104.44
488.607	88.44
488.825	87.44
489.043	75.44
489.261	93.44
489.479	88.44
489.696	72.44
489.914	99.44
490.132	80.44
490.35	99.44
490.568	87.44
490.786	93.44
491.003	96.44
491.221	87.44
491.439	93.44
491.657	96.44
491.874	79.44
492.092	98.44
492.31	97.44
492.527	91.44
492.745	98.44
492.963	91.44
493.18	97.44
493.398	97.44
493.615	88.44
493.833	91.44
494.05	92.44
494.268	92.44
494.485	72.44
494.703	93.44
494.92	87.44
495.138	77.44
495.355	104.44
495.573	92.44
495.79	88.44
496.008	92.44
496.225	88.44
496.442	102.44
496.66	95.44
496.877	79.44
497.094	95.44
497.312	104.44
497.529	95.44
497.746	107.44
497.963	83.44
498.181	96.44
498.398	92.44
498.615	96.44
498.832	97.44
499.049	97.44
499.267	85.44
499.484	83.44
499.701	71.44
499.918	86.44
500.135	89.44
500.352	92.44
500.569	97.44
500.786	97.44
501.003	108.44
501.22	94.44
501.437	85.44
501.654	96.44
501.871	109.44
502.088	97.44
502.305	86.44
502.522	96.44
502.739	85.44
502.956	88.44
503.172	93.44
503.389	114.44
503.606	107.44
503.823	100.44
504.04	93.44
504.256	105.44
504.473	88.44
504.69	91.44
504.907	94.44
505.123	74.44
505.34	92.44
505.557	110.44
505.773	95.44
505.99	102.44
506.207	83.44
506.423	82.44
506.64	92.44
506.856	90.44
507.073	93.44
507.289	92.44
507.506	104.44
507.722	119.44
507.939	127.44
508.155	88.44
508.372	87.44
508.588	99.44
508.805	105.44
509.021	87.44
509.238	108.44
509.454	101.44
509.67	100.44
509.887	113.44
510.103	143.44
510.319	221.44
510.536	777.44
510.752	2566.44
510.968	693.44
511.184	167.44
511.401	106.44
511.617	109.44
511.833	96.44
512.049	103.44
512.265	94.44
512.481	110.44
512.698	97.44
512.914	106.44
513.13	81.44
513.346	89.44
513.562	90.44
513.778	90.44
513.994	84.44
514.21	113.44
514.426	125.44
