Data from Circ_2001_H10_HRD10591_00045.txt Node
Date: Wed Jan 03 10:45:47 EST 2024
User: Yrep
Spectrometer: HR+D1059
Trigger mode: 1
Integration Time (sec): 1.000000E-1
Scans to average: 1
Electric dark correction enabled: true
Nonlinearity correction enabled: false
Boxcar width: 0
XAxis mode: Wavelengths
Number of Pixels in Spectrum: 2048
>>>>>Begin Spectral Data<<<<<
223.165	-19
223.4	-19
223.635	-19
223.869	-15
224.104	-12
224.338	-9
224.573	-5
224.808	-20
225.042	-15
225.277	1
225.511	0
225.746	8
225.98	-4
226.215	2
226.449	19
226.683	29
226.918	21
227.152	19
227.387	42
227.621	43
227.856	48
228.09	46
228.324	42
228.559	61
228.793	57
229.027	76
229.262	59
229.496	76
229.73	87
229.964	101
230.199	79
230.433	81
230.667	85
230.901	73
231.136	88
231.37	76
231.604	87
231.838	91
232.072	88
232.306	93
232.541	81
232.775	93
233.009	84
233.243	85
233.477	66
233.711	82
233.945	97
234.179	79
234.413	71
234.647	92
234.881	69
235.115	66
235.349	87
235.583	87
235.817	80
236.051	80
236.285	65
236.519	73
236.753	71
236.987	97
237.221	87
237.455	83
237.689	63
237.922	83
238.156	79
238.39	71
238.624	76
238.858	75
239.091	80
239.325	87
239.559	83
239.793	61
240.027	77
240.26	80
240.494	72
240.728	75
240.961	73
241.195	69
241.429	85
241.662	86
241.896	85
242.13	76
242.363	71
242.597	79
242.83	73
243.064	68
243.298	77
243.531	71
243.765	67
243.998	84
244.232	71
244.465	92
244.699	75
244.932	68
245.166	75
245.399	82
245.633	69
245.866	76
246.099	88
246.333	75
246.566	72
246.8	81
247.033	93
247.266	88
247.5	92
247.733	90
247.966	75
248.2	86
248.433	96
248.666	79
248.899	76
249.133	89
249.366	94
249.599	95
249.832	79
250.066	82
250.299	85
250.532	85
250.765	82
250.998	84
251.231	75
251.465	79
251.698	85
251.931	88
252.164	79
252.397	79
252.63	63
252.863	76
253.096	87
253.329	70
253.562	76
253.795	80
254.028	80
254.261	83
254.494	87
254.727	90
254.96	68
255.193	84
255.426	74
255.659	87
255.892	104
256.124	98
256.357	76
256.59	95
256.823	85
257.056	80
257.289	94
257.521	77
257.754	73
257.987	83
258.22	86
258.452	88
258.685	95
258.918	86
259.151	93
259.383	71
259.616	81
259.849	80
260.081	89
260.314	75
260.547	69
260.779	95
261.012	111
261.244	101
261.477	91
261.71	91
261.942	123
262.175	112
262.407	97
262.64	92
262.872	79
263.105	81
263.337	83
263.57	99
263.802	89
264.035	79
264.267	90
264.499	86
264.732	94
264.964	92
265.197	76
265.429	89
265.661	79
265.894	83
266.126	67
266.358	88
266.591	74
266.823	91
267.055	76
267.287	101
267.52	84
267.752	77
267.984	79
268.216	97
268.448	89
268.681	78
268.913	85
269.145	80
269.377	86
269.609	75
269.841	92
270.073	84
270.306	93
270.538	93
270.77	76
271.002	79
271.234	91
271.466	93
271.698	97
271.93	83
272.162	99
272.394	89
272.626	90
272.858	89
273.09	95
273.322	92
273.553	96
273.785	85
274.017	95
274.249	95
274.481	93
274.713	82
274.945	86
275.176	82
275.408	99
275.64	99
275.872	114
276.104	105
276.335	96
276.567	112
276.799	132
277.031	163
277.262	178
277.494	134
277.726	89
277.957	90
278.189	75
278.421	89
278.652	95
278.884	81
279.115	90
279.347	85
279.579	101
279.81	114
280.042	167
280.273	195
280.505	154
280.736	113
280.968	94
281.199	89
281.431	92
281.662	101
281.894	87
282.125	101
282.356	131
282.588	160
282.819	127
283.051	80
283.282	85
283.513	83
283.745	85
283.976	85
284.207	89
284.439	102
284.67	89
284.901	89
285.132	97
285.364	77
285.595	83
285.826	89
286.057	85
286.288	80
286.52	85
286.751	104
286.982	79
287.213	88
287.444	79
287.675	92
287.906	92
288.138	96
288.369	88
288.6	83
288.831	91
289.062	84
289.293	84
289.524	89
289.755	77
289.986	100
290.217	90
290.448	86
290.679	85
290.91	85
291.141	87
291.371	76
291.602	102
291.833	80
292.064	81
292.295	81
292.526	101
292.757	88
292.987	81
293.218	87
293.449	99
293.68	89
293.91	76
294.141	87
294.372	79
294.603	91
294.833	83
295.064	89
295.295	102
295.525	99
295.756	108
295.987	105
296.217	157
296.448	138
296.679	103
296.909	98
297.14	87
297.37	87
297.601	77
297.831	83
298.062	81
298.292	94
298.523	95
298.753	93
298.984	85
299.214	97
299.445	105
299.675	85
299.905	93
300.136	95
300.366	79
300.597	108
300.827	96
301.057	104
301.288	102
301.518	101
301.748	85
301.979	104
302.209	93
302.439	91
302.669	100
302.9	98
303.13	94
303.36	96
303.59	120
303.82	135
304.051	109
304.281	92
304.511	71
304.741	83
304.971	92
305.201	86
305.431	91
305.661	93
305.891	85
306.121	94
306.352	125
306.582	106
306.812	99
307.042	115
307.272	121
307.502	157
307.731	137
307.961	92
308.191	100
308.421	78
308.651	103
308.881	80
309.111	84
309.341	87
309.571	112
309.8	93
310.03	84
310.26	83
310.49	96
310.72	106
310.949	117
311.179	121
311.409	96
311.639	99
311.868	92
312.098	99
312.328	106
312.557	107
312.787	119
313.017	112
313.246	117
313.476	114
313.706	91
313.935	92
314.165	107
314.394	114
314.624	100
314.853	100
315.083	104
315.312	99
315.542	83
315.771	99
316.001	98
316.23	87
316.46	96
316.689	79
316.919	104
317.148	106
317.377	108
317.607	116
317.836	87
318.065	82
318.295	92
318.524	93
318.753	105
318.983	83
319.212	103
319.441	117
319.67	117
319.9	100
320.129	89
320.358	115
320.587	98
320.816	106
321.046	106
321.275	105
321.504	106
321.733	109
321.962	101
322.191	94
322.42	123
322.649	127
322.878	124
323.108	135
323.337	127
323.566	130
323.795	175
324.024	234
324.253	469
324.482	1061
324.71	2214
324.939	2908
325.168	1042
325.397	294
325.626	167
325.855	146
326.084	121
326.313	155
326.542	181
326.77	256
326.999	547
327.228	1146
327.457	2117
327.686	1687
327.914	553
328.143	441
328.372	519
328.6	323
328.829	168
329.058	179
329.287	189
329.515	160
329.744	222
329.972	397
330.201	761
330.43	1101
330.658	518
330.887	250
331.115	169
331.344	112
331.572	118
331.801	119
332.03	110
332.258	104
332.486	100
332.715	91
332.943	105
333.172	120
333.4	114
333.629	149
333.857	201
334.085	336
334.314	726
334.542	1348
334.771	1288
334.999	337
335.227	148
335.455	126
335.684	106
335.912	107
336.14	99
336.369	110
336.597	103
336.825	99
337.053	75
337.281	92
337.51	111
337.738	101
337.966	92
338.194	105
338.422	95
338.65	102
338.878	93
339.106	99
339.334	86
339.562	87
339.79	100
340.018	87
340.246	87
340.474	95
340.702	92
340.93	88
341.158	95
341.386	111
341.614	101
341.842	113
342.07	100
342.298	94
342.526	88
342.754	83
342.981	94
343.209	83
343.437	87
343.665	88
343.893	100
344.12	95
344.348	85
344.576	91
344.804	89
345.031	99
345.259	113
345.487	103
345.714	98
345.942	92
346.17	97
346.397	105
346.625	90
346.853	98
347.08	89
347.308	91
347.535	108
347.763	107
347.99	103
348.218	112
348.445	107
348.673	106
348.9	112
349.128	79
349.355	87
349.583	101
349.81	87
350.037	106
350.265	100
350.492	91
350.72	90
350.947	102
351.174	104
351.402	104
351.629	104
351.856	94
352.083	106
352.311	99
352.538	113
352.765	115
352.992	133
353.22	107
353.447	94
353.674	112
353.901	90
354.128	93
354.355	107
354.583	96
354.81	95
355.037	97
355.264	91
355.491	108
355.718	103
355.945	97
356.172	90
356.399	93
356.626	104
356.853	88
357.08	107
357.307	86
357.534	81
357.761	88
357.988	82
358.215	103
358.441	92
358.668	97
358.895	79
359.122	84
359.349	88
359.576	104
359.802	120
360.029	132
360.256	127
360.483	121
360.709	93
360.936	90
361.163	90
361.39	98
361.616	92
361.843	84
362.07	103
362.296	120
362.523	104
362.749	95
362.976	96
363.203	95
363.429	97
363.656	96
363.882	102
364.109	105
364.335	94
364.562	92
364.788	97
365.015	104
365.241	104
365.468	118
365.694	101
365.92	103
366.147	93
366.373	84
366.599	92
366.826	99
367.052	99
367.278	100
367.505	87
367.731	97
367.957	91
368.184	108
368.41	113
368.636	117
368.862	128
369.089	106
369.315	92
369.541	81
369.767	113
369.993	96
370.219	96
370.445	92
370.672	87
370.898	77
371.124	97
371.35	85
371.576	80
371.802	83
372.028	90
372.254	101
372.48	94
372.706	87
372.932	99
373.158	95
373.384	100
373.61	90
373.835	87
374.061	101
374.287	89
374.513	101
374.739	91
374.965	88
375.191	85
375.416	84
375.642	84
375.868	85
376.094	93
376.319	99
376.545	79
376.771	95
376.997	79
377.222	86
377.448	82
377.674	80
377.899	93
378.125	88
378.35	88
378.576	98
378.802	88
379.027	86
379.253	94
379.478	86
379.704	89
379.929	90
380.155	87
380.38	90
380.606	95
380.831	83
381.057	93
381.282	92
381.507	89
381.733	91
381.958	118
382.184	91
382.409	95
382.634	108
382.86	95
383.085	88
383.31	106
383.535	93
383.761	79
383.986	104
384.211	111
384.436	98
384.662	100
384.887	99
385.112	95
385.337	99
385.562	103
385.787	111
386.013	109
386.238	109
386.463	101
386.688	99
386.913	100
387.138	100
387.363	105
387.588	95
387.813	107
388.038	95
388.263	97
388.488	110
388.713	93
388.938	89
389.163	90
389.387	91
389.612	95
389.837	97
390.062	88
390.287	85
390.512	88
390.736	97
390.961	80
391.186	105
391.411	88
391.636	95
391.86	96
392.085	91
392.31	99
392.534	84
392.759	93
392.984	92
393.208	104
393.433	94
393.658	104
393.882	87
394.107	92
394.331	82
394.556	84
394.78	80
395.005	87
395.229	99
395.454	73
395.678	71
395.903	85
396.127	83
396.352	84
396.576	67
396.801	81
397.025	102
397.249	103
397.474	96
397.698	82
397.922	90
398.147	94
398.371	83
398.595	88
398.82	81
399.044	91
399.268	78
399.492	91
399.717	105
399.941	89
400.165	88
400.389	85
400.613	92
400.837	82
401.062	90
401.286	80
401.51	87
401.734	87
401.958	101
402.182	138
402.406	201
402.63	152
402.854	99
403.078	89
403.302	80
403.526	83
403.75	104
403.974	81
404.198	80
404.422	82
404.645	96
404.869	108
405.093	108
405.317	135
405.541	121
405.765	119
405.988	119
406.212	205
406.436	286
406.66	189
406.883	122
407.107	99
407.331	105
407.555	117
407.778	99
408.002	103
408.226	88
408.449	104
408.673	97
408.896	89
409.12	89
409.344	83
409.567	72
409.791	106
410.014	90
410.238	89
410.461	91
410.685	93
410.908	98
411.132	105
411.355	87
411.578	91
411.802	99
412.025	89
412.249	88
412.472	107
412.695	136
412.919	93
413.142	101
413.365	84
413.589	70
413.812	71
414.035	92
414.258	99
414.482	88
414.705	101
414.928	84
415.151	97
415.374	85
415.597	98
415.821	83
416.044	99
416.267	98
416.49	84
416.713	93
416.936	79
417.159	101
417.382	106
417.605	106
417.828	114
418.051	107
418.274	87
418.497	90
418.72	81
418.943	83
419.166	84
419.389	90
419.611	95
419.834	101
420.057	96
420.28	90
420.503	98
420.726	96
420.948	90
421.171	95
421.394	90
421.617	91
421.839	90
422.062	80
422.285	110
422.507	99
422.73	111
422.953	104
423.175	86
423.398	82
423.621	86
423.843	104
424.066	91
424.288	74
424.511	98
424.733	106
424.956	104
425.178	103
425.401	109
425.623	104
425.846	93
426.068	102
426.291	104
426.513	91
426.735	90
426.958	105
427.18	119
427.402	172
427.625	245
427.847	213
428.069	200
428.292	135
428.514	111
428.736	86
428.958	89
429.181	92
429.403	84
429.625	93
429.847	96
430.069	106
430.292	109
430.514	91
430.736	81
430.958	71
431.18	88
431.402	84
431.624	83
431.846	87
432.068	80
432.29	91
432.512	99
432.734	84
432.956	89
433.178	91
433.4	99
433.622	82
433.844	81
434.066	98
434.287	92
434.509	94
434.731	87
434.953	91
435.175	80
435.397	97
435.618	93
435.84	119
436.062	141
436.284	130
436.505	95
436.727	97
436.949	91
437.17	98
437.392	98
437.614	96
437.835	132
438.057	156
438.278	124
438.5	104
438.721	134
438.943	103
439.165	91
439.386	84
439.608	109
439.829	107
440.05	145
440.272	176
440.493	108
440.715	89
440.936	81
441.158	84
441.379	91
441.6	89
441.822	94
442.043	96
442.264	108
442.486	110
442.707	115
442.928	112
443.149	157
443.371	163
443.592	122
443.813	126
444.034	103
444.255	96
444.476	105
444.698	89
444.919	98
445.14	147
445.361	139
445.582	128
445.803	180
446.024	171
446.245	152
446.466	128
446.687	101
446.908	96
447.129	97
447.35	86
447.571	82
447.792	85
448.013	96
448.234	111
448.455	123
448.675	125
448.896	149
449.117	93
449.338	109
449.559	131
449.779	145
450	91
450.221	95
450.442	96
450.662	109
450.883	130
451.104	132
451.324	101
451.545	104
451.766	112
451.986	95
452.207	92
452.428	99
452.648	101
452.869	132
453.089	125
453.31	132
453.53	93
453.751	102
453.971	120
454.192	128
454.412	105
454.633	87
454.853	85
455.073	73
455.294	88
455.514	104
455.734	93
455.955	104
456.175	76
456.395	89
456.616	92
456.836	89
457.056	91
457.276	71
457.497	95
457.717	97
457.937	75
458.157	97
458.377	100
458.598	124
458.818	194
459.038	209
459.258	128
459.478	96
459.698	92
459.918	92
460.138	95
460.358	91
460.578	83
460.798	94
461.018	80
461.238	88
461.458	74
461.678	98
461.898	86
462.118	90
462.338	84
462.558	93
462.777	81
462.997	107
463.217	98
463.437	106
463.657	96
463.876	96
464.096	103
464.316	96
464.536	101
464.755	106
464.975	108
465.195	203
465.414	196
465.634	109
465.854	85
466.073	78
466.293	92
466.512	81
466.732	84
466.951	84
467.171	100
467.391	111
467.61	132
467.829	175
468.049	439
468.268	625
468.488	193
468.707	96
468.927	108
469.146	104
469.365	93
469.585	106
469.804	113
470.023	116
470.243	110
470.462	127
470.681	156
470.901	104
471.12	82
471.339	105
471.558	126
471.777	140
471.997	240
472.216	862
472.435	1848
472.654	449
472.873	156
473.092	95
473.311	92
473.53	92
473.749	92
473.968	94
474.187	119
474.406	112
474.625	89
474.844	79
475.063	87
475.282	86
475.501	91
475.72	86
475.939	89
476.158	95
476.377	91
476.596	104
476.814	109
477.033	99
477.252	96
477.471	97
477.69	88
477.908	82
478.127	99
478.346	105
478.564	85
478.783	111
479.002	107
479.22	92
479.439	115
479.658	128
479.876	107
480.095	101
480.313	107
480.532	150
480.751	226
480.969	767
481.188	3273
481.406	1847
481.624	292
481.843	117
482.061	113
482.28	100
482.498	96
482.717	99
482.935	101
483.153	104
483.372	99
483.59	103
483.808	85
484.027	89
484.245	92
484.463	89
484.681	103
484.9	104
485.118	102
485.336	94
485.554	111
485.772	98
485.99	105
486.209	103
486.427	130
486.645	114
486.863	125
487.081	100
487.299	85
487.517	80
487.735	97
487.953	91
488.171	90
488.389	97
488.607	111
488.825	96
489.043	88
489.261	79
489.479	90
489.696	96
489.914	92
490.132	90
490.35	100
490.568	76
490.786	95
491.003	101
491.221	86
491.439	93
491.657	79
491.874	87
492.092	78
492.31	94
492.527	97
492.745	96
492.963	101
493.18	95
493.398	91
493.615	77
493.833	95
494.05	76
494.268	88
494.485	95
494.703	88
494.92	106
495.138	84
495.355	85
495.573	104
495.79	87
496.008	105
496.225	91
496.442	94
496.66	90
496.877	95
497.094	84
497.312	86
497.529	88
497.746	96
497.963	87
498.181	91
498.398	105
498.615	99
498.832	108
499.049	79
499.267	95
499.484	84
499.701	92
499.918	90
500.135	88
500.352	91
500.569	104
500.786	104
501.003	93
501.22	100
501.437	91
501.654	118
501.871	122
502.088	91
502.305	98
502.522	90
502.739	93
502.956	97
503.172	105
503.389	105
503.606	134
503.823	101
504.04	113
504.256	85
504.473	84
504.69	110
504.907	98
505.123	84
505.34	93
505.557	90
505.773	103
505.99	100
506.207	98
506.423	88
506.64	83
506.856	98
507.073	87
507.289	106
507.506	118
507.722	141
507.939	121
508.155	97
508.372	99
508.588	77
508.805	111
509.021	98
509.238	102
509.454	101
509.67	121
509.887	121
510.103	133
510.319	239
510.536	879
510.752	2946
510.968	797
511.184	180
511.401	132
511.617	93
511.833	92
512.049	108
512.265	97
512.481	81
512.698	100
512.914	105
513.13	106
513.346	96
513.562	103
513.778	103
513.994	103
514.21	121
514.426	144
514.642	158
514.858	149
515.074	233
515.29	665
515.506	2320
515.721	821
515.937	208
516.153	129
516.369	106
516.585	114
516.801	115
517.016	93
517.232	92
517.448	93
517.664	98
517.879	91
518.095	107
518.311	102
518.527	108
518.742	109
518.958	93
519.173	90
519.389	104
519.605	95
519.82	103
520.036	117
520.251	155
520.467	132
520.682	106
520.898	106
521.113	139
521.329	172
521.544	267
521.76	876
521.975	3863
522.19	2319
522.406	461
522.621	158
522.836	120
523.052	103
523.267	131
523.482	108
523.698	108
523.913	139
524.128	124
524.343	91
524.559	103
524.774	102
524.989	101
525.204	110
525.419	108
525.634	103
525.849	99
526.064	75
526.28	94
526.495	92
526.71	90
526.925	90
527.14	86
527.355	93
527.57	90
527.785	72
527.999	108
528.214	91
528.429	100
528.644	96
528.859	100
529.074	99
529.289	154
529.503	255
529.718	127
529.933	102
530.148	86
530.363	95
530.577	85
530.792	87
531.007	97
531.221	94
531.436	89
531.651	91
531.865	77
532.08	81
532.295	95
532.509	90
532.724	94
532.938	82
533.153	106
533.367	93
533.582	92
533.796	91
534.011	103
534.225	79
534.44	96
534.654	78
534.868	100
535.083	93
535.297	94
535.511	119
535.726	103
535.94	99
536.154	83
536.369	90
536.583	78
536.797	87
537.011	88
537.225	97
537.44	95
537.654	103
537.868	83
538.082	98
538.296	88
538.51	93
538.724	79
538.938	106
539.153	106
539.367	131
539.581	91
539.795	90
540.009	91
540.222	97
540.436	101
540.65	83
540.864	97
541.078	94
541.292	100
541.506	89
541.72	97
541.934	95
542.147	100
542.361	94
542.575	90
542.789	86
543.002	85
543.216	107
543.43	120
543.644	94
543.857	88
544.071	89
544.285	107
544.498	77
544.712	80
544.925	92
545.139	104
545.352	82
545.566	89
545.779	93
545.993	99
546.206	87
546.42	90
546.633	83
546.847	77
547.06	88
547.274	69
547.487	110
547.7	86
547.914	83
548.127	100
548.34	83
548.554	92
548.767	71
548.98	91
549.193	99
549.407	87
549.62	92
549.833	88
550.046	92
550.259	89
550.473	93
550.686	104
550.899	101
551.112	86
551.325	83
551.538	102
551.751	94
551.964	81
552.177	90
552.39	74
552.603	90
552.816	87
553.029	94
553.242	86
553.455	98
553.667	123
553.88	107
554.093	100
554.306	100
554.519	105
554.732	83
554.944	98
555.157	100
555.37	66
555.583	97
555.795	88
556.008	92
556.221	99
556.433	87
556.646	89
556.859	84
557.071	97
557.284	90
557.496	88
557.709	103
557.921	82
558.134	101
558.346	83
558.559	69
558.771	91
558.984	92
559.196	95
559.409	80
559.621	108
559.833	79
560.046	105
560.258	107
560.47	134
560.683	103
560.895	100
561.107	86
561.32	79
561.532	92
561.744	95
561.956	87
562.168	75
562.381	86
562.593	83
562.805	86
563.017	97
563.229	103
563.441	76
563.653	87
563.865	73
564.077	93
564.289	77
564.501	95
564.713	96
564.925	84
565.137	107
565.349	88
565.561	91
565.773	91
565.985	87
566.197	76
566.408	85
566.62	86
566.832	95
567.044	89
567.255	85
567.467	78
567.679	100
567.891	103
568.102	81
568.314	81
568.526	92
568.737	95
568.949	88
569.161	90
569.372	85
569.584	82
569.795	91
570.007	127
570.218	268
570.43	145
570.641	92
570.853	91
571.064	87
571.276	81
571.487	78
571.698	98
571.91	91
572.121	91
572.333	95
572.544	86
572.755	85
572.966	91
573.178	95
573.389	81
573.6	93
573.811	83
574.023	83
574.234	93
574.445	79
574.656	62
574.867	82
575.078	91
575.289	89
575.501	89
575.712	87
575.923	91
576.134	97
576.345	81
576.556	91
576.767	88
576.978	89
577.188	72
577.399	83
577.61	96
577.821	94
578.032	132
578.243	298
578.454	899
578.665	261
578.875	98
579.086	84
579.297	89
579.508	85
579.718	92
579.929	87
580.14	88
580.35	78
580.561	97
580.772	91
580.982	89
