Data from Circ_2001_H10_HRD10591_00062.txt Node
Date: Wed Jan 03 10:45:51 EST 2024
User: Yrep
Spectrometer: HR+D1059
Trigger mode: 1
Integration Time (sec): 1.000000E-1
Scans to average: 1
Electric dark correction enabled: true
Nonlinearity correction enabled: false
Boxcar width: 0
XAxis mode: Wavelengths
Number of Pixels in Spectrum: 2048
>>>>>Begin Spectral Data<<<<<
223.165	-9.75
223.4	-9.75
223.635	-9.75
223.869	-25.75
224.104	-25.75
224.338	-26.75
224.573	-10.75
224.808	-7.75
225.042	-1.75
225.277	-4.75
225.511	-4.75
225.746	-1.75
225.98	9.25
226.215	13.25
226.449	15.25
226.683	11.25
226.918	40.25
227.152	30.25
227.387	26.25
227.621	48.25
227.856	48.25
228.09	40.25
228.324	53.25
228.559	44.25
228.793	60.25
229.027	71.25
229.262	63.25
229.496	74.25
229.73	81.25
229.964	79.25
230.199	67.25
230.433	78.25
230.667	76.25
230.901	81.25
231.136	78.25
231.37	84.25
231.604	89.25
231.838	87.25
232.072	71.25
232.306	91.25
232.541	74.25
232.775	77.25
233.009	80.25
233.243	69.25
233.477	81.25
233.711	72.25
233.945	78.25
234.179	78.25
234.413	79.25
234.647	84.25
234.881	86.25
235.115	85.25
235.349	73.25
235.583	81.25
235.817	82.25
236.051	89.25
236.285	75.25
236.519	79.25
236.753	82.25
236.987	81.25
237.221	85.25
237.455	90.25
237.689	80.25
237.922	71.25
238.156	85.25
238.39	88.25
238.624	93.25
238.858	91.25
239.091	78.25
239.325	85.25
239.559	83.25
239.793	98.25
240.027	71.25
240.26	91.25
240.494	86.25
240.728	76.25
240.961	85.25
241.195	74.25
241.429	89.25
241.662	66.25
241.896	92.25
242.13	82.25
242.363	81.25
242.597	69.25
242.83	78.25
243.064	73.25
243.298	76.25
243.531	72.25
243.765	77.25
243.998	89.25
244.232	82.25
244.465	98.25
244.699	76.25
244.932	81.25
245.166	86.25
245.399	78.25
245.633	78.25
245.866	66.25
246.099	77.25
246.333	91.25
246.566	78.25
246.8	87.25
247.033	87.25
247.266	82.25
247.5	77.25
247.733	85.25
247.966	87.25
248.2	71.25
248.433	73.25
248.666	88.25
248.899	101.25
249.133	82.25
249.366	92.25
249.599	93.25
249.832	86.25
250.066	61.25
250.299	74.25
250.532	94.25
250.765	83.25
250.998	87.25
251.231	83.25
251.465	81.25
251.698	79.25
251.931	81.25
252.164	84.25
252.397	73.25
252.63	70.25
252.863	92.25
253.096	78.25
253.329	91.25
253.562	82.25
253.795	89.25
254.028	78.25
254.261	85.25
254.494	79.25
254.727	78.25
254.96	66.25
255.193	67.25
255.426	81.25
255.659	77.25
255.892	86.25
256.124	85.25
256.357	86.25
256.59	77.25
256.823	81.25
257.056	88.25
257.289	83.25
257.521	86.25
257.754	77.25
257.987	82.25
258.22	81.25
258.452	93.25
258.685	71.25
258.918	95.25
259.151	95.25
259.383	85.25
259.616	86.25
259.849	88.25
260.081	83.25
260.314	88.25
260.547	76.25
260.779	83.25
261.012	92.25
261.244	92.25
261.477	103.25
261.71	97.25
261.942	122.25
262.175	136.25
262.407	87.25
262.64	84.25
262.872	87.25
263.105	83.25
263.337	78.25
263.57	99.25
263.802	88.25
264.035	93.25
264.267	67.25
264.499	85.25
264.732	85.25
264.964	59.25
265.197	92.25
265.429	95.25
265.661	87.25
265.894	80.25
266.126	85.25
266.358	90.25
266.591	93.25
266.823	83.25
267.055	85.25
267.287	88.25
267.52	82.25
267.752	78.25
267.984	90.25
268.216	93.25
268.448	90.25
268.681	81.25
268.913	82.25
269.145	77.25
269.377	82.25
269.609	78.25
269.841	80.25
270.073	65.25
270.306	70.25
270.538	67.25
270.77	75.25
271.002	85.25
271.234	82.25
271.466	85.25
271.698	97.25
271.93	84.25
272.162	88.25
272.394	98.25
272.626	79.25
272.858	83.25
273.09	97.25
273.322	93.25
273.553	82.25
273.785	91.25
274.017	72.25
274.249	81.25
274.481	89.25
274.713	82.25
274.945	86.25
275.176	89.25
275.408	98.25
275.64	100.25
275.872	113.25
276.104	113.25
276.335	107.25
276.567	119.25
276.799	150.25
277.031	137.25
277.262	156.25
277.494	139.25
277.726	89.25
277.957	95.25
278.189	97.25
278.421	74.25
278.652	86.25
278.884	89.25
279.115	82.25
279.347	92.25
279.579	105.25
279.81	118.25
280.042	153.25
280.273	189.25
280.505	130.25
280.736	92.25
280.968	91.25
281.199	80.25
281.431	89.25
281.662	97.25
281.894	95.25
282.125	105.25
282.356	125.25
282.588	152.25
282.819	133.25
283.051	105.25
283.282	83.25
283.513	99.25
283.745	84.25
283.976	96.25
284.207	75.25
284.439	92.25
284.67	85.25
284.901	85.25
285.132	83.25
285.364	86.25
285.595	88.25
285.826	90.25
286.057	90.25
286.288	99.25
286.52	95.25
286.751	81.25
286.982	88.25
287.213	86.25
287.444	78.25
287.675	83.25
287.906	101.25
288.138	95.25
288.369	92.25
288.6	90.25
288.831	86.25
289.062	92.25
289.293	86.25
289.524	94.25
289.755	87.25
289.986	81.25
290.217	92.25
290.448	93.25
290.679	96.25
290.91	88.25
291.141	88.25
291.371	85.25
291.602	84.25
291.833	98.25
292.064	86.25
292.295	98.25
292.526	96.25
292.757	95.25
292.987	94.25
293.218	87.25
293.449	85.25
293.68	73.25
293.91	79.25
294.141	96.25
294.372	74.25
294.603	84.25
294.833	93.25
295.064	97.25
295.295	93.25
295.525	95.25
295.756	108.25
295.987	133.25
296.217	148.25
296.448	137.25
296.679	98.25
296.909	84.25
297.14	92.25
297.37	95.25
297.601	79.25
297.831	85.25
298.062	90.25
298.292	89.25
298.523	91.25
298.753	93.25
298.984	91.25
299.214	78.25
299.445	104.25
299.675	96.25
299.905	91.25
300.136	99.25
300.366	91.25
300.597	85.25
300.827	81.25
301.057	113.25
301.288	102.25
301.518	99.25
301.748	107.25
301.979	100.25
302.209	109.25
302.439	95.25
302.669	100.25
302.9	92.25
303.13	101.25
303.36	100.25
303.59	123.25
303.82	129.25
304.051	107.25
304.281	88.25
304.511	97.25
304.741	101.25
304.971	93.25
305.201	104.25
305.431	85.25
305.661	95.25
305.891	98.25
306.121	109.25
306.352	116.25
306.582	116.25
306.812	94.25
307.042	120.25
307.272	124.25
307.502	152.25
307.731	149.25
307.961	112.25
308.191	81.25
308.421	77.25
308.651	93.25
308.881	99.25
309.111	90.25
309.341	93.25
309.571	104.25
309.8	115.25
310.03	100.25
310.26	98.25
310.49	102.25
310.72	99.25
310.949	108.25
311.179	110.25
311.409	99.25
311.639	98.25
311.868	106.25
312.098	103.25
312.328	95.25
312.557	115.25
312.787	119.25
313.017	104.25
313.246	99.25
313.476	87.25
313.706	98.25
313.935	102.25
314.165	120.25
314.394	111.25
314.624	85.25
314.853	99.25
315.083	97.25
315.312	89.25
315.542	97.25
315.771	87.25
316.001	85.25
316.23	81.25
316.46	90.25
316.689	108.25
316.919	87.25
317.148	99.25
317.377	109.25
317.607	101.25
317.836	105.25
318.065	94.25
318.295	89.25
318.524	101.25
318.753	101.25
318.983	101.25
319.212	88.25
319.441	114.25
319.67	136.25
319.9	98.25
320.129	79.25
320.358	109.25
320.587	106.25
320.816	112.25
321.046	106.25
321.275	101.25
321.504	88.25
321.733	105.25
321.962	109.25
322.191	104.25
322.42	116.25
322.649	119.25
322.878	114.25
323.108	122.25
323.337	127.25
323.566	166.25
323.795	171.25
324.024	218.25
324.253	433.25
324.482	916.25
324.71	1845.25
324.939	2396.25
325.168	887.25
325.397	270.25
325.626	179.25
325.855	141.25
326.084	139.25
326.313	148.25
326.542	165.25
326.77	262.25
326.999	490.25
327.228	1017.25
327.457	1814.25
327.686	1408.25
327.914	466.25
328.143	406.25
328.372	468.25
328.6	284.25
328.829	174.25
329.058	174.25
329.287	183.25
329.515	169.25
329.744	211.25
329.972	354.25
330.201	679.25
330.43	950.25
330.658	461.25
330.887	240.25
331.115	173.25
331.344	115.25
331.572	115.25
331.801	111.25
332.03	129.25
332.258	117.25
332.486	97.25
332.715	95.25
332.943	119.25
333.172	116.25
333.4	104.25
333.629	148.25
333.857	189.25
334.085	326.25
334.314	641.25
334.542	1191.25
334.771	1120.25
334.999	334.25
335.227	149.25
335.455	123.25
335.684	114.25
335.912	115.25
336.14	105.25
336.369	113.25
336.597	116.25
336.825	101.25
337.053	89.25
337.281	98.25
337.51	102.25
337.738	103.25
337.966	97.25
338.194	102.25
338.422	114.25
338.65	99.25
338.878	103.25
339.106	107.25
339.334	97.25
339.562	101.25
339.79	94.25
340.018	96.25
340.246	86.25
340.474	105.25
340.702	87.25
340.93	89.25
341.158	94.25
341.386	108.25
341.614	94.25
341.842	94.25
342.07	98.25
342.298	92.25
342.526	98.25
342.754	98.25
342.981	98.25
343.209	90.25
343.437	111.25
343.665	105.25
343.893	100.25
344.12	95.25
344.348	85.25
344.576	99.25
344.804	90.25
345.031	113.25
345.259	111.25
345.487	108.25
345.714	84.25
345.942	101.25
346.17	105.25
346.397	101.25
346.625	87.25
346.853	113.25
347.08	91.25
347.308	105.25
347.535	109.25
347.763	115.25
347.99	101.25
348.218	115.25
348.445	109.25
348.673	109.25
348.9	91.25
349.128	85.25
349.355	78.25
349.583	95.25
349.81	105.25
350.037	91.25
350.265	90.25
350.492	90.25
350.72	82.25
350.947	92.25
351.174	106.25
351.402	106.25
351.629	106.25
351.856	115.25
352.083	120.25
352.311	122.25
352.538	116.25
352.765	113.25
352.992	122.25
353.22	117.25
353.447	117.25
353.674	87.25
353.901	95.25
354.128	92.25
354.355	97.25
354.583	103.25
354.81	98.25
355.037	103.25
355.264	93.25
355.491	84.25
355.718	100.25
355.945	93.25
356.172	100.25
356.399	87.25
356.626	94.25
356.853	92.25
357.08	104.25
357.307	82.25
357.534	96.25
357.761	85.25
357.988	97.25
358.215	89.25
358.441	97.25
358.668	107.25
358.895	91.25
359.122	99.25
359.349	101.25
359.576	100.25
359.802	120.25
360.029	125.25
360.256	122.25
360.483	101.25
360.709	104.25
360.936	99.25
361.163	87.25
361.39	102.25
361.616	108.25
361.843	93.25
362.07	112.25
362.296	111.25
362.523	84.25
362.749	96.25
362.976	98.25
363.203	98.25
363.429	101.25
363.656	98.25
363.882	99.25
364.109	96.25
364.335	81.25
364.562	94.25
364.788	90.25
365.015	101.25
365.241	97.25
365.468	108.25
365.694	100.25
365.92	103.25
366.147	105.25
366.373	85.25
366.599	84.25
366.826	92.25
367.052	96.25
367.278	103.25
367.505	95.25
367.731	97.25
367.957	85.25
368.184	110.25
368.41	115.25
368.636	117.25
368.862	112.25
369.089	106.25
369.315	107.25
369.541	98.25
369.767	93.25
369.993	101.25
370.219	105.25
370.445	80.25
370.672	86.25
370.898	85.25
371.124	92.25
371.35	91.25
371.576	101.25
371.802	89.25
372.028	101.25
372.254	93.25
372.48	91.25
372.706	101.25
372.932	91.25
373.158	91.25
373.384	94.25
373.61	88.25
373.835	93.25
374.061	77.25
374.287	89.25
374.513	88.25
374.739	111.25
374.965	92.25
375.191	86.25
375.416	97.25
375.642	89.25
375.868	98.25
376.094	88.25
376.319	77.25
376.545	86.25
376.771	86.25
376.997	93.25
377.222	85.25
377.448	94.25
377.674	86.25
377.899	102.25
378.125	82.25
378.35	100.25
378.576	94.25
378.802	95.25
379.027	101.25
379.253	90.25
379.478	91.25
379.704	94.25
379.929	106.25
380.155	93.25
380.38	89.25
380.606	104.25
380.831	95.25
381.057	94.25
381.282	108.25
381.507	99.25
381.733	76.25
381.958	100.25
382.184	109.25
382.409	107.25
382.634	95.25
382.86	110.25
383.085	106.25
383.31	99.25
383.535	94.25
383.761	104.25
383.986	102.25
384.211	102.25
384.436	107.25
384.662	100.25
384.887	101.25
385.112	90.25
385.337	91.25
385.562	107.25
385.787	110.25
386.013	122.25
386.238	123.25
386.463	113.25
386.688	100.25
386.913	97.25
387.138	101.25
387.363	98.25
387.588	105.25
387.813	108.25
388.038	111.25
388.263	120.25
388.488	107.25
388.713	95.25
388.938	97.25
389.163	95.25
389.387	105.25
389.612	90.25
389.837	100.25
390.062	99.25
390.287	94.25
390.512	86.25
390.736	94.25
390.961	105.25
391.186	86.25
391.411	80.25
391.636	86.25
391.86	99.25
392.085	77.25
392.31	79.25
392.534	79.25
392.759	91.25
392.984	95.25
393.208	95.25
393.433	99.25
393.658	91.25
393.882	88.25
394.107	87.25
394.331	78.25
394.556	102.25
394.78	85.25
395.005	89.25
395.229	91.25
395.454	84.25
395.678	88.25
395.903	87.25
396.127	90.25
396.352	101.25
396.576	91.25
396.801	82.25
397.025	94.25
397.249	88.25
397.474	87.25
397.698	102.25
397.922	99.25
398.147	86.25
398.371	87.25
398.595	91.25
398.82	92.25
399.044	87.25
399.268	100.25
399.492	97.25
399.717	98.25
399.941	86.25
400.165	85.25
400.389	87.25
400.613	95.25
400.837	93.25
401.062	94.25
401.286	94.25
401.51	85.25
401.734	90.25
401.958	112.25
402.182	136.25
402.406	195.25
402.63	124.25
402.854	112.25
403.078	99.25
403.302	97.25
403.526	90.25
403.75	87.25
403.974	100.25
404.198	97.25
404.422	98.25
404.645	102.25
404.869	102.25
405.093	107.25
405.317	116.25
405.541	124.25
405.765	111.25
405.988	124.25
406.212	199.25
406.436	276.25
406.66	179.25
406.883	114.25
407.107	90.25
407.331	101.25
407.555	117.25
407.778	108.25
408.002	79.25
408.226	85.25
408.449	87.25
408.673	87.25
408.896	100.25
409.12	80.25
409.344	91.25
409.567	94.25
409.791	84.25
410.014	94.25
410.238	103.25
410.461	80.25
410.685	94.25
410.908	116.25
411.132	94.25
411.355	105.25
411.578	90.25
411.802	99.25
412.025	95.25
412.249	92.25
412.472	136.25
412.695	122.25
412.919	111.25
413.142	83.25
413.365	92.25
413.589	102.25
413.812	94.25
414.035	108.25
414.258	101.25
414.482	93.25
414.705	107.25
414.928	87.25
415.151	90.25
415.374	81.25
415.597	97.25
415.821	100.25
416.044	99.25
416.267	108.25
416.49	93.25
416.713	87.25
416.936	87.25
417.159	97.25
417.382	88.25
417.605	97.25
417.828	102.25
418.051	100.25
418.274	101.25
418.497	95.25
418.72	77.25
418.943	87.25
419.166	90.25
419.389	79.25
419.611	93.25
419.834	99.25
420.057	73.25
420.28	107.25
420.503	83.25
420.726	93.25
420.948	93.25
421.171	89.25
421.394	79.25
421.617	85.25
421.839	82.25
422.062	103.25
422.285	94.25
422.507	96.25
422.73	97.25
422.953	109.25
423.175	91.25
423.398	81.25
423.621	88.25
423.843	72.25
424.066	100.25
424.288	107.25
424.511	90.25
424.733	84.25
424.956	124.25
425.178	111.25
425.401	123.25
425.623	105.25
425.846	110.25
426.068	87.25
426.291	97.25
426.513	98.25
426.735	111.25
426.958	93.25
427.18	121.25
427.402	162.25
427.625	221.25
427.847	219.25
428.069	190.25
428.292	118.25
428.514	96.25
428.736	88.25
428.958	79.25
429.181	95.25
429.403	94.25
429.625	91.25
429.847	85.25
430.069	100.25
430.292	98.25
430.514	95.25
430.736	99.25
430.958	88.25
431.18	97.25
431.402	85.25
431.624	95.25
431.846	86.25
432.068	98.25
432.29	90.25
432.512	89.25
432.734	101.25
432.956	100.25
433.178	106.25
433.4	114.25
433.622	100.25
433.844	94.25
434.066	100.25
434.287	104.25
434.509	89.25
434.731	99.25
434.953	86.25
435.175	91.25
435.397	101.25
435.618	84.25
435.84	95.25
436.062	123.25
436.284	122.25
436.505	94.25
436.727	98.25
436.949	89.25
437.17	88.25
437.392	85.25
437.614	88.25
437.835	111.25
438.057	137.25
438.278	108.25
438.5	109.25
438.721	131.25
438.943	105.25
439.165	95.25
439.386	90.25
439.608	97.25
439.829	97.25
440.05	137.25
440.272	156.25
440.493	104.25
440.715	102.25
440.936	91.25
441.158	92.25
441.379	94.25
441.6	100.25
441.822	98.25
442.043	94.25
442.264	105.25
442.486	122.25
442.707	116.25
442.928	106.25
443.149	154.25
443.371	148.25
443.592	118.25
443.813	125.25
444.034	110.25
444.255	99.25
444.476	89.25
444.698	88.25
444.919	80.25
445.14	133.25
445.361	130.25
445.582	117.25
445.803	157.25
446.024	130.25
446.245	162.25
446.466	113.25
446.687	95.25
446.908	93.25
447.129	89.25
447.35	102.25
447.571	95.25
447.792	102.25
448.013	112.25
448.234	115.25
448.455	116.25
448.675	101.25
448.896	137.25
449.117	95.25
449.338	114.25
449.559	139.25
449.779	153.25
450	95.25
450.221	86.25
450.442	93.25
450.662	108.25
450.883	126.25
451.104	132.25
451.324	109.25
451.545	103.25
451.766	78.25
451.986	93.25
452.207	104.25
452.428	108.25
452.648	107.25
452.869	136.25
453.089	129.25
453.31	129.25
453.53	100.25
453.751	102.25
453.971	114.25
454.192	119.25
454.412	109.25
454.633	100.25
454.853	99.25
455.073	91.25
455.294	100.25
455.514	103.25
455.734	88.25
455.955	94.25
456.175	101.25
456.395	92.25
456.616	80.25
456.836	88.25
457.056	87.25
457.276	100.25
457.497	94.25
457.717	86.25
457.937	76.25
458.157	88.25
458.377	86.25
458.598	125.25
458.818	167.25
459.038	202.25
459.258	133.25
459.478	106.25
459.698	94.25
459.918	100.25
460.138	89.25
460.358	80.25
460.578	94.25
460.798	91.25
461.018	95.25
461.238	83.25
461.458	90.25
461.678	84.25
461.898	87.25
462.118	83.25
462.338	103.25
462.558	89.25
462.777	92.25
462.997	100.25
463.217	98.25
463.437	100.25
463.657	92.25
463.876	80.25
464.096	90.25
464.316	109.25
464.536	91.25
464.755	90.25
464.975	124.25
465.195	203.25
465.414	218.25
465.634	109.25
465.854	113.25
466.073	112.25
466.293	99.25
466.512	90.25
466.732	88.25
466.951	85.25
467.171	96.25
467.391	105.25
467.61	143.25
467.829	181.25
468.049	428.25
468.268	600.25
468.488	181.25
468.707	85.25
468.927	84.25
469.146	79.25
469.365	105.25
469.585	87.25
469.804	108.25
470.023	105.25
470.243	106.25
470.462	104.25
470.681	116.25
470.901	94.25
471.12	94.25
471.339	109.25
471.558	102.25
471.777	134.25
471.997	241.25
472.216	820.25
472.435	1767.25
472.654	425.25
472.873	135.25
473.092	88.25
473.311	97.25
473.53	94.25
473.749	90.25
473.968	88.25
474.187	108.25
474.406	119.25
474.625	94.25
474.844	92.25
475.063	92.25
475.282	92.25
475.501	74.25
475.72	101.25
475.939	86.25
476.158	84.25
476.377	105.25
476.596	77.25
476.814	99.25
477.033	103.25
477.252	84.25
477.471	89.25
477.69	98.25
477.908	98.25
478.127	93.25
478.346	87.25
478.564	97.25
478.783	104.25
479.002	101.25
479.22	112.25
479.439	114.25
479.658	119.25
479.876	106.25
480.095	122.25
480.313	124.25
480.532	148.25
480.751	236.25
480.969	769.25
481.188	3016.25
481.406	1733.25
481.624	278.25
481.843	125.25
482.061	106.25
482.28	110.25
482.498	104.25
482.717	92.25
482.935	89.25
483.153	91.25
483.372	86.25
483.59	103.25
483.808	95.25
484.027	114.25
484.245	104.25
484.463	85.25
484.681	114.25
484.9	109.25
485.118	100.25
485.336	87.25
485.554	108.25
485.772	104.25
485.99	104.25
486.209	101.25
486.427	114.25
486.645	114.25
486.863	116.25
487.081	114.25
487.299	102.25
487.517	98.25
487.735	102.25
487.953	100.25
488.171	95.25
488.389	104.25
488.607	111.25
488.825	85.25
489.043	100.25
489.261	86.25
489.479	86.25
489.696	106.25
489.914	96.25
490.132	90.25
490.35	101.25
490.568	106.25
490.786	82.25
491.003	95.25
491.221	107.25
491.439	90.25
491.657	95.25
491.874	106.25
492.092	96.25
492.31	89.25
492.527	96.25
492.745	86.25
492.963	99.25
493.18	87.25
493.398	97.25
493.615	92.25
493.833	120.25
494.05	100.25
494.268	100.25
494.485	90.25
494.703	99.25
494.92	95.25
495.138	96.25
495.355	95.25
495.573	88.25
495.79	94.25
496.008	95.25
496.225	103.25
496.442	114.25
496.66	85.25
496.877	78.25
497.094	93.25
497.312	87.25
497.529	99.25
497.746	95.25
497.963	97.25
498.181	89.25
498.398	91.25
498.615	99.25
498.832	101.25
499.049	95.25
499.267	87.25
499.484	95.25
499.701	96.25
499.918	102.25
500.135	91.25
500.352	90.25
500.569	89.25
500.786	83.25
501.003	79.25
501.22	99.25
501.437	82.25
501.654	94.25
501.871	125.25
502.088	95.25
502.305	91.25
502.522	82.25
502.739	88.25
502.956	91.25
503.172	98.25
503.389	100.25
503.606	119.25
503.823	109.25
504.04	101.25
504.256	102.25
504.473	101.25
504.69	102.25
504.907	97.25
505.123	89.25
505.34	110.25
505.557	107.25
505.773	100.25
505.99	102.25
506.207	86.25
506.423	93.25
506.64	83.25
506.856	100.25
507.073	87.25
507.289	94.25
507.506	103.25
507.722	131.25
507.939	121.25
508.155	115.25
508.372	86.25
508.588	101.25
508.805	90.25
509.021	99.25
509.238	106.25
509.454	105.25
509.67	104.25
509.887	98.25
510.103	125.25
510.319	223.25
510.536	841.25
510.752	2753.25
510.968	769.25
511.184	167.25
511.401	112.25
511.617	95.25
511.833	108.25
512.049	94.25
512.265	97.25
512.481	94.25
512.698	109.25
512.914	109.25
