Data from Circ_2001_H10_HRD10591_00081.txt Node
Date: Wed Jan 03 10:45:55 EST 2024
User: Yrep
Spectrometer: HR+D1059
Trigger mode: 1
Integration Time (sec): 1.000000E-1
Scans to average: 1
Electric dark correction enabled: true
Nonlinearity correction enabled: false
Boxcar width: 0
XAxis mode: Wavelengths
Number of Pixels in Spectrum: 2048
>>>>>Begin Spectral Data<<<<<
223.165	-11.56
223.4	-11.56
223.635	-11.56
223.869	-16.56
224.104	-25.56
224.338	-24.56
224.573	-17.56
224.808	-23.56
225.042	-10.56
225.277	-7.56
225.511	-13.56
225.746	13.44
225.98	9.44
226.215	18.44
226.449	31.44
226.683	20.44
226.918	19.44
227.152	38.44
227.387	20.44
227.621	35.44
227.856	45.44
228.09	31.44
228.324	52.44
228.559	49.44
228.793	49.44
229.027	55.44
229.262	54.44
229.496	79.44
229.73	80.44
229.964	93.44
230.199	73.44
230.433	86.44
230.667	83.44
230.901	76.44
231.136	71.44
231.37	85.44
231.604	71.44
231.838	76.44
232.072	82.44
232.306	80.44
232.541	74.44
232.775	68.44
233.009	63.44
233.243	73.44
233.477	65.44
233.711	66.44
233.945	79.44
234.179	74.44
234.413	83.44
234.647	88.44
234.881	90.44
235.115	79.44
235.349	83.44
235.583	85.44
235.817	84.44
236.051	72.44
236.285	83.44
236.519	71.44
236.753	66.44
236.987	77.44
237.221	81.44
237.455	86.44
237.689	73.44
237.922	67.44
238.156	83.44
238.39	88.44
238.624	97.44
238.858	69.44
239.091	79.44
239.325	86.44
239.559	71.44
239.793	74.44
240.027	83.44
240.26	79.44
240.494	75.44
240.728	65.44
240.961	78.44
241.195	75.44
241.429	70.44
241.662	87.44
241.896	68.44
242.13	67.44
242.363	67.44
242.597	74.44
242.83	72.44
243.064	59.44
243.298	81.44
243.531	75.44
243.765	84.44
243.998	87.44
244.232	80.44
244.465	79.44
244.699	74.44
244.932	70.44
245.166	74.44
245.399	88.44
245.633	73.44
245.866	71.44
246.099	83.44
246.333	83.44
246.566	92.44
246.8	76.44
247.033	66.44
247.266	69.44
247.5	78.44
247.733	84.44
247.966	76.44
248.2	97.44
248.433	60.44
248.666	81.44
248.899	85.44
249.133	80.44
249.366	88.44
249.599	95.44
249.832	84.44
250.066	90.44
250.299	82.44
250.532	85.44
250.765	81.44
250.998	74.44
251.231	72.44
251.465	77.44
251.698	74.44
251.931	90.44
252.164	83.44
252.397	78.44
252.63	82.44
252.863	85.44
253.096	71.44
253.329	79.44
253.562	83.44
253.795	75.44
254.028	82.44
254.261	73.44
254.494	85.44
254.727	86.44
254.96	77.44
255.193	71.44
255.426	80.44
255.659	91.44
255.892	93.44
256.124	85.44
256.357	84.44
256.59	75.44
256.823	66.44
257.056	75.44
257.289	80.44
257.521	79.44
257.754	82.44
257.987	69.44
258.22	89.44
258.452	85.44
258.685	85.44
258.918	69.44
259.151	81.44
259.383	77.44
259.616	76.44
259.849	74.44
260.081	93.44
260.314	86.44
260.547	85.44
260.779	85.44
261.012	100.44
261.244	82.44
261.477	99.44
261.71	96.44
261.942	99.44
262.175	134.44
262.407	84.44
262.64	93.44
262.872	75.44
263.105	80.44
263.337	97.44
263.57	82.44
263.802	68.44
264.035	79.44
264.267	77.44
264.499	61.44
264.732	80.44
264.964	80.44
265.197	79.44
265.429	92.44
265.661	79.44
265.894	78.44
266.126	86.44
266.358	81.44
266.591	87.44
266.823	94.44
267.055	83.44
267.287	79.44
267.52	78.44
267.752	84.44
267.984	90.44
268.216	67.44
268.448	79.44
268.681	76.44
268.913	100.44
269.145	89.44
269.377	82.44
269.609	78.44
269.841	83.44
270.073	90.44
270.306	86.44
270.538	86.44
270.77	88.44
271.002	96.44
271.234	76.44
271.466	94.44
271.698	87.44
271.93	77.44
272.162	94.44
272.394	78.44
272.626	74.44
272.858	73.44
273.09	89.44
273.322	86.44
273.553	86.44
273.785	92.44
274.017	104.44
274.249	78.44
274.481	82.44
274.713	76.44
274.945	86.44
275.176	89.44
275.408	93.44
275.64	104.44
275.872	102.44
276.104	104.44
276.335	95.44
276.567	107.44
276.799	126.44
277.031	139.44
277.262	160.44
277.494	120.44
277.726	90.44
277.957	104.44
278.189	91.44
278.421	88.44
278.652	98.44
278.884	85.44
279.115	78.44
279.347	85.44
279.579	92.44
279.81	102.44
280.042	145.44
280.273	191.44
280.505	146.44
280.736	98.44
280.968	105.44
281.199	89.44
281.431	77.44
281.662	91.44
281.894	91.44
282.125	98.44
282.356	131.44
282.588	150.44
282.819	119.44
283.051	81.44
283.282	86.44
283.513	91.44
283.745	75.44
283.976	85.44
284.207	87.44
284.439	85.44
284.67	89.44
284.901	88.44
285.132	76.44
285.364	83.44
285.595	74.44
285.826	86.44
286.057	78.44
286.288	74.44
286.52	88.44
286.751	93.44
286.982	82.44
287.213	81.44
287.444	85.44
287.675	86.44
287.906	73.44
288.138	84.44
288.369	78.44
288.6	87.44
288.831	95.44
289.062	90.44
289.293	91.44
289.524	77.44
289.755	90.44
289.986	76.44
290.217	89.44
290.448	79.44
290.679	91.44
290.91	88.44
291.141	87.44
291.371	80.44
291.602	94.44
291.833	83.44
292.064	89.44
292.295	80.44
292.526	90.44
292.757	87.44
292.987	87.44
293.218	88.44
293.449	90.44
293.68	88.44
293.91	88.44
294.141	102.44
294.372	99.44
294.603	85.44
294.833	81.44
295.064	93.44
295.295	89.44
295.525	73.44
295.756	105.44
295.987	122.44
296.217	133.44
296.448	141.44
296.679	91.44
296.909	98.44
297.14	84.44
297.37	88.44
297.601	78.44
297.831	75.44
298.062	92.44
298.292	84.44
298.523	82.44
298.753	94.44
298.984	79.44
299.214	82.44
299.445	89.44
299.675	86.44
299.905	80.44
300.136	80.44
300.366	91.44
300.597	80.44
300.827	96.44
301.057	109.44
301.288	95.44
301.518	86.44
301.748	95.44
301.979	127.44
302.209	105.44
302.439	99.44
302.669	85.44
302.9	86.44
303.13	85.44
303.36	93.44
303.59	105.44
303.82	120.44
304.051	117.44
304.281	93.44
304.511	95.44
304.741	103.44
304.971	97.44
305.201	88.44
305.431	91.44
305.661	89.44
305.891	94.44
306.121	109.44
306.352	100.44
306.582	99.44
306.812	96.44
307.042	113.44
307.272	147.44
307.502	139.44
307.731	150.44
307.961	113.44
308.191	90.44
308.421	97.44
308.651	88.44
308.881	97.44
309.111	101.44
309.341	79.44
309.571	98.44
309.8	101.44
310.03	89.44
310.26	103.44
310.49	99.44
310.72	110.44
310.949	112.44
311.179	106.44
311.409	95.44
311.639	100.44
311.868	85.44
312.098	85.44
312.328	103.44
312.557	106.44
312.787	121.44
313.017	100.44
313.246	67.44
313.476	82.44
313.706	102.44
313.935	97.44
314.165	99.44
314.394	100.44
314.624	98.44
314.853	94.44
315.083	87.44
315.312	96.44
315.542	87.44
315.771	103.44
316.001	81.44
316.23	96.44
316.46	84.44
316.689	102.44
316.919	98.44
317.148	97.44
317.377	95.44
317.607	109.44
317.836	100.44
318.065	96.44
318.295	112.44
318.524	94.44
318.753	99.44
318.983	107.44
319.212	93.44
319.441	112.44
319.67	103.44
319.9	95.44
320.129	94.44
320.358	89.44
320.587	99.44
320.816	94.44
321.046	105.44
321.275	110.44
321.504	104.44
321.733	99.44
321.962	101.44
322.191	92.44
322.42	95.44
322.649	105.44
322.878	108.44
323.108	115.44
323.337	122.44
323.566	131.44
323.795	161.44
324.024	234.44
324.253	479.44
324.482	1003.44
324.71	2109.44
324.939	2776.44
325.168	981.44
325.397	272.44
325.626	159.44
325.855	153.44
326.084	141.44
326.313	154.44
326.542	174.44
326.77	271.44
326.999	569.44
327.228	1195.44
327.457	2128.44
327.686	1671.44
327.914	525.44
328.143	428.44
328.372	485.44
328.6	308.44
328.829	165.44
329.058	169.44
329.287	162.44
329.515	155.44
329.744	218.44
329.972	403.44
330.201	759.44
330.43	1037.44
330.658	508.44
330.887	238.44
331.115	176.44
331.344	121.44
331.572	118.44
331.801	109.44
332.03	113.44
332.258	119.44
332.486	102.44
332.715	100.44
332.943	96.44
333.172	120.44
333.4	121.44
333.629	138.44
333.857	201.44
334.085	378.44
334.314	707.44
334.542	1340.44
334.771	1253.44
334.999	341.44
335.227	159.44
335.455	105.44
335.684	106.44
335.912	95.44
336.14	102.44
336.369	93.44
336.597	108.44
336.825	103.44
337.053	81.44
337.281	101.44
337.51	104.44
337.738	98.44
337.966	103.44
338.194	115.44
338.422	99.44
338.65	99.44
338.878	98.44
339.106	85.44
339.334	85.44
339.562	97.44
339.79	86.44
340.018	85.44
340.246	88.44
340.474	93.44
340.702	91.44
340.93	86.44
341.158	91.44
341.386	85.44
341.614	98.44
341.842	90.44
342.07	93.44
342.298	96.44
342.526	101.44
342.754	97.44
342.981	79.44
343.209	83.44
343.437	93.44
343.665	83.44
343.893	86.44
344.12	93.44
344.348	93.44
344.576	91.44
344.804	94.44
345.031	97.44
345.259	98.44
345.487	90.44
345.714	104.44
345.942	83.44
346.17	107.44
346.397	93.44
346.625	107.44
346.853	103.44
347.08	84.44
347.308	103.44
347.535	98.44
347.763	97.44
347.99	98.44
348.218	89.44
348.445	106.44
348.673	97.44
348.9	94.44
349.128	100.44
349.355	90.44
349.583	93.44
349.81	79.44
350.037	94.44
350.265	102.44
350.492	99.44
350.72	101.44
350.947	97.44
351.174	97.44
351.402	112.44
351.629	116.44
351.856	97.44
352.083	100.44
352.311	109.44
352.538	105.44
352.765	106.44
352.992	118.44
353.22	108.44
353.447	95.44
353.674	109.44
353.901	97.44
354.128	96.44
354.355	90.44
354.583	103.44
354.81	82.44
355.037	101.44
355.264	91.44
355.491	94.44
355.718	86.44
355.945	95.44
356.172	104.44
356.399	88.44
356.626	107.44
356.853	89.44
357.08	97.44
357.307	88.44
357.534	95.44
357.761	89.44
357.988	83.44
358.215	99.44
358.441	91.44
358.668	102.44
358.895	87.44
359.122	82.44
359.349	105.44
359.576	84.44
359.802	95.44
360.029	122.44
360.256	119.44
360.483	94.44
360.709	88.44
360.936	86.44
361.163	80.44
361.39	86.44
361.616	99.44
361.843	93.44
362.07	96.44
362.296	95.44
362.523	103.44
362.749	90.44
362.976	86.44
363.203	82.44
363.429	72.44
363.656	89.44
363.882	81.44
364.109	80.44
364.335	96.44
364.562	93.44
364.788	105.44
365.015	99.44
365.241	91.44
365.468	113.44
365.694	96.44
365.92	105.44
366.147	91.44
366.373	97.44
366.599	76.44
366.826	81.44
367.052	79.44
367.278	94.44
367.505	87.44
367.731	97.44
367.957	94.44
368.184	93.44
368.41	95.44
368.636	111.44
368.862	128.44
369.089	115.44
369.315	101.44
369.541	90.44
369.767	97.44
369.993	94.44
370.219	78.44
370.445	89.44
370.672	97.44
370.898	90.44
371.124	73.44
371.35	69.44
371.576	96.44
371.802	89.44
372.028	95.44
372.254	85.44
372.48	82.44
372.706	76.44
372.932	84.44
373.158	98.44
373.384	94.44
373.61	102.44
373.835	87.44
374.061	85.44
374.287	80.44
374.513	98.44
374.739	101.44
374.965	90.44
375.191	109.44
375.416	100.44
375.642	79.44
375.868	90.44
376.094	74.44
376.319	86.44
376.545	96.44
376.771	73.44
376.997	83.44
377.222	93.44
377.448	94.44
377.674	87.44
377.899	89.44
378.125	83.44
378.35	97.44
378.576	82.44
378.802	76.44
379.027	97.44
379.253	79.44
379.478	83.44
379.704	79.44
379.929	89.44
380.155	100.44
380.38	86.44
380.606	100.44
380.831	90.44
381.057	81.44
381.282	83.44
381.507	104.44
381.733	77.44
381.958	85.44
382.184	94.44
382.409	95.44
382.634	99.44
382.86	86.44
383.085	99.44
383.31	95.44
383.535	103.44
383.761	96.44
383.986	100.44
384.211	82.44
384.436	90.44
384.662	88.44
384.887	104.44
385.112	84.44
385.337	102.44
385.562	87.44
385.787	101.44
386.013	101.44
386.238	110.44
386.463	91.44
386.688	109.44
386.913	103.44
387.138	99.44
387.363	96.44
387.588	100.44
387.813	111.44
388.038	97.44
388.263	110.44
388.488	99.44
388.713	80.44
388.938	102.44
389.163	86.44
389.387	95.44
389.612	100.44
389.837	89.44
390.062	84.44
390.287	96.44
390.512	98.44
390.736	82.44
390.961	79.44
391.186	96.44
391.411	89.44
391.636	85.44
391.86	70.44
392.085	86.44
392.31	87.44
392.534	82.44
392.759	94.44
392.984	88.44
393.208	97.44
393.433	95.44
393.658	89.44
393.882	88.44
394.107	90.44
394.331	105.44
394.556	87.44
394.78	90.44
395.005	83.44
395.229	77.44
395.454	93.44
395.678	78.44
395.903	90.44
396.127	73.44
396.352	79.44
396.576	94.44
396.801	72.44
397.025	66.44
397.249	96.44
397.474	85.44
397.698	84.44
397.922	85.44
398.147	89.44
398.371	75.44
398.595	94.44
398.82	81.44
399.044	85.44
399.268	78.44
399.492	98.44
399.717	83.44
399.941	96.44
400.165	88.44
400.389	98.44
400.613	96.44
400.837	89.44
401.062	87.44
401.286	86.44
401.51	88.44
401.734	85.44
401.958	102.44
402.182	139.44
402.406	169.44
402.63	131.44
402.854	90.44
403.078	98.44
403.302	91.44
403.526	82.44
403.75	86.44
403.974	91.44
404.198	85.44
404.422	78.44
404.645	87.44
404.869	87.44
405.093	119.44
405.317	131.44
405.541	125.44
405.765	114.44
405.988	126.44
406.212	185.44
406.436	249.44
406.66	162.44
406.883	103.44
407.107	104.44
407.331	99.44
407.555	111.44
407.778	120.44
408.002	94.44
408.226	95.44
408.449	85.44
408.673	91.44
408.896	82.44
409.12	99.44
409.344	72.44
409.567	86.44
409.791	80.44
410.014	94.44
410.238	97.44
410.461	90.44
410.685	81.44
410.908	110.44
411.132	90.44
411.355	96.44
411.578	93.44
411.802	88.44
412.025	85.44
412.249	84.44
412.472	94.44
412.695	135.44
412.919	104.44
413.142	94.44
413.365	93.44
413.589	103.44
413.812	78.44
414.035	103.44
414.258	79.44
414.482	94.44
414.705	82.44
414.928	91.44
415.151	103.44
415.374	95.44
415.597	80.44
415.821	93.44
416.044	94.44
416.267	88.44
416.49	78.44
416.713	91.44
416.936	95.44
417.159	88.44
417.382	98.44
417.605	101.44
417.828	104.44
418.051	91.44
418.274	86.44
418.497	86.44
418.72	70.44
418.943	81.44
419.166	90.44
419.389	102.44
419.611	80.44
419.834	75.44
420.057	96.44
420.28	82.44
420.503	91.44
420.726	88.44
420.948	89.44
421.171	97.44
421.394	106.44
421.617	81.44
421.839	95.44
422.062	90.44
422.285	95.44
422.507	109.44
422.73	112.44
422.953	78.44
423.175	86.44
423.398	89.44
423.621	93.44
423.843	89.44
424.066	85.44
424.288	93.44
424.511	106.44
424.733	105.44
424.956	114.44
425.178	122.44
425.401	96.44
425.623	110.44
425.846	88.44
426.068	86.44
426.291	109.44
426.513	95.44
426.735	94.44
426.958	95.44
427.18	137.44
427.402	162.44
427.625	219.44
427.847	211.44
428.069	203.44
428.292	126.44
428.514	102.44
428.736	87.44
428.958	90.44
429.181	82.44
429.403	88.44
429.625	81.44
429.847	102.44
430.069	108.44
430.292	87.44
430.514	94.44
430.736	87.44
430.958	97.44
431.18	82.44
431.402	96.44
431.624	84.44
431.846	82.44
432.068	95.44
432.29	83.44
432.512	84.44
432.734	93.44
432.956	98.44
433.178	100.44
433.4	101.44
433.622	87.44
433.844	94.44
434.066	97.44
434.287	94.44
434.509	91.44
434.731	97.44
434.953	95.44
435.175	77.44
435.397	70.44
435.618	96.44
435.84	105.44
436.062	144.44
436.284	135.44
436.505	100.44
436.727	111.44
436.949	85.44
437.17	94.44
437.392	85.44
437.614	93.44
437.835	104.44
438.057	134.44
438.278	123.44
438.5	107.44
438.721	132.44
438.943	104.44
439.165	87.44
439.386	103.44
439.608	89.44
439.829	110.44
440.05	143.44
440.272	173.44
440.493	122.44
440.715	94.44
440.936	81.44
441.158	87.44
441.379	88.44
441.6	91.44
441.822	96.44
442.043	87.44
442.264	103.44
442.486	118.44
442.707	99.44
442.928	131.44
443.149	157.44
443.371	156.44
443.592	102.44
443.813	125.44
444.034	102.44
444.255	100.44
444.476	94.44
444.698	81.44
444.919	58.44
445.14	140.44
445.361	131.44
445.582	137.44
445.803	151.44
446.024	155.44
446.245	151.44
446.466	135.44
446.687	92.44
446.908	110.44
447.129	95.44
447.35	87.44
447.571	82.44
447.792	83.44
448.013	98.44
448.234	106.44
448.455	110.44
448.675	115.44
448.896	140.44
449.117	101.44
449.338	118.44
449.559	126.44
449.779	145.44
450	88.44
450.221	86.44
450.442	104.44
450.662	96.44
450.883	115.44
451.104	130.44
451.324	97.44
451.545	90.44
451.766	98.44
451.986	68.44
452.207	91.44
452.428	94.44
452.648	84.44
452.869	115.44
453.089	100.44
453.31	123.44
453.53	96.44
453.751	94.44
453.971	102.44
454.192	136.44
454.412	85.44
454.633	76.44
454.853	82.44
455.073	97.44
455.294	87.44
455.514	90.44
455.734	90.44
455.955	90.44
456.175	93.44
456.395	102.44
456.616	84.44
456.836	74.44
457.056	88.44
457.276	98.44
457.497	81.44
457.717	87.44
457.937	89.44
458.157	82.44
458.377	95.44
458.598	103.44
458.818	183.44
459.038	185.44
459.258	131.44
459.478	81.44
459.698	61.44
459.918	88.44
460.138	71.44
460.358	87.44
460.578	91.44
460.798	92.44
461.018	96.44
461.238	90.44
461.458	75.44
461.678	85.44
461.898	82.44
462.118	89.44
462.338	90.44
462.558	84.44
462.777	86.44
462.997	83.44
463.217	112.44
463.437	91.44
463.657	93.44
463.876	81.44
464.096	80.44
464.316	107.44
464.536	103.44
464.755	105.44
464.975	102.44
465.195	197.44
465.414	178.44
465.634	112.44
465.854	102.44
466.073	86.44
466.293	88.44
466.512	92.44
466.732	94.44
466.951	85.44
467.171	98.44
467.391	96.44
467.61	117.44
467.829	192.44
468.049	450.44
468.268	633.44
468.488	171.44
468.707	111.44
468.927	82.44
469.146	92.44
469.365	78.44
469.585	76.44
469.804	97.44
470.023	107.44
470.243	99.44
470.462	101.44
470.681	104.44
470.901	109.44
471.12	94.44
471.339	110.44
471.558	114.44
471.777	128.44
471.997	240.44
472.216	859.44
472.435	1819.44
472.654	458.44
472.873	165.44
473.092	96.44
473.311	79.44
473.53	92.44
473.749	96.44
473.968	105.44
474.187	121.44
474.406	105.44
474.625	95.44
474.844	91.44
475.063	82.44
475.282	89.44
475.501	92.44
475.72	81.44
475.939	83.44
476.158	91.44
476.377	85.44
476.596	86.44
476.814	89.44
477.033	89.44
477.252	84.44
477.471	87.44
477.69	92.44
477.908	99.44
478.127	99.44
478.346	82.44
478.564	89.44
478.783	104.44
479.002	110.44
479.22	102.44
479.439	111.44
479.658	111.44
479.876	104.44
480.095	118.44
480.313	131.44
480.532	141.44
480.751	242.44
480.969	790.44
481.188	3160.44
481.406	1869.44
481.624	302.44
481.843	128.44
482.061	97.44
482.28	106.44
482.498	93.44
482.717	97.44
482.935	83.44
483.153	84.44
483.372	90.44
483.59	89.44
483.808	83.44
484.027	90.44
484.245	100.44
484.463	93.44
484.681	76.44
484.9	90.44
485.118	86.44
485.336	87.44
485.554	98.44
485.772	98.44
485.99	102.44
486.209	101.44
486.427	109.44
486.645	99.44
486.863	126.44
487.081	107.44
487.299	99.44
487.517	89.44
487.735	92.44
487.953	89.44
488.171	101.44
488.389	102.44
488.607	102.44
488.825	90.44
489.043	89.44
489.261	95.44
489.479	92.44
489.696	90.44
489.914	88.44
490.132	91.44
490.35	81.44
490.568	79.44
490.786	87.44
491.003	69.44
491.221	94.44
491.439	91.44
491.657	106.44
491.874	101.44
492.092	87.44
492.31	101.44
492.527	86.44
492.745	84.44
492.963	81.44
493.18	85.44
493.398	91.44
493.615	95.44
493.833	83.44
494.05	89.44
494.268	83.44
494.485	100.44
494.703	83.44
494.92	70.44
495.138	76.44
495.355	84.44
495.573	93.44
495.79	87.44
496.008	84.44
496.225	75.44
496.442	88.44
496.66	79.44
496.877	87.44
497.094	85.44
497.312	83.44
497.529	81.44
497.746	78.44
497.963	94.44
498.181	91.44
498.398	91.44
498.615	110.44
498.832	99.44
499.049	90.44
499.267	108.44
499.484	93.44
499.701	93.44
499.918	87.44
500.135	78.44
500.352	94.44
500.569	103.44
500.786	111.44
501.003	99.44
501.22	91.44
501.437	95.44
501.654	109.44
501.871	110.44
502.088	87.44
502.305	87.44
502.522	77.44
502.739	93.44
502.956	101.44
503.172	93.44
503.389	99.44
503.606	122.44
503.823	99.44
504.04	87.44
504.256	93.44
504.473	83.44
504.69	83.44
504.907	83.44
505.123	83.44
505.34	72.44
505.557	87.44
505.773	77.44
505.99	88.44
506.207	80.44
506.423	89.44
506.64	91.44
506.856	84.44
507.073	99.44
507.289	98.44
507.506	93.44
507.722	130.44
507.939	118.44
508.155	88.44
508.372	84.44
508.588	95.44
508.805	84.44
509.021	104.44
509.238	97.44
509.454	94.44
509.67	88.44
509.887	99.44
510.103	130.44
510.319	210.44
510.536	726.44
510.752	2277.44
510.968	655.44
511.184	161.44
511.401	115.44
511.617	103.44
511.833	92.44
512.049	91.44
512.265	105.44
512.481	106.44
512.698	95.44
512.914	89.44
513.13	91.44
513.346	93.44
513.562	98.44
513.778	97.44
513.994	91.44
514.21	111.44
514.426	132.44
514.642	151.44
