Data from Circ_2001_H10_HRD10591_00084.txt Node
Date: Wed Jan 03 10:45:55 EST 2024
User: Yrep
Spectrometer: HR+D1059
Trigger mode: 1
Integration Time (sec): 1.000000E-1
Scans to average: 1
Electric dark correction enabled: true
Nonlinearity correction enabled: false
Boxcar width: 0
XAxis mode: Wavelengths
Number of Pixels in Spectrum: 2048
>>>>>Begin Spectral Data<<<<<
223.165	-27.69
223.4	-27.69
223.635	-27.69
223.869	-24.69
224.104	-12.69
224.338	-10.69
224.573	-19.69
224.808	-9.69
225.042	-2.69
225.277	9.31
225.511	-11.69
225.746	1.31
225.98	4.31
226.215	-1.69
226.449	26.31
226.683	15.31
226.918	29.31
227.152	35.31
227.387	52.31
227.621	33.31
227.856	42.31
228.09	40.31
228.324	66.31
228.559	50.31
228.793	65.31
229.027	68.31
229.262	67.31
229.496	71.31
229.73	66.31
229.964	84.31
230.199	70.31
230.433	71.31
230.667	75.31
230.901	81.31
231.136	76.31
231.37	99.31
231.604	92.31
231.838	81.31
232.072	85.31
232.306	89.31
232.541	95.31
232.775	74.31
233.009	64.31
233.243	96.31
233.477	82.31
233.711	76.31
233.945	80.31
234.179	87.31
234.413	75.31
234.647	88.31
234.881	82.31
235.115	86.31
235.349	72.31
235.583	77.31
235.817	70.31
236.051	81.31
236.285	91.31
236.519	70.31
236.753	73.31
236.987	77.31
237.221	76.31
237.455	80.31
237.689	90.31
237.922	79.31
238.156	83.31
238.39	76.31
238.624	83.31
238.858	74.31
239.091	85.31
239.325	97.31
239.559	94.31
239.793	83.31
240.027	86.31
240.26	91.31
240.494	81.31
240.728	89.31
240.961	78.31
241.195	86.31
241.429	93.31
241.662	76.31
241.896	86.31
242.13	88.31
242.363	87.31
242.597	86.31
242.83	73.31
243.064	69.31
243.298	87.31
243.531	80.31
243.765	91.31
243.998	76.31
244.232	83.31
244.465	83.31
244.699	77.31
244.932	78.31
245.166	82.31
245.399	70.31
245.633	72.31
245.866	77.31
246.099	85.31
246.333	83.31
246.566	88.31
246.8	90.31
247.033	75.31
247.266	68.31
247.5	86.31
247.733	80.31
247.966	77.31
248.2	68.31
248.433	80.31
248.666	80.31
248.899	82.31
249.133	89.31
249.366	87.31
249.599	97.31
249.832	82.31
250.066	81.31
250.299	95.31
250.532	78.31
250.765	74.31
250.998	90.31
251.231	88.31
251.465	74.31
251.698	85.31
251.931	66.31
252.164	98.31
252.397	71.31
252.63	96.31
252.863	65.31
253.096	75.31
253.329	80.31
253.562	79.31
253.795	77.31
254.028	94.31
254.261	78.31
254.494	76.31
254.727	91.31
254.96	107.31
255.193	76.31
255.426	99.31
255.659	91.31
255.892	77.31
256.124	82.31
256.357	85.31
256.59	76.31
256.823	80.31
257.056	72.31
257.289	88.31
257.521	77.31
257.754	86.31
257.987	88.31
258.22	94.31
258.452	89.31
258.685	89.31
258.918	81.31
259.151	94.31
259.383	76.31
259.616	95.31
259.849	89.31
260.081	83.31
260.314	90.31
260.547	76.31
260.779	88.31
261.012	88.31
261.244	91.31
261.477	98.31
261.71	88.31
261.942	108.31
262.175	113.31
262.407	97.31
262.64	88.31
262.872	87.31
263.105	78.31
263.337	86.31
263.57	89.31
263.802	75.31
264.035	84.31
264.267	87.31
264.499	84.31
264.732	96.31
264.964	76.31
265.197	77.31
265.429	73.31
265.661	76.31
265.894	79.31
266.126	85.31
266.358	68.31
266.591	87.31
266.823	83.31
267.055	91.31
267.287	91.31
267.52	86.31
267.752	86.31
267.984	84.31
268.216	87.31
268.448	98.31
268.681	76.31
268.913	91.31
269.145	74.31
269.377	83.31
269.609	73.31
269.841	90.31
270.073	73.31
270.306	92.31
270.538	81.31
270.77	74.31
271.002	84.31
271.234	82.31
271.466	96.31
271.698	93.31
271.93	96.31
272.162	91.31
272.394	82.31
272.626	73.31
272.858	81.31
273.09	87.31
273.322	94.31
273.553	77.31
273.785	89.31
274.017	90.31
274.249	104.31
274.481	86.31
274.713	73.31
274.945	91.31
275.176	90.31
275.408	94.31
275.64	104.31
275.872	115.31
276.104	94.31
276.335	96.31
276.567	92.31
276.799	130.31
277.031	117.31
277.262	141.31
277.494	112.31
277.726	90.31
277.957	87.31
278.189	96.31
278.421	91.31
278.652	90.31
278.884	89.31
279.115	92.31
279.347	95.31
279.579	100.31
279.81	102.31
280.042	131.31
280.273	176.31
280.505	121.31
280.736	94.31
280.968	95.31
281.199	100.31
281.431	94.31
281.662	90.31
281.894	90.31
282.125	105.31
282.356	108.31
282.588	143.31
282.819	107.31
283.051	69.31
283.282	98.31
283.513	99.31
283.745	83.31
283.976	89.31
284.207	96.31
284.439	76.31
284.67	90.31
284.901	98.31
285.132	85.31
285.364	90.31
285.595	100.31
285.826	96.31
286.057	94.31
286.288	80.31
286.52	86.31
286.751	75.31
286.982	72.31
287.213	90.31
287.444	82.31
287.675	98.31
287.906	81.31
288.138	89.31
288.369	95.31
288.6	88.31
288.831	80.31
289.062	91.31
289.293	95.31
289.524	86.31
289.755	76.31
289.986	82.31
290.217	94.31
290.448	86.31
290.679	87.31
290.91	94.31
291.141	86.31
291.371	94.31
291.602	96.31
291.833	91.31
292.064	104.31
292.295	88.31
292.526	87.31
292.757	87.31
292.987	95.31
293.218	93.31
293.449	85.31
293.68	91.31
293.91	81.31
294.141	90.31
294.372	86.31
294.603	102.31
294.833	104.31
295.064	93.31
295.295	90.31
295.525	102.31
295.756	108.31
295.987	133.31
296.217	121.31
296.448	124.31
296.679	92.31
296.909	91.31
297.14	85.31
297.37	90.31
297.601	82.31
297.831	93.31
298.062	77.31
298.292	89.31
298.523	89.31
298.753	102.31
298.984	88.31
299.214	85.31
299.445	94.31
299.675	101.31
299.905	92.31
300.136	88.31
300.366	90.31
300.597	103.31
300.827	104.31
301.057	101.31
301.288	96.31
301.518	98.31
301.748	89.31
301.979	108.31
302.209	102.31
302.439	93.31
302.669	105.31
302.9	93.31
303.13	100.31
303.36	106.31
303.59	97.31
303.82	108.31
304.051	97.31
304.281	84.31
304.511	112.31
304.741	96.31
304.971	102.31
305.201	98.31
305.431	88.31
305.661	76.31
305.891	96.31
306.121	113.31
306.352	104.31
306.582	105.31
306.812	92.31
307.042	106.31
307.272	131.31
307.502	124.31
307.731	128.31
307.961	122.31
308.191	96.31
308.421	89.31
308.651	109.31
308.881	86.31
309.111	99.31
309.341	84.31
309.571	104.31
309.8	76.31
310.03	104.31
310.26	98.31
310.49	94.31
310.72	93.31
310.949	92.31
311.179	99.31
311.409	93.31
311.639	94.31
311.868	94.31
312.098	88.31
312.328	89.31
312.557	98.31
312.787	107.31
313.017	99.31
313.246	105.31
313.476	95.31
313.706	93.31
313.935	88.31
314.165	93.31
314.394	110.31
314.624	94.31
314.853	116.31
315.083	94.31
315.312	90.31
315.542	100.31
315.771	76.31
316.001	103.31
316.23	94.31
316.46	80.31
316.689	85.31
316.919	108.31
317.148	98.31
317.377	105.31
317.607	83.31
317.836	85.31
318.065	89.31
318.295	93.31
318.524	94.31
318.753	109.31
318.983	98.31
319.212	98.31
319.441	111.31
319.67	99.31
319.9	98.31
320.129	96.31
320.358	94.31
320.587	97.31
320.816	86.31
321.046	106.31
321.275	100.31
321.504	105.31
321.733	84.31
321.962	94.31
322.191	91.31
322.42	102.31
322.649	110.31
322.878	116.31
323.108	106.31
323.337	115.31
323.566	131.31
323.795	176.31
324.024	221.31
324.253	389.31
324.482	879.31
324.71	1779.31
324.939	2253.31
325.168	828.31
325.397	247.31
325.626	136.31
325.855	125.31
326.084	134.31
326.313	153.31
326.542	162.31
326.77	255.31
326.999	470.31
327.228	978.31
327.457	1789.31
327.686	1424.31
327.914	452.31
328.143	352.31
328.372	402.31
328.6	259.31
328.829	152.31
329.058	152.31
329.287	150.31
329.515	141.31
329.744	186.31
329.972	319.31
330.201	620.31
330.43	824.31
330.658	393.31
330.887	197.31
331.115	136.31
331.344	112.31
331.572	108.31
331.801	98.31
332.03	114.31
332.258	101.31
332.486	97.31
332.715	99.31
332.943	112.31
333.172	116.31
333.4	111.31
333.629	131.31
333.857	157.31
334.085	298.31
334.314	575.31
334.542	1027.31
334.771	942.31
334.999	278.31
335.227	132.31
335.455	110.31
335.684	117.31
335.912	96.31
336.14	98.31
336.369	90.31
336.597	123.31
336.825	100.31
337.053	102.31
337.281	106.31
337.51	92.31
337.738	90.31
337.966	104.31
338.194	98.31
338.422	99.31
338.65	102.31
338.878	92.31
339.106	104.31
339.334	97.31
339.562	102.31
339.79	95.31
340.018	85.31
340.246	100.31
340.474	94.31
340.702	76.31
340.93	94.31
341.158	99.31
341.386	86.31
341.614	82.31
341.842	88.31
342.07	94.31
342.298	80.31
342.526	93.31
342.754	97.31
342.981	89.31
343.209	105.31
343.437	98.31
343.665	89.31
343.893	100.31
344.12	101.31
344.348	95.31
344.576	89.31
344.804	103.31
345.031	93.31
345.259	103.31
345.487	96.31
345.714	81.31
345.942	98.31
346.17	96.31
346.397	80.31
346.625	92.31
346.853	81.31
347.08	82.31
347.308	92.31
347.535	89.31
347.763	89.31
347.99	90.31
348.218	107.31
348.445	115.31
348.673	85.31
348.9	99.31
349.128	96.31
349.355	91.31
349.583	90.31
349.81	85.31
350.037	105.31
350.265	101.31
350.492	88.31
350.72	94.31
350.947	107.31
351.174	105.31
351.402	105.31
351.629	89.31
351.856	96.31
352.083	94.31
352.311	103.31
352.538	101.31
352.765	116.31
352.992	114.31
353.22	98.31
353.447	115.31
353.674	97.31
353.901	93.31
354.128	87.31
354.355	106.31
354.583	109.31
354.81	108.31
355.037	104.31
355.264	93.31
355.491	93.31
355.718	85.31
355.945	108.31
356.172	102.31
356.399	98.31
356.626	86.31
356.853	89.31
357.08	94.31
357.307	96.31
357.534	98.31
357.761	99.31
357.988	90.31
358.215	81.31
358.441	89.31
358.668	81.31
358.895	99.31
359.122	97.31
359.349	86.31
359.576	84.31
359.802	105.31
360.029	121.31
360.256	111.31
360.483	105.31
360.709	96.31
360.936	104.31
361.163	93.31
361.39	96.31
361.616	75.31
361.843	95.31
362.07	101.31
362.296	100.31
362.523	88.31
362.749	98.31
362.976	87.31
363.203	91.31
363.429	86.31
363.656	82.31
363.882	101.31
364.109	102.31
364.335	117.31
364.562	104.31
364.788	94.31
365.015	85.31
365.241	103.31
365.468	108.31
365.694	107.31
365.92	93.31
366.147	97.31
366.373	95.31
366.599	85.31
366.826	103.31
367.052	94.31
367.278	82.31
367.505	85.31
367.731	98.31
367.957	74.31
368.184	92.31
368.41	98.31
368.636	88.31
368.862	109.31
369.089	102.31
369.315	82.31
369.541	92.31
369.767	85.31
369.993	97.31
370.219	88.31
370.445	102.31
370.672	84.31
370.898	70.31
371.124	96.31
371.35	103.31
371.576	94.31
371.802	76.31
372.028	93.31
372.254	91.31
372.48	82.31
372.706	91.31
372.932	90.31
373.158	94.31
373.384	76.31
373.61	90.31
373.835	92.31
374.061	78.31
374.287	93.31
374.513	105.31
374.739	97.31
374.965	80.31
375.191	98.31
375.416	94.31
375.642	80.31
375.868	84.31
376.094	81.31
376.319	93.31
376.545	89.31
376.771	93.31
376.997	75.31
377.222	94.31
377.448	103.31
377.674	92.31
377.899	88.31
378.125	83.31
378.35	91.31
378.576	94.31
378.802	81.31
379.027	99.31
379.253	99.31
379.478	97.31
379.704	90.31
379.929	91.31
380.155	92.31
380.38	93.31
380.606	98.31
380.831	82.31
381.057	96.31
381.282	98.31
381.507	92.31
381.733	84.31
381.958	97.31
382.184	115.31
382.409	90.31
382.634	103.31
382.86	104.31
383.085	90.31
383.31	87.31
383.535	94.31
383.761	101.31
383.986	79.31
384.211	102.31
384.436	107.31
384.662	97.31
384.887	88.31
385.112	93.31
385.337	95.31
385.562	105.31
385.787	89.31
386.013	104.31
386.238	114.31
386.463	98.31
386.688	109.31
386.913	104.31
387.138	113.31
387.363	103.31
387.588	98.31
387.813	100.31
388.038	102.31
388.263	95.31
388.488	113.31
388.713	90.31
388.938	94.31
389.163	105.31
389.387	97.31
389.612	100.31
389.837	93.31
390.062	86.31
390.287	80.31
390.512	91.31
390.736	70.31
390.961	102.31
391.186	94.31
391.411	94.31
391.636	105.31
391.86	92.31
392.085	80.31
392.31	81.31
392.534	94.31
392.759	96.31
392.984	88.31
393.208	85.31
393.433	91.31
393.658	90.31
393.882	80.31
394.107	89.31
394.331	83.31
394.556	100.31
394.78	106.31
395.005	106.31
395.229	74.31
395.454	89.31
395.678	81.31
395.903	84.31
396.127	98.31
396.352	91.31
396.576	94.31
396.801	102.31
397.025	93.31
397.249	83.31
397.474	90.31
397.698	81.31
397.922	100.31
398.147	96.31
398.371	101.31
398.595	102.31
398.82	94.31
399.044	80.31
399.268	98.31
399.492	89.31
399.717	88.31
399.941	89.31
400.165	99.31
400.389	82.31
400.613	95.31
400.837	92.31
401.062	92.31
401.286	85.31
401.51	87.31
401.734	93.31
401.958	104.31
402.182	129.31
402.406	156.31
402.63	118.31
402.854	80.31
403.078	97.31
403.302	91.31
403.526	75.31
403.75	92.31
403.974	81.31
404.198	82.31
404.422	86.31
404.645	85.31
404.869	94.31
405.093	106.31
405.317	116.31
405.541	124.31
405.765	94.31
405.988	114.31
406.212	164.31
406.436	202.31
406.66	137.31
406.883	103.31
407.107	74.31
407.331	103.31
407.555	119.31
407.778	101.31
408.002	93.31
408.226	88.31
408.449	95.31
408.673	83.31
408.896	98.31
409.12	82.31
409.344	92.31
409.567	93.31
409.791	94.31
410.014	69.31
410.238	104.31
410.461	98.31
410.685	100.31
410.908	102.31
411.132	115.31
411.355	99.31
411.578	92.31
411.802	84.31
412.025	84.31
412.249	90.31
412.472	104.31
412.695	127.31
412.919	106.31
413.142	104.31
413.365	83.31
413.589	86.31
413.812	79.31
414.035	79.31
414.258	89.31
414.482	93.31
414.705	85.31
414.928	92.31
415.151	90.31
415.374	89.31
415.597	94.31
415.821	84.31
416.044	75.31
416.267	95.31
416.49	92.31
416.713	96.31
416.936	79.31
417.159	99.31
417.382	88.31
417.605	94.31
417.828	99.31
418.051	91.31
418.274	88.31
418.497	90.31
418.72	92.31
418.943	85.31
419.166	94.31
419.389	82.31
419.611	86.31
419.834	77.31
420.057	85.31
420.28	94.31
420.503	76.31
420.726	66.31
420.948	96.31
421.171	96.31
421.394	90.31
421.617	80.31
421.839	90.31
422.062	84.31
422.285	91.31
422.507	92.31
422.73	92.31
422.953	86.31
423.175	77.31
423.398	92.31
423.621	77.31
423.843	89.31
424.066	87.31
424.288	84.31
424.511	88.31
424.733	94.31
424.956	101.31
425.178	100.31
425.401	101.31
425.623	94.31
425.846	96.31
426.068	86.31
426.291	94.31
426.513	86.31
426.735	98.31
426.958	94.31
427.18	107.31
427.402	155.31
427.625	188.31
427.847	184.31
428.069	182.31
428.292	107.31
428.514	94.31
428.736	105.31
428.958	83.31
429.181	85.31
429.403	84.31
429.625	76.31
429.847	94.31
430.069	101.31
430.292	90.31
430.514	85.31
430.736	75.31
430.958	91.31
431.18	84.31
431.402	95.31
431.624	95.31
431.846	85.31
432.068	82.31
432.29	95.31
432.512	85.31
432.734	88.31
432.956	87.31
433.178	91.31
433.4	96.31
433.622	62.31
433.844	101.31
434.066	95.31
434.287	86.31
434.509	99.31
434.731	76.31
434.953	90.31
435.175	85.31
435.397	92.31
435.618	78.31
435.84	104.31
436.062	119.31
436.284	120.31
436.505	103.31
436.727	105.31
436.949	93.31
437.17	94.31
437.392	91.31
437.614	106.31
437.835	104.31
438.057	114.31
438.278	108.31
438.5	99.31
438.721	130.31
438.943	106.31
439.165	91.31
439.386	96.31
439.608	105.31
439.829	102.31
440.05	113.31
440.272	158.31
440.493	120.31
440.715	101.31
440.936	76.31
441.158	76.31
441.379	90.31
441.6	98.31
441.822	87.31
442.043	106.31
442.264	88.31
442.486	104.31
442.707	89.31
442.928	110.31
443.149	143.31
443.371	135.31
443.592	109.31
443.813	115.31
444.034	101.31
444.255	95.31
444.476	79.31
444.698	98.31
444.919	73.31
445.14	124.31
445.361	117.31
445.582	131.31
445.803	146.31
446.024	130.31
446.245	148.31
446.466	105.31
446.687	87.31
446.908	91.31
447.129	92.31
447.35	89.31
447.571	93.31
447.792	93.31
448.013	109.31
448.234	112.31
448.455	98.31
448.675	109.31
448.896	118.31
449.117	84.31
449.338	113.31
449.559	129.31
449.779	136.31
450	93.31
450.221	96.31
450.442	92.31
450.662	107.31
450.883	116.31
451.104	115.31
451.324	102.31
451.545	85.31
451.766	86.31
451.986	81.31
452.207	94.31
452.428	89.31
452.648	100.31
452.869	103.31
453.089	124.31
453.31	92.31
453.53	107.31
453.751	97.31
453.971	100.31
454.192	99.31
454.412	95.31
454.633	82.31
454.853	98.31
455.073	96.31
455.294	96.31
455.514	100.31
455.734	88.31
455.955	81.31
456.175	82.31
456.395	76.31
456.616	81.31
456.836	75.31
457.056	74.31
457.276	74.31
457.497	87.31
457.717	72.31
457.937	86.31
458.157	81.31
458.377	79.31
458.598	103.31
458.818	142.31
459.038	169.31
459.258	121.31
459.478	91.31
459.698	84.31
459.918	91.31
460.138	89.31
460.358	87.31
460.578	86.31
460.798	93.31
461.018	83.31
461.238	84.31
461.458	76.31
461.678	86.31
461.898	85.31
462.118	76.31
462.338	87.31
462.558	85.31
462.777	92.31
462.997	87.31
463.217	98.31
463.437	91.31
463.657	88.31
463.876	89.31
464.096	99.31
464.316	84.31
464.536	78.31
464.755	90.31
464.975	97.31
465.195	157.31
465.414	176.31
465.634	94.31
465.854	89.31
466.073	99.31
466.293	98.31
466.512	98.31
466.732	89.31
466.951	96.31
467.171	93.31
467.391	94.31
467.61	129.31
467.829	165.31
468.049	382.31
468.268	512.31
468.488	168.31
468.707	89.31
468.927	85.31
469.146	87.31
469.365	99.31
469.585	89.31
469.804	90.31
470.023	97.31
470.243	90.31
470.462	103.31
470.681	104.31
470.901	92.31
471.12	104.31
471.339	96.31
471.558	102.31
471.777	118.31
471.997	224.31
472.216	740.31
472.435	1460.31
472.654	366.31
472.873	114.31
473.092	96.31
473.311	88.31
473.53	87.31
473.749	100.31
473.968	91.31
474.187	97.31
474.406	87.31
474.625	103.31
474.844	82.31
475.063	94.31
475.282	96.31
475.501	92.31
475.72	88.31
475.939	93.31
476.158	95.31
476.377	96.31
476.596	87.31
476.814	83.31
477.033	101.31
477.252	93.31
477.471	86.31
477.69	82.31
477.908	84.31
478.127	85.31
478.346	94.31
478.564	87.31
478.783	101.31
479.002	112.31
479.22	100.31
479.439	100.31
479.658	98.31
479.876	113.31
480.095	101.31
480.313	120.31
480.532	134.31
480.751	204.31
480.969	705.31
481.188	2637.31
481.406	1472.31
481.624	256.31
481.843	108.31
482.061	93.31
482.28	81.31
482.498	89.31
482.717	87.31
482.935	88.31
483.153	86.31
483.372	90.31
483.59	93.31
483.808	92.31
484.027	86.31
484.245	98.31
484.463	101.31
484.681	99.31
484.9	92.31
485.118	103.31
485.336	95.31
485.554	103.31
485.772	111.31
485.99	106.31
486.209	88.31
486.427	98.31
486.645	114.31
486.863	118.31
487.081	99.31
487.299	95.31
487.517	107.31
487.735	101.31
487.953	96.31
488.171	88.31
488.389	91.31
488.607	89.31
488.825	93.31
489.043	83.31
489.261	99.31
489.479	89.31
489.696	88.31
489.914	81.31
490.132	81.31
490.35	85.31
490.568	89.31
490.786	85.31
491.003	95.31
491.221	89.31
491.439	100.31
491.657	91.31
491.874	93.31
492.092	98.31
492.31	92.31
492.527	101.31
492.745	90.31
492.963	89.31
493.18	98.31
493.398	88.31
493.615	91.31
493.833	102.31
494.05	85.31
494.268	80.31
494.485	93.31
494.703	81.31
494.92	84.31
495.138	95.31
495.355	93.31
495.573	97.31
495.79	92.31
496.008	93.31
496.225	98.31
496.442	95.31
496.66	81.31
496.877	98.31
497.094	83.31
497.312	77.31
497.529	102.31
497.746	105.31
497.963	91.31
498.181	88.31
498.398	96.31
498.615	108.31
498.832	97.31
499.049	94.31
499.267	79.31
499.484	81.31
499.701	90.31
499.918	83.31
500.135	91.31
500.352	87.31
500.569	93.31
500.786	91.31
501.003	95.31
501.22	90.31
501.437	93.31
501.654	93.31
501.871	106.31
502.088	92.31
502.305	102.31
502.522	93.31
502.739	101.31
502.956	94.31
503.172	86.31
503.389	102.31
503.606	103.31
503.823	87.31
504.04	83.31
504.256	93.31
504.473	83.31
504.69	101.31
504.907	113.31
505.123	88.31
505.34	97.31
505.557	101.31
505.773	86.31
505.99	91.31
506.207	92.31
506.423	88.31
506.64	77.31
506.856	82.31
507.073	77.31
507.289	103.31
507.506	100.31
507.722	100.31
507.939	98.31
508.155	82.31
508.372	107.31
508.588	106.31
508.805	103.31
509.021	102.31
509.238	89.31
509.454	99.31
509.67	102.31
509.887	110.31
510.103	134.31
510.319	213.31
510.536	683.31
510.752	2081.31
510.968	621.31
511.184	144.31
511.401	119.31
511.617	101.31
511.833	100.31
512.049	102.31
512.265	99.31
512.481	102.31
512.698	92.31
512.914	98.31
513.13	94.31
513.346	114.31
513.562	91.31
513.778	99.31
513.994	96.31
514.21	104.31
514.426	126.31
514.642	141.31
