Data from Circ_2001_H10_HRD10591_00066.txt Node
Date: Wed Jan 03 10:45:52 EST 2024
User: Yrep
Spectrometer: HR+D1059
Trigger mode: 1
Integration Time (sec): 1.000000E-1
Scans to average: 1
Electric dark correction enabled: true
Nonlinearity correction enabled: false
Boxcar width: 0
XAxis mode: Wavelengths
Number of Pixels in Spectrum: 2048
>>>>>Begin Spectral Data<<<<<
223.165	-20.88
223.4	-20.88
223.635	-20.88
223.869	-17.88
224.104	-3.88
224.338	-8.88
224.573	-11.88
224.808	-17.88
225.042	-10.88
225.277	-3.88
225.511	-5.88
225.746	2.12
225.98	8.12
226.215	-5.88
226.449	20.12
226.683	25.12
226.918	19.12
227.152	33.12
227.387	28.12
227.621	33.12
227.856	42.12
228.09	40.12
228.324	38.12
228.559	47.12
228.793	55.12
229.027	58.12
229.262	72.12
229.496	81.12
229.73	81.12
229.964	75.12
230.199	74.12
230.433	72.12
230.667	81.12
230.901	75.12
231.136	73.12
231.37	75.12
231.604	78.12
231.838	69.12
232.072	76.12
232.306	77.12
232.541	83.12
232.775	92.12
233.009	75.12
233.243	69.12
233.477	93.12
233.711	78.12
233.945	69.12
234.179	68.12
234.413	81.12
234.647	91.12
234.881	80.12
235.115	77.12
235.349	72.12
235.583	80.12
235.817	74.12
236.051	70.12
236.285	78.12
236.519	72.12
236.753	77.12
236.987	74.12
237.221	88.12
237.455	88.12
237.689	70.12
237.922	77.12
238.156	73.12
238.39	65.12
238.624	61.12
238.858	79.12
239.091	87.12
239.325	89.12
239.559	66.12
239.793	84.12
240.027	82.12
240.26	88.12
240.494	83.12
240.728	64.12
240.961	58.12
241.195	72.12
241.429	80.12
241.662	81.12
241.896	89.12
242.13	86.12
242.363	76.12
242.597	69.12
242.83	74.12
243.064	86.12
243.298	76.12
243.531	79.12
243.765	77.12
243.998	67.12
244.232	75.12
244.465	88.12
244.699	79.12
244.932	80.12
245.166	78.12
245.399	67.12
245.633	86.12
245.866	71.12
246.099	73.12
246.333	83.12
246.566	71.12
246.8	73.12
247.033	67.12
247.266	85.12
247.5	77.12
247.733	85.12
247.966	79.12
248.2	83.12
248.433	82.12
248.666	93.12
248.899	77.12
249.133	84.12
249.366	98.12
249.599	93.12
249.832	81.12
250.066	87.12
250.299	75.12
250.532	95.12
250.765	86.12
250.998	73.12
251.231	89.12
251.465	81.12
251.698	84.12
251.931	89.12
252.164	93.12
252.397	83.12
252.63	74.12
252.863	86.12
253.096	66.12
253.329	72.12
253.562	80.12
253.795	80.12
254.028	82.12
254.261	80.12
254.494	75.12
254.727	88.12
254.96	70.12
255.193	85.12
255.426	77.12
255.659	82.12
255.892	90.12
256.124	78.12
256.357	82.12
256.59	80.12
256.823	75.12
257.056	84.12
257.289	85.12
257.521	75.12
257.754	86.12
257.987	88.12
258.22	100.12
258.452	89.12
258.685	77.12
258.918	77.12
259.151	83.12
259.383	88.12
259.616	95.12
259.849	76.12
260.081	75.12
260.314	91.12
260.547	78.12
260.779	94.12
261.012	90.12
261.244	104.12
261.477	96.12
261.71	95.12
261.942	116.12
262.175	121.12
262.407	90.12
262.64	77.12
262.872	91.12
263.105	91.12
263.337	100.12
263.57	82.12
263.802	82.12
264.035	83.12
264.267	71.12
264.499	99.12
264.732	86.12
264.964	74.12
265.197	78.12
265.429	83.12
265.661	83.12
265.894	86.12
266.126	93.12
266.358	84.12
266.591	74.12
266.823	87.12
267.055	94.12
267.287	91.12
267.52	82.12
267.752	81.12
267.984	80.12
268.216	86.12
268.448	85.12
268.681	83.12
268.913	92.12
269.145	85.12
269.377	84.12
269.609	76.12
269.841	98.12
270.073	93.12
270.306	73.12
270.538	73.12
270.77	82.12
271.002	88.12
271.234	75.12
271.466	91.12
271.698	86.12
271.93	94.12
272.162	71.12
272.394	85.12
272.626	100.12
272.858	78.12
273.09	78.12
273.322	73.12
273.553	80.12
273.785	74.12
274.017	81.12
274.249	83.12
274.481	82.12
274.713	81.12
274.945	86.12
275.176	91.12
275.408	90.12
275.64	96.12
275.872	103.12
276.104	111.12
276.335	84.12
276.567	99.12
276.799	121.12
277.031	135.12
277.262	149.12
277.494	139.12
277.726	96.12
277.957	79.12
278.189	86.12
278.421	82.12
278.652	91.12
278.884	86.12
279.115	96.12
279.347	95.12
279.579	96.12
279.81	110.12
280.042	153.12
280.273	209.12
280.505	155.12
280.736	84.12
280.968	81.12
281.199	79.12
281.431	90.12
281.662	93.12
281.894	96.12
282.125	100.12
282.356	116.12
282.588	147.12
282.819	116.12
283.051	97.12
283.282	90.12
283.513	77.12
283.745	81.12
283.976	73.12
284.207	83.12
284.439	75.12
284.67	82.12
284.901	86.12
285.132	87.12
285.364	85.12
285.595	92.12
285.826	95.12
286.057	94.12
286.288	79.12
286.52	85.12
286.751	82.12
286.982	85.12
287.213	77.12
287.444	87.12
287.675	97.12
287.906	91.12
288.138	91.12
288.369	93.12
288.6	90.12
288.831	96.12
289.062	86.12
289.293	91.12
289.524	102.12
289.755	101.12
289.986	77.12
290.217	81.12
290.448	87.12
290.679	69.12
290.91	70.12
291.141	78.12
291.371	86.12
291.602	84.12
291.833	86.12
292.064	96.12
292.295	88.12
292.526	84.12
292.757	89.12
292.987	81.12
293.218	84.12
293.449	77.12
293.68	87.12
293.91	91.12
294.141	91.12
294.372	105.12
294.603	93.12
294.833	72.12
295.064	82.12
295.295	93.12
295.525	78.12
295.756	97.12
295.987	110.12
296.217	148.12
296.448	117.12
296.679	98.12
296.909	90.12
297.14	90.12
297.37	97.12
297.601	94.12
297.831	85.12
298.062	99.12
298.292	79.12
298.523	91.12
298.753	88.12
298.984	83.12
299.214	90.12
299.445	97.12
299.675	88.12
299.905	108.12
300.136	85.12
300.366	93.12
300.597	96.12
300.827	102.12
301.057	90.12
301.288	99.12
301.518	91.12
301.748	82.12
301.979	112.12
302.209	95.12
302.439	93.12
302.669	96.12
302.9	100.12
303.13	100.12
303.36	103.12
303.59	129.12
303.82	116.12
304.051	107.12
304.281	85.12
304.511	83.12
304.741	80.12
304.971	84.12
305.201	87.12
305.431	83.12
305.661	101.12
305.891	95.12
306.121	102.12
306.352	113.12
306.582	97.12
306.812	98.12
307.042	105.12
307.272	141.12
307.502	145.12
307.731	138.12
307.961	116.12
308.191	86.12
308.421	96.12
308.651	86.12
308.881	81.12
309.111	94.12
309.341	85.12
309.571	85.12
309.8	96.12
310.03	110.12
310.26	94.12
310.49	95.12
310.72	109.12
310.949	97.12
311.179	113.12
311.409	98.12
311.639	99.12
311.868	101.12
312.098	112.12
312.328	99.12
312.557	114.12
312.787	112.12
313.017	101.12
313.246	96.12
313.476	102.12
313.706	95.12
313.935	99.12
314.165	96.12
314.394	97.12
314.624	90.12
314.853	97.12
315.083	90.12
315.312	96.12
315.542	86.12
315.771	89.12
316.001	79.12
316.23	96.12
316.46	87.12
316.689	85.12
316.919	97.12
317.148	93.12
317.377	104.12
317.607	98.12
317.836	94.12
318.065	85.12
318.295	86.12
318.524	85.12
318.753	84.12
318.983	89.12
319.212	87.12
319.441	98.12
319.67	105.12
319.9	106.12
320.129	87.12
320.358	109.12
320.587	97.12
320.816	93.12
321.046	97.12
321.275	102.12
321.504	88.12
321.733	87.12
321.962	111.12
322.191	101.12
322.42	116.12
322.649	115.12
322.878	114.12
323.108	130.12
323.337	118.12
323.566	142.12
323.795	174.12
324.024	241.12
324.253	465.12
324.482	1040.12
324.71	2165.12
324.939	2804.12
325.168	979.12
325.397	289.12
325.626	159.12
325.855	135.12
326.084	146.12
326.313	140.12
326.542	166.12
326.77	267.12
326.999	557.12
327.228	1175.12
327.457	2175.12
327.686	1697.12
327.914	531.12
328.143	445.12
328.372	483.12
328.6	291.12
328.829	170.12
329.058	155.12
329.287	161.12
329.515	167.12
329.744	220.12
329.972	389.12
330.201	760.12
330.43	1022.12
330.658	471.12
330.887	237.12
331.115	165.12
331.344	111.12
331.572	105.12
331.801	104.12
332.03	115.12
332.258	121.12
332.486	110.12
332.715	85.12
332.943	113.12
333.172	116.12
333.4	133.12
333.629	145.12
333.857	215.12
334.085	360.12
334.314	739.12
334.542	1368.12
334.771	1167.12
334.999	330.12
335.227	160.12
335.455	129.12
335.684	113.12
335.912	99.12
336.14	98.12
336.369	100.12
336.597	94.12
336.825	112.12
337.053	89.12
337.281	99.12
337.51	96.12
337.738	113.12
337.966	95.12
338.194	98.12
338.422	101.12
338.65	88.12
338.878	96.12
339.106	85.12
339.334	88.12
339.562	88.12
339.79	98.12
340.018	108.12
340.246	102.12
340.474	92.12
340.702	78.12
340.93	97.12
341.158	96.12
341.386	107.12
341.614	101.12
341.842	93.12
342.07	95.12
342.298	97.12
342.526	81.12
342.754	75.12
342.981	82.12
343.209	81.12
343.437	86.12
343.665	80.12
343.893	79.12
344.12	85.12
344.348	101.12
344.576	92.12
344.804	97.12
345.031	104.12
345.259	107.12
345.487	94.12
345.714	91.12
345.942	85.12
346.17	74.12
346.397	95.12
346.625	94.12
346.853	97.12
347.08	85.12
347.308	103.12
347.535	95.12
347.763	94.12
347.99	99.12
348.218	87.12
348.445	114.12
348.673	105.12
348.9	95.12
349.128	102.12
349.355	100.12
349.583	92.12
349.81	93.12
350.037	102.12
350.265	92.12
350.492	106.12
350.72	103.12
350.947	100.12
351.174	119.12
351.402	102.12
351.629	97.12
351.856	101.12
352.083	119.12
352.311	107.12
352.538	115.12
352.765	118.12
352.992	122.12
353.22	110.12
353.447	103.12
353.674	89.12
353.901	100.12
354.128	94.12
354.355	86.12
354.583	96.12
354.81	97.12
355.037	98.12
355.264	97.12
355.491	85.12
355.718	86.12
355.945	96.12
356.172	87.12
356.399	84.12
356.626	99.12
356.853	76.12
357.08	88.12
357.307	99.12
357.534	95.12
357.761	91.12
357.988	100.12
358.215	91.12
358.441	79.12
358.668	77.12
358.895	93.12
359.122	88.12
359.349	92.12
359.576	99.12
359.802	114.12
360.029	126.12
360.256	122.12
360.483	103.12
360.709	78.12
360.936	89.12
361.163	104.12
361.39	93.12
361.616	101.12
361.843	85.12
362.07	91.12
362.296	100.12
362.523	92.12
362.749	94.12
362.976	91.12
363.203	97.12
363.429	91.12
363.656	87.12
363.882	97.12
364.109	89.12
364.335	97.12
364.562	104.12
364.788	88.12
365.015	94.12
365.241	97.12
365.468	103.12
365.694	100.12
365.92	94.12
366.147	93.12
366.373	85.12
366.599	88.12
366.826	89.12
367.052	86.12
367.278	95.12
367.505	92.12
367.731	96.12
367.957	99.12
368.184	106.12
368.41	96.12
368.636	112.12
368.862	102.12
369.089	114.12
369.315	120.12
369.541	91.12
369.767	86.12
369.993	96.12
370.219	98.12
370.445	93.12
370.672	87.12
370.898	88.12
371.124	82.12
371.35	91.12
371.576	91.12
371.802	84.12
372.028	79.12
372.254	82.12
372.48	91.12
372.706	90.12
372.932	89.12
373.158	102.12
373.384	91.12
373.61	93.12
373.835	89.12
374.061	92.12
374.287	83.12
374.513	88.12
374.739	91.12
374.965	95.12
375.191	88.12
375.416	88.12
375.642	89.12
375.868	88.12
376.094	82.12
376.319	81.12
376.545	90.12
376.771	95.12
376.997	95.12
377.222	90.12
377.448	89.12
377.674	94.12
377.899	80.12
378.125	97.12
378.35	90.12
378.576	90.12
378.802	86.12
379.027	94.12
379.253	82.12
379.478	79.12
379.704	74.12
379.929	102.12
380.155	102.12
380.38	80.12
380.606	90.12
380.831	85.12
381.057	89.12
381.282	94.12
381.507	91.12
381.733	85.12
381.958	94.12
382.184	84.12
382.409	111.12
382.634	91.12
382.86	86.12
383.085	94.12
383.31	98.12
383.535	103.12
383.761	87.12
383.986	80.12
384.211	94.12
384.436	75.12
384.662	89.12
384.887	103.12
385.112	97.12
385.337	87.12
385.562	111.12
385.787	97.12
386.013	111.12
386.238	114.12
386.463	102.12
386.688	112.12
386.913	91.12
387.138	90.12
387.363	96.12
387.588	100.12
387.813	88.12
388.038	95.12
388.263	97.12
388.488	98.12
388.713	92.12
388.938	97.12
389.163	107.12
389.387	91.12
389.612	80.12
389.837	102.12
390.062	87.12
390.287	97.12
390.512	100.12
390.736	83.12
390.961	85.12
391.186	99.12
391.411	103.12
391.636	91.12
391.86	90.12
392.085	87.12
392.31	85.12
392.534	90.12
392.759	87.12
392.984	93.12
393.208	90.12
393.433	82.12
393.658	78.12
393.882	81.12
394.107	80.12
394.331	85.12
394.556	88.12
394.78	85.12
395.005	88.12
395.229	85.12
395.454	94.12
395.678	86.12
395.903	80.12
396.127	82.12
396.352	101.12
396.576	81.12
396.801	92.12
397.025	75.12
397.249	91.12
397.474	98.12
397.698	78.12
397.922	85.12
398.147	90.12
398.371	84.12
398.595	97.12
398.82	105.12
399.044	80.12
399.268	77.12
399.492	85.12
399.717	77.12
399.941	95.12
400.165	87.12
400.389	86.12
400.613	77.12
400.837	83.12
401.062	83.12
401.286	76.12
401.51	87.12
401.734	91.12
401.958	104.12
402.182	126.12
402.406	155.12
402.63	139.12
402.854	113.12
403.078	104.12
403.302	89.12
403.526	85.12
403.75	91.12
403.974	87.12
404.198	79.12
404.422	90.12
404.645	79.12
404.869	85.12
405.093	117.12
405.317	119.12
405.541	123.12
405.765	108.12
405.988	114.12
406.212	178.12
406.436	234.12
406.66	163.12
406.883	99.12
407.107	87.12
407.331	84.12
407.555	105.12
407.778	90.12
408.002	107.12
408.226	80.12
408.449	96.12
408.673	96.12
408.896	88.12
409.12	77.12
409.344	88.12
409.567	73.12
409.791	87.12
410.014	72.12
410.238	83.12
410.461	94.12
410.685	101.12
410.908	90.12
411.132	85.12
411.355	89.12
411.578	94.12
411.802	87.12
412.025	90.12
412.249	99.12
412.472	120.12
412.695	112.12
412.919	89.12
413.142	99.12
413.365	85.12
413.589	93.12
413.812	94.12
414.035	101.12
414.258	81.12
414.482	97.12
414.705	100.12
414.928	97.12
415.151	101.12
415.374	98.12
415.597	77.12
415.821	89.12
416.044	92.12
416.267	95.12
416.49	88.12
416.713	89.12
416.936	91.12
417.159	88.12
417.382	82.12
417.605	94.12
417.828	105.12
418.051	98.12
418.274	81.12
418.497	86.12
418.72	86.12
418.943	97.12
419.166	86.12
419.389	83.12
419.611	88.12
419.834	86.12
420.057	95.12
420.28	101.12
420.503	84.12
420.726	91.12
420.948	96.12
421.171	97.12
421.394	89.12
421.617	95.12
421.839	90.12
422.062	84.12
422.285	86.12
422.507	98.12
422.73	91.12
422.953	82.12
423.175	90.12
423.398	89.12
423.621	82.12
423.843	88.12
424.066	94.12
424.288	88.12
424.511	87.12
424.733	90.12
424.956	113.12
425.178	104.12
425.401	105.12
425.623	101.12
425.846	91.12
426.068	97.12
426.291	81.12
426.513	81.12
426.735	108.12
426.958	106.12
427.18	109.12
427.402	178.12
427.625	221.12
427.847	199.12
428.069	211.12
428.292	111.12
428.514	104.12
428.736	93.12
428.958	84.12
429.181	91.12
429.403	90.12
429.625	81.12
429.847	93.12
430.069	99.12
430.292	94.12
430.514	91.12
430.736	107.12
430.958	86.12
431.18	80.12
431.402	86.12
431.624	96.12
431.846	99.12
432.068	88.12
432.29	86.12
432.512	89.12
432.734	83.12
432.956	99.12
433.178	111.12
433.4	106.12
433.622	94.12
433.844	88.12
434.066	95.12
434.287	93.12
434.509	88.12
434.731	79.12
434.953	97.12
435.175	90.12
435.397	90.12
435.618	87.12
435.84	96.12
436.062	139.12
436.284	122.12
436.505	113.12
436.727	105.12
436.949	97.12
437.17	71.12
437.392	95.12
437.614	91.12
437.835	124.12
438.057	131.12
438.278	118.12
438.5	96.12
438.721	141.12
438.943	99.12
439.165	93.12
439.386	81.12
439.608	97.12
439.829	103.12
440.05	124.12
440.272	183.12
440.493	109.12
440.715	87.12
440.936	84.12
441.158	100.12
441.379	97.12
441.6	89.12
441.822	105.12
442.043	93.12
442.264	103.12
442.486	105.12
442.707	103.12
442.928	118.12
443.149	159.12
443.371	158.12
443.592	114.12
443.813	107.12
444.034	111.12
444.255	95.12
444.476	85.12
444.698	90.12
444.919	92.12
445.14	137.12
445.361	133.12
445.582	141.12
445.803	162.12
446.024	157.12
446.245	161.12
446.466	131.12
446.687	89.12
446.908	93.12
447.129	105.12
447.35	87.12
447.571	98.12
447.792	75.12
448.013	101.12
448.234	105.12
448.455	103.12
448.675	130.12
448.896	129.12
449.117	107.12
449.338	106.12
449.559	138.12
449.779	145.12
450	95.12
450.221	80.12
450.442	96.12
450.662	110.12
450.883	122.12
451.104	126.12
451.324	102.12
451.545	90.12
451.766	77.12
451.986	85.12
452.207	97.12
452.428	76.12
452.648	101.12
452.869	121.12
453.089	107.12
453.31	127.12
453.53	103.12
453.751	89.12
453.971	111.12
454.192	120.12
454.412	105.12
454.633	84.12
454.853	70.12
455.073	84.12
455.294	89.12
455.514	99.12
455.734	81.12
455.955	77.12
456.175	98.12
456.395	89.12
456.616	95.12
456.836	87.12
457.056	81.12
457.276	81.12
457.497	93.12
457.717	83.12
457.937	84.12
458.157	88.12
458.377	86.12
458.598	117.12
458.818	169.12
459.038	182.12
459.258	135.12
459.478	91.12
459.698	89.12
459.918	90.12
460.138	88.12
460.358	90.12
460.578	84.12
460.798	89.12
461.018	105.12
461.238	85.12
461.458	66.12
461.678	64.12
461.898	90.12
462.118	89.12
462.338	92.12
462.558	94.12
462.777	88.12
462.997	81.12
463.217	108.12
463.437	98.12
463.657	76.12
463.876	88.12
464.096	94.12
464.316	95.12
464.536	97.12
464.755	90.12
464.975	111.12
465.195	190.12
465.414	175.12
465.634	88.12
465.854	78.12
466.073	96.12
466.293	84.12
466.512	87.12
466.732	102.12
466.951	86.12
467.171	96.12
467.391	102.12
467.61	133.12
467.829	184.12
468.049	444.12
468.268	605.12
468.488	178.12
468.707	110.12
468.927	76.12
469.146	75.12
469.365	80.12
469.585	100.12
469.804	118.12
470.023	106.12
470.243	86.12
470.462	112.12
470.681	120.12
470.901	81.12
471.12	104.12
471.339	96.12
471.558	107.12
471.777	138.12
471.997	263.12
472.216	838.12
472.435	1798.12
472.654	432.12
472.873	131.12
473.092	98.12
473.311	100.12
473.53	86.12
473.749	87.12
473.968	97.12
474.187	115.12
474.406	102.12
474.625	97.12
474.844	80.12
475.063	87.12
475.282	91.12
475.501	92.12
475.72	97.12
475.939	90.12
476.158	93.12
476.377	102.12
476.596	91.12
476.814	93.12
477.033	77.12
477.252	89.12
477.471	100.12
477.69	87.12
477.908	94.12
478.127	89.12
478.346	94.12
478.564	97.12
478.783	99.12
479.002	98.12
479.22	104.12
479.439	111.12
479.658	116.12
479.876	110.12
480.095	110.12
480.313	115.12
480.532	149.12
480.751	231.12
480.969	783.12
481.188	3180.12
481.406	1767.12
481.624	282.12
481.843	127.12
482.061	103.12
482.28	95.12
482.498	86.12
482.717	90.12
482.935	82.12
483.153	105.12
483.372	79.12
483.59	91.12
483.808	80.12
484.027	91.12
484.245	95.12
484.463	99.12
484.681	82.12
484.9	87.12
485.118	85.12
485.336	98.12
485.554	91.12
485.772	97.12
485.99	99.12
486.209	105.12
486.427	103.12
486.645	102.12
486.863	104.12
487.081	90.12
487.299	98.12
487.517	90.12
487.735	83.12
487.953	96.12
488.171	90.12
488.389	101.12
488.607	106.12
488.825	100.12
489.043	78.12
489.261	97.12
489.479	80.12
489.696	76.12
489.914	90.12
490.132	85.12
490.35	104.12
490.568	89.12
490.786	84.12
491.003	79.12
491.221	88.12
491.439	95.12
491.657	95.12
491.874	89.12
492.092	77.12
492.31	99.12
492.527	98.12
492.745	89.12
492.963	79.12
493.18	96.12
493.398	74.12
493.615	90.12
493.833	90.12
494.05	91.12
494.268	96.12
494.485	80.12
494.703	97.12
494.92	86.12
495.138	86.12
495.355	90.12
495.573	101.12
495.79	95.12
496.008	88.12
496.225	86.12
496.442	98.12
496.66	88.12
496.877	85.12
497.094	89.12
497.312	81.12
497.529	86.12
497.746	82.12
497.963	94.12
498.181	90.12
498.398	99.12
498.615	104.12
498.832	113.12
499.049	89.12
499.267	83.12
499.484	77.12
499.701	80.12
499.918	94.12
500.135	82.12
500.352	82.12
500.569	83.12
500.786	91.12
501.003	89.12
501.22	91.12
501.437	93.12
501.654	104.12
501.871	114.12
502.088	108.12
502.305	84.12
502.522	94.12
502.739	95.12
502.956	91.12
503.172	99.12
503.389	91.12
503.606	101.12
503.823	101.12
504.04	93.12
504.256	93.12
504.473	93.12
504.69	93.12
504.907	94.12
505.123	68.12
505.34	83.12
505.557	85.12
505.773	92.12
505.99	96.12
506.207	103.12
506.423	107.12
506.64	94.12
506.856	82.12
507.073	83.12
507.289	89.12
507.506	101.12
507.722	99.12
507.939	117.12
508.155	88.12
508.372	86.12
508.588	90.12
508.805	97.12
509.021	93.12
509.238	96.12
509.454	101.12
509.67	108.12
509.887	99.12
510.103	127.12
510.319	216.12
510.536	725.12
510.752	2343.12
510.968	661.12
511.184	166.12
511.401	134.12
511.617	103.12
511.833	103.12
512.049	96.12
512.265	90.12
512.481	103.12
512.698	94.12
512.914	95.12
513.13	87.12
513.346	87.12
513.562	94.12
513.778	99.12
513.994	98.12
514.21	110.12
514.426	139.12
514.642	151.12
514.858	134.12
