Data from Circ_2001_H10_HRD10591_00100.txt Node
Date: Wed Jan 03 10:45:58 EST 2024
User: Yrep
Spectrometer: HR+D1059
Trigger mode: 1
Integration Time (sec): 1.000000E-1
Scans to average: 1
Electric dark correction enabled: true
Nonlinearity correction enabled: false
Boxcar width: 0
XAxis mode: Wavelengths
Number of Pixels in Spectrum: 2048
>>>>>Begin Spectral Data<<<<<
223.165	-32.12
223.4	-32.12
223.635	-32.12
223.869	-13.12
224.104	-19.12
224.338	-17.12
224.573	-4.12
224.808	-22.12
225.042	1.88
225.277	-1.12
225.511	12.88
225.746	0.88
225.98	4.88
226.215	6.88
226.449	25.88
226.683	15.88
226.918	13.88
227.152	25.88
227.387	40.88
227.621	41.88
227.856	51.88
228.09	40.88
228.324	49.88
228.559	54.88
228.793	64.88
229.027	70.88
229.262	75.88
229.496	75.88
229.73	95.88
229.964	89.88
230.199	70.88
230.433	62.88
230.667	88.88
230.901	73.88
231.136	70.88
231.37	83.88
231.604	84.88
231.838	69.88
232.072	65.88
232.306	71.88
232.541	79.88
232.775	84.88
233.009	85.88
233.243	83.88
233.477	74.88
233.711	73.88
233.945	87.88
234.179	78.88
234.413	93.88
234.647	75.88
234.881	84.88
235.115	79.88
235.349	72.88
235.583	77.88
235.817	77.88
236.051	75.88
236.285	74.88
236.519	77.88
236.753	77.88
236.987	63.88
237.221	97.88
237.455	85.88
237.689	73.88
237.922	72.88
238.156	74.88
238.39	72.88
238.624	81.88
238.858	85.88
239.091	83.88
239.325	76.88
239.559	74.88
239.793	81.88
240.027	83.88
240.26	83.88
240.494	90.88
240.728	75.88
240.961	79.88
241.195	74.88
241.429	78.88
241.662	80.88
241.896	75.88
242.13	78.88
242.363	66.88
242.597	76.88
242.83	80.88
243.064	89.88
243.298	71.88
243.531	59.88
243.765	72.88
243.998	84.88
244.232	89.88
244.465	89.88
244.699	91.88
244.932	75.88
245.166	89.88
245.399	78.88
245.633	83.88
245.866	71.88
246.099	82.88
246.333	73.88
246.566	70.88
246.8	84.88
247.033	81.88
247.266	70.88
247.5	72.88
247.733	66.88
247.966	71.88
248.2	88.88
248.433	91.88
248.666	73.88
248.899	87.88
249.133	96.88
249.366	93.88
249.599	104.88
249.832	89.88
250.066	75.88
250.299	82.88
250.532	91.88
250.765	82.88
250.998	79.88
251.231	71.88
251.465	89.88
251.698	84.88
251.931	78.88
252.164	89.88
252.397	91.88
252.63	70.88
252.863	86.88
253.096	77.88
253.329	82.88
253.562	91.88
253.795	79.88
254.028	89.88
254.261	86.88
254.494	95.88
254.727	82.88
254.96	85.88
255.193	93.88
255.426	84.88
255.659	94.88
255.892	85.88
256.124	91.88
256.357	76.88
256.59	92.88
256.823	92.88
257.056	79.88
257.289	87.88
257.521	82.88
257.754	87.88
257.987	84.88
258.22	73.88
258.452	92.88
258.685	84.88
258.918	71.88
259.151	77.88
259.383	80.88
259.616	67.88
259.849	81.88
260.081	92.88
260.314	76.88
260.547	83.88
260.779	81.88
261.012	86.88
261.244	109.88
261.477	98.88
261.71	110.88
261.942	108.88
262.175	126.88
262.407	90.88
262.64	92.88
262.872	94.88
263.105	104.88
263.337	86.88
263.57	92.88
263.802	88.88
264.035	69.88
264.267	77.88
264.499	86.88
264.732	81.88
264.964	95.88
265.197	83.88
265.429	72.88
265.661	81.88
265.894	88.88
266.126	82.88
266.358	88.88
266.591	89.88
266.823	63.88
267.055	80.88
267.287	78.88
267.52	77.88
267.752	81.88
267.984	78.88
268.216	80.88
268.448	97.88
268.681	91.88
268.913	83.88
269.145	90.88
269.377	90.88
269.609	65.88
269.841	70.88
270.073	80.88
270.306	83.88
270.538	90.88
270.77	74.88
271.002	75.88
271.234	82.88
271.466	85.88
271.698	82.88
271.93	94.88
272.162	87.88
272.394	86.88
272.626	70.88
272.858	91.88
273.09	75.88
273.322	87.88
273.553	76.88
273.785	81.88
274.017	74.88
274.249	89.88
274.481	87.88
274.713	84.88
274.945	99.88
275.176	104.88
275.408	102.88
275.64	100.88
275.872	106.88
276.104	123.88
276.335	91.88
276.567	107.88
276.799	118.88
277.031	132.88
277.262	182.88
277.494	135.88
277.726	111.88
277.957	86.88
278.189	100.88
278.421	101.88
278.652	81.88
278.884	96.88
279.115	90.88
279.347	86.88
279.579	83.88
279.81	89.88
280.042	171.88
280.273	217.88
280.505	142.88
280.736	118.88
280.968	94.88
281.199	95.88
281.431	82.88
281.662	93.88
281.894	91.88
282.125	104.88
282.356	135.88
282.588	165.88
282.819	133.88
283.051	97.88
283.282	81.88
283.513	83.88
283.745	64.88
283.976	87.88
284.207	85.88
284.439	93.88
284.67	92.88
284.901	92.88
285.132	78.88
285.364	82.88
285.595	90.88
285.826	77.88
286.057	71.88
286.288	87.88
286.52	92.88
286.751	85.88
286.982	84.88
287.213	91.88
287.444	82.88
287.675	88.88
287.906	92.88
288.138	67.88
288.369	109.88
288.6	102.88
288.831	96.88
289.062	92.88
289.293	88.88
289.524	85.88
289.755	92.88
289.986	94.88
290.217	84.88
290.448	82.88
290.679	83.88
290.91	84.88
291.141	86.88
291.371	80.88
291.602	80.88
291.833	83.88
292.064	89.88
292.295	89.88
292.526	88.88
292.757	86.88
292.987	91.88
293.218	82.88
293.449	86.88
293.68	74.88
293.91	88.88
294.141	88.88
294.372	86.88
294.603	91.88
294.833	70.88
295.064	86.88
295.295	86.88
295.525	88.88
295.756	101.88
295.987	119.88
296.217	160.88
296.448	138.88
296.679	105.88
296.909	108.88
297.14	83.88
297.37	90.88
297.601	99.88
297.831	82.88
298.062	89.88
298.292	92.88
298.523	90.88
298.753	92.88
298.984	90.88
299.214	99.88
299.445	102.88
299.675	98.88
299.905	103.88
300.136	98.88
300.366	94.88
300.597	96.88
300.827	92.88
301.057	89.88
301.288	113.88
301.518	85.88
301.748	91.88
301.979	99.88
302.209	95.88
302.439	78.88
302.669	83.88
302.9	85.88
303.13	95.88
303.36	91.88
303.59	118.88
303.82	143.88
304.051	106.88
304.281	87.88
304.511	107.88
304.741	88.88
304.971	86.88
305.201	102.88
305.431	85.88
305.661	85.88
305.891	101.88
306.121	99.88
306.352	96.88
306.582	121.88
306.812	96.88
307.042	123.88
307.272	133.88
307.502	156.88
307.731	152.88
307.961	129.88
308.191	97.88
308.421	96.88
308.651	81.88
308.881	111.88
309.111	90.88
309.341	101.88
309.571	115.88
309.8	107.88
310.03	109.88
310.26	101.88
310.49	88.88
310.72	100.88
310.949	106.88
311.179	104.88
311.409	93.88
311.639	104.88
311.868	100.88
312.098	92.88
312.328	106.88
312.557	114.88
312.787	126.88
313.017	119.88
313.246	91.88
313.476	102.88
313.706	92.88
313.935	111.88
314.165	100.88
314.394	115.88
314.624	103.88
314.853	98.88
315.083	93.88
315.312	91.88
315.542	91.88
315.771	94.88
316.001	91.88
316.23	85.88
316.46	98.88
316.689	86.88
316.919	105.88
317.148	82.88
317.377	101.88
317.607	94.88
317.836	107.88
318.065	97.88
318.295	96.88
318.524	110.88
318.753	103.88
318.983	114.88
319.212	99.88
319.441	114.88
319.67	118.88
319.9	103.88
320.129	83.88
320.358	90.88
320.587	111.88
320.816	98.88
321.046	119.88
321.275	98.88
321.504	101.88
321.733	87.88
321.962	87.88
322.191	108.88
322.42	99.88
322.649	127.88
322.878	127.88
323.108	147.88
323.337	134.88
323.566	157.88
323.795	169.88
324.024	237.88
324.253	438.88
324.482	964.88
324.71	1944.88
324.939	2576.88
325.168	958.88
325.397	274.88
325.626	163.88
325.855	146.88
326.084	131.88
326.313	113.88
326.542	152.88
326.77	247.88
326.999	505.88
327.228	1057.88
327.457	1910.88
327.686	1540.88
327.914	523.88
328.143	427.88
328.372	570.88
328.6	305.88
328.829	171.88
329.058	169.88
329.287	167.88
329.515	160.88
329.744	226.88
329.972	406.88
330.201	782.88
330.43	1137.88
330.658	528.88
330.887	260.88
331.115	177.88
331.344	128.88
331.572	114.88
331.801	111.88
332.03	119.88
332.258	106.88
332.486	106.88
332.715	112.88
332.943	108.88
333.172	143.88
333.4	118.88
333.629	153.88
333.857	202.88
334.085	370.88
334.314	740.88
334.542	1358.88
334.771	1294.88
334.999	360.88
335.227	158.88
335.455	119.88
335.684	87.88
335.912	103.88
336.14	105.88
336.369	119.88
336.597	109.88
336.825	105.88
337.053	94.88
337.281	96.88
337.51	96.88
337.738	90.88
337.966	98.88
338.194	103.88
338.422	97.88
338.65	96.88
338.878	96.88
339.106	96.88
339.334	93.88
339.562	95.88
339.79	104.88
340.018	100.88
340.246	108.88
340.474	95.88
340.702	97.88
340.93	85.88
341.158	101.88
341.386	83.88
341.614	87.88
341.842	97.88
342.07	93.88
342.298	103.88
342.526	97.88
342.754	94.88
342.981	88.88
343.209	89.88
343.437	101.88
343.665	89.88
343.893	91.88
344.12	88.88
344.348	94.88
344.576	79.88
344.804	91.88
345.031	90.88
345.259	99.88
345.487	98.88
345.714	113.88
345.942	96.88
346.17	96.88
346.397	87.88
346.625	95.88
346.853	84.88
347.08	98.88
347.308	97.88
347.535	103.88
347.763	97.88
347.99	100.88
348.218	97.88
348.445	115.88
348.673	105.88
348.9	109.88
349.128	88.88
349.355	87.88
349.583	83.88
349.81	89.88
350.037	92.88
350.265	112.88
350.492	95.88
350.72	99.88
350.947	90.88
351.174	111.88
351.402	120.88
351.629	103.88
351.856	100.88
352.083	110.88
352.311	98.88
352.538	103.88
352.765	112.88
352.992	108.88
353.22	111.88
353.447	107.88
353.674	114.88
353.901	78.88
354.128	93.88
354.355	85.88
354.583	99.88
354.81	97.88
355.037	91.88
355.264	101.88
355.491	88.88
355.718	100.88
355.945	96.88
356.172	99.88
356.399	89.88
356.626	92.88
356.853	98.88
357.08	89.88
357.307	84.88
357.534	93.88
357.761	94.88
357.988	88.88
358.215	113.88
358.441	91.88
358.668	103.88
358.895	92.88
359.122	83.88
359.349	68.88
359.576	92.88
359.802	103.88
360.029	123.88
360.256	114.88
360.483	107.88
360.709	85.88
360.936	84.88
361.163	86.88
361.39	92.88
361.616	104.88
361.843	105.88
362.07	97.88
362.296	108.88
362.523	97.88
362.749	99.88
362.976	91.88
363.203	102.88
363.429	86.88
363.656	83.88
363.882	95.88
364.109	77.88
364.335	91.88
364.562	96.88
364.788	84.88
365.015	99.88
365.241	98.88
365.468	103.88
365.694	119.88
365.92	107.88
366.147	98.88
366.373	106.88
366.599	94.88
366.826	90.88
367.052	83.88
367.278	95.88
367.505	102.88
367.731	100.88
367.957	99.88
368.184	99.88
368.41	107.88
368.636	131.88
368.862	120.88
369.089	96.88
369.315	100.88
369.541	76.88
369.767	95.88
369.993	96.88
370.219	89.88
370.445	83.88
370.672	80.88
370.898	92.88
371.124	81.88
371.35	80.88
371.576	97.88
371.802	91.88
372.028	87.88
372.254	84.88
372.48	95.88
372.706	106.88
372.932	85.88
373.158	75.88
373.384	102.88
373.61	78.88
373.835	84.88
374.061	90.88
374.287	89.88
374.513	88.88
374.739	78.88
374.965	91.88
375.191	79.88
375.416	77.88
375.642	99.88
375.868	91.88
376.094	67.88
376.319	90.88
376.545	94.88
376.771	96.88
376.997	99.88
377.222	91.88
377.448	74.88
377.674	102.88
377.899	91.88
378.125	82.88
378.35	78.88
378.576	77.88
378.802	90.88
379.027	80.88
379.253	90.88
379.478	95.88
379.704	96.88
379.929	94.88
380.155	92.88
380.38	90.88
380.606	82.88
380.831	87.88
381.057	102.88
381.282	90.88
381.507	91.88
381.733	104.88
381.958	88.88
382.184	113.88
382.409	103.88
382.634	90.88
382.86	104.88
383.085	84.88
383.31	90.88
383.535	105.88
383.761	95.88
383.986	95.88
384.211	99.88
384.436	87.88
384.662	96.88
384.887	95.88
385.112	104.88
385.337	105.88
385.562	104.88
385.787	99.88
386.013	107.88
386.238	121.88
386.463	92.88
386.688	104.88
386.913	99.88
387.138	91.88
387.363	98.88
387.588	101.88
387.813	94.88
388.038	82.88
388.263	101.88
388.488	104.88
388.713	94.88
388.938	74.88
389.163	99.88
389.387	106.88
389.612	95.88
389.837	91.88
390.062	79.88
390.287	89.88
390.512	88.88
390.736	81.88
390.961	87.88
391.186	108.88
391.411	84.88
391.636	74.88
391.86	78.88
392.085	80.88
392.31	89.88
392.534	76.88
392.759	91.88
392.984	95.88
393.208	96.88
393.433	105.88
393.658	101.88
393.882	78.88
394.107	82.88
394.331	81.88
394.556	80.88
394.78	92.88
395.005	76.88
395.229	77.88
395.454	80.88
395.678	98.88
395.903	91.88
396.127	91.88
396.352	86.88
396.576	91.88
396.801	73.88
397.025	82.88
397.249	89.88
397.474	88.88
397.698	75.88
397.922	81.88
398.147	88.88
398.371	86.88
398.595	95.88
398.82	76.88
399.044	89.88
399.268	87.88
399.492	77.88
399.717	91.88
399.941	86.88
400.165	94.88
400.389	81.88
400.613	76.88
400.837	95.88
401.062	73.88
401.286	102.88
401.51	97.88
401.734	94.88
401.958	111.88
402.182	140.88
402.406	181.88
402.63	134.88
402.854	85.88
403.078	83.88
403.302	80.88
403.526	89.88
403.75	100.88
403.974	106.88
404.198	100.88
404.422	93.88
404.645	92.88
404.869	102.88
405.093	107.88
405.317	127.88
405.541	124.88
405.765	112.88
405.988	126.88
406.212	198.88
406.436	289.88
406.66	203.88
406.883	115.88
407.107	92.88
407.331	92.88
407.555	113.88
407.778	113.88
408.002	106.88
408.226	94.88
408.449	98.88
408.673	87.88
408.896	102.88
409.12	102.88
409.344	88.88
409.567	88.88
409.791	97.88
410.014	83.88
410.238	79.88
410.461	86.88
410.685	97.88
410.908	98.88
411.132	103.88
411.355	98.88
411.578	92.88
411.802	89.88
412.025	77.88
412.249	75.88
412.472	118.88
412.695	130.88
412.919	104.88
413.142	103.88
413.365	86.88
413.589	96.88
413.812	78.88
414.035	87.88
414.258	77.88
414.482	96.88
414.705	111.88
414.928	90.88
415.151	99.88
415.374	100.88
415.597	91.88
415.821	89.88
416.044	92.88
416.267	89.88
416.49	80.88
416.713	89.88
416.936	97.88
417.159	87.88
417.382	97.88
417.605	98.88
417.828	106.88
418.051	100.88
418.274	93.88
418.497	99.88
418.72	89.88
418.943	88.88
419.166	100.88
419.389	98.88
419.611	102.88
419.834	98.88
420.057	91.88
420.28	99.88
420.503	90.88
420.726	73.88
420.948	85.88
421.171	85.88
421.394	97.88
421.617	89.88
421.839	76.88
422.062	87.88
422.285	96.88
422.507	92.88
422.73	96.88
422.953	87.88
423.175	86.88
423.398	83.88
423.621	98.88
423.843	81.88
424.066	83.88
424.288	89.88
424.511	98.88
424.733	107.88
424.956	102.88
425.178	100.88
425.401	96.88
425.623	97.88
425.846	83.88
426.068	101.88
426.291	92.88
426.513	97.88
426.735	88.88
426.958	103.88
427.18	119.88
427.402	172.88
427.625	220.88
427.847	216.88
428.069	205.88
428.292	128.88
428.514	91.88
428.736	92.88
428.958	100.88
429.181	76.88
429.403	92.88
429.625	84.88
429.847	91.88
430.069	98.88
430.292	96.88
430.514	73.88
430.736	89.88
430.958	88.88
431.18	87.88
431.402	82.88
431.624	91.88
431.846	76.88
432.068	100.88
432.29	87.88
432.512	92.88
432.734	87.88
432.956	82.88
433.178	106.88
433.4	96.88
433.622	93.88
433.844	91.88
434.066	98.88
434.287	102.88
434.509	79.88
434.731	94.88
434.953	81.88
435.175	86.88
435.397	97.88
435.618	100.88
435.84	106.88
436.062	126.88
436.284	128.88
436.505	112.88
436.727	104.88
436.949	92.88
437.17	91.88
437.392	94.88
437.614	97.88
437.835	97.88
438.057	146.88
438.278	127.88
438.5	105.88
438.721	134.88
438.943	108.88
439.165	85.88
439.386	85.88
439.608	81.88
439.829	104.88
440.05	139.88
440.272	159.88
440.493	112.88
440.715	92.88
440.936	88.88
441.158	94.88
441.379	98.88
441.6	84.88
441.822	103.88
442.043	108.88
442.264	108.88
442.486	114.88
442.707	99.88
442.928	105.88
443.149	158.88
443.371	154.88
443.592	128.88
443.813	109.88
444.034	111.88
444.255	94.88
444.476	82.88
444.698	96.88
444.919	84.88
445.14	136.88
445.361	132.88
445.582	127.88
445.803	160.88
446.024	149.88
446.245	143.88
446.466	115.88
446.687	90.88
446.908	88.88
447.129	87.88
447.35	89.88
447.571	94.88
447.792	94.88
448.013	116.88
448.234	111.88
448.455	100.88
448.675	118.88
448.896	133.88
449.117	94.88
449.338	116.88
449.559	126.88
449.779	128.88
450	108.88
450.221	90.88
450.442	87.88
450.662	99.88
450.883	97.88
451.104	124.88
451.324	101.88
451.545	90.88
451.766	96.88
451.986	84.88
452.207	93.88
452.428	90.88
452.648	90.88
452.869	98.88
453.089	131.88
453.31	130.88
453.53	84.88
453.751	105.88
453.971	115.88
454.192	125.88
454.412	106.88
454.633	94.88
454.853	82.88
455.073	102.88
455.294	84.88
455.514	108.88
455.734	107.88
455.955	85.88
456.175	80.88
456.395	79.88
456.616	88.88
456.836	95.88
457.056	79.88
457.276	85.88
457.497	82.88
457.717	83.88
457.937	72.88
458.157	87.88
458.377	103.88
458.598	130.88
458.818	192.88
459.038	204.88
459.258	153.88
459.478	108.88
459.698	86.88
459.918	85.88
460.138	88.88
460.358	83.88
460.578	92.88
460.798	103.88
461.018	110.88
461.238	91.88
461.458	91.88
461.678	70.88
461.898	78.88
462.118	98.88
462.338	95.88
462.558	74.88
462.777	78.88
462.997	99.88
463.217	106.88
463.437	98.88
463.657	90.88
463.876	93.88
464.096	89.88
464.316	101.88
464.536	89.88
464.755	96.88
464.975	113.88
465.195	208.88
465.414	208.88
465.634	96.88
465.854	105.88
466.073	83.88
466.293	84.88
466.512	89.88
466.732	91.88
466.951	92.88
467.171	88.88
467.391	115.88
467.61	118.88
467.829	176.88
468.049	474.88
468.268	668.88
468.488	190.88
468.707	108.88
468.927	82.88
469.146	86.88
469.365	90.88
469.585	93.88
469.804	102.88
470.023	112.88
470.243	99.88
470.462	100.88
470.681	135.88
470.901	102.88
471.12	108.88
471.339	111.88
471.558	107.88
471.777	144.88
471.997	259.88
472.216	918.88
472.435	2043.88
472.654	508.88
472.873	142.88
473.092	97.88
473.311	95.88
473.53	91.88
473.749	88.88
473.968	100.88
474.187	107.88
474.406	104.88
474.625	101.88
474.844	79.88
475.063	89.88
475.282	108.88
475.501	90.88
475.72	84.88
475.939	88.88
476.158	88.88
476.377	90.88
476.596	75.88
476.814	87.88
477.033	102.88
477.252	90.88
477.471	88.88
477.69	113.88
477.908	77.88
478.127	104.88
478.346	87.88
478.564	103.88
478.783	110.88
479.002	110.88
479.22	111.88
479.439	113.88
479.658	137.88
479.876	115.88
480.095	110.88
480.313	110.88
480.532	155.88
480.751	270.88
480.969	863.88
481.188	3467.88
481.406	2025.88
481.624	312.88
481.843	138.88
482.061	100.88
482.28	85.88
482.498	87.88
482.717	100.88
482.935	91.88
483.153	80.88
483.372	96.88
483.59	103.88
483.808	95.88
484.027	105.88
484.245	107.88
484.463	98.88
484.681	97.88
484.9	97.88
485.118	83.88
485.336	90.88
485.554	97.88
485.772	84.88
485.99	89.88
486.209	93.88
486.427	99.88
486.645	119.88
486.863	119.88
487.081	86.88
487.299	101.88
487.517	100.88
487.735	89.88
487.953	102.88
488.171	91.88
488.389	89.88
488.607	111.88
488.825	89.88
489.043	97.88
489.261	83.88
489.479	89.88
489.696	103.88
489.914	94.88
490.132	97.88
490.35	92.88
490.568	74.88
490.786	92.88
491.003	82.88
491.221	88.88
491.439	93.88
491.657	100.88
491.874	87.88
492.092	93.88
492.31	98.88
492.527	111.88
492.745	96.88
492.963	97.88
493.18	92.88
493.398	94.88
493.615	92.88
493.833	98.88
494.05	104.88
494.268	95.88
494.485	88.88
494.703	84.88
494.92	102.88
495.138	97.88
495.355	83.88
495.573	87.88
495.79	81.88
496.008	80.88
496.225	85.88
496.442	112.88
496.66	87.88
496.877	86.88
497.094	97.88
497.312	91.88
497.529	84.88
497.746	95.88
497.963	90.88
498.181	83.88
498.398	94.88
498.615	118.88
498.832	104.88
499.049	83.88
499.267	82.88
499.484	94.88
499.701	79.88
499.918	87.88
500.135	90.88
500.352	81.88
500.569	93.88
500.786	95.88
501.003	74.88
501.22	82.88
501.437	84.88
501.654	105.88
501.871	115.88
502.088	86.88
502.305	87.88
502.522	89.88
502.739	95.88
502.956	91.88
503.172	85.88
503.389	115.88
503.606	117.88
503.823	101.88
504.04	91.88
504.256	88.88
504.473	78.88
504.69	81.88
504.907	82.88
505.123	95.88
505.34	88.88
505.557	90.88
505.773	90.88
505.99	104.88
506.207	89.88
506.423	80.88
506.64	91.88
506.856	89.88
507.073	87.88
507.289	106.88
507.506	92.88
507.722	112.88
507.939	132.88
508.155	85.88
508.372	90.88
508.588	86.88
508.805	101.88
509.021	101.88
509.238	97.88
509.454	93.88
509.67	87.88
509.887	107.88
510.103	120.88
510.319	214.88
510.536	787.88
510.752	2655.88
510.968	745.88
511.184	165.88
511.401	123.88
511.617	110.88
511.833	102.88
512.049	102.88
512.265	91.88
512.481	93.88
512.698	82.88
512.914	97.88
513.13	109.88
513.346	94.88
513.562	90.88
513.778	107.88
513.994	110.88
