Data from Circ_2001_H10_HRD10591_00016.txt Node
Date: Wed Jan 03 10:45:42 EST 2024
User: Yrep
Spectrometer: HR+D1059
Trigger mode: 1
Integration Time (sec): 1.000000E-1
Scans to average: 1
Electric dark correction enabled: true
Nonlinearity correction enabled: false
Boxcar width: 0
XAxis mode: Wavelengths
Number of Pixels in Spectrum: 2048
>>>>>Begin Spectral Data<<<<<
223.165	-11.69
223.4	-11.69
223.635	-11.69
223.869	-10.69
224.104	-28.69
224.338	0.31
224.573	-10.69
224.808	-10.69
225.042	-13.69
225.277	-8.69
225.511	4.31
225.746	13.31
225.98	3.31
226.215	0.31
226.449	8.31
226.683	15.31
226.918	25.31
227.152	24.31
227.387	41.31
227.621	59.31
227.856	49.31
228.09	35.31
228.324	48.31
228.559	60.31
228.793	57.31
229.027	64.31
229.262	74.31
229.496	82.31
229.73	77.31
229.964	75.31
230.199	67.31
230.433	73.31
230.667	86.31
230.901	76.31
231.136	72.31
231.37	75.31
231.604	83.31
231.838	89.31
232.072	101.31
232.306	85.31
232.541	88.31
232.775	75.31
233.009	93.31
233.243	77.31
233.477	80.31
233.711	77.31
233.945	74.31
234.179	76.31
234.413	84.31
234.647	80.31
234.881	81.31
235.115	92.31
235.349	78.31
235.583	74.31
235.817	95.31
236.051	70.31
236.285	66.31
236.519	83.31
236.753	86.31
236.987	86.31
237.221	87.31
237.455	85.31
237.689	76.31
237.922	69.31
238.156	69.31
238.39	80.31
238.624	70.31
238.858	85.31
239.091	72.31
239.325	77.31
239.559	74.31
239.793	76.31
240.027	65.31
240.26	78.31
240.494	84.31
240.728	91.31
240.961	86.31
241.195	80.31
241.429	70.31
241.662	78.31
241.896	78.31
242.13	89.31
242.363	74.31
242.597	86.31
242.83	82.31
243.064	77.31
243.298	67.31
243.531	85.31
243.765	95.31
243.998	84.31
244.232	88.31
244.465	90.31
244.699	94.31
244.932	90.31
245.166	91.31
245.399	74.31
245.633	90.31
245.866	87.31
246.099	73.31
246.333	76.31
246.566	81.31
246.8	89.31
247.033	88.31
247.266	87.31
247.5	92.31
247.733	78.31
247.966	85.31
248.2	82.31
248.433	77.31
248.666	85.31
248.899	73.31
249.133	82.31
249.366	87.31
249.599	79.31
249.832	87.31
250.066	95.31
250.299	69.31
250.532	86.31
250.765	81.31
250.998	87.31
251.231	78.31
251.465	90.31
251.698	94.31
251.931	84.31
252.164	97.31
252.397	83.31
252.63	84.31
252.863	79.31
253.096	79.31
253.329	89.31
253.562	83.31
253.795	92.31
254.028	84.31
254.261	84.31
254.494	82.31
254.727	85.31
254.96	77.31
255.193	72.31
255.426	84.31
255.659	62.31
255.892	87.31
256.124	90.31
256.357	81.31
256.59	93.31
256.823	75.31
257.056	85.31
257.289	89.31
257.521	82.31
257.754	83.31
257.987	81.31
258.22	78.31
258.452	87.31
258.685	86.31
258.918	90.31
259.151	79.31
259.383	84.31
259.616	78.31
259.849	85.31
260.081	86.31
260.314	75.31
260.547	93.31
260.779	93.31
261.012	105.31
261.244	88.31
261.477	93.31
261.71	101.31
261.942	127.31
262.175	118.31
262.407	85.31
262.64	71.31
262.872	96.31
263.105	100.31
263.337	75.31
263.57	94.31
263.802	78.31
264.035	85.31
264.267	85.31
264.499	85.31
264.732	81.31
264.964	97.31
265.197	88.31
265.429	91.31
265.661	74.31
265.894	84.31
266.126	82.31
266.358	88.31
266.591	81.31
266.823	83.31
267.055	96.31
267.287	76.31
267.52	93.31
267.752	91.31
267.984	98.31
268.216	101.31
268.448	93.31
268.681	91.31
268.913	83.31
269.145	87.31
269.377	86.31
269.609	77.31
269.841	88.31
270.073	90.31
270.306	82.31
270.538	89.31
270.77	83.31
271.002	74.31
271.234	92.31
271.466	93.31
271.698	82.31
271.93	93.31
272.162	82.31
272.394	94.31
272.626	89.31
272.858	81.31
273.09	84.31
273.322	90.31
273.553	80.31
273.785	77.31
274.017	89.31
274.249	66.31
274.481	84.31
274.713	84.31
274.945	74.31
275.176	86.31
275.408	100.31
275.64	91.31
275.872	110.31
276.104	95.31
276.335	99.31
276.567	98.31
276.799	105.31
277.031	130.31
277.262	128.31
277.494	101.31
277.726	100.31
277.957	68.31
278.189	95.31
278.421	81.31
278.652	100.31
278.884	90.31
279.115	85.31
279.347	86.31
279.579	89.31
279.81	103.31
280.042	122.31
280.273	165.31
280.505	109.31
280.736	97.31
280.968	89.31
281.199	97.31
281.431	101.31
281.662	88.31
281.894	84.31
282.125	102.31
282.356	114.31
282.588	138.31
282.819	116.31
283.051	94.31
283.282	91.31
283.513	88.31
283.745	91.31
283.976	80.31
284.207	85.31
284.439	99.31
284.67	100.31
284.901	79.31
285.132	88.31
285.364	85.31
285.595	99.31
285.826	82.31
286.057	85.31
286.288	84.31
286.52	84.31
286.751	80.31
286.982	85.31
287.213	97.31
287.444	88.31
287.675	91.31
287.906	109.31
288.138	79.31
288.369	101.31
288.6	97.31
288.831	94.31
289.062	81.31
289.293	88.31
289.524	76.31
289.755	85.31
289.986	87.31
290.217	72.31
290.448	86.31
290.679	99.31
290.91	84.31
291.141	97.31
291.371	92.31
291.602	101.31
291.833	99.31
292.064	87.31
292.295	94.31
292.526	84.31
292.757	101.31
292.987	90.31
293.218	88.31
293.449	100.31
293.68	104.31
293.91	97.31
294.141	92.31
294.372	95.31
294.603	86.31
294.833	88.31
295.064	89.31
295.295	93.31
295.525	97.31
295.756	114.31
295.987	113.31
296.217	152.31
296.448	132.31
296.679	89.31
296.909	102.31
297.14	98.31
297.37	94.31
297.601	94.31
297.831	91.31
298.062	96.31
298.292	107.31
298.523	84.31
298.753	84.31
298.984	89.31
299.214	84.31
299.445	101.31
299.675	103.31
299.905	99.31
300.136	97.31
300.366	92.31
300.597	86.31
300.827	90.31
301.057	108.31
301.288	99.31
301.518	88.31
301.748	80.31
301.979	113.31
302.209	87.31
302.439	81.31
302.669	83.31
302.9	102.31
303.13	88.31
303.36	89.31
303.59	107.31
303.82	113.31
304.051	98.31
304.281	108.31
304.511	85.31
304.741	79.31
304.971	80.31
305.201	93.31
305.431	94.31
305.661	94.31
305.891	81.31
306.121	87.31
306.352	105.31
306.582	99.31
306.812	114.31
307.042	109.31
307.272	105.31
307.502	140.31
307.731	136.31
307.961	101.31
308.191	83.31
308.421	93.31
308.651	94.31
308.881	105.31
309.111	93.31
309.341	112.31
309.571	110.31
309.8	91.31
310.03	92.31
310.26	105.31
310.49	91.31
310.72	99.31
310.949	98.31
311.179	102.31
311.409	98.31
311.639	86.31
311.868	104.31
312.098	85.31
312.328	98.31
312.557	123.31
312.787	116.31
313.017	112.31
313.246	101.31
313.476	105.31
313.706	76.31
313.935	100.31
314.165	97.31
314.394	95.31
314.624	103.31
314.853	86.31
315.083	101.31
315.312	76.31
315.542	85.31
315.771	96.31
316.001	101.31
316.23	92.31
316.46	72.31
316.689	89.31
316.919	89.31
317.148	108.31
317.377	95.31
317.607	97.31
317.836	90.31
318.065	97.31
318.295	101.31
318.524	105.31
318.753	100.31
318.983	104.31
319.212	97.31
319.441	116.31
319.67	104.31
319.9	100.31
320.129	99.31
320.358	91.31
320.587	89.31
320.816	99.31
321.046	112.31
321.275	91.31
321.504	104.31
321.733	90.31
321.962	108.31
322.191	97.31
322.42	115.31
322.649	118.31
322.878	113.31
323.108	112.31
323.337	130.31
323.566	133.31
323.795	167.31
324.024	192.31
324.253	385.31
324.482	852.31
324.71	1721.31
324.939	2314.31
325.168	837.31
325.397	260.31
325.626	146.31
325.855	128.31
326.084	128.31
326.313	131.31
326.542	162.31
326.77	234.31
326.999	492.31
327.228	970.31
327.457	1769.31
327.686	1428.31
327.914	437.31
328.143	310.31
328.372	335.31
328.6	233.31
328.829	140.31
329.058	144.31
329.287	130.31
329.515	145.31
329.744	159.31
329.972	266.31
330.201	438.31
330.43	604.31
330.658	332.31
330.887	176.31
331.115	134.31
331.344	102.31
331.572	100.31
331.801	120.31
332.03	97.31
332.258	105.31
332.486	108.31
332.715	107.31
332.943	112.31
333.172	116.31
333.4	112.31
333.629	120.31
333.857	160.31
334.085	239.31
334.314	440.31
334.542	778.31
334.771	702.31
334.999	246.31
335.227	131.31
335.455	103.31
335.684	104.31
335.912	100.31
336.14	103.31
336.369	110.31
336.597	119.31
336.825	107.31
337.053	90.31
337.281	109.31
337.51	113.31
337.738	115.31
337.966	98.31
338.194	112.31
338.422	102.31
338.65	90.31
338.878	90.31
339.106	89.31
339.334	100.31
339.562	105.31
339.79	99.31
340.018	101.31
340.246	100.31
340.474	84.31
340.702	98.31
340.93	96.31
341.158	101.31
341.386	106.31
341.614	89.31
341.842	94.31
342.07	98.31
342.298	93.31
342.526	95.31
342.754	91.31
342.981	92.31
343.209	94.31
343.437	93.31
343.665	87.31
343.893	94.31
344.12	87.31
344.348	84.31
344.576	91.31
344.804	93.31
345.031	113.31
345.259	92.31
345.487	99.31
345.714	92.31
345.942	88.31
346.17	95.31
346.397	104.31
346.625	91.31
346.853	91.31
347.08	90.31
347.308	95.31
347.535	108.31
347.763	102.31
347.99	98.31
348.218	99.31
348.445	93.31
348.673	93.31
348.9	78.31
349.128	82.31
349.355	104.31
349.583	93.31
349.81	83.31
350.037	89.31
350.265	89.31
350.492	93.31
350.72	104.31
350.947	98.31
351.174	108.31
351.402	109.31
351.629	121.31
351.856	106.31
352.083	100.31
352.311	110.31
352.538	98.31
352.765	112.31
352.992	105.31
353.22	110.31
353.447	113.31
353.674	119.31
353.901	99.31
354.128	90.31
354.355	93.31
354.583	113.31
354.81	113.31
355.037	105.31
355.264	102.31
355.491	101.31
355.718	84.31
355.945	107.31
356.172	101.31
356.399	92.31
356.626	98.31
356.853	87.31
357.08	107.31
357.307	113.31
357.534	94.31
357.761	86.31
357.988	107.31
358.215	89.31
358.441	86.31
358.668	92.31
358.895	118.31
359.122	87.31
359.349	90.31
359.576	102.31
359.802	103.31
360.029	118.31
360.256	114.31
360.483	112.31
360.709	89.31
360.936	104.31
361.163	101.31
361.39	104.31
361.616	83.31
361.843	104.31
362.07	94.31
362.296	78.31
362.523	93.31
362.749	91.31
362.976	104.31
363.203	108.31
363.429	85.31
363.656	91.31
363.882	88.31
364.109	101.31
364.335	94.31
364.562	96.31
364.788	94.31
365.015	102.31
365.241	100.31
365.468	101.31
365.694	115.31
365.92	102.31
366.147	92.31
366.373	95.31
366.599	81.31
366.826	91.31
367.052	96.31
367.278	84.31
367.505	88.31
367.731	82.31
367.957	94.31
368.184	94.31
368.41	107.31
368.636	112.31
368.862	115.31
369.089	110.31
369.315	94.31
369.541	100.31
369.767	98.31
369.993	83.31
370.219	94.31
370.445	97.31
370.672	82.31
370.898	91.31
371.124	105.31
371.35	93.31
371.576	86.31
371.802	77.31
372.028	88.31
372.254	76.31
372.48	81.31
372.706	82.31
372.932	91.31
373.158	97.31
373.384	83.31
373.61	77.31
373.835	84.31
374.061	104.31
374.287	92.31
374.513	87.31
374.739	90.31
374.965	90.31
375.191	94.31
375.416	89.31
375.642	108.31
375.868	76.31
376.094	81.31
376.319	92.31
376.545	69.31
376.771	88.31
376.997	94.31
377.222	97.31
377.448	93.31
377.674	92.31
377.899	83.31
378.125	93.31
378.35	85.31
378.576	85.31
378.802	90.31
379.027	88.31
379.253	102.31
379.478	91.31
379.704	84.31
379.929	102.31
380.155	87.31
380.38	92.31
380.606	96.31
380.831	82.31
381.057	109.31
381.282	92.31
381.507	111.31
381.733	97.31
381.958	106.31
382.184	115.31
382.409	103.31
382.634	111.31
382.86	92.31
383.085	100.31
383.31	109.31
383.535	105.31
383.761	101.31
383.986	100.31
384.211	101.31
384.436	105.31
384.662	104.31
384.887	102.31
385.112	108.31
385.337	114.31
385.562	94.31
385.787	106.31
386.013	128.31
386.238	118.31
386.463	102.31
386.688	124.31
386.913	121.31
387.138	123.31
387.363	110.31
387.588	100.31
387.813	104.31
388.038	105.31
388.263	116.31
388.488	121.31
388.713	102.31
388.938	105.31
389.163	93.31
389.387	91.31
389.612	93.31
389.837	81.31
390.062	96.31
390.287	90.31
390.512	95.31
390.736	96.31
390.961	99.31
391.186	90.31
391.411	85.31
391.636	95.31
391.86	76.31
392.085	101.31
392.31	80.31
392.534	68.31
392.759	90.31
392.984	89.31
393.208	99.31
393.433	107.31
393.658	90.31
393.882	83.31
394.107	93.31
394.331	78.31
394.556	93.31
394.78	92.31
395.005	83.31
395.229	89.31
395.454	95.31
395.678	74.31
395.903	85.31
396.127	93.31
396.352	89.31
396.576	84.31
396.801	86.31
397.025	107.31
397.249	100.31
397.474	99.31
397.698	106.31
397.922	95.31
398.147	85.31
398.371	81.31
398.595	88.31
398.82	88.31
399.044	89.31
399.268	100.31
399.492	90.31
399.717	88.31
399.941	75.31
400.165	108.31
400.389	99.31
400.613	73.31
400.837	98.31
401.062	82.31
401.286	92.31
401.51	109.31
401.734	101.31
401.958	96.31
402.182	128.31
402.406	172.31
402.63	133.31
402.854	111.31
403.078	95.31
403.302	84.31
403.526	83.31
403.75	78.31
403.974	76.31
404.198	95.31
404.422	86.31
404.645	97.31
404.869	93.31
405.093	110.31
405.317	127.31
405.541	112.31
405.765	115.31
405.988	120.31
406.212	174.31
406.436	226.31
406.66	152.31
406.883	114.31
407.107	101.31
407.331	99.31
407.555	98.31
407.778	94.31
408.002	104.31
408.226	93.31
408.449	97.31
408.673	92.31
408.896	101.31
409.12	91.31
409.344	91.31
409.567	83.31
409.791	79.31
410.014	96.31
410.238	117.31
410.461	89.31
410.685	78.31
410.908	93.31
411.132	96.31
411.355	112.31
411.578	85.31
411.802	100.31
412.025	85.31
412.249	104.31
412.472	104.31
412.695	115.31
412.919	100.31
413.142	96.31
413.365	87.31
413.589	84.31
413.812	84.31
414.035	91.31
414.258	86.31
414.482	95.31
414.705	82.31
414.928	82.31
415.151	89.31
415.374	90.31
415.597	84.31
415.821	79.31
416.044	80.31
416.267	83.31
416.49	93.31
416.713	86.31
416.936	93.31
417.159	75.31
417.382	94.31
417.605	94.31
417.828	96.31
418.051	111.31
418.274	84.31
418.497	81.31
418.72	91.31
418.943	85.31
419.166	87.31
419.389	81.31
419.611	91.31
419.834	88.31
420.057	100.31
420.28	90.31
420.503	87.31
420.726	91.31
420.948	100.31
421.171	77.31
421.394	93.31
421.617	91.31
421.839	92.31
422.062	86.31
422.285	92.31
422.507	85.31
422.73	109.31
422.953	100.31
423.175	84.31
423.398	92.31
423.621	91.31
423.843	88.31
424.066	92.31
424.288	90.31
424.511	94.31
424.733	94.31
424.956	110.31
425.178	110.31
425.401	105.31
425.623	106.31
425.846	98.31
426.068	101.31
426.291	111.31
426.513	82.31
426.735	98.31
426.958	95.31
427.18	109.31
427.402	131.31
427.625	185.31
427.847	168.31
428.069	151.31
428.292	105.31
428.514	93.31
428.736	102.31
428.958	90.31
429.181	84.31
429.403	86.31
429.625	87.31
429.847	87.31
430.069	99.31
430.292	88.31
430.514	100.31
430.736	72.31
430.958	88.31
431.18	85.31
431.402	95.31
431.624	99.31
431.846	87.31
432.068	86.31
432.29	87.31
432.512	90.31
432.734	80.31
432.956	86.31
433.178	97.31
433.4	88.31
433.622	87.31
433.844	92.31
434.066	109.31
434.287	94.31
434.509	93.31
434.731	88.31
434.953	89.31
435.175	81.31
435.397	101.31
435.618	107.31
435.84	99.31
436.062	138.31
436.284	102.31
436.505	98.31
436.727	96.31
436.949	88.31
437.17	96.31
437.392	108.31
437.614	94.31
437.835	119.31
438.057	128.31
438.278	104.31
438.5	113.31
438.721	113.31
438.943	102.31
439.165	85.31
439.386	104.31
439.608	100.31
439.829	94.31
440.05	115.31
440.272	146.31
440.493	100.31
440.715	80.31
440.936	85.31
441.158	93.31
441.379	98.31
441.6	89.31
441.822	93.31
442.043	76.31
442.264	96.31
442.486	101.31
442.707	109.31
442.928	108.31
443.149	140.31
443.371	128.31
443.592	125.31
443.813	102.31
444.034	114.31
444.255	82.31
444.476	89.31
444.698	97.31
444.919	89.31
445.14	146.31
445.361	136.31
445.582	123.31
445.803	140.31
446.024	137.31
446.245	118.31
446.466	120.31
446.687	101.31
446.908	106.31
447.129	93.31
447.35	103.31
447.571	98.31
447.792	92.31
448.013	110.31
448.234	106.31
448.455	102.31
448.675	119.31
448.896	120.31
449.117	101.31
449.338	105.31
449.559	126.31
449.779	137.31
450	99.31
450.221	99.31
450.442	102.31
450.662	94.31
450.883	117.31
451.104	112.31
451.324	98.31
451.545	97.31
451.766	85.31
451.986	89.31
452.207	89.31
452.428	96.31
452.648	97.31
452.869	112.31
453.089	113.31
453.31	128.31
453.53	93.31
453.751	86.31
453.971	116.31
454.192	124.31
454.412	108.31
454.633	91.31
454.853	86.31
455.073	91.31
455.294	93.31
455.514	97.31
455.734	94.31
455.955	76.31
456.175	84.31
456.395	88.31
456.616	94.31
456.836	87.31
457.056	86.31
457.276	102.31
457.497	102.31
457.717	94.31
457.937	87.31
458.157	84.31
458.377	97.31
458.598	113.31
458.818	167.31
459.038	163.31
459.258	114.31
459.478	100.31
459.698	72.31
459.918	83.31
460.138	80.31
460.358	80.31
460.578	90.31
460.798	97.31
461.018	86.31
461.238	87.31
461.458	91.31
461.678	81.31
461.898	92.31
462.118	89.31
462.338	85.31
462.558	93.31
462.777	99.31
462.997	84.31
463.217	86.31
463.437	85.31
463.657	78.31
463.876	90.31
464.096	84.31
464.316	103.31
464.536	96.31
464.755	88.31
464.975	107.31
465.195	188.31
465.414	164.31
465.634	92.31
465.854	89.31
466.073	82.31
466.293	98.31
466.512	81.31
466.732	80.31
466.951	85.31
467.171	100.31
467.391	94.31
467.61	117.31
467.829	128.31
468.049	278.31
468.268	400.31
468.488	133.31
468.707	92.31
468.927	91.31
469.146	89.31
469.365	98.31
469.585	88.31
469.804	108.31
470.023	102.31
470.243	104.31
470.462	109.31
470.681	116.31
470.901	95.31
471.12	88.31
471.339	92.31
471.558	93.31
471.777	116.31
471.997	178.31
472.216	522.31
472.435	1070.31
472.654	320.31
472.873	130.31
473.092	106.31
473.311	94.31
473.53	82.31
473.749	83.31
473.968	94.31
474.187	106.31
474.406	92.31
474.625	85.31
474.844	81.31
475.063	99.31
475.282	102.31
475.501	99.31
475.72	94.31
475.939	82.31
476.158	89.31
476.377	94.31
476.596	78.31
476.814	94.31
477.033	88.31
477.252	98.31
477.471	87.31
477.69	84.31
477.908	91.31
478.127	91.31
478.346	76.31
478.564	100.31
478.783	100.31
479.002	88.31
479.22	98.31
479.439	105.31
479.658	112.31
479.876	107.31
480.095	95.31
480.313	114.31
480.532	122.31
480.751	183.31
480.969	531.31
481.188	1879.31
481.406	1110.31
481.624	203.31
481.843	104.31
482.061	96.31
482.28	106.31
482.498	95.31
482.717	94.31
482.935	98.31
483.153	81.31
483.372	100.31
483.59	90.31
483.808	91.31
484.027	89.31
484.245	99.31
484.463	86.31
484.681	96.31
484.9	95.31
485.118	94.31
485.336	104.31
485.554	91.31
485.772	93.31
485.99	97.31
486.209	112.31
486.427	117.31
486.645	113.31
486.863	122.31
487.081	109.31
487.299	89.31
487.517	98.31
487.735	93.31
487.953	96.31
488.171	100.31
488.389	97.31
488.607	96.31
488.825	109.31
489.043	95.31
489.261	84.31
489.479	85.31
489.696	85.31
489.914	82.31
490.132	90.31
490.35	70.31
490.568	88.31
490.786	94.31
491.003	83.31
491.221	86.31
491.439	93.31
491.657	85.31
491.874	91.31
492.092	93.31
492.31	90.31
492.527	94.31
492.745	93.31
492.963	84.31
493.18	95.31
493.398	78.31
493.615	102.31
493.833	84.31
494.05	103.31
494.268	88.31
494.485	80.31
494.703	90.31
494.92	84.31
495.138	89.31
495.355	86.31
495.573	90.31
495.79	94.31
496.008	89.31
496.225	90.31
496.442	87.31
496.66	84.31
496.877	101.31
497.094	96.31
497.312	98.31
497.529	99.31
497.746	84.31
497.963	100.31
498.181	94.31
498.398	103.31
498.615	133.31
498.832	103.31
499.049	82.31
499.267	86.31
499.484	86.31
499.701	88.31
499.918	93.31
500.135	94.31
500.352	80.31
500.569	92.31
500.786	99.31
501.003	87.31
501.22	95.31
501.437	93.31
501.654	96.31
501.871	116.31
502.088	94.31
502.305	81.31
502.522	91.31
502.739	101.31
502.956	75.31
503.172	80.31
503.389	90.31
503.606	110.31
503.823	89.31
504.04	112.31
504.256	94.31
504.473	96.31
504.69	93.31
504.907	100.31
505.123	94.31
505.34	90.31
505.557	93.31
505.773	81.31
505.99	78.31
506.207	80.31
506.423	93.31
506.64	75.31
506.856	96.31
507.073	87.31
507.289	76.31
507.506	95.31
507.722	104.31
507.939	107.31
508.155	108.31
508.372	87.31
508.588	85.31
508.805	91.31
509.021	88.31
509.238	96.31
509.454	107.31
509.67	91.31
509.887	99.31
510.103	137.31
510.319	208.31
510.536	714.31
510.752	2312.31
510.968	641.31
511.184	164.31
511.401	116.31
511.617	117.31
511.833	99.31
512.049	86.31
512.265	93.31
512.481	101.31
512.698	100.31
512.914	91.31
513.13	89.31
513.346	86.31
513.562	96.31
513.778	105.31
513.994	96.31
