Data from Circ_2001_H10_HRD10591_00051.txt Node
Date: Wed Jan 03 10:45:49 EST 2024
User: Yrep
Spectrometer: HR+D1059
Trigger mode: 1
Integration Time (sec): 1.000000E-1
Scans to average: 1
Electric dark correction enabled: true
Nonlinearity correction enabled: false
Boxcar width: 0
XAxis mode: Wavelengths
Number of Pixels in Spectrum: 2048
>>>>>Begin Spectral Data<<<<<
223.165	-15.69
223.4	-15.69
223.635	-15.69
223.869	-8.69
224.104	-18.69
224.338	-13.69
224.573	-22.69
224.808	-10.69
225.042	-22.69
225.277	7.31
225.511	-2.69
225.746	9.31
225.98	11.31
226.215	17.31
226.449	1.31
226.683	19.31
226.918	28.31
227.152	21.31
227.387	36.31
227.621	32.31
227.856	39.31
228.09	48.31
228.324	54.31
228.559	54.31
228.793	51.31
229.027	65.31
229.262	60.31
229.496	76.31
229.73	99.31
229.964	79.31
230.199	73.31
230.433	85.31
230.667	75.31
230.901	82.31
231.136	95.31
231.37	80.31
231.604	72.31
231.838	76.31
232.072	80.31
232.306	82.31
232.541	85.31
232.775	80.31
233.009	88.31
233.243	83.31
233.477	89.31
233.711	94.31
233.945	75.31
234.179	85.31
234.413	75.31
234.647	88.31
234.881	75.31
235.115	79.31
235.349	76.31
235.583	76.31
235.817	87.31
236.051	81.31
236.285	83.31
236.519	80.31
236.753	60.31
236.987	79.31
237.221	85.31
237.455	83.31
237.689	73.31
237.922	74.31
238.156	82.31
238.39	83.31
238.624	57.31
238.858	74.31
239.091	84.31
239.325	75.31
239.559	78.31
239.793	91.31
240.027	74.31
240.26	65.31
240.494	71.31
240.728	79.31
240.961	65.31
241.195	82.31
241.429	79.31
241.662	76.31
241.896	70.31
242.13	79.31
242.363	72.31
242.597	67.31
242.83	91.31
243.064	72.31
243.298	76.31
243.531	87.31
243.765	77.31
243.998	86.31
244.232	83.31
244.465	72.31
244.699	91.31
244.932	81.31
245.166	72.31
245.399	81.31
245.633	75.31
245.866	73.31
246.099	85.31
246.333	80.31
246.566	68.31
246.8	78.31
247.033	67.31
247.266	83.31
247.5	80.31
247.733	81.31
247.966	79.31
248.2	73.31
248.433	79.31
248.666	75.31
248.899	89.31
249.133	78.31
249.366	78.31
249.599	86.31
249.832	82.31
250.066	88.31
250.299	85.31
250.532	82.31
250.765	76.31
250.998	78.31
251.231	93.31
251.465	74.31
251.698	71.31
251.931	75.31
252.164	78.31
252.397	82.31
252.63	76.31
252.863	78.31
253.096	78.31
253.329	93.31
253.562	76.31
253.795	86.31
254.028	82.31
254.261	73.31
254.494	77.31
254.727	82.31
254.96	70.31
255.193	70.31
255.426	90.31
255.659	82.31
255.892	87.31
256.124	80.31
256.357	74.31
256.59	82.31
256.823	80.31
257.056	88.31
257.289	94.31
257.521	86.31
257.754	82.31
257.987	82.31
258.22	83.31
258.452	85.31
258.685	94.31
258.918	97.31
259.151	82.31
259.383	90.31
259.616	80.31
259.849	88.31
260.081	69.31
260.314	84.31
260.547	75.31
260.779	83.31
261.012	87.31
261.244	91.31
261.477	92.31
261.71	102.31
261.942	103.31
262.175	116.31
262.407	90.31
262.64	91.31
262.872	85.31
263.105	90.31
263.337	76.31
263.57	68.31
263.802	81.31
264.035	76.31
264.267	87.31
264.499	91.31
264.732	76.31
264.964	78.31
265.197	79.31
265.429	76.31
265.661	93.31
265.894	88.31
266.126	88.31
266.358	87.31
266.591	91.31
266.823	93.31
267.055	95.31
267.287	93.31
267.52	82.31
267.752	71.31
267.984	87.31
268.216	77.31
268.448	91.31
268.681	89.31
268.913	86.31
269.145	75.31
269.377	74.31
269.609	84.31
269.841	90.31
270.073	86.31
270.306	88.31
270.538	77.31
270.77	89.31
271.002	94.31
271.234	63.31
271.466	87.31
271.698	78.31
271.93	99.31
272.162	74.31
272.394	75.31
272.626	98.31
272.858	80.31
273.09	88.31
273.322	101.31
273.553	87.31
273.785	80.31
274.017	74.31
274.249	76.31
274.481	98.31
274.713	80.31
274.945	93.31
275.176	86.31
275.408	80.31
275.64	105.31
275.872	92.31
276.104	88.31
276.335	90.31
276.567	102.31
276.799	108.31
277.031	118.31
277.262	142.31
277.494	110.31
277.726	109.31
277.957	84.31
278.189	79.31
278.421	82.31
278.652	83.31
278.884	78.31
279.115	79.31
279.347	86.31
279.579	90.31
279.81	105.31
280.042	124.31
280.273	152.31
280.505	119.31
280.736	101.31
280.968	98.31
281.199	78.31
281.431	71.31
281.662	86.31
281.894	75.31
282.125	98.31
282.356	115.31
282.588	143.31
282.819	116.31
283.051	75.31
283.282	92.31
283.513	99.31
283.745	84.31
283.976	83.31
284.207	88.31
284.439	83.31
284.67	79.31
284.901	83.31
285.132	96.31
285.364	95.31
285.595	85.31
285.826	88.31
286.057	76.31
286.288	88.31
286.52	94.31
286.751	85.31
286.982	87.31
287.213	83.31
287.444	86.31
287.675	87.31
287.906	93.31
288.138	80.31
288.369	90.31
288.6	96.31
288.831	83.31
289.062	81.31
289.293	96.31
289.524	88.31
289.755	75.31
289.986	90.31
290.217	85.31
290.448	86.31
290.679	85.31
290.91	85.31
291.141	73.31
291.371	84.31
291.602	81.31
291.833	80.31
292.064	114.31
292.295	88.31
292.526	99.31
292.757	91.31
292.987	75.31
293.218	98.31
293.449	87.31
293.68	80.31
293.91	92.31
294.141	76.31
294.372	90.31
294.603	93.31
294.833	89.31
295.064	74.31
295.295	87.31
295.525	85.31
295.756	91.31
295.987	105.31
296.217	146.31
296.448	127.31
296.679	99.31
296.909	92.31
297.14	105.31
297.37	73.31
297.601	81.31
297.831	76.31
298.062	95.31
298.292	102.31
298.523	93.31
298.753	86.31
298.984	92.31
299.214	98.31
299.445	89.31
299.675	98.31
299.905	101.31
300.136	75.31
300.366	84.31
300.597	88.31
300.827	92.31
301.057	94.31
301.288	107.31
301.518	97.31
301.748	85.31
301.979	106.31
302.209	86.31
302.439	75.31
302.669	92.31
302.9	84.31
303.13	90.31
303.36	81.31
303.59	111.31
303.82	122.31
304.051	94.31
304.281	96.31
304.511	84.31
304.741	79.31
304.971	100.31
305.201	91.31
305.431	79.31
305.661	91.31
305.891	74.31
306.121	88.31
306.352	117.31
306.582	103.31
306.812	98.31
307.042	107.31
307.272	108.31
307.502	142.31
307.731	131.31
307.961	104.31
308.191	89.31
308.421	103.31
308.651	89.31
308.881	92.31
309.111	99.31
309.341	92.31
309.571	108.31
309.8	99.31
310.03	95.31
310.26	111.31
310.49	85.31
310.72	98.31
310.949	97.31
311.179	101.31
311.409	88.31
311.639	84.31
311.868	92.31
312.098	90.31
312.328	83.31
312.557	91.31
312.787	100.31
313.017	114.31
313.246	99.31
313.476	99.31
313.706	96.31
313.935	95.31
314.165	98.31
314.394	91.31
314.624	102.31
314.853	90.31
315.083	100.31
315.312	91.31
315.542	99.31
315.771	79.31
316.001	96.31
316.23	87.31
316.46	104.31
316.689	87.31
316.919	95.31
317.148	81.31
317.377	91.31
317.607	80.31
317.836	101.31
318.065	80.31
318.295	98.31
318.524	85.31
318.753	100.31
318.983	104.31
319.212	110.31
319.441	118.31
319.67	107.31
319.9	92.31
320.129	106.31
320.358	112.31
320.587	100.31
320.816	104.31
321.046	99.31
321.275	93.31
321.504	99.31
321.733	107.31
321.962	86.31
322.191	101.31
322.42	105.31
322.649	103.31
322.878	98.31
323.108	113.31
323.337	109.31
323.566	132.31
323.795	141.31
324.024	200.31
324.253	407.31
324.482	832.31
324.71	1683.31
324.939	2256.31
325.168	805.31
325.397	255.31
325.626	148.31
325.855	130.31
326.084	136.31
326.313	139.31
326.542	140.31
326.77	219.31
326.999	449.31
327.228	936.31
327.457	1718.31
327.686	1345.31
327.914	420.31
328.143	327.31
328.372	356.31
328.6	211.31
328.829	149.31
329.058	135.31
329.287	152.31
329.515	139.31
329.744	165.31
329.972	280.31
330.201	511.31
330.43	682.31
330.658	337.31
330.887	170.31
331.115	121.31
331.344	109.31
331.572	97.31
331.801	119.31
332.03	103.31
332.258	103.31
332.486	84.31
332.715	96.31
332.943	100.31
333.172	104.31
333.4	119.31
333.629	132.31
333.857	165.31
334.085	261.31
334.314	482.31
334.542	843.31
334.771	828.31
334.999	268.31
335.227	135.31
335.455	108.31
335.684	98.31
335.912	88.31
336.14	94.31
336.369	114.31
336.597	89.31
336.825	104.31
337.053	120.31
337.281	96.31
337.51	87.31
337.738	76.31
337.966	105.31
338.194	86.31
338.422	90.31
338.65	91.31
338.878	91.31
339.106	84.31
339.334	82.31
339.562	94.31
339.79	107.31
340.018	98.31
340.246	86.31
340.474	82.31
340.702	99.31
340.93	96.31
341.158	101.31
341.386	96.31
341.614	111.31
341.842	95.31
342.07	101.31
342.298	92.31
342.526	91.31
342.754	103.31
342.981	89.31
343.209	84.31
343.437	89.31
343.665	76.31
343.893	89.31
344.12	89.31
344.348	78.31
344.576	82.31
344.804	95.31
345.031	84.31
345.259	80.31
345.487	88.31
345.714	89.31
345.942	92.31
346.17	96.31
346.397	90.31
346.625	98.31
346.853	93.31
347.08	90.31
347.308	102.31
347.535	98.31
347.763	106.31
347.99	93.31
348.218	97.31
348.445	116.31
348.673	113.31
348.9	104.31
349.128	86.31
349.355	93.31
349.583	88.31
349.81	92.31
350.037	86.31
350.265	102.31
350.492	98.31
350.72	97.31
350.947	104.31
351.174	100.31
351.402	112.31
351.629	105.31
351.856	103.31
352.083	118.31
352.311	117.31
352.538	104.31
352.765	90.31
352.992	115.31
353.22	107.31
353.447	103.31
353.674	115.31
353.901	85.31
354.128	107.31
354.355	107.31
354.583	103.31
354.81	99.31
355.037	101.31
355.264	105.31
355.491	101.31
355.718	92.31
355.945	91.31
356.172	83.31
356.399	94.31
356.626	96.31
356.853	97.31
357.08	86.31
357.307	96.31
357.534	85.31
357.761	91.31
357.988	89.31
358.215	88.31
358.441	104.31
358.668	83.31
358.895	69.31
359.122	94.31
359.349	90.31
359.576	92.31
359.802	102.31
360.029	112.31
360.256	129.31
360.483	93.31
360.709	89.31
360.936	96.31
361.163	95.31
361.39	97.31
361.616	93.31
361.843	89.31
362.07	89.31
362.296	104.31
362.523	82.31
362.749	93.31
362.976	88.31
363.203	95.31
363.429	96.31
363.656	91.31
363.882	97.31
364.109	102.31
364.335	89.31
364.562	91.31
364.788	89.31
365.015	91.31
365.241	93.31
365.468	98.31
365.694	99.31
365.92	91.31
366.147	98.31
366.373	88.31
366.599	89.31
366.826	85.31
367.052	97.31
367.278	88.31
367.505	99.31
367.731	85.31
367.957	106.31
368.184	92.31
368.41	97.31
368.636	102.31
368.862	100.31
369.089	102.31
369.315	90.31
369.541	93.31
369.767	88.31
369.993	87.31
370.219	92.31
370.445	90.31
370.672	85.31
370.898	85.31
371.124	79.31
371.35	77.31
371.576	81.31
371.802	80.31
372.028	83.31
372.254	76.31
372.48	86.31
372.706	78.31
372.932	79.31
373.158	88.31
373.384	81.31
373.61	91.31
373.835	91.31
374.061	82.31
374.287	103.31
374.513	93.31
374.739	92.31
374.965	79.31
375.191	93.31
375.416	74.31
375.642	93.31
375.868	93.31
376.094	79.31
376.319	92.31
376.545	95.31
376.771	88.31
376.997	96.31
377.222	82.31
377.448	89.31
377.674	91.31
377.899	83.31
378.125	87.31
378.35	86.31
378.576	75.31
378.802	91.31
379.027	82.31
379.253	85.31
379.478	90.31
379.704	92.31
379.929	102.31
380.155	103.31
380.38	88.31
380.606	88.31
380.831	86.31
381.057	92.31
381.282	93.31
381.507	95.31
381.733	107.31
381.958	84.31
382.184	84.31
382.409	92.31
382.634	96.31
382.86	109.31
383.085	100.31
383.31	110.31
383.535	101.31
383.761	76.31
383.986	85.31
384.211	100.31
384.436	100.31
384.662	92.31
384.887	94.31
385.112	111.31
385.337	100.31
385.562	118.31
385.787	112.31
386.013	99.31
386.238	120.31
386.463	102.31
386.688	105.31
386.913	105.31
387.138	113.31
387.363	92.31
387.588	88.31
387.813	91.31
388.038	97.31
388.263	101.31
388.488	88.31
388.713	99.31
388.938	82.31
389.163	107.31
389.387	100.31
389.612	89.31
389.837	91.31
390.062	88.31
390.287	78.31
390.512	98.31
390.736	97.31
390.961	89.31
391.186	92.31
391.411	106.31
391.636	92.31
391.86	87.31
392.085	84.31
392.31	97.31
392.534	86.31
392.759	93.31
392.984	95.31
393.208	82.31
393.433	80.31
393.658	102.31
393.882	82.31
394.107	93.31
394.331	90.31
394.556	90.31
394.78	85.31
395.005	86.31
395.229	88.31
395.454	89.31
395.678	85.31
395.903	81.31
396.127	97.31
396.352	85.31
396.576	95.31
396.801	80.31
397.025	97.31
397.249	96.31
397.474	104.31
397.698	90.31
397.922	79.31
398.147	71.31
398.371	88.31
398.595	80.31
398.82	74.31
399.044	75.31
399.268	98.31
399.492	85.31
399.717	91.31
399.941	91.31
400.165	86.31
400.389	90.31
400.613	88.31
400.837	87.31
401.062	81.31
401.286	96.31
401.51	85.31
401.734	90.31
401.958	94.31
402.182	114.31
402.406	148.31
402.63	143.31
402.854	96.31
403.078	88.31
403.302	84.31
403.526	75.31
403.75	106.31
403.974	90.31
404.198	80.31
404.422	88.31
404.645	90.31
404.869	99.31
405.093	114.31
405.317	125.31
405.541	114.31
405.765	95.31
405.988	99.31
406.212	181.31
406.436	236.31
406.66	150.31
406.883	114.31
407.107	87.31
407.331	87.31
407.555	105.31
407.778	102.31
408.002	100.31
408.226	101.31
408.449	90.31
408.673	93.31
408.896	100.31
409.12	110.31
409.344	98.31
409.567	89.31
409.791	79.31
410.014	99.31
410.238	89.31
410.461	85.31
410.685	84.31
410.908	101.31
411.132	113.31
411.355	96.31
411.578	103.31
411.802	107.31
412.025	75.31
412.249	81.31
412.472	113.31
412.695	111.31
412.919	99.31
413.142	97.31
413.365	80.31
413.589	82.31
413.812	92.31
414.035	80.31
414.258	79.31
414.482	98.31
414.705	90.31
414.928	73.31
415.151	83.31
415.374	89.31
415.597	91.31
415.821	90.31
416.044	102.31
416.267	85.31
416.49	99.31
416.713	87.31
416.936	80.31
417.159	84.31
417.382	94.31
417.605	85.31
417.828	93.31
418.051	109.31
418.274	101.31
418.497	103.31
418.72	86.31
418.943	96.31
419.166	91.31
419.389	75.31
419.611	83.31
419.834	94.31
420.057	82.31
420.28	92.31
420.503	94.31
420.726	89.31
420.948	91.31
421.171	82.31
421.394	91.31
421.617	89.31
421.839	80.31
422.062	89.31
422.285	88.31
422.507	93.31
422.73	108.31
422.953	80.31
423.175	76.31
423.398	89.31
423.621	81.31
423.843	92.31
424.066	67.31
424.288	87.31
424.511	93.31
424.733	89.31
424.956	105.31
425.178	100.31
425.401	106.31
425.623	93.31
425.846	88.31
426.068	89.31
426.291	85.31
426.513	96.31
426.735	95.31
426.958	98.31
427.18	112.31
427.402	139.31
427.625	188.31
427.847	181.31
428.069	157.31
428.292	112.31
428.514	99.31
428.736	78.31
428.958	94.31
429.181	82.31
429.403	88.31
429.625	76.31
429.847	83.31
430.069	96.31
430.292	90.31
430.514	88.31
430.736	88.31
430.958	83.31
431.18	75.31
431.402	83.31
431.624	104.31
431.846	82.31
432.068	76.31
432.29	83.31
432.512	78.31
432.734	80.31
432.956	81.31
433.178	104.31
433.4	98.31
433.622	93.31
433.844	98.31
434.066	80.31
434.287	89.31
434.509	96.31
434.731	76.31
434.953	99.31
435.175	96.31
435.397	107.31
435.618	79.31
435.84	93.31
436.062	114.31
436.284	131.31
436.505	112.31
436.727	86.31
436.949	82.31
437.17	102.31
437.392	91.31
437.614	112.31
437.835	90.31
438.057	115.31
438.278	102.31
438.5	92.31
438.721	127.31
438.943	111.31
439.165	99.31
439.386	83.31
439.608	97.31
439.829	85.31
440.05	113.31
440.272	134.31
440.493	90.31
440.715	98.31
440.936	82.31
441.158	99.31
441.379	81.31
441.6	100.31
441.822	92.31
442.043	104.31
442.264	99.31
442.486	97.31
442.707	100.31
442.928	101.31
443.149	134.31
443.371	131.31
443.592	103.31
443.813	98.31
444.034	93.31
444.255	98.31
444.476	92.31
444.698	84.31
444.919	89.31
445.14	131.31
445.361	128.31
445.582	121.31
445.803	129.31
446.024	131.31
446.245	146.31
446.466	113.31
446.687	96.31
446.908	94.31
447.129	84.31
447.35	83.31
447.571	87.31
447.792	89.31
448.013	89.31
448.234	107.31
448.455	106.31
448.675	109.31
448.896	106.31
449.117	93.31
449.338	107.31
449.559	129.31
449.779	125.31
450	99.31
450.221	94.31
450.442	72.31
450.662	100.31
450.883	93.31
451.104	109.31
451.324	111.31
451.545	91.31
451.766	79.31
451.986	95.31
452.207	105.31
452.428	83.31
452.648	103.31
452.869	113.31
453.089	115.31
453.31	112.31
453.53	87.31
453.751	93.31
453.971	98.31
454.192	133.31
454.412	99.31
454.633	80.31
454.853	92.31
455.073	93.31
455.294	94.31
455.514	84.31
455.734	85.31
455.955	94.31
456.175	92.31
456.395	84.31
456.616	98.31
456.836	76.31
457.056	98.31
457.276	90.31
457.497	85.31
457.717	94.31
457.937	75.31
458.157	73.31
458.377	85.31
458.598	97.31
458.818	155.31
459.038	166.31
459.258	117.31
459.478	81.31
459.698	96.31
459.918	85.31
460.138	86.31
460.358	79.31
460.578	81.31
460.798	79.31
461.018	86.31
461.238	90.31
461.458	90.31
461.678	102.31
461.898	97.31
462.118	93.31
462.338	98.31
462.558	95.31
462.777	95.31
462.997	98.31
463.217	103.31
463.437	79.31
463.657	90.31
463.876	90.31
464.096	93.31
464.316	87.31
464.536	103.31
464.755	81.31
464.975	97.31
465.195	161.31
465.414	157.31
465.634	100.31
465.854	86.31
466.073	83.31
466.293	89.31
466.512	89.31
466.732	84.31
466.951	81.31
467.171	103.31
467.391	112.31
467.61	120.31
467.829	147.31
468.049	323.31
468.268	453.31
468.488	147.31
468.707	87.31
468.927	94.31
469.146	78.31
469.365	67.31
469.585	91.31
469.804	103.31
470.023	86.31
470.243	106.31
470.462	103.31
470.681	100.31
470.901	104.31
471.12	93.31
471.339	87.31
471.558	106.31
471.777	117.31
471.997	197.31
472.216	620.31
472.435	1229.31
472.654	335.31
472.873	125.31
473.092	97.31
473.311	82.31
473.53	100.31
473.749	101.31
473.968	100.31
474.187	106.31
474.406	96.31
474.625	79.31
474.844	99.31
475.063	82.31
475.282	89.31
475.501	93.31
475.72	96.31
475.939	69.31
476.158	87.31
476.377	96.31
476.596	95.31
476.814	81.31
477.033	91.31
477.252	91.31
477.471	84.31
477.69	90.31
477.908	84.31
478.127	96.31
478.346	95.31
478.564	98.31
478.783	112.31
479.002	105.31
479.22	95.31
479.439	103.31
479.658	105.31
479.876	112.31
480.095	118.31
480.313	120.31
480.532	139.31
480.751	188.31
480.969	547.31
481.188	2181.31
481.406	1277.31
481.624	235.31
481.843	117.31
482.061	95.31
482.28	96.31
482.498	96.31
482.717	81.31
482.935	68.31
483.153	75.31
483.372	100.31
483.59	86.31
483.808	96.31
484.027	84.31
484.245	114.31
484.463	97.31
484.681	101.31
484.9	93.31
485.118	104.31
485.336	96.31
485.554	88.31
485.772	101.31
485.99	104.31
486.209	106.31
486.427	105.31
486.645	118.31
486.863	111.31
487.081	109.31
487.299	104.31
487.517	82.31
487.735	86.31
487.953	92.31
488.171	80.31
488.389	80.31
488.607	125.31
488.825	91.31
489.043	97.31
489.261	91.31
489.479	81.31
489.696	92.31
489.914	87.31
490.132	99.31
490.35	97.31
490.568	82.31
490.786	97.31
491.003	90.31
491.221	99.31
491.439	96.31
491.657	99.31
491.874	99.31
492.092	84.31
492.31	90.31
492.527	89.31
492.745	91.31
492.963	87.31
493.18	93.31
493.398	96.31
493.615	92.31
493.833	92.31
494.05	93.31
494.268	86.31
494.485	87.31
494.703	102.31
494.92	90.31
495.138	97.31
495.355	90.31
495.573	93.31
495.79	88.31
496.008	81.31
496.225	101.31
496.442	100.31
496.66	99.31
496.877	87.31
497.094	91.31
497.312	75.31
497.529	88.31
497.746	90.31
497.963	90.31
498.181	101.31
498.398	98.31
498.615	122.31
498.832	120.31
499.049	86.31
499.267	76.31
499.484	99.31
499.701	88.31
499.918	82.31
500.135	96.31
500.352	94.31
500.569	97.31
500.786	92.31
501.003	100.31
501.22	86.31
501.437	83.31
501.654	85.31
501.871	98.31
502.088	94.31
502.305	95.31
502.522	87.31
502.739	94.31
502.956	101.31
503.172	92.31
503.389	97.31
503.606	114.31
503.823	87.31
504.04	104.31
504.256	101.31
504.473	104.31
504.69	93.31
504.907	94.31
505.123	87.31
505.34	81.31
505.557	93.31
505.773	88.31
505.99	91.31
506.207	86.31
506.423	95.31
506.64	81.31
506.856	98.31
507.073	83.31
507.289	83.31
507.506	89.31
507.722	113.31
507.939	104.31
508.155	93.31
508.372	87.31
508.588	91.31
508.805	96.31
509.021	94.31
509.238	90.31
509.454	88.31
509.67	107.31
509.887	111.31
510.103	141.31
510.319	210.31
510.536	723.31
510.752	2296.31
510.968	655.31
511.184	164.31
511.401	121.31
511.617	100.31
511.833	100.31
512.049	91.31
512.265	93.31
512.481	101.31
512.698	100.31
512.914	103.31
513.13	104.31
513.346	102.31
513.562	103.31
513.778	88.31
513.994	86.31
514.21	89.31
514.426	121.31
514.642	143.31
514.858	127.31
515.074	157.31
