Data from Circ_2001_H10_HRD10591_00009.txt Node
Date: Wed Jan 03 10:45:40 EST 2024
User: Yrep
Spectrometer: HR+D1059
Trigger mode: 1
Integration Time (sec): 1.000000E-1
Scans to average: 1
Electric dark correction enabled: true
Nonlinearity correction enabled: false
Boxcar width: 0
XAxis mode: Wavelengths
Number of Pixels in Spectrum: 2048
>>>>>Begin Spectral Data<<<<<
223.165	-20.69
223.4	-20.69
223.635	-20.69
223.869	-12.69
224.104	-19.69
224.338	-18.69
224.573	-15.69
224.808	-12.69
225.042	7.31
225.277	-15.69
225.511	-20.69
225.746	11.31
225.98	16.31
226.215	10.31
226.449	17.31
226.683	29.31
226.918	25.31
227.152	19.31
227.387	41.31
227.621	42.31
227.856	43.31
228.09	53.31
228.324	47.31
228.559	46.31
228.793	66.31
229.027	58.31
229.262	63.31
229.496	85.31
229.73	84.31
229.964	84.31
230.199	84.31
230.433	71.31
230.667	68.31
230.901	70.31
231.136	96.31
231.37	82.31
231.604	84.31
231.838	88.31
232.072	76.31
232.306	76.31
232.541	75.31
232.775	80.31
233.009	96.31
233.243	86.31
233.477	68.31
233.711	84.31
233.945	84.31
234.179	73.31
234.413	65.31
234.647	90.31
234.881	78.31
235.115	77.31
235.349	86.31
235.583	90.31
235.817	82.31
236.051	84.31
236.285	75.31
236.519	85.31
236.753	72.31
236.987	85.31
237.221	88.31
237.455	74.31
237.689	85.31
237.922	88.31
238.156	86.31
238.39	77.31
238.624	69.31
238.858	72.31
239.091	78.31
239.325	81.31
239.559	69.31
239.793	91.31
240.027	87.31
240.26	79.31
240.494	76.31
240.728	67.31
240.961	68.31
241.195	88.31
241.429	83.31
241.662	71.31
241.896	68.31
242.13	63.31
242.363	83.31
242.597	76.31
242.83	92.31
243.064	89.31
243.298	76.31
243.531	73.31
243.765	71.31
243.998	78.31
244.232	74.31
244.465	70.31
244.699	66.31
244.932	63.31
245.166	77.31
245.399	72.31
245.633	82.31
245.866	60.31
246.099	84.31
246.333	77.31
246.566	76.31
246.8	84.31
247.033	71.31
247.266	84.31
247.5	88.31
247.733	80.31
247.966	69.31
248.2	89.31
248.433	84.31
248.666	76.31
248.899	81.31
249.133	86.31
249.366	99.31
249.599	85.31
249.832	89.31
250.066	95.31
250.299	85.31
250.532	76.31
250.765	69.31
250.998	85.31
251.231	69.31
251.465	87.31
251.698	77.31
251.931	83.31
252.164	68.31
252.397	87.31
252.63	83.31
252.863	78.31
253.096	93.31
253.329	74.31
253.562	75.31
253.795	89.31
254.028	94.31
254.261	75.31
254.494	79.31
254.727	76.31
254.96	77.31
255.193	67.31
255.426	87.31
255.659	86.31
255.892	91.31
256.124	93.31
256.357	84.31
256.59	76.31
256.823	86.31
257.056	75.31
257.289	79.31
257.521	83.31
257.754	88.31
257.987	69.31
258.22	94.31
258.452	87.31
258.685	85.31
258.918	94.31
259.151	77.31
259.383	89.31
259.616	79.31
259.849	90.31
260.081	87.31
260.314	92.31
260.547	75.31
260.779	87.31
261.012	79.31
261.244	96.31
261.477	89.31
261.71	99.31
261.942	88.31
262.175	105.31
262.407	93.31
262.64	89.31
262.872	81.31
263.105	79.31
263.337	79.31
263.57	57.31
263.802	81.31
264.035	83.31
264.267	91.31
264.499	91.31
264.732	87.31
264.964	84.31
265.197	91.31
265.429	81.31
265.661	90.31
265.894	86.31
266.126	77.31
266.358	86.31
266.591	77.31
266.823	83.31
267.055	89.31
267.287	81.31
267.52	86.31
267.752	88.31
267.984	80.31
268.216	84.31
268.448	77.31
268.681	87.31
268.913	94.31
269.145	85.31
269.377	55.31
269.609	75.31
269.841	73.31
270.073	79.31
270.306	91.31
270.538	81.31
270.77	96.31
271.002	85.31
271.234	94.31
271.466	80.31
271.698	88.31
271.93	65.31
272.162	104.31
272.394	90.31
272.626	97.31
272.858	87.31
273.09	85.31
273.322	81.31
273.553	90.31
273.785	72.31
274.017	81.31
274.249	76.31
274.481	90.31
274.713	83.31
274.945	77.31
275.176	92.31
275.408	95.31
275.64	88.31
275.872	92.31
276.104	89.31
276.335	95.31
276.567	113.31
276.799	121.31
277.031	117.31
277.262	116.31
277.494	94.31
277.726	76.31
277.957	85.31
278.189	88.31
278.421	97.31
278.652	96.31
278.884	85.31
279.115	84.31
279.347	98.31
279.579	92.31
279.81	104.31
280.042	101.31
280.273	134.31
280.505	112.31
280.736	99.31
280.968	92.31
281.199	88.31
281.431	75.31
281.662	108.31
281.894	86.31
282.125	101.31
282.356	116.31
282.588	138.31
282.819	138.31
283.051	84.31
283.282	68.31
283.513	100.31
283.745	93.31
283.976	95.31
284.207	84.31
284.439	90.31
284.67	87.31
284.901	91.31
285.132	96.31
285.364	76.31
285.595	79.31
285.826	76.31
286.057	93.31
286.288	69.31
286.52	83.31
286.751	89.31
286.982	89.31
287.213	81.31
287.444	99.31
287.675	79.31
287.906	90.31
288.138	93.31
288.369	85.31
288.6	93.31
288.831	92.31
289.062	76.31
289.293	91.31
289.524	88.31
289.755	92.31
289.986	88.31
290.217	94.31
290.448	93.31
290.679	93.31
290.91	97.31
291.141	92.31
291.371	86.31
291.602	97.31
291.833	93.31
292.064	100.31
292.295	87.31
292.526	103.31
292.757	93.31
292.987	76.31
293.218	81.31
293.449	89.31
293.68	90.31
293.91	102.31
294.141	102.31
294.372	89.31
294.603	92.31
294.833	85.31
295.064	87.31
295.295	77.31
295.525	93.31
295.756	100.31
295.987	119.31
296.217	123.31
296.448	115.31
296.679	84.31
296.909	83.31
297.14	88.31
297.37	88.31
297.601	90.31
297.831	88.31
298.062	87.31
298.292	84.31
298.523	88.31
298.753	87.31
298.984	89.31
299.214	93.31
299.445	82.31
299.675	95.31
299.905	88.31
300.136	88.31
300.366	97.31
300.597	97.31
300.827	94.31
301.057	97.31
301.288	97.31
301.518	89.31
301.748	91.31
301.979	106.31
302.209	92.31
302.439	86.31
302.669	75.31
302.9	100.31
303.13	83.31
303.36	97.31
303.59	112.31
303.82	118.31
304.051	93.31
304.281	77.31
304.511	104.31
304.741	79.31
304.971	85.31
305.201	91.31
305.431	93.31
305.661	105.31
305.891	89.31
306.121	91.31
306.352	114.31
306.582	101.31
306.812	101.31
307.042	95.31
307.272	107.31
307.502	116.31
307.731	112.31
307.961	112.31
308.191	94.31
308.421	100.31
308.651	60.31
308.881	87.31
309.111	100.31
309.341	99.31
309.571	105.31
309.8	103.31
310.03	85.31
310.26	96.31
310.49	100.31
310.72	101.31
310.949	97.31
311.179	108.31
311.409	88.31
311.639	109.31
311.868	93.31
312.098	84.31
312.328	107.31
312.557	101.31
312.787	97.31
313.017	89.31
313.246	104.31
313.476	99.31
313.706	86.31
313.935	108.31
314.165	93.31
314.394	99.31
314.624	92.31
314.853	110.31
315.083	99.31
315.312	96.31
315.542	93.31
315.771	84.31
316.001	105.31
316.23	85.31
316.46	85.31
316.689	96.31
316.919	93.31
317.148	106.31
317.377	101.31
317.607	90.31
317.836	101.31
318.065	100.31
318.295	101.31
318.524	121.31
318.753	100.31
318.983	99.31
319.212	87.31
319.441	103.31
319.67	101.31
319.9	102.31
320.129	92.31
320.358	100.31
320.587	112.31
320.816	100.31
321.046	85.31
321.275	96.31
321.504	96.31
321.733	78.31
321.962	97.31
322.191	91.31
322.42	105.31
322.649	93.31
322.878	92.31
323.108	105.31
323.337	103.31
323.566	123.31
323.795	151.31
324.024	197.31
324.253	367.31
324.482	754.31
324.71	1531.31
324.939	1974.31
325.168	746.31
325.397	217.31
325.626	130.31
325.855	123.31
326.084	135.31
326.313	123.31
326.542	155.31
326.77	213.31
326.999	445.31
327.228	859.31
327.457	1543.31
327.686	1259.31
327.914	391.31
328.143	261.31
328.372	273.31
328.6	184.31
328.829	128.31
329.058	119.31
329.287	122.31
329.515	139.31
329.744	155.31
329.972	210.31
330.201	349.31
330.43	485.31
330.658	261.31
330.887	154.31
331.115	125.31
331.344	112.31
331.572	105.31
331.801	89.31
332.03	108.31
332.258	111.31
332.486	99.31
332.715	94.31
332.943	99.31
333.172	102.31
333.4	111.31
333.629	111.31
333.857	135.31
334.085	208.31
334.314	352.31
334.542	593.31
334.771	544.31
334.999	199.31
335.227	121.31
335.455	105.31
335.684	97.31
335.912	82.31
336.14	106.31
336.369	102.31
336.597	94.31
336.825	101.31
337.053	92.31
337.281	81.31
337.51	88.31
337.738	88.31
337.966	103.31
338.194	90.31
338.422	85.31
338.65	104.31
338.878	81.31
339.106	87.31
339.334	95.31
339.562	88.31
339.79	86.31
340.018	92.31
340.246	95.31
340.474	96.31
340.702	86.31
340.93	87.31
341.158	80.31
341.386	95.31
341.614	101.31
341.842	81.31
342.07	97.31
342.298	102.31
342.526	108.31
342.754	103.31
342.981	91.31
343.209	95.31
343.437	102.31
343.665	92.31
343.893	90.31
344.12	90.31
344.348	98.31
344.576	93.31
344.804	88.31
345.031	95.31
345.259	93.31
345.487	82.31
345.714	84.31
345.942	83.31
346.17	101.31
346.397	84.31
346.625	88.31
346.853	72.31
347.08	86.31
347.308	90.31
347.535	100.31
347.763	95.31
347.99	93.31
348.218	91.31
348.445	93.31
348.673	108.31
348.9	100.31
349.128	96.31
349.355	82.31
349.583	91.31
349.81	73.31
350.037	101.31
350.265	85.31
350.492	98.31
350.72	92.31
350.947	100.31
351.174	118.31
351.402	105.31
351.629	98.31
351.856	85.31
352.083	107.31
352.311	122.31
352.538	104.31
352.765	107.31
352.992	116.31
353.22	95.31
353.447	108.31
353.674	99.31
353.901	108.31
354.128	114.31
354.355	104.31
354.583	96.31
354.81	95.31
355.037	84.31
355.264	99.31
355.491	96.31
355.718	107.31
355.945	74.31
356.172	88.31
356.399	113.31
356.626	103.31
356.853	89.31
357.08	96.31
357.307	111.31
357.534	95.31
357.761	101.31
357.988	106.31
358.215	90.31
358.441	99.31
358.668	86.31
358.895	88.31
359.122	94.31
359.349	92.31
359.576	87.31
359.802	93.31
360.029	111.31
360.256	106.31
360.483	97.31
360.709	75.31
360.936	83.31
361.163	97.31
361.39	101.31
361.616	93.31
361.843	93.31
362.07	97.31
362.296	92.31
362.523	100.31
362.749	91.31
362.976	99.31
363.203	89.31
363.429	102.31
363.656	91.31
363.882	78.31
364.109	89.31
364.335	102.31
364.562	89.31
364.788	97.31
365.015	90.31
365.241	93.31
365.468	102.31
365.694	88.31
365.92	103.31
366.147	87.31
366.373	83.31
366.599	92.31
366.826	98.31
367.052	92.31
367.278	84.31
367.505	81.31
367.731	77.31
367.957	105.31
368.184	95.31
368.41	106.31
368.636	112.31
368.862	115.31
369.089	84.31
369.315	86.31
369.541	76.31
369.767	96.31
369.993	88.31
370.219	90.31
370.445	92.31
370.672	83.31
370.898	82.31
371.124	84.31
371.35	99.31
371.576	92.31
371.802	89.31
372.028	80.31
372.254	84.31
372.48	87.31
372.706	77.31
372.932	81.31
373.158	87.31
373.384	97.31
373.61	88.31
373.835	105.31
374.061	96.31
374.287	96.31
374.513	104.31
374.739	91.31
374.965	94.31
375.191	84.31
375.416	88.31
375.642	92.31
375.868	91.31
376.094	82.31
376.319	87.31
376.545	80.31
376.771	93.31
376.997	94.31
377.222	89.31
377.448	95.31
377.674	92.31
377.899	90.31
378.125	102.31
378.35	99.31
378.576	88.31
378.802	92.31
379.027	95.31
379.253	89.31
379.478	92.31
379.704	91.31
379.929	74.31
380.155	93.31
380.38	99.31
380.606	106.31
380.831	100.31
381.057	96.31
381.282	94.31
381.507	106.31
381.733	118.31
381.958	98.31
382.184	107.31
382.409	85.31
382.634	110.31
382.86	106.31
383.085	115.31
383.31	108.31
383.535	106.31
383.761	103.31
383.986	120.31
384.211	102.31
384.436	87.31
384.662	117.31
384.887	115.31
385.112	128.31
385.337	115.31
385.562	112.31
385.787	109.31
386.013	105.31
386.238	127.31
386.463	111.31
386.688	133.31
386.913	119.31
387.138	132.31
387.363	104.31
387.588	123.31
387.813	112.31
388.038	123.31
388.263	128.31
388.488	107.31
388.713	100.31
388.938	84.31
389.163	95.31
389.387	79.31
389.612	92.31
389.837	89.31
390.062	92.31
390.287	93.31
390.512	98.31
390.736	81.31
390.961	93.31
391.186	96.31
391.411	87.31
391.636	92.31
391.86	87.31
392.085	88.31
392.31	85.31
392.534	87.31
392.759	89.31
392.984	104.31
393.208	93.31
393.433	100.31
393.658	100.31
393.882	82.31
394.107	91.31
394.331	90.31
394.556	100.31
394.78	86.31
395.005	97.31
395.229	81.31
395.454	85.31
395.678	80.31
395.903	78.31
396.127	84.31
396.352	91.31
396.576	91.31
396.801	93.31
397.025	103.31
397.249	95.31
397.474	84.31
397.698	84.31
397.922	74.31
398.147	92.31
398.371	83.31
398.595	77.31
398.82	81.31
399.044	98.31
399.268	83.31
399.492	75.31
399.717	97.31
399.941	93.31
400.165	90.31
400.389	105.31
400.613	91.31
400.837	73.31
401.062	101.31
401.286	109.31
401.51	99.31
401.734	79.31
401.958	105.31
402.182	119.31
402.406	153.31
402.63	111.31
402.854	87.31
403.078	82.31
403.302	86.31
403.526	84.31
403.75	85.31
403.974	93.31
404.198	84.31
404.422	89.31
404.645	101.31
404.869	90.31
405.093	93.31
405.317	114.31
405.541	105.31
405.765	99.31
405.988	105.31
406.212	160.31
406.436	211.31
406.66	144.31
406.883	105.31
407.107	88.31
407.331	96.31
407.555	92.31
407.778	87.31
408.002	86.31
408.226	89.31
408.449	108.31
408.673	82.31
408.896	87.31
409.12	79.31
409.344	92.31
409.567	92.31
409.791	90.31
410.014	90.31
410.238	93.31
410.461	87.31
410.685	87.31
410.908	90.31
411.132	96.31
411.355	81.31
411.578	92.31
411.802	89.31
412.025	88.31
412.249	104.31
412.472	108.31
412.695	115.31
412.919	104.31
413.142	104.31
413.365	84.31
413.589	88.31
413.812	95.31
414.035	103.31
414.258	77.31
414.482	90.31
414.705	87.31
414.928	107.31
415.151	106.31
415.374	103.31
415.597	101.31
415.821	86.31
416.044	97.31
416.267	76.31
416.49	82.31
416.713	87.31
416.936	98.31
417.159	89.31
417.382	102.31
417.605	90.31
417.828	103.31
418.051	75.31
418.274	96.31
418.497	86.31
418.72	89.31
418.943	97.31
419.166	83.31
419.389	68.31
419.611	91.31
419.834	96.31
420.057	94.31
420.28	90.31
420.503	91.31
420.726	77.31
420.948	90.31
421.171	97.31
421.394	85.31
421.617	89.31
421.839	92.31
422.062	74.31
422.285	80.31
422.507	91.31
422.73	99.31
422.953	99.31
423.175	89.31
423.398	85.31
423.621	83.31
423.843	87.31
424.066	94.31
424.288	89.31
424.511	96.31
424.733	88.31
424.956	95.31
425.178	104.31
425.401	91.31
425.623	101.31
425.846	96.31
426.068	98.31
426.291	100.31
426.513	92.31
426.735	89.31
426.958	86.31
427.18	112.31
427.402	128.31
427.625	162.31
427.847	162.31
428.069	153.31
428.292	108.31
428.514	85.31
428.736	84.31
428.958	81.31
429.181	89.31
429.403	89.31
429.625	95.31
429.847	92.31
430.069	100.31
430.292	86.31
430.514	84.31
430.736	75.31
430.958	84.31
431.18	76.31
431.402	86.31
431.624	90.31
431.846	90.31
432.068	96.31
432.29	80.31
432.512	82.31
432.734	99.31
432.956	93.31
433.178	100.31
433.4	97.31
433.622	87.31
433.844	87.31
434.066	99.31
434.287	93.31
434.509	95.31
434.731	88.31
434.953	91.31
435.175	83.31
435.397	92.31
435.618	100.31
435.84	115.31
436.062	110.31
436.284	100.31
436.505	87.31
436.727	103.31
436.949	82.31
437.17	79.31
437.392	91.31
437.614	88.31
437.835	102.31
438.057	113.31
438.278	93.31
438.5	81.31
438.721	107.31
438.943	91.31
439.165	90.31
439.386	88.31
439.608	87.31
439.829	99.31
440.05	106.31
440.272	126.31
440.493	99.31
440.715	87.31
440.936	75.31
441.158	81.31
441.379	92.31
441.6	83.31
441.822	100.31
442.043	85.31
442.264	110.31
442.486	103.31
442.707	90.31
442.928	109.31
443.149	127.31
443.371	133.31
443.592	108.31
443.813	109.31
444.034	108.31
444.255	98.31
444.476	83.31
444.698	105.31
444.919	78.31
445.14	130.31
445.361	117.31
445.582	106.31
445.803	131.31
446.024	123.31
446.245	121.31
446.466	107.31
446.687	93.31
446.908	88.31
447.129	95.31
447.35	100.31
447.571	105.31
447.792	91.31
448.013	89.31
448.234	102.31
448.455	81.31
448.675	104.31
448.896	121.31
449.117	89.31
449.338	108.31
449.559	104.31
449.779	117.31
450	90.31
450.221	80.31
450.442	89.31
450.662	94.31
450.883	98.31
451.104	119.31
451.324	106.31
451.545	87.31
451.766	91.31
451.986	77.31
452.207	83.31
452.428	96.31
452.648	99.31
452.869	99.31
453.089	113.31
453.31	106.31
453.53	87.31
453.751	88.31
453.971	101.31
454.192	108.31
454.412	100.31
454.633	96.31
454.853	82.31
455.073	84.31
455.294	84.31
455.514	111.31
455.734	88.31
455.955	90.31
456.175	81.31
456.395	78.31
456.616	98.31
456.836	91.31
457.056	89.31
457.276	82.31
457.497	79.31
457.717	86.31
457.937	104.31
458.157	90.31
458.377	104.31
458.598	101.31
458.818	143.31
459.038	156.31
459.258	128.31
459.478	99.31
459.698	87.31
459.918	79.31
460.138	75.31
460.358	84.31
460.578	78.31
460.798	85.31
461.018	81.31
461.238	71.31
461.458	97.31
461.678	89.31
461.898	69.31
462.118	92.31
462.338	86.31
462.558	75.31
462.777	76.31
462.997	88.31
463.217	89.31
463.437	83.31
463.657	92.31
463.876	83.31
464.096	93.31
464.316	88.31
464.536	92.31
464.755	96.31
464.975	122.31
465.195	146.31
465.414	149.31
465.634	89.31
465.854	88.31
466.073	79.31
466.293	88.31
466.512	104.31
466.732	100.31
466.951	102.31
467.171	85.31
467.391	104.31
467.61	120.31
467.829	120.31
468.049	239.31
468.268	297.31
468.488	115.31
468.707	89.31
468.927	85.31
469.146	87.31
469.365	85.31
469.585	85.31
469.804	82.31
470.023	99.31
470.243	92.31
470.462	102.31
470.681	103.31
470.901	80.31
471.12	97.31
471.339	105.31
471.558	89.31
471.777	100.31
471.997	155.31
472.216	427.31
472.435	849.31
472.654	249.31
472.873	110.31
473.092	101.31
473.311	90.31
473.53	76.31
473.749	87.31
473.968	97.31
474.187	103.31
474.406	88.31
474.625	96.31
474.844	94.31
475.063	82.31
475.282	82.31
475.501	92.31
475.72	89.31
475.939	90.31
476.158	97.31
476.377	97.31
476.596	77.31
476.814	87.31
477.033	101.31
477.252	92.31
477.471	85.31
477.69	94.31
477.908	99.31
478.127	96.31
478.346	91.31
478.564	84.31
478.783	91.31
479.002	79.31
479.22	89.31
479.439	111.31
479.658	112.31
479.876	107.31
480.095	101.31
480.313	97.31
480.532	118.31
480.751	145.31
480.969	402.31
481.188	1414.31
481.406	845.31
481.624	163.31
481.843	99.31
482.061	106.31
482.28	88.31
482.498	92.31
482.717	89.31
482.935	79.31
483.153	102.31
483.372	91.31
483.59	84.31
483.808	96.31
484.027	93.31
484.245	93.31
484.463	92.31
484.681	92.31
484.9	97.31
485.118	79.31
485.336	92.31
485.554	99.31
485.772	92.31
485.99	115.31
486.209	102.31
486.427	92.31
486.645	99.31
486.863	106.31
487.081	103.31
487.299	82.31
487.517	89.31
487.735	99.31
487.953	89.31
488.171	93.31
488.389	87.31
488.607	93.31
488.825	87.31
489.043	80.31
489.261	95.31
489.479	79.31
489.696	100.31
489.914	97.31
490.132	97.31
490.35	91.31
490.568	84.31
490.786	84.31
491.003	97.31
491.221	83.31
491.439	78.31
491.657	106.31
491.874	88.31
492.092	76.31
492.31	91.31
492.527	87.31
492.745	89.31
492.963	91.31
493.18	95.31
493.398	105.31
493.615	98.31
493.833	104.31
494.05	91.31
494.268	83.31
494.485	89.31
494.703	92.31
494.92	103.31
495.138	87.31
495.355	103.31
495.573	88.31
495.79	82.31
496.008	76.31
496.225	91.31
496.442	77.31
496.66	97.31
496.877	98.31
497.094	88.31
497.312	94.31
497.529	100.31
497.746	89.31
497.963	84.31
498.181	88.31
498.398	108.31
498.615	116.31
498.832	91.31
499.049	89.31
499.267	96.31
499.484	87.31
499.701	86.31
499.918	85.31
500.135	77.31
500.352	75.31
500.569	90.31
500.786	82.31
501.003	89.31
501.22	87.31
501.437	92.31
501.654	83.31
501.871	97.31
502.088	104.31
502.305	103.31
502.522	79.31
502.739	90.31
502.956	91.31
503.172	90.31
503.389	98.31
503.606	116.31
503.823	102.31
504.04	86.31
504.256	76.31
504.473	83.31
504.69	91.31
504.907	100.31
505.123	93.31
505.34	79.31
505.557	91.31
505.773	89.31
505.99	93.31
506.207	91.31
506.423	90.31
506.64	79.31
506.856	91.31
507.073	96.31
507.289	97.31
507.506	89.31
507.722	119.31
507.939	107.31
508.155	100.31
508.372	101.31
508.588	83.31
508.805	86.31
509.021	91.31
509.238	100.31
509.454	96.31
509.67	99.31
509.887	92.31
510.103	131.31
510.319	183.31
510.536	668.31
510.752	1965.31
510.968	563.31
511.184	136.31
511.401	101.31
511.617	88.31
511.833	99.31
512.049	96.31
512.265	81.31
512.481	90.31
512.698	95.31
512.914	81.31
513.13	90.31
513.346	92.31
513.562	97.31
513.778	95.31
513.994	101.31
514.21	111.31
514.426	113.31
514.642	137.31
514.858	118.31
