Data from Circ_2001_H10_HRD10591_00003.txt Node
Date: Wed Jan 03 10:45:39 EST 2024
User: Yrep
Spectrometer: HR+D1059
Trigger mode: 1
Integration Time (sec): 1.000000E-1
Scans to average: 1
Electric dark correction enabled: true
Nonlinearity correction enabled: false
Boxcar width: 0
XAxis mode: Wavelengths
Number of Pixels in Spectrum: 2048
>>>>>Begin Spectral Data<<<<<
223.165	-3.88
223.4	-3.88
223.635	-3.88
223.869	-30.88
224.104	-26.88
224.338	-15.88
224.573	-15.88
224.808	-25.88
225.042	-11.88
225.277	-14.88
225.511	6.12
225.746	16.12
225.98	5.12
226.215	22.12
226.449	10.12
226.683	21.12
226.918	25.12
227.152	40.12
227.387	25.12
227.621	39.12
227.856	53.12
228.09	50.12
228.324	52.12
228.559	52.12
228.793	53.12
229.027	62.12
229.262	69.12
229.496	80.12
229.73	83.12
229.964	89.12
230.199	84.12
230.433	75.12
230.667	71.12
230.901	70.12
231.136	89.12
231.37	82.12
231.604	77.12
231.838	70.12
232.072	71.12
232.306	92.12
232.541	85.12
232.775	86.12
233.009	75.12
233.243	81.12
233.477	88.12
233.711	79.12
233.945	87.12
234.179	86.12
234.413	89.12
234.647	91.12
234.881	91.12
235.115	84.12
235.349	76.12
235.583	77.12
235.817	79.12
236.051	81.12
236.285	85.12
236.519	72.12
236.753	87.12
236.987	86.12
237.221	89.12
237.455	92.12
237.689	79.12
237.922	86.12
238.156	77.12
238.39	87.12
238.624	70.12
238.858	85.12
239.091	68.12
239.325	86.12
239.559	88.12
239.793	83.12
240.027	72.12
240.26	76.12
240.494	90.12
240.728	80.12
240.961	84.12
241.195	78.12
241.429	67.12
241.662	85.12
241.896	91.12
242.13	76.12
242.363	78.12
242.597	71.12
242.83	70.12
243.064	75.12
243.298	84.12
243.531	77.12
243.765	90.12
243.998	81.12
244.232	81.12
244.465	72.12
244.699	81.12
244.932	82.12
245.166	75.12
245.399	95.12
245.633	83.12
245.866	92.12
246.099	71.12
246.333	76.12
246.566	93.12
246.8	71.12
247.033	93.12
247.266	81.12
247.5	76.12
247.733	83.12
247.966	90.12
248.2	93.12
248.433	84.12
248.666	63.12
248.899	87.12
249.133	79.12
249.366	83.12
249.599	87.12
249.832	85.12
250.066	89.12
250.299	78.12
250.532	83.12
250.765	81.12
250.998	79.12
251.231	74.12
251.465	87.12
251.698	83.12
251.931	93.12
252.164	85.12
252.397	89.12
252.63	67.12
252.863	67.12
253.096	76.12
253.329	85.12
253.562	84.12
253.795	93.12
254.028	83.12
254.261	85.12
254.494	97.12
254.727	92.12
254.96	94.12
255.193	86.12
255.426	92.12
255.659	80.12
255.892	87.12
256.124	86.12
256.357	98.12
256.59	95.12
256.823	71.12
257.056	88.12
257.289	68.12
257.521	82.12
257.754	96.12
257.987	71.12
258.22	90.12
258.452	91.12
258.685	75.12
258.918	83.12
259.151	84.12
259.383	89.12
259.616	90.12
259.849	79.12
260.081	93.12
260.314	94.12
260.547	85.12
260.779	88.12
261.012	94.12
261.244	92.12
261.477	86.12
261.71	86.12
261.942	123.12
262.175	106.12
262.407	87.12
262.64	91.12
262.872	87.12
263.105	93.12
263.337	78.12
263.57	73.12
263.802	79.12
264.035	95.12
264.267	74.12
264.499	97.12
264.732	96.12
264.964	81.12
265.197	79.12
265.429	80.12
265.661	101.12
265.894	86.12
266.126	78.12
266.358	82.12
266.591	86.12
266.823	84.12
267.055	89.12
267.287	93.12
267.52	84.12
267.752	91.12
267.984	81.12
268.216	100.12
268.448	89.12
268.681	81.12
268.913	90.12
269.145	83.12
269.377	93.12
269.609	96.12
269.841	93.12
270.073	78.12
270.306	90.12
270.538	96.12
270.77	88.12
271.002	95.12
271.234	90.12
271.466	95.12
271.698	86.12
271.93	96.12
272.162	77.12
272.394	80.12
272.626	96.12
272.858	80.12
273.09	90.12
273.322	88.12
273.553	86.12
273.785	85.12
274.017	81.12
274.249	90.12
274.481	87.12
274.713	89.12
274.945	90.12
275.176	85.12
275.408	92.12
275.64	106.12
275.872	94.12
276.104	87.12
276.335	93.12
276.567	90.12
276.799	121.12
277.031	119.12
277.262	107.12
277.494	115.12
277.726	87.12
277.957	96.12
278.189	88.12
278.421	96.12
278.652	81.12
278.884	91.12
279.115	94.12
279.347	83.12
279.579	96.12
279.81	99.12
280.042	112.12
280.273	130.12
280.505	112.12
280.736	95.12
280.968	97.12
281.199	84.12
281.431	79.12
281.662	88.12
281.894	94.12
282.125	95.12
282.356	127.12
282.588	131.12
282.819	112.12
283.051	89.12
283.282	101.12
283.513	88.12
283.745	88.12
283.976	86.12
284.207	86.12
284.439	87.12
284.67	88.12
284.901	103.12
285.132	84.12
285.364	91.12
285.595	92.12
285.826	95.12
286.057	91.12
286.288	83.12
286.52	90.12
286.751	96.12
286.982	89.12
287.213	91.12
287.444	113.12
287.675	85.12
287.906	94.12
288.138	84.12
288.369	94.12
288.6	89.12
288.831	92.12
289.062	94.12
289.293	81.12
289.524	88.12
289.755	95.12
289.986	87.12
290.217	90.12
290.448	84.12
290.679	87.12
290.91	86.12
291.141	81.12
291.371	92.12
291.602	79.12
291.833	108.12
292.064	99.12
292.295	88.12
292.526	102.12
292.757	92.12
292.987	99.12
293.218	94.12
293.449	104.12
293.68	100.12
293.91	89.12
294.141	91.12
294.372	97.12
294.603	103.12
294.833	96.12
295.064	100.12
295.295	109.12
295.525	95.12
295.756	107.12
295.987	104.12
296.217	137.12
296.448	139.12
296.679	95.12
296.909	99.12
297.14	93.12
297.37	91.12
297.601	89.12
297.831	94.12
298.062	102.12
298.292	106.12
298.523	86.12
298.753	82.12
298.984	84.12
299.214	101.12
299.445	100.12
299.675	87.12
299.905	94.12
300.136	95.12
300.366	97.12
300.597	96.12
300.827	84.12
301.057	95.12
301.288	103.12
301.518	98.12
301.748	98.12
301.979	100.12
302.209	103.12
302.439	99.12
302.669	103.12
302.9	92.12
303.13	102.12
303.36	97.12
303.59	113.12
303.82	117.12
304.051	110.12
304.281	93.12
304.511	93.12
304.741	87.12
304.971	99.12
305.201	92.12
305.431	91.12
305.661	92.12
305.891	99.12
306.121	101.12
306.352	97.12
306.582	118.12
306.812	92.12
307.042	104.12
307.272	128.12
307.502	126.12
307.731	118.12
307.961	107.12
308.191	89.12
308.421	99.12
308.651	85.12
308.881	105.12
309.111	94.12
309.341	103.12
309.571	79.12
309.8	87.12
310.03	95.12
310.26	101.12
310.49	98.12
310.72	106.12
310.949	117.12
311.179	111.12
311.409	100.12
311.639	98.12
311.868	100.12
312.098	105.12
312.328	104.12
312.557	96.12
312.787	107.12
313.017	89.12
313.246	100.12
313.476	98.12
313.706	92.12
313.935	108.12
314.165	105.12
314.394	108.12
314.624	116.12
314.853	98.12
315.083	73.12
315.312	87.12
315.542	100.12
315.771	84.12
316.001	96.12
316.23	91.12
316.46	94.12
316.689	106.12
316.919	98.12
317.148	101.12
317.377	100.12
317.607	98.12
317.836	91.12
318.065	96.12
318.295	104.12
318.524	111.12
318.753	99.12
318.983	95.12
319.212	105.12
319.441	106.12
319.67	107.12
319.9	93.12
320.129	100.12
320.358	95.12
320.587	90.12
320.816	97.12
321.046	111.12
321.275	101.12
321.504	99.12
321.733	112.12
321.962	113.12
322.191	106.12
322.42	110.12
322.649	117.12
322.878	119.12
323.108	135.12
323.337	134.12
323.566	125.12
323.795	155.12
324.024	205.12
324.253	387.12
324.482	814.12
324.71	1625.12
324.939	2156.12
325.168	783.12
325.397	252.12
325.626	140.12
325.855	129.12
326.084	128.12
326.313	154.12
326.542	160.12
326.77	238.12
326.999	458.12
327.228	951.12
327.457	1694.12
327.686	1323.12
327.914	411.12
328.143	279.12
328.372	285.12
328.6	201.12
328.829	132.12
329.058	132.12
329.287	127.12
329.515	119.12
329.744	145.12
329.972	208.12
330.201	368.12
330.43	493.12
330.658	270.12
330.887	173.12
331.115	138.12
331.344	109.12
331.572	115.12
331.801	108.12
332.03	91.12
332.258	107.12
332.486	105.12
332.715	105.12
332.943	96.12
333.172	100.12
333.4	120.12
333.629	115.12
333.857	147.12
334.085	214.12
334.314	355.12
334.542	620.12
334.771	570.12
334.999	180.12
335.227	133.12
335.455	105.12
335.684	126.12
335.912	102.12
336.14	97.12
336.369	113.12
336.597	113.12
336.825	107.12
337.053	90.12
337.281	105.12
337.51	100.12
337.738	100.12
337.966	87.12
338.194	98.12
338.422	98.12
338.65	92.12
338.878	87.12
339.106	94.12
339.334	100.12
339.562	95.12
339.79	95.12
340.018	84.12
340.246	96.12
340.474	94.12
340.702	104.12
340.93	103.12
341.158	91.12
341.386	106.12
341.614	95.12
341.842	99.12
342.07	86.12
342.298	113.12
342.526	90.12
342.754	91.12
342.981	80.12
343.209	76.12
343.437	110.12
343.665	89.12
343.893	95.12
344.12	90.12
344.348	97.12
344.576	97.12
344.804	104.12
345.031	97.12
345.259	109.12
345.487	95.12
345.714	97.12
345.942	107.12
346.17	100.12
346.397	95.12
346.625	106.12
346.853	93.12
347.08	98.12
347.308	97.12
347.535	96.12
347.763	90.12
347.99	110.12
348.218	106.12
348.445	116.12
348.673	107.12
348.9	109.12
349.128	109.12
349.355	92.12
349.583	94.12
349.81	91.12
350.037	80.12
350.265	104.12
350.492	101.12
350.72	104.12
350.947	107.12
351.174	110.12
351.402	120.12
351.629	105.12
351.856	109.12
352.083	115.12
352.311	109.12
352.538	124.12
352.765	106.12
352.992	122.12
353.22	112.12
353.447	101.12
353.674	108.12
353.901	95.12
354.128	85.12
354.355	87.12
354.583	114.12
354.81	104.12
355.037	100.12
355.264	101.12
355.491	109.12
355.718	97.12
355.945	99.12
356.172	101.12
356.399	102.12
356.626	98.12
356.853	94.12
357.08	94.12
357.307	112.12
357.534	92.12
357.761	93.12
357.988	111.12
358.215	119.12
358.441	116.12
358.668	100.12
358.895	100.12
359.122	89.12
359.349	95.12
359.576	105.12
359.802	98.12
360.029	103.12
360.256	108.12
360.483	98.12
360.709	98.12
360.936	99.12
361.163	102.12
361.39	108.12
361.616	93.12
361.843	91.12
362.07	88.12
362.296	103.12
362.523	99.12
362.749	93.12
362.976	90.12
363.203	95.12
363.429	94.12
363.656	96.12
363.882	93.12
364.109	102.12
364.335	99.12
364.562	103.12
364.788	101.12
365.015	102.12
365.241	105.12
365.468	121.12
365.694	108.12
365.92	94.12
366.147	92.12
366.373	87.12
366.599	94.12
366.826	100.12
367.052	97.12
367.278	85.12
367.505	108.12
367.731	108.12
367.957	99.12
368.184	92.12
368.41	91.12
368.636	107.12
368.862	110.12
369.089	109.12
369.315	109.12
369.541	89.12
369.767	95.12
369.993	105.12
370.219	100.12
370.445	89.12
370.672	94.12
370.898	101.12
371.124	86.12
371.35	99.12
371.576	91.12
371.802	113.12
372.028	104.12
372.254	95.12
372.48	102.12
372.706	103.12
372.932	111.12
373.158	90.12
373.384	99.12
373.61	80.12
373.835	75.12
374.061	95.12
374.287	93.12
374.513	98.12
374.739	89.12
374.965	87.12
375.191	83.12
375.416	86.12
375.642	114.12
375.868	91.12
376.094	106.12
376.319	92.12
376.545	83.12
376.771	91.12
376.997	94.12
377.222	90.12
377.448	93.12
377.674	89.12
377.899	105.12
378.125	92.12
378.35	99.12
378.576	79.12
378.802	89.12
379.027	114.12
379.253	101.12
379.478	96.12
379.704	111.12
379.929	99.12
380.155	120.12
380.38	105.12
380.606	112.12
380.831	107.12
381.057	108.12
381.282	112.12
381.507	124.12
381.733	113.12
381.958	118.12
382.184	112.12
382.409	111.12
382.634	113.12
382.86	128.12
383.085	110.12
383.31	121.12
383.535	119.12
383.761	105.12
383.986	123.12
384.211	114.12
384.436	110.12
384.662	110.12
384.887	122.12
385.112	155.12
385.337	121.12
385.562	136.12
385.787	134.12
386.013	132.12
386.238	131.12
386.463	115.12
386.688	124.12
386.913	128.12
387.138	135.12
387.363	121.12
387.588	120.12
387.813	116.12
388.038	134.12
388.263	136.12
388.488	133.12
388.713	96.12
388.938	104.12
389.163	114.12
389.387	96.12
389.612	111.12
389.837	109.12
390.062	95.12
390.287	117.12
390.512	86.12
390.736	90.12
390.961	91.12
391.186	105.12
391.411	95.12
391.636	99.12
391.86	94.12
392.085	94.12
392.31	91.12
392.534	104.12
392.759	96.12
392.984	96.12
393.208	105.12
393.433	115.12
393.658	110.12
393.882	88.12
394.107	96.12
394.331	81.12
394.556	95.12
394.78	99.12
395.005	97.12
395.229	101.12
395.454	93.12
395.678	88.12
395.903	100.12
396.127	100.12
396.352	97.12
396.576	83.12
396.801	95.12
397.025	107.12
397.249	83.12
397.474	86.12
397.698	95.12
397.922	93.12
398.147	83.12
398.371	95.12
398.595	90.12
398.82	86.12
399.044	85.12
399.268	92.12
399.492	95.12
399.717	97.12
399.941	89.12
400.165	91.12
400.389	92.12
400.613	94.12
400.837	92.12
401.062	105.12
401.286	91.12
401.51	92.12
401.734	87.12
401.958	98.12
402.182	134.12
402.406	137.12
402.63	131.12
402.854	113.12
403.078	96.12
403.302	90.12
403.526	95.12
403.75	103.12
403.974	83.12
404.198	100.12
404.422	80.12
404.645	101.12
404.869	99.12
405.093	100.12
405.317	122.12
405.541	118.12
405.765	96.12
405.988	138.12
406.212	168.12
406.436	220.12
406.66	155.12
406.883	97.12
407.107	107.12
407.331	98.12
407.555	94.12
407.778	103.12
408.002	92.12
408.226	95.12
408.449	91.12
408.673	97.12
408.896	99.12
409.12	104.12
409.344	79.12
409.567	102.12
409.791	94.12
410.014	105.12
410.238	97.12
410.461	103.12
410.685	120.12
410.908	99.12
411.132	112.12
411.355	104.12
411.578	102.12
411.802	102.12
412.025	103.12
412.249	110.12
412.472	96.12
412.695	120.12
412.919	109.12
413.142	93.12
413.365	87.12
413.589	90.12
413.812	91.12
414.035	95.12
414.258	79.12
414.482	103.12
414.705	76.12
414.928	87.12
415.151	99.12
415.374	93.12
415.597	104.12
415.821	101.12
416.044	103.12
416.267	100.12
416.49	100.12
416.713	90.12
416.936	94.12
417.159	106.12
417.382	89.12
417.605	77.12
417.828	102.12
418.051	111.12
418.274	90.12
418.497	106.12
418.72	90.12
418.943	113.12
419.166	106.12
419.389	94.12
419.611	104.12
419.834	78.12
420.057	100.12
420.28	92.12
420.503	103.12
420.726	104.12
420.948	102.12
421.171	92.12
421.394	110.12
421.617	108.12
421.839	97.12
422.062	96.12
422.285	94.12
422.507	96.12
422.73	112.12
422.953	99.12
423.175	80.12
423.398	94.12
423.621	88.12
423.843	93.12
424.066	87.12
424.288	95.12
424.511	102.12
424.733	106.12
424.956	91.12
425.178	103.12
425.401	106.12
425.623	96.12
425.846	106.12
426.068	101.12
426.291	92.12
426.513	104.12
426.735	85.12
426.958	103.12
427.18	112.12
427.402	134.12
427.625	181.12
427.847	165.12
428.069	142.12
428.292	103.12
428.514	106.12
428.736	94.12
428.958	88.12
429.181	80.12
429.403	84.12
429.625	103.12
429.847	87.12
430.069	112.12
430.292	89.12
430.514	97.12
430.736	90.12
430.958	80.12
431.18	73.12
431.402	102.12
431.624	88.12
431.846	100.12
432.068	90.12
432.29	100.12
432.512	109.12
432.734	93.12
432.956	101.12
433.178	91.12
433.4	103.12
433.622	105.12
433.844	105.12
434.066	83.12
434.287	104.12
434.509	111.12
434.731	86.12
434.953	95.12
435.175	101.12
435.397	102.12
435.618	97.12
435.84	109.12
436.062	125.12
436.284	117.12
436.505	107.12
436.727	90.12
436.949	84.12
437.17	83.12
437.392	96.12
437.614	95.12
437.835	114.12
438.057	115.12
438.278	120.12
438.5	111.12
438.721	120.12
438.943	115.12
439.165	99.12
439.386	88.12
439.608	104.12
439.829	111.12
440.05	112.12
440.272	171.12
440.493	105.12
440.715	94.12
440.936	78.12
441.158	91.12
441.379	93.12
441.6	104.12
441.822	104.12
442.043	102.12
442.264	100.12
442.486	110.12
442.707	88.12
442.928	95.12
443.149	136.12
443.371	125.12
443.592	109.12
443.813	119.12
444.034	106.12
444.255	92.12
444.476	92.12
444.698	79.12
444.919	86.12
445.14	149.12
445.361	133.12
445.582	117.12
445.803	160.12
446.024	139.12
446.245	135.12
446.466	113.12
446.687	80.12
446.908	91.12
447.129	100.12
447.35	105.12
447.571	83.12
447.792	104.12
448.013	111.12
448.234	108.12
448.455	97.12
448.675	94.12
448.896	120.12
449.117	106.12
449.338	114.12
449.559	137.12
449.779	136.12
450	89.12
450.221	84.12
450.442	89.12
450.662	99.12
450.883	91.12
451.104	118.12
451.324	97.12
451.545	89.12
451.766	102.12
451.986	97.12
452.207	99.12
452.428	108.12
452.648	101.12
452.869	124.12
453.089	115.12
453.31	98.12
453.53	103.12
453.751	103.12
453.971	95.12
454.192	102.12
454.412	98.12
454.633	82.12
454.853	92.12
455.073	98.12
455.294	94.12
455.514	77.12
455.734	87.12
455.955	100.12
456.175	99.12
456.395	88.12
456.616	90.12
456.836	104.12
457.056	94.12
457.276	99.12
457.497	85.12
457.717	88.12
457.937	96.12
458.157	87.12
458.377	103.12
458.598	112.12
458.818	130.12
459.038	149.12
459.258	110.12
459.478	89.12
459.698	89.12
459.918	74.12
460.138	103.12
460.358	94.12
460.578	86.12
460.798	93.12
461.018	93.12
461.238	79.12
461.458	90.12
461.678	93.12
461.898	91.12
462.118	92.12
462.338	84.12
462.558	88.12
462.777	84.12
462.997	99.12
463.217	97.12
463.437	94.12
463.657	83.12
463.876	92.12
464.096	91.12
464.316	94.12
464.536	103.12
464.755	110.12
464.975	106.12
465.195	152.12
465.414	155.12
465.634	87.12
465.854	79.12
466.073	87.12
466.293	94.12
466.512	96.12
466.732	91.12
466.951	94.12
467.171	97.12
467.391	98.12
467.61	105.12
467.829	137.12
468.049	238.12
468.268	312.12
468.488	133.12
468.707	105.12
468.927	88.12
469.146	87.12
469.365	80.12
469.585	83.12
469.804	86.12
470.023	104.12
470.243	107.12
470.462	102.12
470.681	107.12
470.901	85.12
471.12	102.12
471.339	91.12
471.558	101.12
471.777	103.12
471.997	160.12
472.216	428.12
472.435	856.12
472.654	250.12
472.873	94.12
473.092	101.12
473.311	105.12
473.53	95.12
473.749	112.12
473.968	99.12
474.187	102.12
474.406	98.12
474.625	96.12
474.844	93.12
475.063	108.12
475.282	86.12
475.501	96.12
475.72	78.12
475.939	102.12
476.158	76.12
476.377	67.12
476.596	98.12
476.814	91.12
477.033	89.12
477.252	96.12
477.471	82.12
477.69	101.12
477.908	96.12
478.127	81.12
478.346	90.12
478.564	93.12
478.783	96.12
479.002	110.12
479.22	95.12
479.439	113.12
479.658	123.12
479.876	105.12
480.095	88.12
480.313	101.12
480.532	119.12
480.751	173.12
480.969	403.12
481.188	1430.12
481.406	856.12
481.624	188.12
481.843	104.12
482.061	104.12
482.28	100.12
482.498	110.12
482.717	97.12
482.935	89.12
483.153	101.12
483.372	95.12
483.59	90.12
483.808	100.12
484.027	98.12
484.245	95.12
484.463	99.12
484.681	107.12
484.9	90.12
485.118	96.12
485.336	99.12
485.554	112.12
485.772	114.12
485.99	117.12
486.209	115.12
486.427	110.12
486.645	128.12
486.863	115.12
487.081	108.12
487.299	105.12
487.517	88.12
487.735	102.12
487.953	114.12
488.171	88.12
488.389	94.12
488.607	88.12
488.825	96.12
489.043	93.12
489.261	103.12
489.479	92.12
489.696	93.12
489.914	96.12
490.132	92.12
490.35	113.12
490.568	100.12
490.786	88.12
491.003	96.12
491.221	102.12
491.439	101.12
491.657	94.12
491.874	112.12
492.092	105.12
492.31	104.12
492.527	88.12
492.745	95.12
492.963	90.12
493.18	97.12
493.398	97.12
493.615	94.12
493.833	89.12
494.05	94.12
494.268	88.12
494.485	83.12
494.703	92.12
494.92	90.12
495.138	97.12
495.355	107.12
495.573	85.12
495.79	95.12
496.008	96.12
496.225	86.12
496.442	112.12
496.66	97.12
496.877	86.12
497.094	87.12
497.312	100.12
497.529	105.12
497.746	95.12
497.963	96.12
498.181	93.12
498.398	95.12
498.615	109.12
498.832	91.12
499.049	93.12
499.267	93.12
499.484	87.12
499.701	99.12
499.918	97.12
500.135	84.12
500.352	96.12
500.569	87.12
500.786	88.12
501.003	104.12
501.22	99.12
501.437	95.12
501.654	98.12
501.871	103.12
502.088	108.12
502.305	94.12
502.522	88.12
502.739	96.12
502.956	99.12
503.172	97.12
503.389	94.12
503.606	107.12
503.823	116.12
504.04	79.12
504.256	92.12
504.473	94.12
504.69	93.12
504.907	101.12
505.123	120.12
505.34	104.12
505.557	101.12
505.773	84.12
505.99	95.12
506.207	92.12
506.423	91.12
506.64	101.12
506.856	84.12
507.073	98.12
507.289	101.12
507.506	90.12
507.722	111.12
507.939	97.12
508.155	101.12
508.372	88.12
508.588	86.12
508.805	102.12
509.021	122.12
509.238	100.12
509.454	102.12
509.67	110.12
509.887	84.12
510.103	123.12
510.319	183.12
510.536	657.12
510.752	2017.12
510.968	589.12
511.184	147.12
511.401	105.12
511.617	96.12
511.833	94.12
512.049	104.12
512.265	103.12
512.481	101.12
512.698	93.12
