Data from Circ_2001_H10_HRD10591_00075.txt Node
Date: Wed Jan 03 10:45:53 EST 2024
User: Yrep
Spectrometer: HR+D1059
Trigger mode: 1
Integration Time (sec): 1.000000E-1
Scans to average: 1
Electric dark correction enabled: true
Nonlinearity correction enabled: false
Boxcar width: 0
XAxis mode: Wavelengths
Number of Pixels in Spectrum: 2048
>>>>>Begin Spectral Data<<<<<
223.165	-12.75
223.4	-12.75
223.635	-12.75
223.869	-16.75
224.104	-20.75
224.338	-29.75
224.573	-17.75
224.808	-3.75
225.042	-22.75
225.277	4.25
225.511	-1.75
225.746	6.25
225.98	10.25
226.215	15.25
226.449	0.25
226.683	25.25
226.918	29.25
227.152	35.25
227.387	45.25
227.621	50.25
227.856	31.25
228.09	44.25
228.324	48.25
228.559	56.25
228.793	63.25
229.027	59.25
229.262	63.25
229.496	68.25
229.73	92.25
229.964	70.25
230.199	69.25
230.433	86.25
230.667	63.25
230.901	90.25
231.136	76.25
231.37	58.25
231.604	67.25
231.838	85.25
232.072	78.25
232.306	75.25
232.541	79.25
232.775	67.25
233.009	74.25
233.243	86.25
233.477	94.25
233.711	78.25
233.945	76.25
234.179	75.25
234.413	66.25
234.647	65.25
234.881	68.25
235.115	73.25
235.349	89.25
235.583	72.25
235.817	90.25
236.051	73.25
236.285	69.25
236.519	87.25
236.753	97.25
236.987	84.25
237.221	79.25
237.455	74.25
237.689	75.25
237.922	86.25
238.156	94.25
238.39	72.25
238.624	59.25
238.858	73.25
239.091	73.25
239.325	74.25
239.559	88.25
239.793	64.25
240.027	67.25
240.26	86.25
240.494	84.25
240.728	56.25
240.961	79.25
241.195	88.25
241.429	76.25
241.662	69.25
241.896	67.25
242.13	86.25
242.363	78.25
242.597	77.25
242.83	65.25
243.064	81.25
243.298	77.25
243.531	85.25
243.765	93.25
243.998	72.25
244.232	74.25
244.465	67.25
244.699	92.25
244.932	79.25
245.166	82.25
245.399	63.25
245.633	71.25
245.866	77.25
246.099	68.25
246.333	79.25
246.566	70.25
246.8	73.25
247.033	72.25
247.266	79.25
247.5	68.25
247.733	75.25
247.966	77.25
248.2	69.25
248.433	76.25
248.666	89.25
248.899	94.25
249.133	85.25
249.366	89.25
249.599	93.25
249.832	100.25
250.066	82.25
250.299	93.25
250.532	69.25
250.765	88.25
250.998	73.25
251.231	70.25
251.465	63.25
251.698	69.25
251.931	72.25
252.164	80.25
252.397	85.25
252.63	77.25
252.863	66.25
253.096	71.25
253.329	86.25
253.562	64.25
253.795	83.25
254.028	84.25
254.261	81.25
254.494	72.25
254.727	65.25
254.96	83.25
255.193	72.25
255.426	66.25
255.659	79.25
255.892	88.25
256.124	71.25
256.357	79.25
256.59	79.25
256.823	72.25
257.056	74.25
257.289	73.25
257.521	85.25
257.754	69.25
257.987	69.25
258.22	85.25
258.452	98.25
258.685	88.25
258.918	78.25
259.151	77.25
259.383	88.25
259.616	87.25
259.849	73.25
260.081	76.25
260.314	91.25
260.547	73.25
260.779	83.25
261.012	83.25
261.244	100.25
261.477	87.25
261.71	79.25
261.942	104.25
262.175	119.25
262.407	102.25
262.64	89.25
262.872	92.25
263.105	83.25
263.337	85.25
263.57	79.25
263.802	82.25
264.035	87.25
264.267	72.25
264.499	81.25
264.732	72.25
264.964	79.25
265.197	90.25
265.429	73.25
265.661	90.25
265.894	86.25
266.126	85.25
266.358	93.25
266.591	84.25
266.823	71.25
267.055	79.25
267.287	83.25
267.52	82.25
267.752	80.25
267.984	74.25
268.216	93.25
268.448	104.25
268.681	101.25
268.913	79.25
269.145	88.25
269.377	74.25
269.609	72.25
269.841	94.25
270.073	94.25
270.306	86.25
270.538	79.25
270.77	81.25
271.002	75.25
271.234	82.25
271.466	86.25
271.698	89.25
271.93	76.25
272.162	82.25
272.394	92.25
272.626	81.25
272.858	80.25
273.09	71.25
273.322	94.25
273.553	76.25
273.785	83.25
274.017	89.25
274.249	88.25
274.481	80.25
274.713	93.25
274.945	90.25
275.176	82.25
275.408	85.25
275.64	96.25
275.872	104.25
276.104	93.25
276.335	85.25
276.567	101.25
276.799	104.25
277.031	127.25
277.262	130.25
277.494	111.25
277.726	75.25
277.957	78.25
278.189	77.25
278.421	86.25
278.652	66.25
278.884	84.25
279.115	83.25
279.347	83.25
279.579	88.25
279.81	100.25
280.042	142.25
280.273	163.25
280.505	128.25
280.736	108.25
280.968	89.25
281.199	72.25
281.431	93.25
281.662	94.25
281.894	88.25
282.125	108.25
282.356	112.25
282.588	112.25
282.819	104.25
283.051	96.25
283.282	77.25
283.513	93.25
283.745	80.25
283.976	86.25
284.207	81.25
284.439	92.25
284.67	79.25
284.901	81.25
285.132	74.25
285.364	87.25
285.595	77.25
285.826	70.25
286.057	81.25
286.288	77.25
286.52	89.25
286.751	84.25
286.982	88.25
287.213	85.25
287.444	95.25
287.675	75.25
287.906	75.25
288.138	83.25
288.369	106.25
288.6	73.25
288.831	81.25
289.062	72.25
289.293	89.25
289.524	78.25
289.755	78.25
289.986	85.25
290.217	88.25
290.448	67.25
290.679	92.25
290.91	88.25
291.141	88.25
291.371	89.25
291.602	81.25
291.833	85.25
292.064	84.25
292.295	80.25
292.526	76.25
292.757	82.25
292.987	83.25
293.218	80.25
293.449	85.25
293.68	89.25
293.91	98.25
294.141	79.25
294.372	94.25
294.603	74.25
294.833	88.25
295.064	97.25
295.295	82.25
295.525	89.25
295.756	93.25
295.987	109.25
296.217	141.25
296.448	136.25
296.679	81.25
296.909	82.25
297.14	85.25
297.37	85.25
297.601	83.25
297.831	75.25
298.062	86.25
298.292	88.25
298.523	70.25
298.753	72.25
298.984	79.25
299.214	79.25
299.445	81.25
299.675	99.25
299.905	88.25
300.136	89.25
300.366	79.25
300.597	83.25
300.827	86.25
301.057	98.25
301.288	106.25
301.518	94.25
301.748	95.25
301.979	115.25
302.209	88.25
302.439	95.25
302.669	80.25
302.9	81.25
303.13	81.25
303.36	99.25
303.59	100.25
303.82	114.25
304.051	96.25
304.281	82.25
304.511	91.25
304.741	84.25
304.971	105.25
305.201	104.25
305.431	77.25
305.661	91.25
305.891	76.25
306.121	104.25
306.352	100.25
306.582	104.25
306.812	93.25
307.042	115.25
307.272	118.25
307.502	128.25
307.731	132.25
307.961	111.25
308.191	101.25
308.421	100.25
308.651	85.25
308.881	78.25
309.111	89.25
309.341	97.25
309.571	105.25
309.8	89.25
310.03	95.25
310.26	99.25
310.49	96.25
310.72	99.25
310.949	93.25
311.179	100.25
311.409	99.25
311.639	99.25
311.868	95.25
312.098	87.25
312.328	77.25
312.557	107.25
312.787	96.25
313.017	92.25
313.246	89.25
313.476	87.25
313.706	87.25
313.935	96.25
314.165	97.25
314.394	99.25
314.624	93.25
314.853	84.25
315.083	100.25
315.312	98.25
315.542	91.25
315.771	85.25
316.001	94.25
316.23	99.25
316.46	97.25
316.689	77.25
316.919	79.25
317.148	91.25
317.377	99.25
317.607	98.25
317.836	101.25
318.065	93.25
318.295	87.25
318.524	86.25
318.753	83.25
318.983	80.25
319.212	90.25
319.441	104.25
319.67	109.25
319.9	84.25
320.129	94.25
320.358	100.25
320.587	98.25
320.816	104.25
321.046	94.25
321.275	94.25
321.504	97.25
321.733	89.25
321.962	96.25
322.191	91.25
322.42	100.25
322.649	113.25
322.878	108.25
323.108	103.25
323.337	111.25
323.566	136.25
323.795	151.25
324.024	204.25
324.253	404.25
324.482	806.25
324.71	1661.25
324.939	2139.25
325.168	785.25
325.397	238.25
325.626	130.25
325.855	127.25
326.084	124.25
326.313	145.25
326.542	148.25
326.77	223.25
326.999	451.25
327.228	881.25
327.457	1603.25
327.686	1324.25
327.914	421.25
328.143	351.25
328.372	364.25
328.6	239.25
328.829	143.25
329.058	129.25
329.287	145.25
329.515	132.25
329.744	176.25
329.972	316.25
330.201	607.25
330.43	802.25
330.658	360.25
330.887	195.25
331.115	141.25
331.344	113.25
331.572	96.25
331.801	105.25
332.03	111.25
332.258	100.25
332.486	87.25
332.715	95.25
332.943	107.25
333.172	109.25
333.4	112.25
333.629	113.25
333.857	150.25
334.085	290.25
334.314	587.25
334.542	1031.25
334.771	917.25
334.999	267.25
335.227	146.25
335.455	105.25
335.684	103.25
335.912	110.25
336.14	89.25
336.369	88.25
336.597	93.25
336.825	94.25
337.053	89.25
337.281	89.25
337.51	89.25
337.738	107.25
337.966	86.25
338.194	80.25
338.422	93.25
338.65	83.25
338.878	84.25
339.106	86.25
339.334	75.25
339.562	83.25
339.79	79.25
340.018	88.25
340.246	88.25
340.474	89.25
340.702	94.25
340.93	95.25
341.158	100.25
341.386	90.25
341.614	80.25
341.842	94.25
342.07	87.25
342.298	95.25
342.526	81.25
342.754	76.25
342.981	76.25
343.209	75.25
343.437	95.25
343.665	82.25
343.893	81.25
344.12	86.25
344.348	83.25
344.576	74.25
344.804	72.25
345.031	94.25
345.259	89.25
345.487	90.25
345.714	100.25
345.942	84.25
346.17	78.25
346.397	84.25
346.625	82.25
346.853	81.25
347.08	87.25
347.308	83.25
347.535	99.25
347.763	98.25
347.99	104.25
348.218	102.25
348.445	92.25
348.673	105.25
348.9	97.25
349.128	88.25
349.355	91.25
349.583	106.25
349.81	93.25
350.037	81.25
350.265	96.25
350.492	85.25
350.72	96.25
350.947	95.25
351.174	101.25
351.402	101.25
351.629	100.25
351.856	94.25
352.083	107.25
352.311	110.25
352.538	105.25
352.765	101.25
352.992	111.25
353.22	102.25
353.447	94.25
353.674	91.25
353.901	105.25
354.128	85.25
354.355	90.25
354.583	94.25
354.81	95.25
355.037	98.25
355.264	73.25
355.491	90.25
355.718	84.25
355.945	81.25
356.172	81.25
356.399	89.25
356.626	76.25
356.853	94.25
357.08	94.25
357.307	86.25
357.534	75.25
357.761	82.25
357.988	83.25
358.215	87.25
358.441	81.25
358.668	84.25
358.895	77.25
359.122	85.25
359.349	88.25
359.576	86.25
359.802	91.25
360.029	105.25
360.256	99.25
360.483	97.25
360.709	77.25
360.936	89.25
361.163	85.25
361.39	86.25
361.616	83.25
361.843	81.25
362.07	96.25
362.296	92.25
362.523	91.25
362.749	92.25
362.976	90.25
363.203	77.25
363.429	89.25
363.656	81.25
363.882	92.25
364.109	88.25
364.335	75.25
364.562	78.25
364.788	84.25
365.015	99.25
365.241	85.25
365.468	106.25
365.694	100.25
365.92	87.25
366.147	96.25
366.373	87.25
366.599	73.25
366.826	88.25
367.052	81.25
367.278	86.25
367.505	92.25
367.731	91.25
367.957	81.25
368.184	99.25
368.41	94.25
368.636	114.25
368.862	118.25
369.089	82.25
369.315	86.25
369.541	108.25
369.767	76.25
369.993	86.25
370.219	90.25
370.445	81.25
370.672	76.25
370.898	74.25
371.124	93.25
371.35	85.25
371.576	87.25
371.802	79.25
372.028	84.25
372.254	78.25
372.48	87.25
372.706	84.25
372.932	85.25
373.158	92.25
373.384	73.25
373.61	84.25
373.835	86.25
374.061	79.25
374.287	91.25
374.513	78.25
374.739	88.25
374.965	79.25
375.191	96.25
375.416	79.25
375.642	86.25
375.868	89.25
376.094	74.25
376.319	98.25
376.545	78.25
376.771	84.25
376.997	75.25
377.222	82.25
377.448	76.25
377.674	84.25
377.899	83.25
378.125	72.25
378.35	87.25
378.576	85.25
378.802	77.25
379.027	79.25
379.253	90.25
379.478	83.25
379.704	80.25
379.929	90.25
380.155	84.25
380.38	103.25
380.606	86.25
380.831	87.25
381.057	94.25
381.282	76.25
381.507	85.25
381.733	93.25
381.958	97.25
382.184	92.25
382.409	96.25
382.634	99.25
382.86	93.25
383.085	94.25
383.31	99.25
383.535	88.25
383.761	83.25
383.986	85.25
384.211	90.25
384.436	101.25
384.662	103.25
384.887	96.25
385.112	108.25
385.337	92.25
385.562	112.25
385.787	95.25
386.013	105.25
386.238	108.25
386.463	113.25
386.688	101.25
386.913	103.25
387.138	97.25
387.363	98.25
387.588	92.25
387.813	86.25
388.038	91.25
388.263	104.25
388.488	99.25
388.713	97.25
388.938	89.25
389.163	79.25
389.387	76.25
389.612	96.25
389.837	86.25
390.062	86.25
390.287	82.25
390.512	72.25
390.736	76.25
390.961	96.25
391.186	94.25
391.411	87.25
391.636	78.25
391.86	75.25
392.085	79.25
392.31	70.25
392.534	79.25
392.759	77.25
392.984	92.25
393.208	88.25
393.433	76.25
393.658	89.25
393.882	84.25
394.107	78.25
394.331	94.25
394.556	73.25
394.78	93.25
395.005	91.25
395.229	91.25
395.454	81.25
395.678	84.25
395.903	85.25
396.127	85.25
396.352	88.25
396.576	87.25
396.801	88.25
397.025	93.25
397.249	81.25
397.474	72.25
397.698	91.25
397.922	85.25
398.147	88.25
398.371	82.25
398.595	67.25
398.82	80.25
399.044	78.25
399.268	74.25
399.492	80.25
399.717	88.25
399.941	79.25
400.165	89.25
400.389	79.25
400.613	92.25
400.837	80.25
401.062	88.25
401.286	84.25
401.51	80.25
401.734	102.25
401.958	92.25
402.182	118.25
402.406	168.25
402.63	105.25
402.854	86.25
403.078	67.25
403.302	84.25
403.526	73.25
403.75	87.25
403.974	94.25
404.198	84.25
404.422	91.25
404.645	92.25
404.869	93.25
405.093	108.25
405.317	117.25
405.541	114.25
405.765	105.25
405.988	115.25
406.212	188.25
406.436	217.25
406.66	159.25
406.883	97.25
407.107	83.25
407.331	99.25
407.555	97.25
407.778	97.25
408.002	86.25
408.226	85.25
408.449	78.25
408.673	105.25
408.896	89.25
409.12	93.25
409.344	67.25
409.567	87.25
409.791	95.25
410.014	92.25
410.238	84.25
410.461	91.25
410.685	95.25
410.908	87.25
411.132	103.25
411.355	101.25
411.578	89.25
411.802	102.25
412.025	81.25
412.249	88.25
412.472	100.25
412.695	101.25
412.919	95.25
413.142	75.25
413.365	84.25
413.589	89.25
413.812	88.25
414.035	95.25
414.258	85.25
414.482	83.25
414.705	78.25
414.928	87.25
415.151	77.25
415.374	78.25
415.597	80.25
415.821	82.25
416.044	80.25
416.267	77.25
416.49	89.25
416.713	93.25
416.936	85.25
417.159	65.25
417.382	96.25
417.605	88.25
417.828	92.25
418.051	93.25
418.274	88.25
418.497	85.25
418.72	72.25
418.943	84.25
419.166	89.25
419.389	93.25
419.611	93.25
419.834	84.25
420.057	74.25
420.28	81.25
420.503	87.25
420.726	83.25
420.948	87.25
421.171	89.25
421.394	81.25
421.617	90.25
421.839	92.25
422.062	86.25
422.285	86.25
422.507	99.25
422.73	91.25
422.953	82.25
423.175	88.25
423.398	80.25
423.621	83.25
423.843	87.25
424.066	92.25
424.288	92.25
424.511	99.25
424.733	97.25
424.956	104.25
425.178	101.25
425.401	97.25
425.623	103.25
425.846	95.25
426.068	78.25
426.291	95.25
426.513	91.25
426.735	83.25
426.958	73.25
427.18	99.25
427.402	155.25
427.625	188.25
427.847	194.25
428.069	177.25
428.292	102.25
428.514	87.25
428.736	79.25
428.958	84.25
429.181	95.25
429.403	87.25
429.625	94.25
429.847	96.25
430.069	89.25
430.292	97.25
430.514	91.25
430.736	80.25
430.958	72.25
431.18	84.25
431.402	103.25
431.624	80.25
431.846	92.25
432.068	85.25
432.29	94.25
432.512	86.25
432.734	85.25
432.956	89.25
433.178	98.25
433.4	83.25
433.622	95.25
433.844	88.25
434.066	83.25
434.287	77.25
434.509	94.25
434.731	79.25
434.953	79.25
435.175	79.25
435.397	95.25
435.618	104.25
435.84	102.25
436.062	111.25
436.284	105.25
436.505	101.25
436.727	94.25
436.949	77.25
437.17	76.25
437.392	85.25
437.614	100.25
437.835	109.25
438.057	114.25
438.278	119.25
438.5	105.25
438.721	119.25
438.943	95.25
439.165	68.25
439.386	83.25
439.608	92.25
439.829	94.25
440.05	116.25
440.272	150.25
440.493	110.25
440.715	93.25
440.936	79.25
441.158	85.25
441.379	87.25
441.6	100.25
441.822	87.25
442.043	89.25
442.264	104.25
442.486	94.25
442.707	107.25
442.928	103.25
443.149	131.25
443.371	133.25
443.592	116.25
443.813	117.25
444.034	104.25
444.255	85.25
444.476	84.25
444.698	94.25
444.919	78.25
445.14	120.25
445.361	126.25
445.582	124.25
445.803	149.25
446.024	153.25
446.245	140.25
446.466	116.25
446.687	91.25
446.908	86.25
447.129	95.25
447.35	89.25
447.571	92.25
447.792	70.25
448.013	81.25
448.234	102.25
448.455	86.25
448.675	96.25
448.896	113.25
449.117	85.25
449.338	88.25
449.559	107.25
449.779	143.25
450	85.25
450.221	78.25
450.442	87.25
450.662	90.25
450.883	112.25
451.104	113.25
451.324	75.25
451.545	86.25
451.766	89.25
451.986	79.25
452.207	80.25
452.428	96.25
452.648	96.25
452.869	118.25
453.089	123.25
453.31	101.25
453.53	89.25
453.751	102.25
453.971	90.25
454.192	100.25
454.412	98.25
454.633	80.25
454.853	95.25
455.073	83.25
455.294	99.25
455.514	99.25
455.734	90.25
455.955	83.25
456.175	93.25
456.395	72.25
456.616	75.25
456.836	82.25
457.056	85.25
457.276	73.25
457.497	80.25
457.717	98.25
457.937	79.25
458.157	85.25
458.377	93.25
458.598	108.25
458.818	154.25
459.038	160.25
459.258	126.25
459.478	101.25
459.698	91.25
459.918	81.25
460.138	104.25
460.358	88.25
460.578	102.25
460.798	98.25
461.018	87.25
461.238	81.25
461.458	91.25
461.678	79.25
461.898	86.25
462.118	73.25
462.338	87.25
462.558	88.25
462.777	71.25
462.997	93.25
463.217	99.25
463.437	94.25
463.657	80.25
463.876	80.25
464.096	89.25
464.316	86.25
464.536	91.25
464.755	89.25
464.975	115.25
465.195	171.25
465.414	162.25
465.634	95.25
465.854	84.25
466.073	97.25
466.293	88.25
466.512	82.25
466.732	85.25
466.951	91.25
467.171	104.25
467.391	97.25
467.61	113.25
467.829	151.25
468.049	361.25
468.268	502.25
468.488	161.25
468.707	104.25
468.927	87.25
469.146	81.25
469.365	81.25
469.585	85.25
469.804	103.25
470.023	95.25
470.243	94.25
470.462	101.25
470.681	114.25
470.901	101.25
471.12	103.25
471.339	97.25
471.558	86.25
471.777	130.25
471.997	211.25
472.216	686.25
472.435	1481.25
472.654	384.25
472.873	130.25
473.092	98.25
473.311	89.25
473.53	82.25
473.749	98.25
473.968	101.25
474.187	97.25
474.406	97.25
474.625	85.25
474.844	88.25
475.063	66.25
475.282	73.25
475.501	86.25
475.72	87.25
475.939	74.25
476.158	90.25
476.377	86.25
476.596	83.25
476.814	92.25
477.033	87.25
477.252	100.25
477.471	100.25
477.69	90.25
477.908	96.25
478.127	92.25
478.346	89.25
478.564	86.25
478.783	103.25
479.002	103.25
479.22	102.25
479.439	116.25
479.658	104.25
479.876	121.25
480.095	100.25
480.313	122.25
480.532	117.25
480.751	224.25
480.969	673.25
481.188	2612.25
481.406	1482.25
481.624	267.25
481.843	130.25
482.061	94.25
482.28	96.25
482.498	83.25
482.717	99.25
482.935	75.25
483.153	93.25
483.372	104.25
483.59	77.25
483.808	89.25
484.027	72.25
484.245	96.25
484.463	80.25
484.681	85.25
484.9	97.25
485.118	105.25
485.336	89.25
485.554	103.25
485.772	93.25
485.99	88.25
486.209	90.25
486.427	104.25
486.645	115.25
486.863	116.25
487.081	116.25
487.299	90.25
487.517	93.25
487.735	96.25
487.953	88.25
488.171	98.25
488.389	92.25
488.607	93.25
488.825	96.25
489.043	96.25
489.261	74.25
489.479	87.25
489.696	89.25
489.914	81.25
490.132	89.25
490.35	95.25
490.568	91.25
490.786	101.25
491.003	84.25
491.221	85.25
491.439	88.25
491.657	99.25
491.874	84.25
492.092	104.25
492.31	87.25
492.527	78.25
492.745	88.25
492.963	79.25
493.18	90.25
493.398	100.25
493.615	91.25
493.833	106.25
494.05	92.25
494.268	85.25
494.485	92.25
494.703	86.25
494.92	100.25
495.138	88.25
495.355	87.25
495.573	81.25
495.79	82.25
496.008	88.25
496.225	72.25
496.442	81.25
496.66	91.25
496.877	93.25
497.094	95.25
497.312	68.25
497.529	83.25
497.746	86.25
497.963	89.25
498.181	92.25
498.398	94.25
498.615	107.25
498.832	102.25
499.049	97.25
499.267	83.25
499.484	79.25
499.701	104.25
499.918	85.25
500.135	93.25
500.352	91.25
500.569	84.25
500.786	110.25
501.003	92.25
501.22	82.25
501.437	97.25
501.654	114.25
501.871	104.25
502.088	96.25
502.305	88.25
502.522	84.25
502.739	85.25
502.956	78.25
503.172	100.25
503.389	100.25
503.606	110.25
503.823	84.25
504.04	85.25
504.256	83.25
504.473	90.25
504.69	81.25
504.907	95.25
505.123	88.25
505.34	80.25
505.557	89.25
505.773	104.25
505.99	94.25
506.207	91.25
506.423	75.25
506.64	88.25
506.856	95.25
507.073	83.25
507.289	93.25
507.506	96.25
507.722	101.25
507.939	111.25
508.155	99.25
508.372	85.25
508.588	88.25
508.805	92.25
509.021	85.25
509.238	81.25
509.454	88.25
509.67	98.25
509.887	99.25
510.103	120.25
510.319	204.25
510.536	686.25
510.752	2191.25
510.968	603.25
511.184	138.25
511.401	93.25
511.617	91.25
511.833	89.25
512.049	89.25
512.265	96.25
512.481	82.25
512.698	77.25
512.914	82.25
513.13	93.25
513.346	99.25
513.562	93.25
513.778	98.25
513.994	97.25
514.21	103.25
514.426	126.25
514.642	149.25
514.858	126.25
515.074	172.25
515.29	477.25
515.506	1469.25
515.721	562.25
515.937	145.25
