Data from Circ_2001_H10_HRD10591_00069.txt Node
Date: Wed Jan 03 10:45:52 EST 2024
User: Yrep
Spectrometer: HR+D1059
Trigger mode: 1
Integration Time (sec): 1.000000E-1
Scans to average: 1
Electric dark correction enabled: true
Nonlinearity correction enabled: false
Boxcar width: 0
XAxis mode: Wavelengths
Number of Pixels in Spectrum: 2048
>>>>>Begin Spectral Data<<<<<
223.165	-20.44
223.4	-20.44
223.635	-20.44
223.869	-23.44
224.104	-27.44
224.338	-23.44
224.573	-14.44
224.808	-6.44
225.042	-16.44
225.277	-13.44
225.511	1.56
225.746	1.56
225.98	7.56
226.215	13.56
226.449	26.56
226.683	28.56
226.918	27.56
227.152	38.56
227.387	31.56
227.621	31.56
227.856	45.56
228.09	44.56
228.324	59.56
228.559	60.56
228.793	57.56
229.027	48.56
229.262	63.56
229.496	81.56
229.73	78.56
229.964	89.56
230.199	76.56
230.433	82.56
230.667	87.56
230.901	83.56
231.136	90.56
231.37	90.56
231.604	82.56
231.838	89.56
232.072	84.56
232.306	84.56
232.541	85.56
232.775	90.56
233.009	74.56
233.243	101.56
233.477	84.56
233.711	77.56
233.945	84.56
234.179	80.56
234.413	73.56
234.647	86.56
234.881	81.56
235.115	82.56
235.349	81.56
235.583	73.56
235.817	72.56
236.051	75.56
236.285	71.56
236.519	81.56
236.753	82.56
236.987	86.56
237.221	72.56
237.455	65.56
237.689	90.56
237.922	82.56
238.156	69.56
238.39	68.56
238.624	71.56
238.858	75.56
239.091	71.56
239.325	81.56
239.559	69.56
239.793	86.56
240.027	75.56
240.26	76.56
240.494	75.56
240.728	69.56
240.961	71.56
241.195	81.56
241.429	64.56
241.662	79.56
241.896	74.56
242.13	75.56
242.363	66.56
242.597	86.56
242.83	70.56
243.064	79.56
243.298	79.56
243.531	84.56
243.765	76.56
243.998	75.56
244.232	86.56
244.465	75.56
244.699	91.56
244.932	80.56
245.166	91.56
245.399	81.56
245.633	81.56
245.866	58.56
246.099	94.56
246.333	65.56
246.566	75.56
246.8	68.56
247.033	65.56
247.266	79.56
247.5	79.56
247.733	74.56
247.966	80.56
248.2	87.56
248.433	88.56
248.666	82.56
248.899	83.56
249.133	96.56
249.366	95.56
249.599	85.56
249.832	86.56
250.066	83.56
250.299	77.56
250.532	101.56
250.765	82.56
250.998	84.56
251.231	77.56
251.465	66.56
251.698	78.56
251.931	88.56
252.164	76.56
252.397	72.56
252.63	92.56
252.863	87.56
253.096	70.56
253.329	82.56
253.562	85.56
253.795	79.56
254.028	83.56
254.261	79.56
254.494	73.56
254.727	84.56
254.96	80.56
255.193	87.56
255.426	84.56
255.659	74.56
255.892	91.56
256.124	74.56
256.357	83.56
256.59	79.56
256.823	78.56
257.056	75.56
257.289	92.56
257.521	86.56
257.754	86.56
257.987	100.56
258.22	97.56
258.452	82.56
258.685	83.56
258.918	80.56
259.151	71.56
259.383	87.56
259.616	85.56
259.849	65.56
260.081	72.56
260.314	92.56
260.547	80.56
260.779	94.56
261.012	93.56
261.244	92.56
261.477	93.56
261.71	91.56
261.942	102.56
262.175	130.56
262.407	90.56
262.64	101.56
262.872	84.56
263.105	75.56
263.337	86.56
263.57	71.56
263.802	79.56
264.035	79.56
264.267	76.56
264.499	95.56
264.732	87.56
264.964	84.56
265.197	81.56
265.429	75.56
265.661	91.56
265.894	93.56
266.126	84.56
266.358	76.56
266.591	87.56
266.823	78.56
267.055	81.56
267.287	101.56
267.52	85.56
267.752	87.56
267.984	86.56
268.216	85.56
268.448	91.56
268.681	79.56
268.913	88.56
269.145	81.56
269.377	95.56
269.609	75.56
269.841	97.56
270.073	81.56
270.306	77.56
270.538	79.56
270.77	87.56
271.002	92.56
271.234	83.56
271.466	84.56
271.698	110.56
271.93	95.56
272.162	86.56
272.394	101.56
272.626	72.56
272.858	74.56
273.09	87.56
273.322	82.56
273.553	69.56
273.785	79.56
274.017	92.56
274.249	74.56
274.481	94.56
274.713	97.56
274.945	86.56
275.176	95.56
275.408	95.56
275.64	82.56
275.872	108.56
276.104	101.56
276.335	93.56
276.567	107.56
276.799	102.56
277.031	139.56
277.262	147.56
277.494	123.56
277.726	82.56
277.957	85.56
278.189	89.56
278.421	93.56
278.652	82.56
278.884	83.56
279.115	90.56
279.347	97.56
279.579	105.56
279.81	98.56
280.042	141.56
280.273	161.56
280.505	126.56
280.736	90.56
280.968	99.56
281.199	97.56
281.431	83.56
281.662	84.56
281.894	100.56
282.125	100.56
282.356	117.56
282.588	153.56
282.819	117.56
283.051	101.56
283.282	89.56
283.513	93.56
283.745	100.56
283.976	84.56
284.207	81.56
284.439	87.56
284.67	79.56
284.901	88.56
285.132	83.56
285.364	75.56
285.595	92.56
285.826	83.56
286.057	95.56
286.288	88.56
286.52	84.56
286.751	96.56
286.982	78.56
287.213	82.56
287.444	91.56
287.675	84.56
287.906	85.56
288.138	84.56
288.369	105.56
288.6	104.56
288.831	87.56
289.062	90.56
289.293	85.56
289.524	89.56
289.755	64.56
289.986	81.56
290.217	89.56
290.448	84.56
290.679	93.56
290.91	99.56
291.141	88.56
291.371	85.56
291.602	84.56
291.833	84.56
292.064	104.56
292.295	90.56
292.526	80.56
292.757	90.56
292.987	91.56
293.218	91.56
293.449	88.56
293.68	90.56
293.91	90.56
294.141	95.56
294.372	84.56
294.603	95.56
294.833	90.56
295.064	93.56
295.295	87.56
295.525	83.56
295.756	103.56
295.987	121.56
296.217	143.56
296.448	103.56
296.679	109.56
296.909	82.56
297.14	78.56
297.37	93.56
297.601	86.56
297.831	98.56
298.062	85.56
298.292	75.56
298.523	98.56
298.753	92.56
298.984	76.56
299.214	86.56
299.445	102.56
299.675	73.56
299.905	96.56
300.136	87.56
300.366	87.56
300.597	76.56
300.827	97.56
301.057	92.56
301.288	111.56
301.518	104.56
301.748	92.56
301.979	95.56
302.209	90.56
302.439	95.56
302.669	93.56
302.9	105.56
303.13	93.56
303.36	84.56
303.59	114.56
303.82	113.56
304.051	90.56
304.281	90.56
304.511	96.56
304.741	84.56
304.971	90.56
305.201	79.56
305.431	76.56
305.661	93.56
305.891	92.56
306.121	95.56
306.352	93.56
306.582	94.56
306.812	98.56
307.042	118.56
307.272	112.56
307.502	148.56
307.731	134.56
307.961	96.56
308.191	106.56
308.421	92.56
308.651	88.56
308.881	88.56
309.111	92.56
309.341	99.56
309.571	93.56
309.8	110.56
310.03	101.56
310.26	105.56
310.49	107.56
310.72	100.56
310.949	120.56
311.179	99.56
311.409	81.56
311.639	90.56
311.868	86.56
312.098	101.56
312.328	95.56
312.557	99.56
312.787	118.56
313.017	115.56
313.246	108.56
313.476	92.56
313.706	86.56
313.935	103.56
314.165	101.56
314.394	114.56
314.624	102.56
314.853	104.56
315.083	99.56
315.312	96.56
315.542	98.56
315.771	91.56
316.001	88.56
316.23	96.56
316.46	91.56
316.689	87.56
316.919	91.56
317.148	92.56
317.377	93.56
317.607	106.56
317.836	95.56
318.065	83.56
318.295	99.56
318.524	97.56
318.753	81.56
318.983	108.56
319.212	109.56
319.441	104.56
319.67	109.56
319.9	103.56
320.129	76.56
320.358	84.56
320.587	99.56
320.816	92.56
321.046	119.56
321.275	104.56
321.504	91.56
321.733	101.56
321.962	106.56
322.191	90.56
322.42	92.56
322.649	115.56
322.878	104.56
323.108	127.56
323.337	119.56
323.566	133.56
323.795	155.56
324.024	220.56
324.253	413.56
324.482	886.56
324.71	1890.56
324.939	2417.56
325.168	883.56
325.397	265.56
325.626	155.56
325.855	147.56
326.084	127.56
326.313	133.56
326.542	175.56
326.77	258.56
326.999	482.56
327.228	1021.56
327.457	1845.56
327.686	1467.56
327.914	488.56
328.143	375.56
328.372	431.56
328.6	260.56
328.829	156.56
329.058	169.56
329.287	151.56
329.515	149.56
329.744	204.56
329.972	337.56
330.201	637.56
330.43	861.56
330.658	409.56
330.887	195.56
331.115	133.56
331.344	120.56
331.572	106.56
331.801	101.56
332.03	110.56
332.258	108.56
332.486	103.56
332.715	111.56
332.943	100.56
333.172	103.56
333.4	99.56
333.629	129.56
333.857	183.56
334.085	302.56
334.314	599.56
334.542	1083.56
334.771	996.56
334.999	292.56
335.227	144.56
335.455	121.56
335.684	119.56
335.912	104.56
336.14	99.56
336.369	84.56
336.597	95.56
336.825	97.56
337.053	97.56
337.281	112.56
337.51	109.56
337.738	108.56
337.966	98.56
338.194	95.56
338.422	111.56
338.65	96.56
338.878	102.56
339.106	91.56
339.334	101.56
339.562	99.56
339.79	94.56
340.018	102.56
340.246	92.56
340.474	102.56
340.702	102.56
340.93	95.56
341.158	99.56
341.386	97.56
341.614	94.56
341.842	88.56
342.07	90.56
342.298	104.56
342.526	106.56
342.754	97.56
342.981	81.56
343.209	90.56
343.437	96.56
343.665	81.56
343.893	83.56
344.12	98.56
344.348	87.56
344.576	88.56
344.804	85.56
345.031	101.56
345.259	103.56
345.487	95.56
345.714	111.56
345.942	98.56
346.17	101.56
346.397	104.56
346.625	77.56
346.853	89.56
347.08	86.56
347.308	84.56
347.535	95.56
347.763	110.56
347.99	91.56
348.218	111.56
348.445	107.56
348.673	93.56
348.9	102.56
349.128	106.56
349.355	97.56
349.583	98.56
349.81	92.56
350.037	90.56
350.265	84.56
350.492	99.56
350.72	78.56
350.947	110.56
351.174	119.56
351.402	103.56
351.629	89.56
351.856	97.56
352.083	112.56
352.311	107.56
352.538	107.56
352.765	120.56
352.992	118.56
353.22	97.56
353.447	112.56
353.674	91.56
353.901	91.56
354.128	85.56
354.355	107.56
354.583	94.56
354.81	100.56
355.037	87.56
355.264	106.56
355.491	84.56
355.718	99.56
355.945	92.56
356.172	73.56
356.399	109.56
356.626	96.56
356.853	92.56
357.08	93.56
357.307	86.56
357.534	97.56
357.761	82.56
357.988	92.56
358.215	101.56
358.441	93.56
358.668	98.56
358.895	82.56
359.122	88.56
359.349	106.56
359.576	92.56
359.802	96.56
360.029	110.56
360.256	110.56
360.483	94.56
360.709	84.56
360.936	89.56
361.163	87.56
361.39	98.56
361.616	104.56
361.843	96.56
362.07	97.56
362.296	91.56
362.523	83.56
362.749	86.56
362.976	79.56
363.203	94.56
363.429	104.56
363.656	82.56
363.882	84.56
364.109	81.56
364.335	95.56
364.562	87.56
364.788	83.56
365.015	97.56
365.241	96.56
365.468	111.56
365.694	101.56
365.92	101.56
366.147	94.56
366.373	82.56
366.599	98.56
366.826	91.56
367.052	88.56
367.278	89.56
367.505	91.56
367.731	97.56
367.957	86.56
368.184	102.56
368.41	104.56
368.636	107.56
368.862	127.56
369.089	105.56
369.315	85.56
369.541	89.56
369.767	107.56
369.993	106.56
370.219	88.56
370.445	86.56
370.672	89.56
370.898	95.56
371.124	90.56
371.35	96.56
371.576	95.56
371.802	81.56
372.028	90.56
372.254	91.56
372.48	98.56
372.706	87.56
372.932	85.56
373.158	87.56
373.384	86.56
373.61	88.56
373.835	76.56
374.061	91.56
374.287	88.56
374.513	91.56
374.739	99.56
374.965	93.56
375.191	83.56
375.416	89.56
375.642	94.56
375.868	97.56
376.094	97.56
376.319	88.56
376.545	86.56
376.771	96.56
376.997	103.56
377.222	72.56
377.448	100.56
377.674	80.56
377.899	100.56
378.125	80.56
378.35	105.56
378.576	101.56
378.802	88.56
379.027	108.56
379.253	91.56
379.478	83.56
379.704	92.56
379.929	102.56
380.155	91.56
380.38	91.56
380.606	88.56
380.831	97.56
381.057	115.56
381.282	92.56
381.507	92.56
381.733	84.56
381.958	93.56
382.184	109.56
382.409	90.56
382.634	91.56
382.86	99.56
383.085	96.56
383.31	91.56
383.535	102.56
383.761	88.56
383.986	101.56
384.211	104.56
384.436	97.56
384.662	92.56
384.887	101.56
385.112	111.56
385.337	106.56
385.562	89.56
385.787	102.56
386.013	103.56
386.238	110.56
386.463	132.56
386.688	103.56
386.913	95.56
387.138	101.56
387.363	87.56
387.588	108.56
387.813	99.56
388.038	107.56
388.263	89.56
388.488	114.56
388.713	91.56
388.938	81.56
389.163	79.56
389.387	91.56
389.612	78.56
389.837	92.56
390.062	98.56
390.287	99.56
390.512	91.56
390.736	101.56
390.961	76.56
391.186	102.56
391.411	93.56
391.636	104.56
391.86	82.56
392.085	85.56
392.31	94.56
392.534	95.56
392.759	87.56
392.984	89.56
393.208	83.56
393.433	93.56
393.658	89.56
393.882	77.56
394.107	67.56
394.331	81.56
394.556	82.56
394.78	89.56
395.005	82.56
395.229	82.56
395.454	80.56
395.678	86.56
395.903	91.56
396.127	94.56
396.352	85.56
396.576	84.56
396.801	77.56
397.025	81.56
397.249	83.56
397.474	87.56
397.698	95.56
397.922	93.56
398.147	95.56
398.371	79.56
398.595	106.56
398.82	88.56
399.044	104.56
399.268	84.56
399.492	81.56
399.717	92.56
399.941	93.56
400.165	88.56
400.389	91.56
400.613	87.56
400.837	87.56
401.062	98.56
401.286	84.56
401.51	106.56
401.734	96.56
401.958	112.56
402.182	131.56
402.406	171.56
402.63	122.56
402.854	93.56
403.078	82.56
403.302	97.56
403.526	89.56
403.75	88.56
403.974	83.56
404.198	100.56
404.422	101.56
404.645	89.56
404.869	73.56
405.093	91.56
405.317	109.56
405.541	119.56
405.765	108.56
405.988	109.56
406.212	172.56
406.436	228.56
406.66	157.56
406.883	99.56
407.107	107.56
407.331	100.56
407.555	94.56
407.778	105.56
408.002	101.56
408.226	93.56
408.449	99.56
408.673	89.56
408.896	92.56
409.12	107.56
409.344	83.56
409.567	88.56
409.791	91.56
410.014	94.56
410.238	104.56
410.461	92.56
410.685	82.56
410.908	95.56
411.132	91.56
411.355	97.56
411.578	88.56
411.802	99.56
412.025	84.56
412.249	98.56
412.472	122.56
412.695	112.56
412.919	105.56
413.142	85.56
413.365	81.56
413.589	93.56
413.812	85.56
414.035	82.56
414.258	93.56
414.482	72.56
414.705	95.56
414.928	94.56
415.151	80.56
415.374	92.56
415.597	82.56
415.821	96.56
416.044	85.56
416.267	91.56
416.49	90.56
416.713	92.56
416.936	100.56
417.159	87.56
417.382	93.56
417.605	101.56
417.828	96.56
418.051	97.56
418.274	92.56
418.497	84.56
418.72	93.56
418.943	93.56
419.166	80.56
419.389	86.56
419.611	88.56
419.834	97.56
420.057	89.56
420.28	87.56
420.503	81.56
420.726	81.56
420.948	69.56
421.171	100.56
421.394	97.56
421.617	90.56
421.839	84.56
422.062	87.56
422.285	87.56
422.507	114.56
422.73	95.56
422.953	87.56
423.175	78.56
423.398	87.56
423.621	99.56
423.843	90.56
424.066	89.56
424.288	85.56
424.511	85.56
424.733	93.56
424.956	108.56
425.178	106.56
425.401	90.56
425.623	102.56
425.846	91.56
426.068	103.56
426.291	86.56
426.513	89.56
426.735	89.56
426.958	95.56
427.18	114.56
427.402	162.56
427.625	203.56
427.847	192.56
428.069	180.56
428.292	111.56
428.514	83.56
428.736	90.56
428.958	74.56
429.181	89.56
429.403	84.56
429.625	87.56
429.847	83.56
430.069	103.56
430.292	98.56
430.514	86.56
430.736	80.56
430.958	91.56
431.18	74.56
431.402	79.56
431.624	75.56
431.846	87.56
432.068	90.56
432.29	85.56
432.512	83.56
432.734	92.56
432.956	101.56
433.178	109.56
433.4	90.56
433.622	107.56
433.844	84.56
434.066	87.56
434.287	82.56
434.509	80.56
434.731	99.56
434.953	84.56
435.175	86.56
435.397	89.56
435.618	91.56
435.84	109.56
436.062	117.56
436.284	120.56
436.505	104.56
436.727	109.56
436.949	92.56
437.17	91.56
437.392	89.56
437.614	74.56
437.835	110.56
438.057	117.56
438.278	104.56
438.5	109.56
438.721	123.56
438.943	101.56
439.165	79.56
439.386	90.56
439.608	96.56
439.829	101.56
440.05	149.56
440.272	152.56
440.493	103.56
440.715	86.56
440.936	101.56
441.158	88.56
441.379	93.56
441.6	99.56
441.822	87.56
442.043	90.56
442.264	102.56
442.486	86.56
442.707	96.56
442.928	112.56
443.149	130.56
443.371	139.56
443.592	127.56
443.813	120.56
444.034	111.56
444.255	93.56
444.476	88.56
444.698	91.56
444.919	86.56
445.14	136.56
445.361	131.56
445.582	109.56
445.803	149.56
446.024	145.56
446.245	137.56
446.466	111.56
446.687	93.56
446.908	96.56
447.129	88.56
447.35	90.56
447.571	85.56
447.792	101.56
448.013	103.56
448.234	103.56
448.455	105.56
448.675	112.56
448.896	115.56
449.117	103.56
449.338	94.56
449.559	134.56
449.779	143.56
450	101.56
450.221	71.56
450.442	101.56
450.662	87.56
450.883	93.56
451.104	116.56
451.324	90.56
451.545	77.56
451.766	86.56
451.986	88.56
452.207	98.56
452.428	94.56
452.648	89.56
452.869	109.56
453.089	112.56
453.31	135.56
453.53	106.56
453.751	102.56
453.971	101.56
454.192	114.56
454.412	92.56
454.633	90.56
454.853	72.56
455.073	85.56
455.294	77.56
455.514	103.56
455.734	99.56
455.955	90.56
456.175	77.56
456.395	93.56
456.616	84.56
456.836	96.56
457.056	75.56
457.276	80.56
457.497	93.56
457.717	89.56
457.937	87.56
458.157	90.56
458.377	113.56
458.598	99.56
458.818	163.56
459.038	182.56
459.258	137.56
459.478	99.56
459.698	92.56
459.918	82.56
460.138	84.56
460.358	75.56
460.578	84.56
460.798	93.56
461.018	93.56
461.238	81.56
461.458	90.56
461.678	91.56
461.898	79.56
462.118	85.56
462.338	88.56
462.558	85.56
462.777	84.56
462.997	98.56
463.217	91.56
463.437	89.56
463.657	95.56
463.876	94.56
464.096	89.56
464.316	103.56
464.536	106.56
464.755	88.56
464.975	123.56
465.195	184.56
465.414	178.56
465.634	111.56
465.854	89.56
466.073	83.56
466.293	95.56
466.512	78.56
466.732	75.56
466.951	80.56
467.171	105.56
467.391	88.56
467.61	131.56
467.829	163.56
468.049	372.56
468.268	520.56
468.488	173.56
468.707	95.56
468.927	82.56
469.146	81.56
469.365	101.56
469.585	95.56
469.804	88.56
470.023	108.56
470.243	102.56
470.462	114.56
470.681	117.56
470.901	87.56
471.12	88.56
471.339	97.56
471.558	119.56
471.777	123.56
471.997	230.56
472.216	743.56
472.435	1543.56
472.654	387.56
472.873	118.56
473.092	95.56
473.311	91.56
473.53	100.56
473.749	99.56
473.968	84.56
474.187	96.56
474.406	89.56
474.625	84.56
474.844	87.56
475.063	105.56
475.282	91.56
475.501	89.56
475.72	82.56
475.939	87.56
476.158	92.56
476.377	104.56
476.596	114.56
476.814	98.56
477.033	91.56
477.252	98.56
477.471	91.56
477.69	88.56
477.908	80.56
478.127	72.56
478.346	84.56
478.564	100.56
478.783	110.56
479.002	102.56
479.22	93.56
479.439	104.56
479.658	113.56
479.876	102.56
480.095	108.56
480.313	109.56
480.532	123.56
480.751	223.56
480.969	694.56
481.188	2683.56
481.406	1547.56
481.624	243.56
481.843	122.56
482.061	93.56
482.28	95.56
482.498	92.56
482.717	97.56
482.935	98.56
483.153	96.56
483.372	91.56
483.59	92.56
483.808	98.56
484.027	93.56
484.245	84.56
484.463	102.56
484.681	99.56
484.9	95.56
485.118	90.56
485.336	97.56
485.554	95.56
485.772	96.56
485.99	92.56
486.209	108.56
486.427	120.56
486.645	123.56
486.863	120.56
487.081	94.56
487.299	98.56
487.517	88.56
487.735	83.56
487.953	89.56
488.171	98.56
488.389	103.56
488.607	80.56
488.825	91.56
489.043	104.56
489.261	106.56
489.479	76.56
489.696	96.56
489.914	93.56
490.132	96.56
490.35	92.56
490.568	76.56
490.786	91.56
491.003	97.56
491.221	97.56
491.439	70.56
491.657	91.56
491.874	97.56
492.092	90.56
492.31	82.56
492.527	86.56
492.745	99.56
492.963	92.56
493.18	82.56
493.398	99.56
493.615	82.56
493.833	90.56
494.05	98.56
494.268	97.56
494.485	85.56
494.703	89.56
494.92	88.56
495.138	90.56
495.355	98.56
495.573	96.56
495.79	105.56
496.008	82.56
496.225	107.56
496.442	81.56
496.66	87.56
496.877	89.56
497.094	107.56
497.312	88.56
497.529	83.56
497.746	85.56
497.963	89.56
498.181	99.56
498.398	91.56
498.615	117.56
498.832	109.56
499.049	97.56
499.267	83.56
499.484	95.56
499.701	83.56
499.918	90.56
500.135	106.56
500.352	102.56
500.569	90.56
500.786	90.56
501.003	91.56
501.22	89.56
501.437	88.56
501.654	103.56
501.871	118.56
502.088	91.56
502.305	98.56
502.522	81.56
502.739	84.56
502.956	82.56
503.172	98.56
503.389	105.56
503.606	109.56
503.823	100.56
504.04	95.56
504.256	94.56
504.473	94.56
504.69	81.56
504.907	102.56
505.123	79.56
505.34	93.56
505.557	91.56
505.773	99.56
505.99	92.56
506.207	84.56
506.423	93.56
506.64	97.56
506.856	85.56
507.073	76.56
507.289	84.56
507.506	89.56
507.722	110.56
507.939	113.56
508.155	104.56
508.372	103.56
508.588	91.56
508.805	89.56
509.021	84.56
509.238	93.56
509.454	93.56
509.67	112.56
509.887	113.56
510.103	129.56
510.319	215.56
510.536	723.56
510.752	2315.56
510.968	645.56
511.184	161.56
511.401	112.56
511.617	116.56
511.833	118.56
512.049	97.56
512.265	92.56
512.481	95.56
512.698	101.56
512.914	100.56
513.13	101.56
513.346	89.56
513.562	99.56
513.778	85.56
513.994	91.56
514.21	104.56
514.426	132.56
