Data from Circ_2001_H10_HRD10591_00013.txt Node
Date: Wed Jan 03 10:45:41 EST 2024
User: Yrep
Spectrometer: HR+D1059
Trigger mode: 1
Integration Time (sec): 1.000000E-1
Scans to average: 1
Electric dark correction enabled: true
Nonlinearity correction enabled: false
Boxcar width: 0
XAxis mode: Wavelengths
Number of Pixels in Spectrum: 2048
>>>>>Begin Spectral Data<<<<<
223.165	-20.44
223.4	-20.44
223.635	-20.44
223.869	-10.44
224.104	-9.44
224.338	-13.44
224.573	-16.44
224.808	-17.44
225.042	-20.44
225.277	-8.44
225.511	-4.44
225.746	2.56
225.98	2.56
226.215	21.56
226.449	13.56
226.683	22.56
226.918	14.56
227.152	43.56
227.387	40.56
227.621	29.56
227.856	43.56
228.09	49.56
228.324	46.56
228.559	47.56
228.793	60.56
229.027	64.56
229.262	70.56
229.496	72.56
229.73	76.56
229.964	81.56
230.199	77.56
230.433	66.56
230.667	59.56
230.901	92.56
231.136	84.56
231.37	77.56
231.604	89.56
231.838	77.56
232.072	83.56
232.306	84.56
232.541	79.56
232.775	71.56
233.009	75.56
233.243	88.56
233.477	80.56
233.711	81.56
233.945	83.56
234.179	72.56
234.413	84.56
234.647	59.56
234.881	67.56
235.115	93.56
235.349	71.56
235.583	70.56
235.817	67.56
236.051	77.56
236.285	84.56
236.519	87.56
236.753	75.56
236.987	81.56
237.221	95.56
237.455	88.56
237.689	88.56
237.922	79.56
238.156	77.56
238.39	61.56
238.624	70.56
238.858	82.56
239.091	81.56
239.325	75.56
239.559	91.56
239.793	84.56
240.027	78.56
240.26	85.56
240.494	83.56
240.728	61.56
240.961	69.56
241.195	65.56
241.429	74.56
241.662	81.56
241.896	74.56
242.13	76.56
242.363	86.56
242.597	82.56
242.83	89.56
243.064	76.56
243.298	101.56
243.531	70.56
243.765	89.56
243.998	93.56
244.232	76.56
244.465	82.56
244.699	80.56
244.932	81.56
245.166	85.56
245.399	75.56
245.633	83.56
245.866	74.56
246.099	88.56
246.333	80.56
246.566	90.56
246.8	82.56
247.033	77.56
247.266	85.56
247.5	89.56
247.733	80.56
247.966	89.56
248.2	84.56
248.433	91.56
248.666	70.56
248.899	86.56
249.133	87.56
249.366	98.56
249.599	79.56
249.832	77.56
250.066	93.56
250.299	81.56
250.532	75.56
250.765	73.56
250.998	86.56
251.231	70.56
251.465	74.56
251.698	66.56
251.931	71.56
252.164	73.56
252.397	77.56
252.63	75.56
252.863	83.56
253.096	84.56
253.329	83.56
253.562	85.56
253.795	75.56
254.028	74.56
254.261	72.56
254.494	82.56
254.727	78.56
254.96	60.56
255.193	87.56
255.426	81.56
255.659	78.56
255.892	88.56
256.124	92.56
256.357	85.56
256.59	72.56
256.823	82.56
257.056	91.56
257.289	92.56
257.521	84.56
257.754	70.56
257.987	83.56
258.22	107.56
258.452	80.56
258.685	78.56
258.918	86.56
259.151	85.56
259.383	80.56
259.616	77.56
259.849	88.56
260.081	74.56
260.314	85.56
260.547	78.56
260.779	91.56
261.012	83.56
261.244	94.56
261.477	96.56
261.71	105.56
261.942	105.56
262.175	119.56
262.407	93.56
262.64	93.56
262.872	89.56
263.105	67.56
263.337	73.56
263.57	92.56
263.802	102.56
264.035	90.56
264.267	83.56
264.499	92.56
264.732	76.56
264.964	81.56
265.197	82.56
265.429	82.56
265.661	71.56
265.894	86.56
266.126	86.56
266.358	75.56
266.591	73.56
266.823	84.56
267.055	68.56
267.287	77.56
267.52	98.56
267.752	85.56
267.984	72.56
268.216	85.56
268.448	90.56
268.681	89.56
268.913	90.56
269.145	74.56
269.377	82.56
269.609	85.56
269.841	86.56
270.073	87.56
270.306	91.56
270.538	89.56
270.77	88.56
271.002	89.56
271.234	91.56
271.466	88.56
271.698	88.56
271.93	88.56
272.162	90.56
272.394	92.56
272.626	80.56
272.858	87.56
273.09	77.56
273.322	85.56
273.553	80.56
273.785	80.56
274.017	88.56
274.249	87.56
274.481	91.56
274.713	89.56
274.945	73.56
275.176	94.56
275.408	96.56
275.64	90.56
275.872	99.56
276.104	84.56
276.335	90.56
276.567	106.56
276.799	111.56
277.031	102.56
277.262	123.56
277.494	93.56
277.726	78.56
277.957	89.56
278.189	84.56
278.421	93.56
278.652	87.56
278.884	82.56
279.115	72.56
279.347	83.56
279.579	79.56
279.81	118.56
280.042	114.56
280.273	123.56
280.505	110.56
280.736	88.56
280.968	78.56
281.199	93.56
281.431	83.56
281.662	83.56
281.894	77.56
282.125	89.56
282.356	100.56
282.588	131.56
282.819	108.56
283.051	83.56
283.282	84.56
283.513	92.56
283.745	92.56
283.976	81.56
284.207	89.56
284.439	81.56
284.67	85.56
284.901	84.56
285.132	79.56
285.364	72.56
285.595	101.56
285.826	93.56
286.057	101.56
286.288	66.56
286.52	88.56
286.751	90.56
286.982	86.56
287.213	89.56
287.444	97.56
287.675	86.56
287.906	88.56
288.138	80.56
288.369	75.56
288.6	94.56
288.831	94.56
289.062	94.56
289.293	76.56
289.524	92.56
289.755	94.56
289.986	89.56
290.217	80.56
290.448	70.56
290.679	82.56
290.91	81.56
291.141	106.56
291.371	83.56
291.602	72.56
291.833	86.56
292.064	79.56
292.295	82.56
292.526	86.56
292.757	98.56
292.987	83.56
293.218	80.56
293.449	92.56
293.68	94.56
293.91	93.56
294.141	97.56
294.372	90.56
294.603	82.56
294.833	85.56
295.064	104.56
295.295	85.56
295.525	89.56
295.756	103.56
295.987	103.56
296.217	135.56
296.448	116.56
296.679	101.56
296.909	96.56
297.14	97.56
297.37	93.56
297.601	93.56
297.831	83.56
298.062	94.56
298.292	92.56
298.523	94.56
298.753	70.56
298.984	89.56
299.214	93.56
299.445	94.56
299.675	101.56
299.905	85.56
300.136	84.56
300.366	86.56
300.597	86.56
300.827	94.56
301.057	94.56
301.288	116.56
301.518	95.56
301.748	86.56
301.979	98.56
302.209	85.56
302.439	87.56
302.669	90.56
302.9	93.56
303.13	92.56
303.36	91.56
303.59	94.56
303.82	108.56
304.051	103.56
304.281	101.56
304.511	100.56
304.741	88.56
304.971	93.56
305.201	80.56
305.431	80.56
305.661	89.56
305.891	92.56
306.121	110.56
306.352	105.56
306.582	104.56
306.812	88.56
307.042	103.56
307.272	97.56
307.502	121.56
307.731	110.56
307.961	107.56
308.191	91.56
308.421	85.56
308.651	93.56
308.881	88.56
309.111	83.56
309.341	86.56
309.571	108.56
309.8	99.56
310.03	94.56
310.26	88.56
310.49	91.56
310.72	97.56
310.949	107.56
311.179	99.56
311.409	87.56
311.639	88.56
311.868	97.56
312.098	104.56
312.328	97.56
312.557	114.56
312.787	99.56
313.017	104.56
313.246	102.56
313.476	94.56
313.706	102.56
313.935	97.56
314.165	100.56
314.394	102.56
314.624	81.56
314.853	106.56
315.083	104.56
315.312	94.56
315.542	102.56
315.771	96.56
316.001	88.56
316.23	77.56
316.46	108.56
316.689	93.56
316.919	100.56
317.148	85.56
317.377	89.56
317.607	94.56
317.836	86.56
318.065	84.56
318.295	90.56
318.524	83.56
318.753	86.56
318.983	105.56
319.212	102.56
319.441	118.56
319.67	111.56
319.9	94.56
320.129	87.56
320.358	89.56
320.587	99.56
320.816	102.56
321.046	99.56
321.275	93.56
321.504	94.56
321.733	96.56
321.962	98.56
322.191	115.56
322.42	109.56
322.649	96.56
322.878	125.56
323.108	117.56
323.337	122.56
323.566	133.56
323.795	158.56
324.024	204.56
324.253	381.56
324.482	802.56
324.71	1618.56
324.939	2106.56
325.168	761.56
325.397	232.56
325.626	149.56
325.855	133.56
326.084	112.56
326.313	120.56
326.542	156.56
326.77	249.56
326.999	443.56
327.228	923.56
327.457	1671.56
327.686	1301.56
327.914	395.56
328.143	271.56
328.372	291.56
328.6	199.56
328.829	120.56
329.058	134.56
329.287	139.56
329.515	135.56
329.744	147.56
329.972	237.56
330.201	402.56
330.43	524.56
330.658	279.56
330.887	169.56
331.115	130.56
331.344	112.56
331.572	104.56
331.801	108.56
332.03	103.56
332.258	105.56
332.486	96.56
332.715	100.56
332.943	96.56
333.172	104.56
333.4	98.56
333.629	123.56
333.857	146.56
334.085	194.56
334.314	366.56
334.542	635.56
334.771	592.56
334.999	214.56
335.227	120.56
335.455	110.56
335.684	87.56
335.912	106.56
336.14	99.56
336.369	102.56
336.597	105.56
336.825	102.56
337.053	89.56
337.281	104.56
337.51	98.56
337.738	97.56
337.966	81.56
338.194	93.56
338.422	96.56
338.65	92.56
338.878	105.56
339.106	90.56
339.334	96.56
339.562	92.56
339.79	89.56
340.018	89.56
340.246	92.56
340.474	103.56
340.702	90.56
340.93	80.56
341.158	85.56
341.386	83.56
341.614	96.56
341.842	106.56
342.07	85.56
342.298	108.56
342.526	101.56
342.754	91.56
342.981	96.56
343.209	102.56
343.437	107.56
343.665	81.56
343.893	87.56
344.12	94.56
344.348	83.56
344.576	77.56
344.804	106.56
345.031	78.56
345.259	96.56
345.487	93.56
345.714	95.56
345.942	89.56
346.17	98.56
346.397	90.56
346.625	89.56
346.853	84.56
347.08	93.56
347.308	78.56
347.535	106.56
347.763	100.56
347.99	103.56
348.218	90.56
348.445	109.56
348.673	91.56
348.9	94.56
349.128	92.56
349.355	90.56
349.583	85.56
349.81	89.56
350.037	85.56
350.265	100.56
350.492	83.56
350.72	104.56
350.947	106.56
351.174	115.56
351.402	113.56
351.629	106.56
351.856	122.56
352.083	107.56
352.311	104.56
352.538	113.56
352.765	96.56
352.992	113.56
353.22	119.56
353.447	105.56
353.674	108.56
353.901	92.56
354.128	98.56
354.355	105.56
354.583	97.56
354.81	102.56
355.037	102.56
355.264	99.56
355.491	91.56
355.718	86.56
355.945	97.56
356.172	94.56
356.399	99.56
356.626	104.56
356.853	90.56
357.08	83.56
357.307	94.56
357.534	88.56
357.761	93.56
357.988	102.56
358.215	105.56
358.441	104.56
358.668	95.56
358.895	89.56
359.122	109.56
359.349	80.56
359.576	101.56
359.802	94.56
360.029	98.56
360.256	113.56
360.483	95.56
360.709	99.56
360.936	97.56
361.163	92.56
361.39	75.56
361.616	87.56
361.843	78.56
362.07	98.56
362.296	88.56
362.523	95.56
362.749	78.56
362.976	97.56
363.203	102.56
363.429	101.56
363.656	86.56
363.882	93.56
364.109	97.56
364.335	101.56
364.562	86.56
364.788	106.56
365.015	97.56
365.241	101.56
365.468	105.56
365.694	105.56
365.92	97.56
366.147	98.56
366.373	85.56
366.599	96.56
366.826	90.56
367.052	89.56
367.278	97.56
367.505	86.56
367.731	105.56
367.957	96.56
368.184	89.56
368.41	83.56
368.636	115.56
368.862	106.56
369.089	102.56
369.315	99.56
369.541	79.56
369.767	97.56
369.993	95.56
370.219	99.56
370.445	80.56
370.672	86.56
370.898	73.56
371.124	92.56
371.35	97.56
371.576	84.56
371.802	97.56
372.028	80.56
372.254	92.56
372.48	88.56
372.706	85.56
372.932	72.56
373.158	94.56
373.384	89.56
373.61	98.56
373.835	96.56
374.061	84.56
374.287	101.56
374.513	87.56
374.739	88.56
374.965	98.56
375.191	100.56
375.416	96.56
375.642	93.56
375.868	90.56
376.094	91.56
376.319	84.56
376.545	76.56
376.771	92.56
376.997	97.56
377.222	80.56
377.448	98.56
377.674	93.56
377.899	84.56
378.125	87.56
378.35	78.56
378.576	96.56
378.802	93.56
379.027	98.56
379.253	100.56
379.478	90.56
379.704	93.56
379.929	88.56
380.155	99.56
380.38	104.56
380.606	102.56
380.831	97.56
381.057	109.56
381.282	90.56
381.507	109.56
381.733	88.56
381.958	95.56
382.184	100.56
382.409	102.56
382.634	112.56
382.86	92.56
383.085	106.56
383.31	113.56
383.535	100.56
383.761	113.56
383.986	87.56
384.211	89.56
384.436	102.56
384.662	104.56
384.887	107.56
385.112	117.56
385.337	113.56
385.562	118.56
385.787	117.56
386.013	117.56
386.238	124.56
386.463	108.56
386.688	114.56
386.913	130.56
387.138	111.56
387.363	115.56
387.588	101.56
387.813	113.56
388.038	94.56
388.263	112.56
388.488	117.56
388.713	104.56
388.938	112.56
389.163	93.56
389.387	85.56
389.612	89.56
389.837	103.56
390.062	92.56
390.287	94.56
390.512	80.56
390.736	94.56
390.961	100.56
391.186	104.56
391.411	99.56
391.636	85.56
391.86	91.56
392.085	93.56
392.31	93.56
392.534	84.56
392.759	93.56
392.984	94.56
393.208	88.56
393.433	92.56
393.658	115.56
393.882	84.56
394.107	59.56
394.331	95.56
394.556	90.56
394.78	76.56
395.005	95.56
395.229	88.56
395.454	91.56
395.678	89.56
395.903	87.56
396.127	80.56
396.352	90.56
396.576	88.56
396.801	97.56
397.025	94.56
397.249	91.56
397.474	74.56
397.698	88.56
397.922	86.56
398.147	89.56
398.371	93.56
398.595	90.56
398.82	93.56
399.044	84.56
399.268	84.56
399.492	92.56
399.717	101.56
399.941	93.56
400.165	97.56
400.389	72.56
400.613	76.56
400.837	83.56
401.062	94.56
401.286	100.56
401.51	95.56
401.734	98.56
401.958	104.56
402.182	109.56
402.406	157.56
402.63	115.56
402.854	107.56
403.078	86.56
403.302	83.56
403.526	97.56
403.75	89.56
403.974	101.56
404.198	81.56
404.422	104.56
404.645	82.56
404.869	83.56
405.093	104.56
405.317	116.56
405.541	114.56
405.765	103.56
405.988	102.56
406.212	156.56
406.436	193.56
406.66	148.56
406.883	107.56
407.107	101.56
407.331	97.56
407.555	80.56
407.778	102.56
408.002	92.56
408.226	78.56
408.449	90.56
408.673	97.56
408.896	92.56
409.12	108.56
409.344	82.56
409.567	74.56
409.791	91.56
410.014	88.56
410.238	89.56
410.461	86.56
410.685	99.56
410.908	91.56
411.132	100.56
411.355	97.56
411.578	89.56
411.802	82.56
412.025	74.56
412.249	106.56
412.472	92.56
412.695	109.56
412.919	110.56
413.142	86.56
413.365	84.56
413.589	91.56
413.812	100.56
414.035	82.56
414.258	84.56
414.482	87.56
414.705	110.56
414.928	92.56
415.151	73.56
415.374	98.56
415.597	92.56
415.821	89.56
416.044	92.56
416.267	96.56
416.49	88.56
416.713	88.56
416.936	96.56
417.159	90.56
417.382	93.56
417.605	82.56
417.828	100.56
418.051	87.56
418.274	92.56
418.497	89.56
418.72	90.56
418.943	88.56
419.166	87.56
419.389	84.56
419.611	92.56
419.834	84.56
420.057	95.56
420.28	96.56
420.503	82.56
420.726	94.56
420.948	89.56
421.171	75.56
421.394	83.56
421.617	87.56
421.839	86.56
422.062	90.56
422.285	79.56
422.507	98.56
422.73	112.56
422.953	101.56
423.175	93.56
423.398	78.56
423.621	92.56
423.843	85.56
424.066	90.56
424.288	103.56
424.511	99.56
424.733	97.56
424.956	93.56
425.178	110.56
425.401	97.56
425.623	116.56
425.846	104.56
426.068	113.56
426.291	91.56
426.513	87.56
426.735	75.56
426.958	97.56
427.18	107.56
427.402	141.56
427.625	177.56
427.847	173.56
428.069	157.56
428.292	106.56
428.514	83.56
428.736	91.56
428.958	81.56
429.181	74.56
429.403	79.56
429.625	91.56
429.847	102.56
430.069	92.56
430.292	88.56
430.514	81.56
430.736	77.56
430.958	83.56
431.18	87.56
431.402	72.56
431.624	82.56
431.846	92.56
432.068	91.56
432.29	84.56
432.512	94.56
432.734	92.56
432.956	102.56
433.178	93.56
433.4	75.56
433.622	96.56
433.844	89.56
434.066	79.56
434.287	99.56
434.509	88.56
434.731	88.56
434.953	96.56
435.175	98.56
435.397	90.56
435.618	87.56
435.84	109.56
436.062	131.56
436.284	123.56
436.505	99.56
436.727	106.56
436.949	97.56
437.17	90.56
437.392	80.56
437.614	82.56
437.835	100.56
438.057	127.56
438.278	98.56
438.5	103.56
438.721	117.56
438.943	98.56
439.165	90.56
439.386	88.56
439.608	94.56
439.829	106.56
440.05	133.56
440.272	129.56
440.493	101.56
440.715	90.56
440.936	102.56
441.158	77.56
441.379	89.56
441.6	104.56
441.822	99.56
442.043	87.56
442.264	102.56
442.486	98.56
442.707	108.56
442.928	118.56
443.149	130.56
443.371	140.56
443.592	95.56
443.813	108.56
444.034	129.56
444.255	80.56
444.476	87.56
444.698	81.56
444.919	75.56
445.14	144.56
445.361	132.56
445.582	120.56
445.803	126.56
446.024	140.56
446.245	139.56
446.466	92.56
446.687	100.56
446.908	92.56
447.129	87.56
447.35	74.56
447.571	99.56
447.792	98.56
448.013	104.56
448.234	102.56
448.455	101.56
448.675	112.56
448.896	114.56
449.117	119.56
449.338	109.56
449.559	141.56
449.779	134.56
450	114.56
450.221	81.56
450.442	95.56
450.662	89.56
450.883	104.56
451.104	112.56
451.324	85.56
451.545	98.56
451.766	95.56
451.986	81.56
452.207	90.56
452.428	78.56
452.648	91.56
452.869	101.56
453.089	104.56
453.31	113.56
453.53	100.56
453.751	102.56
453.971	107.56
454.192	109.56
454.412	95.56
454.633	110.56
454.853	88.56
455.073	68.56
455.294	85.56
455.514	97.56
455.734	99.56
455.955	85.56
456.175	94.56
456.395	80.56
456.616	73.56
456.836	69.56
457.056	91.56
457.276	88.56
457.497	99.56
457.717	89.56
457.937	86.56
458.157	83.56
458.377	80.56
458.598	106.56
458.818	143.56
459.038	183.56
459.258	109.56
459.478	100.56
459.698	83.56
459.918	81.56
460.138	98.56
460.358	83.56
460.578	76.56
460.798	91.56
461.018	91.56
461.238	77.56
461.458	83.56
461.678	78.56
461.898	81.56
462.118	88.56
462.338	99.56
462.558	87.56
462.777	86.56
462.997	95.56
463.217	102.56
463.437	86.56
463.657	79.56
463.876	76.56
464.096	78.56
464.316	86.56
464.536	93.56
464.755	97.56
464.975	112.56
465.195	152.56
465.414	135.56
465.634	105.56
465.854	85.56
466.073	81.56
466.293	96.56
466.512	86.56
466.732	88.56
466.951	104.56
467.171	89.56
467.391	83.56
467.61	115.56
467.829	134.56
468.049	252.56
468.268	346.56
468.488	146.56
468.707	91.56
468.927	80.56
469.146	88.56
469.365	87.56
469.585	85.56
469.804	81.56
470.023	93.56
470.243	94.56
470.462	95.56
470.681	110.56
470.901	102.56
471.12	85.56
471.339	101.56
471.558	106.56
471.777	129.56
471.997	159.56
472.216	422.56
472.435	866.56
472.654	256.56
472.873	114.56
473.092	91.56
473.311	63.56
473.53	85.56
473.749	99.56
473.968	95.56
474.187	113.56
474.406	109.56
474.625	80.56
474.844	87.56
475.063	78.56
475.282	76.56
475.501	86.56
475.72	88.56
475.939	86.56
476.158	92.56
476.377	101.56
476.596	94.56
476.814	95.56
477.033	94.56
477.252	87.56
477.471	99.56
477.69	85.56
477.908	75.56
478.127	84.56
478.346	75.56
478.564	91.56
478.783	98.56
479.002	90.56
479.22	87.56
479.439	102.56
479.658	101.56
479.876	101.56
480.095	83.56
480.313	113.56
480.532	131.56
480.751	169.56
480.969	432.56
481.188	1506.56
481.406	923.56
481.624	201.56
481.843	111.56
482.061	100.56
482.28	98.56
482.498	90.56
482.717	92.56
482.935	92.56
483.153	77.56
483.372	86.56
483.59	91.56
483.808	88.56
484.027	93.56
484.245	96.56
484.463	98.56
484.681	109.56
484.9	102.56
485.118	93.56
485.336	97.56
485.554	87.56
485.772	93.56
485.99	115.56
486.209	99.56
486.427	119.56
486.645	114.56
486.863	115.56
487.081	98.56
487.299	102.56
487.517	90.56
487.735	92.56
487.953	93.56
488.171	97.56
488.389	102.56
488.607	89.56
488.825	94.56
489.043	92.56
489.261	99.56
489.479	100.56
489.696	88.56
489.914	97.56
490.132	86.56
490.35	103.56
490.568	80.56
490.786	82.56
491.003	85.56
491.221	87.56
491.439	98.56
491.657	93.56
491.874	96.56
492.092	86.56
492.31	103.56
492.527	89.56
492.745	88.56
492.963	79.56
493.18	88.56
493.398	95.56
493.615	102.56
493.833	89.56
494.05	85.56
494.268	62.56
494.485	91.56
494.703	77.56
494.92	98.56
495.138	87.56
495.355	88.56
495.573	88.56
495.79	92.56
496.008	89.56
496.225	102.56
496.442	90.56
496.66	99.56
496.877	82.56
497.094	100.56
497.312	85.56
497.529	86.56
497.746	81.56
497.963	89.56
498.181	89.56
498.398	94.56
498.615	108.56
498.832	105.56
499.049	68.56
499.267	85.56
499.484	91.56
499.701	83.56
499.918	79.56
500.135	85.56
500.352	77.56
500.569	102.56
500.786	93.56
501.003	102.56
501.22	93.56
501.437	83.56
501.654	89.56
501.871	99.56
502.088	91.56
502.305	83.56
502.522	81.56
502.739	107.56
502.956	87.56
503.172	93.56
503.389	99.56
503.606	108.56
503.823	91.56
504.04	86.56
504.256	92.56
504.473	96.56
504.69	92.56
504.907	101.56
505.123	95.56
505.34	83.56
505.557	92.56
505.773	84.56
505.99	98.56
506.207	87.56
506.423	90.56
506.64	97.56
506.856	100.56
507.073	83.56
507.289	89.56
507.506	89.56
507.722	107.56
507.939	119.56
508.155	94.56
508.372	96.56
508.588	102.56
508.805	83.56
509.021	107.56
509.238	85.56
509.454	93.56
509.67	98.56
509.887	103.56
510.103	118.56
510.319	178.56
510.536	629.56
510.752	1935.56
510.968	578.56
511.184	152.56
511.401	103.56
511.617	105.56
511.833	100.56
512.049	101.56
512.265	93.56
512.481	80.56
512.698	86.56
512.914	86.56
513.13	86.56
513.346	77.56
513.562	91.56
513.778	100.56
513.994	106.56
514.21	105.56
514.426	114.56
514.642	128.56
