Data from Circ_2001_H10_HRD10591_00039.txt Node
Date: Wed Jan 03 10:45:46 EST 2024
User: Yrep
Spectrometer: HR+D1059
Trigger mode: 1
Integration Time (sec): 1.000000E-1
Scans to average: 1
Electric dark correction enabled: true
Nonlinearity correction enabled: false
Boxcar width: 0
XAxis mode: Wavelengths
Number of Pixels in Spectrum: 2048
>>>>>Begin Spectral Data<<<<<
223.165	-15.19
223.4	-15.19
223.635	-15.19
223.869	-16.19
224.104	-20.19
224.338	-17.19
224.573	-16.19
224.808	-4.19
225.042	-15.19
225.277	-7.19
225.511	10.81
225.746	9.81
225.98	-2.19
226.215	19.81
226.449	9.81
226.683	14.81
226.918	26.81
227.152	21.81
227.387	36.81
227.621	29.81
227.856	59.81
228.09	71.81
228.324	53.81
228.559	68.81
228.793	58.81
229.027	58.81
229.262	79.81
229.496	71.81
229.73	98.81
229.964	92.81
230.199	67.81
230.433	75.81
230.667	91.81
230.901	73.81
231.136	81.81
231.37	96.81
231.604	86.81
231.838	79.81
232.072	82.81
232.306	75.81
232.541	96.81
232.775	87.81
233.009	85.81
233.243	103.81
233.477	78.81
233.711	88.81
233.945	79.81
234.179	85.81
234.413	95.81
234.647	96.81
234.881	76.81
235.115	81.81
235.349	73.81
235.583	83.81
235.817	76.81
236.051	80.81
236.285	89.81
236.519	75.81
236.753	79.81
236.987	80.81
237.221	78.81
237.455	85.81
237.689	86.81
237.922	76.81
238.156	83.81
238.39	83.81
238.624	86.81
238.858	91.81
239.091	83.81
239.325	81.81
239.559	75.81
239.793	74.81
240.027	86.81
240.26	84.81
240.494	92.81
240.728	94.81
240.961	97.81
241.195	81.81
241.429	91.81
241.662	80.81
241.896	64.81
242.13	68.81
242.363	84.81
242.597	84.81
242.83	89.81
243.064	88.81
243.298	94.81
243.531	86.81
243.765	93.81
243.998	76.81
244.232	85.81
244.465	93.81
244.699	76.81
244.932	85.81
245.166	106.81
245.399	76.81
245.633	83.81
245.866	101.81
246.099	84.81
246.333	86.81
246.566	91.81
246.8	75.81
247.033	79.81
247.266	93.81
247.5	95.81
247.733	89.81
247.966	94.81
248.2	81.81
248.433	81.81
248.666	88.81
248.899	78.81
249.133	102.81
249.366	104.81
249.599	88.81
249.832	88.81
250.066	79.81
250.299	72.81
250.532	91.81
250.765	87.81
250.998	87.81
251.231	69.81
251.465	87.81
251.698	85.81
251.931	97.81
252.164	81.81
252.397	77.81
252.63	80.81
252.863	72.81
253.096	84.81
253.329	81.81
253.562	75.81
253.795	73.81
254.028	90.81
254.261	94.81
254.494	76.81
254.727	85.81
254.96	81.81
255.193	68.81
255.426	75.81
255.659	79.81
255.892	86.81
256.124	95.81
256.357	105.81
256.59	92.81
256.823	77.81
257.056	74.81
257.289	91.81
257.521	83.81
257.754	84.81
257.987	93.81
258.22	86.81
258.452	89.81
258.685	92.81
258.918	73.81
259.151	81.81
259.383	84.81
259.616	72.81
259.849	84.81
260.081	82.81
260.314	85.81
260.547	84.81
260.779	88.81
261.012	110.81
261.244	101.81
261.477	89.81
261.71	97.81
261.942	113.81
262.175	123.81
262.407	102.81
262.64	96.81
262.872	97.81
263.105	95.81
263.337	69.81
263.57	85.81
263.802	80.81
264.035	88.81
264.267	84.81
264.499	93.81
264.732	101.81
264.964	88.81
265.197	94.81
265.429	97.81
265.661	90.81
265.894	82.81
266.126	85.81
266.358	87.81
266.591	92.81
266.823	95.81
267.055	95.81
267.287	81.81
267.52	76.81
267.752	96.81
267.984	92.81
268.216	74.81
268.448	91.81
268.681	90.81
268.913	97.81
269.145	92.81
269.377	88.81
269.609	96.81
269.841	96.81
270.073	96.81
270.306	86.81
270.538	87.81
270.77	91.81
271.002	86.81
271.234	89.81
271.466	89.81
271.698	105.81
271.93	86.81
272.162	98.81
272.394	90.81
272.626	83.81
272.858	82.81
273.09	84.81
273.322	96.81
273.553	91.81
273.785	87.81
274.017	95.81
274.249	74.81
274.481	86.81
274.713	89.81
274.945	95.81
275.176	85.81
275.408	100.81
275.64	105.81
275.872	100.81
276.104	98.81
276.335	108.81
276.567	102.81
276.799	126.81
277.031	150.81
277.262	128.81
277.494	118.81
277.726	105.81
277.957	98.81
278.189	94.81
278.421	90.81
278.652	83.81
278.884	94.81
279.115	87.81
279.347	89.81
279.579	95.81
279.81	103.81
280.042	129.81
280.273	168.81
280.505	123.81
280.736	99.81
280.968	83.81
281.199	93.81
281.431	93.81
281.662	110.81
281.894	85.81
282.125	104.81
282.356	133.81
282.588	150.81
282.819	118.81
283.051	94.81
283.282	85.81
283.513	92.81
283.745	84.81
283.976	92.81
284.207	92.81
284.439	81.81
284.67	83.81
284.901	83.81
285.132	81.81
285.364	79.81
285.595	91.81
285.826	78.81
286.057	98.81
286.288	86.81
286.52	87.81
286.751	101.81
286.982	96.81
287.213	92.81
287.444	81.81
287.675	104.81
287.906	99.81
288.138	87.81
288.369	90.81
288.6	92.81
288.831	84.81
289.062	96.81
289.293	93.81
289.524	71.81
289.755	92.81
289.986	77.81
290.217	87.81
290.448	96.81
290.679	95.81
290.91	96.81
291.141	102.81
291.371	111.81
291.602	98.81
291.833	90.81
292.064	96.81
292.295	100.81
292.526	94.81
292.757	85.81
292.987	99.81
293.218	90.81
293.449	100.81
293.68	92.81
293.91	90.81
294.141	103.81
294.372	97.81
294.603	101.81
294.833	82.81
295.064	94.81
295.295	85.81
295.525	102.81
295.756	96.81
295.987	117.81
296.217	137.81
296.448	106.81
296.679	92.81
296.909	94.81
297.14	84.81
297.37	106.81
297.601	95.81
297.831	95.81
298.062	92.81
298.292	87.81
298.523	99.81
298.753	81.81
298.984	86.81
299.214	94.81
299.445	89.81
299.675	100.81
299.905	99.81
300.136	87.81
300.366	108.81
300.597	100.81
300.827	94.81
301.057	99.81
301.288	110.81
301.518	96.81
301.748	98.81
301.979	113.81
302.209	99.81
302.439	97.81
302.669	76.81
302.9	99.81
303.13	87.81
303.36	97.81
303.59	104.81
303.82	125.81
304.051	106.81
304.281	97.81
304.511	95.81
304.741	84.81
304.971	94.81
305.201	101.81
305.431	91.81
305.661	95.81
305.891	97.81
306.121	99.81
306.352	112.81
306.582	113.81
306.812	105.81
307.042	103.81
307.272	142.81
307.502	147.81
307.731	145.81
307.961	110.81
308.191	95.81
308.421	97.81
308.651	98.81
308.881	96.81
309.111	92.81
309.341	93.81
309.571	123.81
309.8	98.81
310.03	92.81
310.26	93.81
310.49	78.81
310.72	93.81
310.949	101.81
311.179	103.81
311.409	96.81
311.639	110.81
311.868	93.81
312.098	99.81
312.328	94.81
312.557	117.81
312.787	112.81
313.017	103.81
313.246	82.81
313.476	107.81
313.706	97.81
313.935	97.81
314.165	105.81
314.394	111.81
314.624	95.81
314.853	83.81
315.083	117.81
315.312	103.81
315.542	98.81
315.771	92.81
316.001	105.81
316.23	104.81
316.46	80.81
316.689	86.81
316.919	81.81
317.148	81.81
317.377	100.81
317.607	101.81
317.836	97.81
318.065	105.81
318.295	87.81
318.524	81.81
318.753	99.81
318.983	93.81
319.212	110.81
319.441	115.81
319.67	104.81
319.9	103.81
320.129	98.81
320.358	88.81
320.587	104.81
320.816	101.81
321.046	108.81
321.275	100.81
321.504	90.81
321.733	96.81
321.962	102.81
322.191	99.81
322.42	96.81
322.649	101.81
322.878	108.81
323.108	123.81
323.337	125.81
323.566	133.81
323.795	162.81
324.024	223.81
324.253	407.81
324.482	851.81
324.71	1753.81
324.939	2330.81
325.168	851.81
325.397	248.81
325.626	170.81
325.855	122.81
326.084	140.81
326.313	156.81
326.542	157.81
326.77	255.81
326.999	475.81
327.228	976.81
327.457	1786.81
327.686	1378.81
327.914	440.81
328.143	328.81
328.372	372.81
328.6	234.81
328.829	139.81
329.058	143.81
329.287	164.81
329.515	140.81
329.744	172.81
329.972	289.81
330.201	515.81
330.43	705.81
330.658	338.81
330.887	192.81
331.115	137.81
331.344	115.81
331.572	110.81
331.801	108.81
332.03	123.81
332.258	115.81
332.486	110.81
332.715	103.81
332.943	111.81
333.172	111.81
333.4	128.81
333.629	122.81
333.857	160.81
334.085	269.81
334.314	511.81
334.542	877.81
334.771	825.81
334.999	257.81
335.227	136.81
335.455	130.81
335.684	107.81
335.912	105.81
336.14	101.81
336.369	114.81
336.597	106.81
336.825	108.81
337.053	101.81
337.281	89.81
337.51	89.81
337.738	97.81
337.966	104.81
338.194	100.81
338.422	94.81
338.65	97.81
338.878	101.81
339.106	96.81
339.334	104.81
339.562	87.81
339.79	99.81
340.018	88.81
340.246	90.81
340.474	86.81
340.702	110.81
340.93	96.81
341.158	98.81
341.386	108.81
341.614	107.81
341.842	101.81
342.07	91.81
342.298	86.81
342.526	90.81
342.754	95.81
342.981	97.81
343.209	104.81
343.437	105.81
343.665	94.81
343.893	94.81
344.12	88.81
344.348	85.81
344.576	99.81
344.804	95.81
345.031	97.81
345.259	110.81
345.487	105.81
345.714	108.81
345.942	111.81
346.17	95.81
346.397	96.81
346.625	100.81
346.853	100.81
347.08	110.81
347.308	108.81
347.535	112.81
347.763	104.81
347.99	98.81
348.218	111.81
348.445	112.81
348.673	99.81
348.9	100.81
349.128	106.81
349.355	101.81
349.583	97.81
349.81	101.81
350.037	102.81
350.265	104.81
350.492	97.81
350.72	95.81
350.947	104.81
351.174	112.81
351.402	124.81
351.629	108.81
351.856	111.81
352.083	107.81
352.311	126.81
352.538	99.81
352.765	102.81
352.992	117.81
353.22	112.81
353.447	108.81
353.674	110.81
353.901	106.81
354.128	119.81
354.355	94.81
354.583	90.81
354.81	100.81
355.037	94.81
355.264	105.81
355.491	98.81
355.718	101.81
355.945	90.81
356.172	114.81
356.399	87.81
356.626	110.81
356.853	83.81
357.08	94.81
357.307	102.81
357.534	97.81
357.761	95.81
357.988	100.81
358.215	106.81
358.441	114.81
358.668	106.81
358.895	75.81
359.122	84.81
359.349	90.81
359.576	96.81
359.802	115.81
360.029	121.81
360.256	106.81
360.483	110.81
360.709	94.81
360.936	101.81
361.163	101.81
361.39	87.81
361.616	88.81
361.843	94.81
362.07	83.81
362.296	92.81
362.523	99.81
362.749	109.81
362.976	94.81
363.203	98.81
363.429	82.81
363.656	84.81
363.882	95.81
364.109	103.81
364.335	96.81
364.562	94.81
364.788	92.81
365.015	102.81
365.241	115.81
365.468	110.81
365.694	110.81
365.92	87.81
366.147	95.81
366.373	104.81
366.599	91.81
366.826	101.81
367.052	84.81
367.278	101.81
367.505	96.81
367.731	104.81
367.957	102.81
368.184	90.81
368.41	119.81
368.636	117.81
368.862	122.81
369.089	96.81
369.315	101.81
369.541	107.81
369.767	89.81
369.993	81.81
370.219	102.81
370.445	88.81
370.672	97.81
370.898	99.81
371.124	91.81
371.35	94.81
371.576	92.81
371.802	93.81
372.028	71.81
372.254	96.81
372.48	84.81
372.706	98.81
372.932	95.81
373.158	81.81
373.384	92.81
373.61	104.81
373.835	85.81
374.061	99.81
374.287	99.81
374.513	108.81
374.739	96.81
374.965	83.81
375.191	101.81
375.416	92.81
375.642	92.81
375.868	75.81
376.094	76.81
376.319	82.81
376.545	89.81
376.771	106.81
376.997	101.81
377.222	101.81
377.448	105.81
377.674	90.81
377.899	91.81
378.125	101.81
378.35	91.81
378.576	96.81
378.802	76.81
379.027	77.81
379.253	100.81
379.478	108.81
379.704	93.81
379.929	93.81
380.155	103.81
380.38	91.81
380.606	85.81
380.831	114.81
381.057	103.81
381.282	89.81
381.507	95.81
381.733	103.81
381.958	108.81
382.184	102.81
382.409	100.81
382.634	115.81
382.86	97.81
383.085	108.81
383.31	93.81
383.535	102.81
383.761	100.81
383.986	119.81
384.211	103.81
384.436	91.81
384.662	112.81
384.887	102.81
385.112	116.81
385.337	108.81
385.562	109.81
385.787	98.81
386.013	110.81
386.238	120.81
386.463	117.81
386.688	115.81
386.913	119.81
387.138	117.81
387.363	110.81
387.588	96.81
387.813	99.81
388.038	109.81
388.263	112.81
388.488	118.81
388.713	96.81
388.938	99.81
389.163	89.81
389.387	110.81
389.612	91.81
389.837	88.81
390.062	93.81
390.287	93.81
390.512	91.81
390.736	88.81
390.961	103.81
391.186	99.81
391.411	95.81
391.636	102.81
391.86	87.81
392.085	85.81
392.31	93.81
392.534	87.81
392.759	93.81
392.984	92.81
393.208	88.81
393.433	91.81
393.658	97.81
393.882	97.81
394.107	83.81
394.331	95.81
394.556	99.81
394.78	105.81
395.005	90.81
395.229	93.81
395.454	99.81
395.678	81.81
395.903	94.81
396.127	87.81
396.352	85.81
396.576	92.81
396.801	104.81
397.025	96.81
397.249	94.81
397.474	92.81
397.698	84.81
397.922	88.81
398.147	93.81
398.371	92.81
398.595	83.81
398.82	97.81
399.044	88.81
399.268	82.81
399.492	98.81
399.717	96.81
399.941	89.81
400.165	90.81
400.389	101.81
400.613	107.81
400.837	97.81
401.062	97.81
401.286	85.81
401.51	115.81
401.734	93.81
401.958	111.81
402.182	112.81
402.406	180.81
402.63	146.81
402.854	98.81
403.078	102.81
403.302	89.81
403.526	106.81
403.75	96.81
403.974	103.81
404.198	86.81
404.422	88.81
404.645	101.81
404.869	84.81
405.093	105.81
405.317	118.81
405.541	122.81
405.765	95.81
405.988	138.81
406.212	172.81
406.436	242.81
406.66	166.81
406.883	97.81
407.107	108.81
407.331	91.81
407.555	109.81
407.778	105.81
408.002	95.81
408.226	96.81
408.449	100.81
408.673	94.81
408.896	107.81
409.12	94.81
409.344	88.81
409.567	94.81
409.791	83.81
410.014	114.81
410.238	107.81
410.461	100.81
410.685	107.81
410.908	92.81
411.132	111.81
411.355	95.81
411.578	97.81
411.802	92.81
412.025	89.81
412.249	102.81
412.472	101.81
412.695	124.81
412.919	92.81
413.142	86.81
413.365	72.81
413.589	78.81
413.812	90.81
414.035	101.81
414.258	97.81
414.482	91.81
414.705	112.81
414.928	82.81
415.151	96.81
415.374	86.81
415.597	83.81
415.821	94.81
416.044	91.81
416.267	99.81
416.49	94.81
416.713	85.81
416.936	100.81
417.159	87.81
417.382	92.81
417.605	104.81
417.828	93.81
418.051	95.81
418.274	97.81
418.497	90.81
418.72	89.81
418.943	102.81
419.166	83.81
419.389	107.81
419.611	93.81
419.834	101.81
420.057	101.81
420.28	90.81
420.503	83.81
420.726	82.81
420.948	91.81
421.171	80.81
421.394	93.81
421.617	92.81
421.839	104.81
422.062	101.81
422.285	93.81
422.507	92.81
422.73	114.81
422.953	94.81
423.175	100.81
423.398	103.81
423.621	93.81
423.843	101.81
424.066	92.81
424.288	98.81
424.511	92.81
424.733	107.81
424.956	119.81
425.178	115.81
425.401	106.81
425.623	110.81
425.846	97.81
426.068	97.81
426.291	95.81
426.513	86.81
426.735	84.81
426.958	88.81
427.18	107.81
427.402	151.81
427.625	217.81
427.847	196.81
428.069	163.81
428.292	111.81
428.514	91.81
428.736	97.81
428.958	100.81
429.181	92.81
429.403	73.81
429.625	82.81
429.847	96.81
430.069	102.81
430.292	103.81
430.514	94.81
430.736	85.81
430.958	93.81
431.18	91.81
431.402	100.81
431.624	96.81
431.846	89.81
432.068	90.81
432.29	87.81
432.512	92.81
432.734	81.81
432.956	94.81
433.178	102.81
433.4	103.81
433.622	95.81
433.844	83.81
434.066	91.81
434.287	89.81
434.509	84.81
434.731	94.81
434.953	102.81
435.175	96.81
435.397	108.81
435.618	109.81
435.84	109.81
436.062	119.81
436.284	117.81
436.505	101.81
436.727	98.81
436.949	93.81
437.17	99.81
437.392	86.81
437.614	113.81
437.835	115.81
438.057	115.81
438.278	101.81
438.5	110.81
438.721	129.81
438.943	107.81
439.165	90.81
439.386	96.81
439.608	86.81
439.829	92.81
440.05	116.81
440.272	149.81
440.493	111.81
440.715	95.81
440.936	81.81
441.158	99.81
441.379	99.81
441.6	91.81
441.822	91.81
442.043	107.81
442.264	111.81
442.486	104.81
442.707	99.81
442.928	125.81
443.149	153.81
443.371	141.81
443.592	117.81
443.813	120.81
444.034	109.81
444.255	99.81
444.476	85.81
444.698	87.81
444.919	91.81
445.14	150.81
445.361	123.81
445.582	125.81
445.803	148.81
446.024	140.81
446.245	133.81
446.466	110.81
446.687	100.81
446.908	99.81
447.129	93.81
447.35	89.81
447.571	93.81
447.792	92.81
448.013	101.81
448.234	97.81
448.455	112.81
448.675	106.81
448.896	125.81
449.117	107.81
449.338	105.81
449.559	151.81
449.779	154.81
450	112.81
450.221	94.81
450.442	86.81
450.662	102.81
450.883	110.81
451.104	123.81
451.324	97.81
451.545	96.81
451.766	92.81
451.986	94.81
452.207	91.81
452.428	112.81
452.648	107.81
452.869	115.81
453.089	119.81
453.31	114.81
453.53	86.81
453.751	74.81
453.971	97.81
454.192	117.81
454.412	100.81
454.633	87.81
454.853	94.81
455.073	99.81
455.294	99.81
455.514	110.81
455.734	87.81
455.955	89.81
456.175	88.81
456.395	96.81
456.616	93.81
456.836	90.81
457.056	89.81
457.276	75.81
457.497	96.81
457.717	104.81
457.937	89.81
458.157	90.81
458.377	106.81
458.598	113.81
458.818	159.81
459.038	172.81
459.258	129.81
459.478	101.81
459.698	91.81
459.918	89.81
460.138	93.81
460.358	87.81
460.578	93.81
460.798	90.81
461.018	92.81
461.238	90.81
461.458	93.81
461.678	84.81
461.898	94.81
462.118	106.81
462.338	80.81
462.558	102.81
462.777	95.81
462.997	78.81
463.217	91.81
463.437	88.81
463.657	100.81
463.876	79.81
464.096	90.81
464.316	85.81
464.536	97.81
464.755	99.81
464.975	115.81
465.195	190.81
465.414	179.81
465.634	101.81
465.854	96.81
466.073	109.81
466.293	103.81
466.512	95.81
466.732	71.81
466.951	85.81
467.171	86.81
467.391	110.81
467.61	121.81
467.829	152.81
468.049	337.81
468.268	460.81
468.488	159.81
468.707	109.81
468.927	91.81
469.146	80.81
469.365	111.81
469.585	99.81
469.804	94.81
470.023	100.81
470.243	94.81
470.462	109.81
470.681	111.81
470.901	104.81
471.12	115.81
471.339	95.81
471.558	110.81
471.777	121.81
471.997	200.81
472.216	607.81
472.435	1269.81
472.654	334.81
472.873	121.81
473.092	102.81
473.311	103.81
473.53	92.81
473.749	102.81
473.968	101.81
474.187	110.81
474.406	95.81
474.625	88.81
474.844	101.81
475.063	74.81
475.282	93.81
475.501	94.81
475.72	101.81
475.939	79.81
476.158	83.81
476.377	89.81
476.596	109.81
476.814	85.81
477.033	108.81
477.252	99.81
477.471	91.81
477.69	103.81
477.908	92.81
478.127	94.81
478.346	88.81
478.564	95.81
478.783	88.81
479.002	118.81
479.22	106.81
479.439	121.81
479.658	103.81
479.876	109.81
480.095	113.81
480.313	105.81
480.532	131.81
480.751	192.81
480.969	598.81
481.188	2187.81
481.406	1262.81
481.624	231.81
481.843	104.81
482.061	111.81
482.28	94.81
482.498	105.81
482.717	90.81
482.935	101.81
483.153	101.81
483.372	96.81
483.59	107.81
483.808	81.81
484.027	107.81
484.245	95.81
484.463	87.81
484.681	109.81
484.9	93.81
485.118	101.81
485.336	103.81
485.554	111.81
485.772	116.81
485.99	112.81
486.209	115.81
486.427	115.81
486.645	118.81
486.863	116.81
487.081	107.81
487.299	113.81
487.517	104.81
487.735	91.81
487.953	96.81
488.171	106.81
488.389	101.81
488.607	82.81
488.825	101.81
489.043	96.81
489.261	96.81
489.479	100.81
489.696	97.81
489.914	87.81
490.132	90.81
490.35	92.81
490.568	94.81
490.786	86.81
491.003	97.81
491.221	88.81
491.439	102.81
491.657	92.81
491.874	101.81
492.092	106.81
492.31	97.81
492.527	88.81
492.745	92.81
492.963	94.81
493.18	91.81
493.398	98.81
493.615	99.81
493.833	100.81
494.05	96.81
494.268	92.81
494.485	97.81
494.703	97.81
494.92	82.81
495.138	97.81
495.355	93.81
495.573	105.81
495.79	105.81
496.008	104.81
496.225	103.81
496.442	102.81
496.66	96.81
496.877	96.81
497.094	93.81
497.312	107.81
497.529	93.81
497.746	94.81
497.963	105.81
498.181	96.81
498.398	95.81
498.615	123.81
498.832	109.81
499.049	92.81
499.267	92.81
499.484	99.81
499.701	107.81
499.918	96.81
500.135	100.81
500.352	82.81
500.569	92.81
500.786	92.81
501.003	89.81
501.22	81.81
501.437	96.81
501.654	91.81
501.871	122.81
502.088	125.81
502.305	92.81
502.522	81.81
502.739	98.81
502.956	92.81
503.172	83.81
503.389	102.81
503.606	93.81
503.823	95.81
504.04	109.81
504.256	97.81
504.473	96.81
504.69	87.81
504.907	92.81
505.123	102.81
505.34	87.81
505.557	95.81
505.773	103.81
505.99	91.81
506.207	87.81
506.423	94.81
506.64	95.81
506.856	97.81
507.073	95.81
507.289	106.81
507.506	112.81
507.722	123.81
507.939	121.81
508.155	96.81
508.372	80.81
508.588	91.81
508.805	101.81
509.021	91.81
509.238	91.81
509.454	104.81
509.67	91.81
509.887	118.81
510.103	143.81
510.319	191.81
510.536	722.81
510.752	2360.81
510.968	661.81
511.184	153.81
511.401	112.81
511.617	103.81
511.833	104.81
512.049	98.81
512.265	92.81
512.481	103.81
512.698	84.81
