Data from Circ_2001_H10_HRD10591_00001.txt Node
Date: Wed Jan 03 10:45:39 EST 2024
User: Yrep
Spectrometer: HR+D1059
Trigger mode: 1
Integration Time (sec): 1.000000E-1
Scans to average: 1
Electric dark correction enabled: true
Nonlinearity correction enabled: false
Boxcar width: 0
XAxis mode: Wavelengths
Number of Pixels in Spectrum: 2048
>>>>>Begin Spectral Data<<<<<
223.165	-23.44
223.4	-23.44
223.635	-23.44
223.869	-30.44
224.104	-10.44
224.338	-12.44
224.573	-22.44
224.808	1.56
225.042	-6.44
225.277	9.56
225.511	6.56
225.746	3.56
225.98	1.56
226.215	10.56
226.449	-4.44
226.683	17.56
226.918	31.56
227.152	27.56
227.387	30.56
227.621	28.56
227.856	45.56
228.09	46.56
228.324	51.56
228.559	52.56
228.793	63.56
229.027	57.56
229.262	66.56
229.496	78.56
229.73	89.56
229.964	97.56
230.199	82.56
230.433	62.56
230.667	82.56
230.901	73.56
231.136	91.56
231.37	84.56
231.604	81.56
231.838	75.56
232.072	76.56
232.306	85.56
232.541	85.56
232.775	89.56
233.009	84.56
233.243	93.56
233.477	67.56
233.711	75.56
233.945	80.56
234.179	64.56
234.413	85.56
234.647	74.56
234.881	75.56
235.115	84.56
235.349	77.56
235.583	82.56
235.817	88.56
236.051	68.56
236.285	82.56
236.519	70.56
236.753	81.56
236.987	77.56
237.221	85.56
237.455	80.56
237.689	77.56
237.922	83.56
238.156	73.56
238.39	77.56
238.624	81.56
238.858	79.56
239.091	80.56
239.325	91.56
239.559	81.56
239.793	83.56
240.027	74.56
240.26	86.56
240.494	81.56
240.728	85.56
240.961	65.56
241.195	94.56
241.429	69.56
241.662	69.56
241.896	75.56
242.13	78.56
242.363	82.56
242.597	68.56
242.83	81.56
243.064	71.56
243.298	75.56
243.531	80.56
243.765	75.56
243.998	89.56
244.232	69.56
244.465	91.56
244.699	78.56
244.932	86.56
245.166	79.56
245.399	71.56
245.633	70.56
245.866	65.56
246.099	72.56
246.333	68.56
246.566	81.56
246.8	87.56
247.033	85.56
247.266	93.56
247.5	61.56
247.733	68.56
247.966	93.56
248.2	76.56
248.433	77.56
248.666	90.56
248.899	80.56
249.133	90.56
249.366	102.56
249.599	96.56
249.832	77.56
250.066	86.56
250.299	76.56
250.532	86.56
250.765	81.56
250.998	80.56
251.231	73.56
251.465	77.56
251.698	87.56
251.931	83.56
252.164	78.56
252.397	67.56
252.63	91.56
252.863	82.56
253.096	96.56
253.329	95.56
253.562	86.56
253.795	68.56
254.028	74.56
254.261	92.56
254.494	82.56
254.727	73.56
254.96	88.56
255.193	74.56
255.426	79.56
255.659	85.56
255.892	82.56
256.124	77.56
256.357	87.56
256.59	71.56
256.823	92.56
257.056	84.56
257.289	84.56
257.521	77.56
257.754	84.56
257.987	87.56
258.22	92.56
258.452	87.56
258.685	86.56
258.918	79.56
259.151	92.56
259.383	91.56
259.616	87.56
259.849	79.56
260.081	81.56
260.314	82.56
260.547	84.56
260.779	76.56
261.012	81.56
261.244	89.56
261.477	102.56
261.71	83.56
261.942	104.56
262.175	119.56
262.407	93.56
262.64	92.56
262.872	71.56
263.105	78.56
263.337	71.56
263.57	96.56
263.802	89.56
264.035	91.56
264.267	97.56
264.499	81.56
264.732	92.56
264.964	77.56
265.197	80.56
265.429	85.56
265.661	89.56
265.894	88.56
266.126	86.56
266.358	87.56
266.591	90.56
266.823	83.56
267.055	80.56
267.287	85.56
267.52	78.56
267.752	78.56
267.984	70.56
268.216	79.56
268.448	78.56
268.681	80.56
268.913	81.56
269.145	91.56
269.377	87.56
269.609	80.56
269.841	72.56
270.073	74.56
270.306	92.56
270.538	87.56
270.77	78.56
271.002	82.56
271.234	86.56
271.466	89.56
271.698	67.56
271.93	79.56
272.162	82.56
272.394	90.56
272.626	92.56
272.858	79.56
273.09	94.56
273.322	76.56
273.553	90.56
273.785	91.56
274.017	85.56
274.249	79.56
274.481	93.56
274.713	89.56
274.945	87.56
275.176	69.56
275.408	97.56
275.64	79.56
275.872	94.56
276.104	87.56
276.335	86.56
276.567	99.56
276.799	113.56
277.031	130.56
277.262	134.56
277.494	112.56
277.726	95.56
277.957	94.56
278.189	89.56
278.421	83.56
278.652	84.56
278.884	99.56
279.115	86.56
279.347	91.56
279.579	107.56
279.81	107.56
280.042	140.56
280.273	147.56
280.505	103.56
280.736	84.56
280.968	94.56
281.199	103.56
281.431	93.56
281.662	90.56
281.894	101.56
282.125	98.56
282.356	116.56
282.588	129.56
282.819	101.56
283.051	102.56
283.282	89.56
283.513	95.56
283.745	90.56
283.976	91.56
284.207	85.56
284.439	64.56
284.67	100.56
284.901	90.56
285.132	82.56
285.364	80.56
285.595	95.56
285.826	86.56
286.057	90.56
286.288	91.56
286.52	79.56
286.751	95.56
286.982	80.56
287.213	89.56
287.444	84.56
287.675	99.56
287.906	92.56
288.138	91.56
288.369	84.56
288.6	78.56
288.831	82.56
289.062	88.56
289.293	100.56
289.524	81.56
289.755	91.56
289.986	74.56
290.217	78.56
290.448	87.56
290.679	84.56
290.91	92.56
291.141	83.56
291.371	84.56
291.602	74.56
291.833	100.56
292.064	92.56
292.295	83.56
292.526	79.56
292.757	84.56
292.987	81.56
293.218	104.56
293.449	95.56
293.68	85.56
293.91	76.56
294.141	87.56
294.372	97.56
294.603	78.56
294.833	82.56
295.064	97.56
295.295	91.56
295.525	77.56
295.756	94.56
295.987	111.56
296.217	152.56
296.448	121.56
296.679	92.56
296.909	79.56
297.14	101.56
297.37	83.56
297.601	87.56
297.831	83.56
298.062	90.56
298.292	90.56
298.523	94.56
298.753	94.56
298.984	96.56
299.214	79.56
299.445	95.56
299.675	85.56
299.905	90.56
300.136	87.56
300.366	83.56
300.597	85.56
300.827	103.56
301.057	100.56
301.288	106.56
301.518	81.56
301.748	76.56
301.979	99.56
302.209	102.56
302.439	81.56
302.669	92.56
302.9	94.56
303.13	95.56
303.36	98.56
303.59	111.56
303.82	111.56
304.051	105.56
304.281	79.56
304.511	97.56
304.741	84.56
304.971	80.56
305.201	99.56
305.431	94.56
305.661	87.56
305.891	86.56
306.121	89.56
306.352	99.56
306.582	101.56
306.812	87.56
307.042	91.56
307.272	117.56
307.502	120.56
307.731	129.56
307.961	101.56
308.191	111.56
308.421	76.56
308.651	95.56
308.881	99.56
309.111	101.56
309.341	78.56
309.571	89.56
309.8	106.56
310.03	102.56
310.26	93.56
310.49	85.56
310.72	97.56
310.949	98.56
311.179	92.56
311.409	94.56
311.639	99.56
311.868	106.56
312.098	98.56
312.328	100.56
312.557	115.56
312.787	106.56
313.017	100.56
313.246	99.56
313.476	98.56
313.706	84.56
313.935	98.56
314.165	91.56
314.394	99.56
314.624	90.56
314.853	110.56
315.083	90.56
315.312	94.56
315.542	82.56
315.771	83.56
316.001	88.56
316.23	86.56
316.46	93.56
316.689	93.56
316.919	98.56
317.148	90.56
317.377	88.56
317.607	108.56
317.836	99.56
318.065	90.56
318.295	87.56
318.524	91.56
318.753	93.56
318.983	102.56
319.212	105.56
319.441	94.56
319.67	102.56
319.9	92.56
320.129	96.56
320.358	88.56
320.587	83.56
320.816	108.56
321.046	106.56
321.275	106.56
321.504	82.56
321.733	98.56
321.962	77.56
322.191	100.56
322.42	105.56
322.649	99.56
322.878	114.56
323.108	128.56
323.337	132.56
323.566	137.56
323.795	127.56
324.024	202.56
324.253	384.56
324.482	776.56
324.71	1598.56
324.939	2072.56
325.168	761.56
325.397	220.56
325.626	132.56
325.855	127.56
326.084	130.56
326.313	138.56
326.542	159.56
326.77	223.56
326.999	428.56
327.228	894.56
327.457	1583.56
327.686	1298.56
327.914	413.56
328.143	281.56
328.372	321.56
328.6	193.56
328.829	140.56
329.058	146.56
329.287	132.56
329.515	112.56
329.744	157.56
329.972	247.56
330.201	408.56
330.43	544.56
330.658	286.56
330.887	183.56
331.115	127.56
331.344	96.56
331.572	104.56
331.801	120.56
332.03	116.56
332.258	81.56
332.486	85.56
332.715	103.56
332.943	96.56
333.172	91.56
333.4	107.56
333.629	120.56
333.857	138.56
334.085	217.56
334.314	419.56
334.542	716.56
334.771	662.56
334.999	208.56
335.227	113.56
335.455	115.56
335.684	104.56
335.912	97.56
336.14	99.56
336.369	92.56
336.597	110.56
336.825	91.56
337.053	94.56
337.281	83.56
337.51	86.56
337.738	106.56
337.966	100.56
338.194	91.56
338.422	95.56
338.65	99.56
338.878	96.56
339.106	90.56
339.334	100.56
339.562	86.56
339.79	91.56
340.018	81.56
340.246	91.56
340.474	89.56
340.702	95.56
340.93	91.56
341.158	94.56
341.386	89.56
341.614	108.56
341.842	83.56
342.07	92.56
342.298	92.56
342.526	86.56
342.754	82.56
342.981	91.56
343.209	84.56
343.437	90.56
343.665	87.56
343.893	93.56
344.12	84.56
344.348	94.56
344.576	104.56
344.804	78.56
345.031	120.56
345.259	105.56
345.487	91.56
345.714	94.56
345.942	87.56
346.17	92.56
346.397	91.56
346.625	88.56
346.853	84.56
347.08	85.56
347.308	93.56
347.535	99.56
347.763	99.56
347.99	103.56
348.218	109.56
348.445	97.56
348.673	108.56
348.9	98.56
349.128	95.56
349.355	88.56
349.583	81.56
349.81	97.56
350.037	79.56
350.265	90.56
350.492	100.56
350.72	88.56
350.947	89.56
351.174	122.56
351.402	114.56
351.629	105.56
351.856	114.56
352.083	104.56
352.311	100.56
352.538	99.56
352.765	116.56
352.992	109.56
353.22	104.56
353.447	102.56
353.674	114.56
353.901	97.56
354.128	80.56
354.355	98.56
354.583	96.56
354.81	94.56
355.037	88.56
355.264	95.56
355.491	95.56
355.718	96.56
355.945	97.56
356.172	93.56
356.399	103.56
356.626	86.56
356.853	79.56
357.08	95.56
357.307	82.56
357.534	83.56
357.761	86.56
357.988	96.56
358.215	107.56
358.441	101.56
358.668	77.56
358.895	99.56
359.122	89.56
359.349	85.56
359.576	87.56
359.802	100.56
360.029	107.56
360.256	106.56
360.483	102.56
360.709	82.56
360.936	96.56
361.163	93.56
361.39	87.56
361.616	105.56
361.843	85.56
362.07	91.56
362.296	86.56
362.523	82.56
362.749	85.56
362.976	95.56
363.203	90.56
363.429	83.56
363.656	85.56
363.882	80.56
364.109	90.56
364.335	87.56
364.562	88.56
364.788	88.56
365.015	87.56
365.241	94.56
365.468	109.56
365.694	89.56
365.92	90.56
366.147	92.56
366.373	81.56
366.599	88.56
366.826	80.56
367.052	83.56
367.278	79.56
367.505	88.56
367.731	87.56
367.957	80.56
368.184	87.56
368.41	102.56
368.636	119.56
368.862	127.56
369.089	115.56
369.315	103.56
369.541	89.56
369.767	93.56
369.993	100.56
370.219	81.56
370.445	84.56
370.672	89.56
370.898	81.56
371.124	85.56
371.35	83.56
371.576	74.56
371.802	83.56
372.028	82.56
372.254	83.56
372.48	98.56
372.706	84.56
372.932	79.56
373.158	95.56
373.384	82.56
373.61	97.56
373.835	82.56
374.061	92.56
374.287	105.56
374.513	86.56
374.739	91.56
374.965	103.56
375.191	82.56
375.416	95.56
375.642	91.56
375.868	97.56
376.094	92.56
376.319	88.56
376.545	97.56
376.771	80.56
376.997	100.56
377.222	99.56
377.448	92.56
377.674	101.56
377.899	81.56
378.125	92.56
378.35	91.56
378.576	94.56
378.802	83.56
379.027	94.56
379.253	100.56
379.478	87.56
379.704	106.56
379.929	92.56
380.155	96.56
380.38	98.56
380.606	104.56
380.831	106.56
381.057	107.56
381.282	103.56
381.507	95.56
381.733	96.56
381.958	128.56
382.184	112.56
382.409	118.56
382.634	102.56
382.86	98.56
383.085	113.56
383.31	110.56
383.535	107.56
383.761	124.56
383.986	107.56
384.211	97.56
384.436	105.56
384.662	117.56
384.887	122.56
385.112	114.56
385.337	119.56
385.562	116.56
385.787	119.56
386.013	134.56
386.238	144.56
386.463	126.56
386.688	124.56
386.913	126.56
387.138	131.56
387.363	115.56
387.588	99.56
387.813	103.56
388.038	125.56
388.263	132.56
388.488	146.56
388.713	95.56
388.938	98.56
389.163	89.56
389.387	87.56
389.612	95.56
389.837	91.56
390.062	92.56
390.287	86.56
390.512	98.56
390.736	93.56
390.961	91.56
391.186	84.56
391.411	81.56
391.636	96.56
391.86	87.56
392.085	94.56
392.31	90.56
392.534	85.56
392.759	85.56
392.984	89.56
393.208	99.56
393.433	103.56
393.658	108.56
393.882	84.56
394.107	70.56
394.331	89.56
394.556	75.56
394.78	95.56
395.005	88.56
395.229	79.56
395.454	92.56
395.678	91.56
395.903	82.56
396.127	81.56
396.352	100.56
396.576	97.56
396.801	91.56
397.025	97.56
397.249	78.56
397.474	98.56
397.698	88.56
397.922	75.56
398.147	83.56
398.371	91.56
398.595	82.56
398.82	89.56
399.044	91.56
399.268	82.56
399.492	98.56
399.717	94.56
399.941	91.56
400.165	92.56
400.389	86.56
400.613	80.56
400.837	90.56
401.062	85.56
401.286	89.56
401.51	88.56
401.734	87.56
401.958	97.56
402.182	127.56
402.406	178.56
402.63	114.56
402.854	95.56
403.078	92.56
403.302	95.56
403.526	87.56
403.75	81.56
403.974	89.56
404.198	85.56
404.422	76.56
404.645	83.56
404.869	82.56
405.093	91.56
405.317	101.56
405.541	109.56
405.765	120.56
405.988	120.56
406.212	175.56
406.436	226.56
406.66	138.56
406.883	98.56
407.107	80.56
407.331	93.56
407.555	102.56
407.778	97.56
408.002	89.56
408.226	104.56
408.449	91.56
408.673	81.56
408.896	98.56
409.12	108.56
409.344	87.56
409.567	98.56
409.791	95.56
410.014	95.56
410.238	86.56
410.461	76.56
410.685	92.56
410.908	92.56
411.132	87.56
411.355	105.56
411.578	86.56
411.802	90.56
412.025	89.56
412.249	107.56
412.472	101.56
412.695	105.56
412.919	98.56
413.142	86.56
413.365	88.56
413.589	80.56
413.812	88.56
414.035	85.56
414.258	88.56
414.482	103.56
414.705	98.56
414.928	92.56
415.151	90.56
415.374	99.56
415.597	88.56
415.821	90.56
416.044	91.56
416.267	95.56
416.49	90.56
416.713	72.56
416.936	97.56
417.159	111.56
417.382	90.56
417.605	82.56
417.828	93.56
418.051	87.56
418.274	94.56
418.497	64.56
418.72	80.56
418.943	83.56
419.166	77.56
419.389	106.56
419.611	85.56
419.834	89.56
420.057	78.56
420.28	97.56
420.503	84.56
420.726	94.56
420.948	74.56
421.171	101.56
421.394	102.56
421.617	112.56
421.839	86.56
422.062	82.56
422.285	97.56
422.507	86.56
422.73	104.56
422.953	99.56
423.175	95.56
423.398	77.56
423.621	79.56
423.843	74.56
424.066	82.56
424.288	95.56
424.511	90.56
424.733	111.56
424.956	110.56
425.178	94.56
425.401	97.56
425.623	103.56
425.846	84.56
426.068	102.56
426.291	86.56
426.513	89.56
426.735	85.56
426.958	77.56
427.18	100.56
427.402	146.56
427.625	179.56
427.847	152.56
428.069	150.56
428.292	105.56
428.514	82.56
428.736	84.56
428.958	85.56
429.181	91.56
429.403	79.56
429.625	87.56
429.847	89.56
430.069	96.56
430.292	90.56
430.514	87.56
430.736	83.56
430.958	88.56
431.18	87.56
431.402	86.56
431.624	91.56
431.846	77.56
432.068	97.56
432.29	90.56
432.512	93.56
432.734	83.56
432.956	86.56
433.178	97.56
433.4	85.56
433.622	92.56
433.844	83.56
434.066	82.56
434.287	91.56
434.509	89.56
434.731	103.56
434.953	100.56
435.175	86.56
435.397	91.56
435.618	103.56
435.84	94.56
436.062	120.56
436.284	103.56
436.505	90.56
436.727	99.56
436.949	102.56
437.17	88.56
437.392	84.56
437.614	90.56
437.835	101.56
438.057	115.56
438.278	103.56
438.5	103.56
438.721	130.56
438.943	103.56
439.165	92.56
439.386	79.56
439.608	76.56
439.829	95.56
440.05	127.56
440.272	141.56
440.493	101.56
440.715	76.56
440.936	91.56
441.158	88.56
441.379	104.56
441.6	96.56
441.822	104.56
442.043	89.56
442.264	94.56
442.486	96.56
442.707	97.56
442.928	112.56
443.149	110.56
443.371	129.56
443.592	88.56
443.813	99.56
444.034	107.56
444.255	89.56
444.476	90.56
444.698	79.56
444.919	76.56
445.14	138.56
445.361	119.56
445.582	113.56
445.803	148.56
446.024	139.56
446.245	121.56
446.466	110.56
446.687	97.56
446.908	90.56
447.129	87.56
447.35	95.56
447.571	86.56
447.792	90.56
448.013	103.56
448.234	93.56
448.455	94.56
448.675	116.56
448.896	114.56
449.117	90.56
449.338	104.56
449.559	130.56
449.779	116.56
450	76.56
450.221	84.56
450.442	95.56
450.662	101.56
450.883	99.56
451.104	109.56
451.324	91.56
451.545	98.56
451.766	77.56
451.986	75.56
452.207	87.56
452.428	83.56
452.648	89.56
452.869	105.56
453.089	94.56
453.31	105.56
453.53	96.56
453.751	90.56
453.971	102.56
454.192	100.56
454.412	104.56
454.633	95.56
454.853	88.56
455.073	84.56
455.294	98.56
455.514	100.56
455.734	81.56
455.955	81.56
456.175	98.56
456.395	100.56
456.616	84.56
456.836	101.56
457.056	78.56
457.276	99.56
457.497	91.56
457.717	85.56
457.937	101.56
458.157	89.56
458.377	103.56
458.598	102.56
458.818	162.56
459.038	174.56
459.258	113.56
459.478	89.56
459.698	96.56
459.918	86.56
460.138	77.56
460.358	86.56
460.578	86.56
460.798	101.56
461.018	74.56
461.238	75.56
461.458	79.56
461.678	83.56
461.898	83.56
462.118	96.56
462.338	79.56
462.558	80.56
462.777	86.56
462.997	97.56
463.217	82.56
463.437	78.56
463.657	96.56
463.876	81.56
464.096	89.56
464.316	86.56
464.536	96.56
464.755	101.56
464.975	101.56
465.195	149.56
465.414	166.56
465.634	91.56
465.854	84.56
466.073	79.56
466.293	78.56
466.512	89.56
466.732	88.56
466.951	97.56
467.171	89.56
467.391	109.56
467.61	103.56
467.829	140.56
468.049	257.56
468.268	365.56
468.488	130.56
468.707	98.56
468.927	83.56
469.146	88.56
469.365	80.56
469.585	89.56
469.804	86.56
470.023	95.56
470.243	91.56
470.462	95.56
470.681	109.56
470.901	89.56
471.12	90.56
471.339	93.56
471.558	92.56
471.777	104.56
471.997	163.56
472.216	475.56
472.435	944.56
472.654	266.56
472.873	120.56
473.092	88.56
473.311	83.56
473.53	89.56
473.749	80.56
473.968	98.56
474.187	105.56
474.406	97.56
474.625	89.56
474.844	96.56
475.063	89.56
475.282	90.56
475.501	99.56
475.72	84.56
475.939	78.56
476.158	88.56
476.377	86.56
476.596	82.56
476.814	95.56
477.033	109.56
477.252	95.56
477.471	81.56
477.69	94.56
477.908	89.56
478.127	96.56
478.346	87.56
478.564	84.56
478.783	117.56
479.002	100.56
479.22	99.56
479.439	106.56
479.658	114.56
479.876	89.56
480.095	99.56
480.313	107.56
480.532	115.56
480.751	170.56
480.969	437.56
481.188	1621.56
481.406	1008.56
481.624	180.56
481.843	86.56
482.061	75.56
482.28	92.56
482.498	86.56
482.717	84.56
482.935	88.56
483.153	99.56
483.372	92.56
483.59	77.56
483.808	97.56
484.027	94.56
484.245	88.56
484.463	87.56
484.681	95.56
484.9	98.56
485.118	88.56
485.336	101.56
485.554	97.56
485.772	100.56
485.99	105.56
486.209	105.56
486.427	114.56
486.645	98.56
486.863	119.56
487.081	100.56
487.299	104.56
487.517	102.56
487.735	108.56
487.953	95.56
488.171	100.56
488.389	102.56
488.607	103.56
488.825	85.56
489.043	87.56
489.261	79.56
489.479	77.56
489.696	84.56
489.914	84.56
490.132	102.56
490.35	87.56
490.568	93.56
490.786	94.56
491.003	83.56
491.221	94.56
491.439	105.56
491.657	93.56
491.874	84.56
492.092	113.56
492.31	92.56
492.527	97.56
492.745	103.56
492.963	84.56
493.18	94.56
493.398	97.56
493.615	112.56
493.833	104.56
494.05	87.56
494.268	106.56
494.485	89.56
494.703	94.56
494.92	74.56
495.138	86.56
495.355	86.56
495.573	100.56
495.79	92.56
496.008	96.56
496.225	92.56
496.442	86.56
496.66	87.56
496.877	95.56
497.094	76.56
497.312	90.56
497.529	96.56
497.746	102.56
497.963	84.56
498.181	92.56
498.398	99.56
498.615	103.56
498.832	92.56
499.049	90.56
499.267	91.56
499.484	87.56
499.701	82.56
499.918	84.56
500.135	91.56
500.352	97.56
500.569	99.56
500.786	98.56
501.003	97.56
501.22	89.56
501.437	91.56
501.654	99.56
501.871	100.56
502.088	93.56
502.305	86.56
502.522	73.56
502.739	104.56
502.956	99.56
503.172	102.56
503.389	71.56
503.606	116.56
503.823	99.56
504.04	92.56
504.256	86.56
504.473	85.56
504.69	97.56
504.907	93.56
505.123	82.56
505.34	90.56
505.557	85.56
505.773	91.56
505.99	93.56
506.207	89.56
506.423	70.56
506.64	82.56
506.856	92.56
507.073	89.56
507.289	81.56
507.506	99.56
507.722	106.56
507.939	122.56
508.155	101.56
508.372	85.56
508.588	88.56
508.805	98.56
509.021	99.56
509.238	92.56
509.454	103.56
509.67	96.56
509.887	111.56
510.103	132.56
510.319	206.56
510.536	716.56
510.752	2306.56
510.968	667.56
511.184	157.56
511.401	104.56
511.617	92.56
511.833	97.56
512.049	104.56
512.265	90.56
512.481	92.56
512.698	99.56
512.914	97.56
513.13	86.56
513.346	89.56
513.562	91.56
513.778	86.56
513.994	98.56
514.21	99.56
514.426	118.56
514.642	131.56
514.858	123.56
515.074	182.56
