Data from Circ_2001_H10_HRD10591_00012.txt Node
Date: Wed Jan 03 10:45:41 EST 2024
User: Yrep
Spectrometer: HR+D1059
Trigger mode: 1
Integration Time (sec): 1.000000E-1
Scans to average: 1
Electric dark correction enabled: true
Nonlinearity correction enabled: false
Boxcar width: 0
XAxis mode: Wavelengths
Number of Pixels in Spectrum: 2048
>>>>>Begin Spectral Data<<<<<
223.165	-19.31
223.4	-19.31
223.635	-19.31
223.869	-25.31
224.104	-26.31
224.338	-14.31
224.573	-14.31
224.808	-14.31
225.042	-7.31
225.277	-4.31
225.511	-4.31
225.746	4.69
225.98	-4.31
226.215	22.69
226.449	6.69
226.683	18.69
226.918	29.69
227.152	51.69
227.387	39.69
227.621	30.69
227.856	36.69
228.09	46.69
228.324	51.69
228.559	55.69
228.793	72.69
229.027	61.69
229.262	70.69
229.496	77.69
229.73	101.69
229.964	86.69
230.199	77.69
230.433	69.69
230.667	97.69
230.901	99.69
231.136	82.69
231.37	86.69
231.604	73.69
231.838	82.69
232.072	73.69
232.306	91.69
232.541	80.69
232.775	90.69
233.009	85.69
233.243	77.69
233.477	77.69
233.711	99.69
233.945	84.69
234.179	81.69
234.413	91.69
234.647	85.69
234.881	69.69
235.115	100.69
235.349	80.69
235.583	81.69
235.817	70.69
236.051	76.69
236.285	81.69
236.519	80.69
236.753	69.69
236.987	78.69
237.221	93.69
237.455	85.69
237.689	84.69
237.922	93.69
238.156	85.69
238.39	85.69
238.624	72.69
238.858	70.69
239.091	81.69
239.325	83.69
239.559	76.69
239.793	75.69
240.027	81.69
240.26	78.69
240.494	68.69
240.728	72.69
240.961	80.69
241.195	80.69
241.429	76.69
241.662	86.69
241.896	82.69
242.13	75.69
242.363	88.69
242.597	85.69
242.83	70.69
243.064	78.69
243.298	81.69
243.531	84.69
243.765	84.69
243.998	72.69
244.232	70.69
244.465	99.69
244.699	82.69
244.932	80.69
245.166	71.69
245.399	77.69
245.633	93.69
245.866	71.69
246.099	69.69
246.333	70.69
246.566	84.69
246.8	87.69
247.033	86.69
247.266	81.69
247.5	87.69
247.733	74.69
247.966	76.69
248.2	75.69
248.433	82.69
248.666	94.69
248.899	85.69
249.133	77.69
249.366	106.69
249.599	97.69
249.832	85.69
250.066	84.69
250.299	75.69
250.532	94.69
250.765	72.69
250.998	72.69
251.231	77.69
251.465	80.69
251.698	80.69
251.931	94.69
252.164	86.69
252.397	88.69
252.63	86.69
252.863	81.69
253.096	80.69
253.329	91.69
253.562	86.69
253.795	98.69
254.028	87.69
254.261	99.69
254.494	93.69
254.727	81.69
254.96	90.69
255.193	78.69
255.426	88.69
255.659	82.69
255.892	81.69
256.124	99.69
256.357	92.69
256.59	90.69
256.823	73.69
257.056	89.69
257.289	92.69
257.521	78.69
257.754	85.69
257.987	84.69
258.22	90.69
258.452	72.69
258.685	89.69
258.918	76.69
259.151	75.69
259.383	66.69
259.616	74.69
259.849	77.69
260.081	79.69
260.314	91.69
260.547	81.69
260.779	100.69
261.012	108.69
261.244	109.69
261.477	92.69
261.71	94.69
261.942	131.69
262.175	139.69
262.407	85.69
262.64	85.69
262.872	86.69
263.105	80.69
263.337	69.69
263.57	88.69
263.802	81.69
264.035	72.69
264.267	73.69
264.499	76.69
264.732	86.69
264.964	90.69
265.197	76.69
265.429	77.69
265.661	83.69
265.894	92.69
266.126	93.69
266.358	84.69
266.591	86.69
266.823	83.69
267.055	80.69
267.287	89.69
267.52	107.69
267.752	100.69
267.984	91.69
268.216	98.69
268.448	92.69
268.681	91.69
268.913	82.69
269.145	87.69
269.377	92.69
269.609	85.69
269.841	91.69
270.073	107.69
270.306	78.69
270.538	97.69
270.77	100.69
271.002	76.69
271.234	100.69
271.466	101.69
271.698	87.69
271.93	83.69
272.162	89.69
272.394	94.69
272.626	70.69
272.858	86.69
273.09	89.69
273.322	100.69
273.553	90.69
273.785	98.69
274.017	104.69
274.249	94.69
274.481	86.69
274.713	76.69
274.945	86.69
275.176	101.69
275.408	103.69
275.64	100.69
275.872	112.69
276.104	98.69
276.335	117.69
276.567	109.69
276.799	125.69
277.031	157.69
277.262	153.69
277.494	129.69
277.726	102.69
277.957	94.69
278.189	94.69
278.421	99.69
278.652	98.69
278.884	83.69
279.115	99.69
279.347	93.69
279.579	108.69
279.81	118.69
280.042	180.69
280.273	209.69
280.505	147.69
280.736	97.69
280.968	105.69
281.199	91.69
281.431	85.69
281.662	84.69
281.894	90.69
282.125	101.69
282.356	114.69
282.588	166.69
282.819	128.69
283.051	96.69
283.282	97.69
283.513	93.69
283.745	94.69
283.976	97.69
284.207	98.69
284.439	100.69
284.67	80.69
284.901	88.69
285.132	82.69
285.364	89.69
285.595	86.69
285.826	85.69
286.057	93.69
286.288	102.69
286.52	90.69
286.751	96.69
286.982	82.69
287.213	86.69
287.444	89.69
287.675	98.69
287.906	92.69
288.138	99.69
288.369	92.69
288.6	90.69
288.831	93.69
289.062	83.69
289.293	99.69
289.524	91.69
289.755	101.69
289.986	97.69
290.217	84.69
290.448	89.69
290.679	96.69
290.91	86.69
291.141	81.69
291.371	93.69
291.602	88.69
291.833	103.69
292.064	107.69
292.295	91.69
292.526	97.69
292.757	93.69
292.987	93.69
293.218	88.69
293.449	99.69
293.68	101.69
293.91	92.69
294.141	92.69
294.372	88.69
294.603	77.69
294.833	85.69
295.064	97.69
295.295	80.69
295.525	95.69
295.756	112.69
295.987	117.69
296.217	140.69
296.448	148.69
296.679	102.69
296.909	81.69
297.14	94.69
297.37	94.69
297.601	78.69
297.831	88.69
298.062	101.69
298.292	99.69
298.523	79.69
298.753	66.69
298.984	87.69
299.214	94.69
299.445	94.69
299.675	86.69
299.905	98.69
300.136	102.69
300.366	89.69
300.597	92.69
300.827	92.69
301.057	104.69
301.288	109.69
301.518	111.69
301.748	112.69
301.979	107.69
302.209	97.69
302.439	114.69
302.669	100.69
302.9	99.69
303.13	107.69
303.36	113.69
303.59	125.69
303.82	143.69
304.051	113.69
304.281	94.69
304.511	102.69
304.741	89.69
304.971	85.69
305.201	77.69
305.431	94.69
305.661	107.69
305.891	99.69
306.121	100.69
306.352	105.69
306.582	118.69
306.812	100.69
307.042	107.69
307.272	132.69
307.502	151.69
307.731	136.69
307.961	113.69
308.191	101.69
308.421	84.69
308.651	95.69
308.881	117.69
309.111	104.69
309.341	108.69
309.571	99.69
309.8	108.69
310.03	93.69
310.26	110.69
310.49	96.69
310.72	98.69
310.949	108.69
311.179	105.69
311.409	109.69
311.639	107.69
311.868	100.69
312.098	98.69
312.328	112.69
312.557	107.69
312.787	122.69
313.017	120.69
313.246	98.69
313.476	89.69
313.706	109.69
313.935	107.69
314.165	131.69
314.394	121.69
314.624	108.69
314.853	113.69
315.083	96.69
315.312	93.69
315.542	90.69
315.771	102.69
316.001	94.69
316.23	91.69
316.46	92.69
316.689	92.69
316.919	115.69
317.148	117.69
317.377	103.69
317.607	93.69
317.836	115.69
318.065	96.69
318.295	86.69
318.524	103.69
318.753	94.69
318.983	107.69
319.212	124.69
319.441	101.69
319.67	114.69
319.9	95.69
320.129	98.69
320.358	93.69
320.587	102.69
320.816	102.69
321.046	123.69
321.275	112.69
321.504	108.69
321.733	98.69
321.962	120.69
322.191	102.69
322.42	122.69
322.649	130.69
322.878	125.69
323.108	129.69
323.337	140.69
323.566	159.69
323.795	176.69
324.024	253.69
324.253	470.69
324.482	1008.69
324.71	2109.69
324.939	2760.69
325.168	988.69
325.397	286.69
325.626	177.69
325.855	149.69
326.084	138.69
326.313	160.69
326.542	168.69
326.77	273.69
326.999	552.69
327.228	1110.69
327.457	2080.69
327.686	1628.69
327.914	528.69
328.143	453.69
328.372	534.69
328.6	312.69
328.829	181.69
329.058	180.69
329.287	194.69
329.515	170.69
329.744	209.69
329.972	380.69
330.201	726.69
330.43	1028.69
330.658	508.69
330.887	244.69
331.115	165.69
331.344	137.69
331.572	129.69
331.801	118.69
332.03	121.69
332.258	114.69
332.486	106.69
332.715	110.69
332.943	111.69
333.172	126.69
333.4	124.69
333.629	145.69
333.857	196.69
334.085	349.69
334.314	682.69
334.542	1313.69
334.771	1201.69
334.999	354.69
335.227	162.69
335.455	128.69
335.684	112.69
335.912	110.69
336.14	122.69
336.369	107.69
336.597	112.69
336.825	116.69
337.053	101.69
337.281	98.69
337.51	101.69
337.738	118.69
337.966	107.69
338.194	109.69
338.422	106.69
338.65	91.69
338.878	101.69
339.106	106.69
339.334	97.69
339.562	104.69
339.79	100.69
340.018	87.69
340.246	104.69
340.474	102.69
340.702	110.69
340.93	93.69
341.158	99.69
341.386	107.69
341.614	103.69
341.842	124.69
342.07	99.69
342.298	100.69
342.526	101.69
342.754	92.69
342.981	105.69
343.209	99.69
343.437	100.69
343.665	74.69
343.893	89.69
344.12	102.69
344.348	93.69
344.576	88.69
344.804	92.69
345.031	116.69
345.259	117.69
345.487	92.69
345.714	95.69
345.942	101.69
346.17	87.69
346.397	104.69
346.625	97.69
346.853	97.69
347.08	100.69
347.308	94.69
347.535	103.69
347.763	107.69
347.99	120.69
348.218	121.69
348.445	108.69
348.673	108.69
348.9	85.69
349.128	98.69
349.355	107.69
349.583	98.69
349.81	99.69
350.037	93.69
350.265	98.69
350.492	91.69
350.72	100.69
350.947	110.69
351.174	121.69
351.402	129.69
351.629	118.69
351.856	104.69
352.083	101.69
352.311	120.69
352.538	120.69
352.765	118.69
352.992	121.69
353.22	121.69
353.447	113.69
353.674	106.69
353.901	105.69
354.128	100.69
354.355	97.69
354.583	100.69
354.81	91.69
355.037	102.69
355.264	96.69
355.491	92.69
355.718	94.69
355.945	89.69
356.172	99.69
356.399	101.69
356.626	98.69
356.853	95.69
357.08	94.69
357.307	92.69
357.534	81.69
357.761	96.69
357.988	113.69
358.215	108.69
358.441	97.69
358.668	93.69
358.895	93.69
359.122	88.69
359.349	102.69
359.576	90.69
359.802	126.69
360.029	134.69
360.256	119.69
360.483	117.69
360.709	94.69
360.936	90.69
361.163	98.69
361.39	106.69
361.616	109.69
361.843	103.69
362.07	103.69
362.296	95.69
362.523	97.69
362.749	89.69
362.976	98.69
363.203	89.69
363.429	94.69
363.656	90.69
363.882	95.69
364.109	84.69
364.335	87.69
364.562	98.69
364.788	88.69
365.015	111.69
365.241	105.69
365.468	119.69
365.694	128.69
365.92	93.69
366.147	96.69
366.373	95.69
366.599	90.69
366.826	89.69
367.052	93.69
367.278	101.69
367.505	103.69
367.731	112.69
367.957	87.69
368.184	104.69
368.41	92.69
368.636	121.69
368.862	124.69
369.089	94.69
369.315	107.69
369.541	105.69
369.767	94.69
369.993	102.69
370.219	92.69
370.445	93.69
370.672	86.69
370.898	91.69
371.124	82.69
371.35	96.69
371.576	97.69
371.802	99.69
372.028	100.69
372.254	92.69
372.48	78.69
372.706	94.69
372.932	100.69
373.158	80.69
373.384	85.69
373.61	100.69
373.835	111.69
374.061	99.69
374.287	85.69
374.513	94.69
374.739	82.69
374.965	95.69
375.191	91.69
375.416	92.69
375.642	105.69
375.868	87.69
376.094	90.69
376.319	79.69
376.545	87.69
376.771	92.69
376.997	106.69
377.222	92.69
377.448	87.69
377.674	94.69
377.899	83.69
378.125	82.69
378.35	100.69
378.576	94.69
378.802	96.69
379.027	94.69
379.253	92.69
379.478	103.69
379.704	104.69
379.929	102.69
380.155	86.69
380.38	91.69
380.606	97.69
380.831	84.69
381.057	101.69
381.282	109.69
381.507	103.69
381.733	103.69
381.958	114.69
382.184	93.69
382.409	116.69
382.634	106.69
382.86	109.69
383.085	105.69
383.31	99.69
383.535	99.69
383.761	102.69
383.986	102.69
384.211	115.69
384.436	101.69
384.662	97.69
384.887	121.69
385.112	116.69
385.337	125.69
385.562	137.69
385.787	123.69
386.013	118.69
386.238	136.69
386.463	122.69
386.688	114.69
386.913	123.69
387.138	124.69
387.363	125.69
387.588	99.69
387.813	110.69
388.038	100.69
388.263	138.69
388.488	119.69
388.713	101.69
388.938	90.69
389.163	96.69
389.387	102.69
389.612	100.69
389.837	102.69
390.062	104.69
390.287	91.69
390.512	89.69
390.736	105.69
390.961	86.69
391.186	89.69
391.411	107.69
391.636	89.69
391.86	88.69
392.085	69.69
392.31	90.69
392.534	93.69
392.759	86.69
392.984	86.69
393.208	100.69
393.433	108.69
393.658	97.69
393.882	76.69
394.107	85.69
394.331	81.69
394.556	102.69
394.78	95.69
395.005	88.69
395.229	93.69
395.454	90.69
395.678	80.69
395.903	92.69
396.127	102.69
396.352	91.69
396.576	91.69
396.801	102.69
397.025	99.69
397.249	88.69
397.474	97.69
397.698	85.69
397.922	86.69
398.147	81.69
398.371	83.69
398.595	89.69
398.82	66.69
399.044	102.69
399.268	83.69
399.492	97.69
399.717	89.69
399.941	97.69
400.165	90.69
400.389	96.69
400.613	84.69
400.837	76.69
401.062	92.69
401.286	88.69
401.51	91.69
401.734	87.69
401.958	104.69
402.182	142.69
402.406	176.69
402.63	147.69
402.854	87.69
403.078	91.69
403.302	85.69
403.526	113.69
403.75	90.69
403.974	105.69
404.198	81.69
404.422	104.69
404.645	97.69
404.869	123.69
405.093	120.69
405.317	138.69
405.541	109.69
405.765	129.69
405.988	113.69
406.212	201.69
406.436	272.69
406.66	183.69
406.883	106.69
407.107	98.69
407.331	103.69
407.555	121.69
407.778	103.69
408.002	105.69
408.226	98.69
408.449	88.69
408.673	89.69
408.896	85.69
409.12	104.69
409.344	103.69
409.567	81.69
409.791	90.69
410.014	93.69
410.238	93.69
410.461	92.69
410.685	90.69
410.908	98.69
411.132	115.69
411.355	101.69
411.578	91.69
411.802	93.69
412.025	84.69
412.249	110.69
412.472	109.69
412.695	113.69
412.919	109.69
413.142	101.69
413.365	95.69
413.589	99.69
413.812	70.69
414.035	98.69
414.258	99.69
414.482	89.69
414.705	82.69
414.928	84.69
415.151	89.69
415.374	98.69
415.597	98.69
415.821	101.69
416.044	93.69
416.267	98.69
416.49	81.69
416.713	84.69
416.936	90.69
417.159	103.69
417.382	91.69
417.605	104.69
417.828	118.69
418.051	87.69
418.274	95.69
418.497	99.69
418.72	82.69
418.943	91.69
419.166	74.69
419.389	96.69
419.611	103.69
419.834	89.69
420.057	90.69
420.28	98.69
420.503	92.69
420.726	88.69
420.948	101.69
421.171	97.69
421.394	88.69
421.617	89.69
421.839	78.69
422.062	80.69
422.285	101.69
422.507	99.69
422.73	110.69
422.953	105.69
423.175	94.69
423.398	89.69
423.621	102.69
423.843	102.69
424.066	74.69
424.288	97.69
424.511	94.69
424.733	95.69
424.956	126.69
425.178	101.69
425.401	97.69
425.623	119.69
425.846	76.69
426.068	93.69
426.291	108.69
426.513	100.69
426.735	100.69
426.958	91.69
427.18	122.69
427.402	178.69
427.625	235.69
427.847	205.69
428.069	196.69
428.292	111.69
428.514	96.69
428.736	91.69
428.958	103.69
429.181	83.69
429.403	104.69
429.625	83.69
429.847	104.69
430.069	114.69
430.292	100.69
430.514	97.69
430.736	80.69
430.958	83.69
431.18	92.69
431.402	94.69
431.624	88.69
431.846	83.69
432.068	86.69
432.29	84.69
432.512	89.69
432.734	71.69
432.956	105.69
433.178	101.69
433.4	101.69
433.622	92.69
433.844	90.69
434.066	92.69
434.287	87.69
434.509	90.69
434.731	104.69
434.953	88.69
435.175	99.69
435.397	102.69
435.618	97.69
435.84	109.69
436.062	129.69
436.284	144.69
436.505	112.69
436.727	98.69
436.949	82.69
437.17	90.69
437.392	95.69
437.614	92.69
437.835	132.69
438.057	128.69
438.278	136.69
438.5	100.69
438.721	127.69
438.943	94.69
439.165	95.69
439.386	84.69
439.608	99.69
439.829	99.69
440.05	155.69
440.272	192.69
440.493	118.69
440.715	99.69
440.936	105.69
441.158	100.69
441.379	93.69
441.6	100.69
441.822	107.69
442.043	91.69
442.264	107.69
442.486	98.69
442.707	99.69
442.928	112.69
443.149	170.69
443.371	163.69
443.592	123.69
443.813	132.69
444.034	131.69
444.255	102.69
444.476	97.69
444.698	97.69
444.919	89.69
445.14	137.69
445.361	141.69
445.582	153.69
445.803	163.69
446.024	178.69
446.245	176.69
446.466	134.69
446.687	86.69
446.908	92.69
447.129	100.69
447.35	91.69
447.571	88.69
447.792	107.69
448.013	100.69
448.234	121.69
448.455	132.69
448.675	128.69
448.896	138.69
449.117	109.69
449.338	98.69
449.559	145.69
449.779	142.69
450	93.69
450.221	75.69
450.442	82.69
450.662	100.69
450.883	120.69
451.104	123.69
451.324	102.69
451.545	91.69
451.766	85.69
451.986	82.69
452.207	95.69
452.428	93.69
452.648	96.69
452.869	118.69
453.089	139.69
453.31	128.69
453.53	96.69
453.751	89.69
453.971	107.69
454.192	129.69
454.412	101.69
454.633	83.69
454.853	93.69
455.073	93.69
455.294	82.69
455.514	112.69
455.734	82.69
455.955	87.69
456.175	92.69
456.395	89.69
456.616	80.69
456.836	86.69
457.056	75.69
457.276	77.69
457.497	85.69
457.717	91.69
457.937	76.69
458.157	85.69
458.377	82.69
458.598	135.69
458.818	203.69
459.038	216.69
459.258	137.69
459.478	93.69
459.698	91.69
459.918	79.69
460.138	92.69
460.358	77.69
460.578	85.69
460.798	99.69
461.018	96.69
461.238	81.69
461.458	83.69
461.678	89.69
461.898	82.69
462.118	103.69
462.338	90.69
462.558	96.69
462.777	106.69
462.997	96.69
463.217	91.69
463.437	95.69
463.657	86.69
463.876	105.69
464.096	99.69
464.316	105.69
464.536	100.69
464.755	102.69
464.975	108.69
465.195	237.69
465.414	221.69
465.634	114.69
465.854	88.69
466.073	93.69
466.293	98.69
466.512	78.69
466.732	81.69
466.951	88.69
467.171	90.69
467.391	105.69
467.61	141.69
467.829	176.69
468.049	415.69
468.268	602.69
468.488	178.69
468.707	101.69
468.927	100.69
469.146	79.69
469.365	75.69
469.585	100.69
469.804	108.69
470.023	98.69
470.243	103.69
470.462	112.69
470.681	144.69
470.901	110.69
471.12	93.69
471.339	109.69
471.558	105.69
471.777	116.69
471.997	238.69
472.216	785.69
472.435	1688.69
472.654	435.69
472.873	141.69
473.092	106.69
473.311	90.69
473.53	93.69
473.749	83.69
473.968	108.69
474.187	124.69
474.406	101.69
474.625	85.69
474.844	74.69
475.063	86.69
475.282	84.69
475.501	100.69
475.72	102.69
475.939	86.69
476.158	82.69
476.377	94.69
476.596	84.69
476.814	98.69
477.033	107.69
477.252	82.69
477.471	97.69
477.69	100.69
477.908	98.69
478.127	83.69
478.346	94.69
478.564	97.69
478.783	109.69
479.002	110.69
479.22	103.69
479.439	120.69
479.658	120.69
479.876	113.69
480.095	122.69
480.313	124.69
480.532	155.69
480.751	230.69
480.969	712.69
481.188	2844.69
481.406	1642.69
481.624	281.69
481.843	123.69
482.061	112.69
482.28	93.69
482.498	86.69
482.717	97.69
482.935	99.69
483.153	99.69
483.372	105.69
483.59	85.69
483.808	89.69
484.027	77.69
484.245	90.69
484.463	99.69
484.681	93.69
484.9	87.69
485.118	103.69
485.336	97.69
485.554	101.69
485.772	96.69
485.99	109.69
486.209	102.69
486.427	119.69
486.645	118.69
486.863	119.69
487.081	110.69
487.299	104.69
487.517	107.69
487.735	80.69
487.953	99.69
488.171	107.69
488.389	97.69
488.607	110.69
488.825	94.69
489.043	86.69
489.261	97.69
489.479	86.69
489.696	82.69
489.914	93.69
490.132	88.69
490.35	101.69
490.568	89.69
490.786	106.69
491.003	87.69
491.221	88.69
491.439	102.69
491.657	90.69
491.874	72.69
492.092	83.69
492.31	91.69
492.527	98.69
492.745	100.69
492.963	94.69
493.18	91.69
493.398	103.69
493.615	107.69
493.833	93.69
494.05	86.69
494.268	98.69
494.485	96.69
494.703	94.69
494.92	91.69
495.138	101.69
495.355	93.69
495.573	90.69
495.79	94.69
496.008	98.69
496.225	93.69
496.442	97.69
496.66	97.69
496.877	89.69
497.094	83.69
497.312	99.69
497.529	93.69
497.746	82.69
497.963	89.69
498.181	91.69
498.398	105.69
498.615	121.69
498.832	102.69
499.049	96.69
499.267	91.69
499.484	92.69
499.701	110.69
499.918	86.69
500.135	87.69
500.352	101.69
500.569	88.69
500.786	97.69
501.003	88.69
501.22	83.69
501.437	93.69
501.654	85.69
501.871	115.69
502.088	104.69
502.305	88.69
502.522	75.69
502.739	92.69
502.956	103.69
503.172	86.69
503.389	96.69
503.606	115.69
503.823	94.69
504.04	80.69
504.256	89.69
504.473	89.69
504.69	71.69
504.907	87.69
505.123	75.69
505.34	92.69
505.557	105.69
505.773	85.69
505.99	89.69
506.207	88.69
506.423	81.69
506.64	75.69
506.856	97.69
507.073	88.69
507.289	104.69
507.506	93.69
507.722	132.69
507.939	130.69
508.155	99.69
508.372	82.69
508.588	93.69
508.805	101.69
509.021	99.69
509.238	105.69
509.454	108.69
509.67	100.69
509.887	117.69
510.103	141.69
510.319	222.69
510.536	785.69
510.752	2659.69
510.968	749.69
511.184	176.69
511.401	134.69
511.617	116.69
511.833	101.69
512.049	102.69
512.265	91.69
512.481	92.69
