Data from Circ_2001_H10_HRD10591_00080.txt Node
Date: Wed Jan 03 10:45:54 EST 2024
User: Yrep
Spectrometer: HR+D1059
Trigger mode: 1
Integration Time (sec): 1.000000E-1
Scans to average: 1
Electric dark correction enabled: true
Nonlinearity correction enabled: false
Boxcar width: 0
XAxis mode: Wavelengths
Number of Pixels in Spectrum: 2048
>>>>>Begin Spectral Data<<<<<
223.165	-16
223.4	-16
223.635	-16
223.869	-18
224.104	-23
224.338	-17
224.573	-12
224.808	-15
225.042	-6
225.277	6
225.511	-9
225.746	0
225.98	8
226.215	10
226.449	18
226.683	29
226.918	13
227.152	32
227.387	19
227.621	40
227.856	51
228.09	43
228.324	51
228.559	63
228.793	56
229.027	66
229.262	75
229.496	86
229.73	86
229.964	81
230.199	66
230.433	84
230.667	88
230.901	84
231.136	69
231.37	85
231.604	79
231.838	75
232.072	77
232.306	74
232.541	95
232.775	91
233.009	90
233.243	83
233.477	78
233.711	81
233.945	74
234.179	68
234.413	93
234.647	79
234.881	88
235.115	68
235.349	77
235.583	77
235.817	85
236.051	80
236.285	81
236.519	108
236.753	81
236.987	77
237.221	104
237.455	77
237.689	76
237.922	74
238.156	77
238.39	71
238.624	80
238.858	77
239.091	90
239.325	94
239.559	89
239.793	88
240.027	92
240.26	72
240.494	80
240.728	86
240.961	72
241.195	81
241.429	88
241.662	79
241.896	72
242.13	64
242.363	81
242.597	77
242.83	84
243.064	74
243.298	72
243.531	77
243.765	85
243.998	83
244.232	69
244.465	76
244.699	73
244.932	74
245.166	88
245.399	81
245.633	85
245.866	79
246.099	90
246.333	81
246.566	87
246.8	81
247.033	82
247.266	93
247.5	75
247.733	80
247.966	77
248.2	82
248.433	83
248.666	73
248.899	88
249.133	96
249.366	96
249.599	82
249.832	90
250.066	95
250.299	95
250.532	82
250.765	83
250.998	91
251.231	82
251.465	88
251.698	97
251.931	73
252.164	90
252.397	92
252.63	95
252.863	93
253.096	88
253.329	82
253.562	78
253.795	100
254.028	96
254.261	71
254.494	90
254.727	86
254.96	82
255.193	80
255.426	87
255.659	74
255.892	92
256.124	95
256.357	93
256.59	74
256.823	70
257.056	93
257.289	101
257.521	77
257.754	83
257.987	81
258.22	72
258.452	86
258.685	99
258.918	82
259.151	85
259.383	83
259.616	85
259.849	89
260.081	89
260.314	93
260.547	85
260.779	98
261.012	100
261.244	108
261.477	109
261.71	106
261.942	115
262.175	129
262.407	88
262.64	87
262.872	90
263.105	84
263.337	79
263.57	75
263.802	99
264.035	86
264.267	81
264.499	95
264.732	86
264.964	96
265.197	85
265.429	88
265.661	95
265.894	79
266.126	92
266.358	68
266.591	87
266.823	83
267.055	88
267.287	80
267.52	100
267.752	91
267.984	103
268.216	92
268.448	84
268.681	104
268.913	88
269.145	80
269.377	91
269.609	91
269.841	83
270.073	89
270.306	85
270.538	83
270.77	72
271.002	97
271.234	96
271.466	96
271.698	94
271.93	89
272.162	84
272.394	101
272.626	91
272.858	77
273.09	77
273.322	88
273.553	103
273.785	93
274.017	85
274.249	102
274.481	89
274.713	80
274.945	108
275.176	94
275.408	95
275.64	113
275.872	116
276.104	107
276.335	102
276.567	103
276.799	139
277.031	174
277.262	152
277.494	131
277.726	97
277.957	93
278.189	91
278.421	83
278.652	77
278.884	99
279.115	89
279.347	86
279.579	102
279.81	128
280.042	174
280.273	215
280.505	143
280.736	105
280.968	94
281.199	97
281.431	93
281.662	77
281.894	81
282.125	104
282.356	122
282.588	165
282.819	130
283.051	92
283.282	102
283.513	97
283.745	73
283.976	85
284.207	82
284.439	96
284.67	89
284.901	71
285.132	88
285.364	93
285.595	99
285.826	91
286.057	90
286.288	81
286.52	92
286.751	86
286.982	84
287.213	71
287.444	100
287.675	101
287.906	91
288.138	89
288.369	104
288.6	96
288.831	88
289.062	100
289.293	103
289.524	85
289.755	94
289.986	96
290.217	92
290.448	107
290.679	85
290.91	87
291.141	92
291.371	83
291.602	89
291.833	80
292.064	89
292.295	91
292.526	94
292.757	103
292.987	93
293.218	94
293.449	97
293.68	85
293.91	93
294.141	90
294.372	103
294.603	89
294.833	84
295.064	76
295.295	93
295.525	89
295.756	103
295.987	112
296.217	154
296.448	135
296.679	103
296.909	103
297.14	100
297.37	75
297.601	106
297.831	91
298.062	83
298.292	90
298.523	99
298.753	92
298.984	87
299.214	83
299.445	100
299.675	112
299.905	93
300.136	102
300.366	91
300.597	89
300.827	97
301.057	103
301.288	109
301.518	98
301.748	101
301.979	103
302.209	95
302.439	83
302.669	84
302.9	96
303.13	97
303.36	108
303.59	116
303.82	131
304.051	105
304.281	98
304.511	102
304.741	90
304.971	94
305.201	109
305.431	112
305.661	84
305.891	100
306.121	105
306.352	111
306.582	122
306.812	115
307.042	119
307.272	141
307.502	134
307.731	153
307.961	108
308.191	105
308.421	99
308.651	89
308.881	100
309.111	81
309.341	87
309.571	103
309.8	104
310.03	96
310.26	104
310.49	107
310.72	105
310.949	117
311.179	125
311.409	95
311.639	112
311.868	101
312.098	98
312.328	111
312.557	111
312.787	125
313.017	119
313.246	90
313.476	104
313.706	120
313.935	112
314.165	104
314.394	107
314.624	93
314.853	100
315.083	109
315.312	101
315.542	99
315.771	93
316.001	90
316.23	102
316.46	98
316.689	104
316.919	109
317.148	106
317.377	103
317.607	101
317.836	111
318.065	84
318.295	86
318.524	101
318.753	97
318.983	103
319.212	122
319.441	117
319.67	112
319.9	115
320.129	99
320.358	95
320.587	92
320.816	103
321.046	109
321.275	117
321.504	106
321.733	105
321.962	97
322.191	116
322.42	104
322.649	133
322.878	133
323.108	139
323.337	155
323.566	153
323.795	184
324.024	275
324.253	517
324.482	1132
324.71	2365
324.939	3056
325.168	1054
325.397	290
325.626	189
325.855	150
326.084	152
326.313	156
326.542	176
326.77	302
326.999	617
327.228	1260
327.457	2335
327.686	1859
327.914	575
328.143	473
328.372	528
328.6	316
328.829	199
329.058	177
329.287	197
329.515	184
329.744	234
329.972	429
330.201	828
330.43	1124
330.658	524
330.887	230
331.115	167
331.344	137
331.572	126
331.801	129
332.03	133
332.258	110
332.486	110
332.715	108
332.943	118
333.172	125
333.4	131
333.629	149
333.857	225
334.085	383
334.314	786
334.542	1483
334.771	1337
334.999	375
335.227	146
335.455	137
335.684	123
335.912	112
336.14	113
336.369	117
336.597	110
336.825	110
337.053	115
337.281	89
337.51	110
337.738	98
337.966	112
338.194	104
338.422	113
338.65	103
338.878	98
339.106	101
339.334	94
339.562	100
339.79	109
340.018	88
340.246	104
340.474	95
340.702	94
340.93	101
341.158	116
341.386	99
341.614	111
341.842	107
342.07	102
342.298	99
342.526	111
342.754	110
342.981	103
343.209	94
343.437	94
343.665	100
343.893	92
344.12	85
344.348	90
344.576	104
344.804	103
345.031	120
345.259	104
345.487	119
345.714	103
345.942	83
346.17	94
346.397	109
346.625	106
346.853	84
347.08	95
347.308	109
347.535	105
347.763	107
347.99	94
348.218	106
348.445	108
348.673	94
348.9	94
349.128	103
349.355	116
349.583	97
349.81	87
350.037	104
350.265	96
350.492	93
350.72	107
350.947	105
351.174	110
351.402	132
351.629	113
351.856	97
352.083	128
352.311	117
352.538	123
352.765	116
352.992	117
353.22	123
353.447	121
353.674	106
353.901	85
354.128	114
354.355	100
354.583	96
354.81	96
355.037	85
355.264	100
355.491	98
355.718	104
355.945	85
356.172	85
356.399	105
356.626	94
356.853	117
357.08	103
357.307	107
357.534	85
357.761	93
357.988	111
358.215	107
358.441	86
358.668	92
358.895	83
359.122	90
359.349	109
359.576	104
359.802	100
360.029	138
360.256	112
360.483	121
360.709	109
360.936	109
361.163	103
361.39	98
361.616	110
361.843	111
362.07	103
362.296	95
362.523	90
362.749	112
362.976	94
363.203	110
363.429	89
363.656	102
363.882	106
364.109	107
364.335	107
364.562	98
364.788	102
365.015	108
365.241	96
365.468	115
365.694	120
365.92	94
366.147	98
366.373	81
366.599	104
366.826	91
367.052	103
367.278	103
367.505	108
367.731	101
367.957	111
368.184	109
368.41	112
368.636	122
368.862	122
369.089	124
369.315	96
369.541	121
369.767	84
369.993	88
370.219	94
370.445	80
370.672	81
370.898	76
371.124	106
371.35	93
371.576	96
371.802	91
372.028	85
372.254	92
372.48	97
372.706	89
372.932	99
373.158	110
373.384	103
373.61	99
373.835	86
374.061	95
374.287	107
374.513	102
374.739	89
374.965	94
375.191	101
375.416	95
375.642	95
375.868	101
376.094	101
376.319	83
376.545	93
376.771	105
376.997	96
377.222	108
377.448	91
377.674	97
377.899	91
378.125	94
378.35	100
378.576	97
378.802	87
379.027	91
379.253	84
379.478	91
379.704	101
379.929	93
380.155	97
380.38	93
380.606	99
380.831	88
381.057	84
381.282	95
381.507	99
381.733	110
381.958	109
382.184	96
382.409	107
382.634	106
382.86	89
383.085	107
383.31	114
383.535	102
383.761	110
383.986	113
384.211	97
384.436	92
384.662	106
384.887	84
385.112	100
385.337	109
385.562	103
385.787	98
386.013	103
386.238	107
386.463	113
386.688	105
386.913	107
387.138	112
387.363	109
387.588	92
387.813	102
388.038	113
388.263	106
388.488	121
388.713	105
388.938	87
389.163	107
389.387	96
389.612	91
389.837	93
390.062	94
390.287	100
390.512	94
390.736	96
390.961	91
391.186	108
391.411	103
391.636	98
391.86	86
392.085	87
392.31	94
392.534	96
392.759	82
392.984	95
393.208	92
393.433	94
393.658	101
393.882	96
394.107	88
394.331	103
394.556	92
394.78	100
395.005	93
395.229	91
395.454	93
395.678	100
395.903	108
396.127	91
396.352	101
396.576	113
396.801	91
397.025	95
397.249	94
397.474	98
397.698	98
397.922	94
398.147	91
398.371	90
398.595	101
398.82	80
399.044	88
399.268	84
399.492	74
399.717	106
399.941	110
400.165	97
400.389	94
400.613	87
400.837	92
401.062	93
401.286	80
401.51	89
401.734	94
401.958	124
402.182	145
402.406	186
402.63	131
402.854	91
403.078	108
403.302	104
403.526	111
403.75	96
403.974	95
404.198	97
404.422	89
404.645	87
404.869	122
405.093	124
405.317	151
405.541	139
405.765	124
405.988	133
406.212	215
406.436	282
406.66	187
406.883	97
407.107	95
407.331	100
407.555	116
407.778	109
408.002	103
408.226	90
408.449	97
408.673	90
408.896	104
409.12	109
409.344	97
409.567	95
409.791	97
410.014	108
410.238	96
410.461	101
410.685	102
410.908	94
411.132	112
411.355	110
411.578	87
411.802	85
412.025	109
412.249	115
412.472	119
412.695	149
412.919	121
413.142	90
413.365	104
413.589	96
413.812	105
414.035	97
414.258	99
414.482	90
414.705	94
414.928	91
415.151	95
415.374	95
415.597	88
415.821	94
416.044	95
416.267	96
416.49	91
416.713	84
416.936	96
417.159	89
417.382	84
417.605	114
417.828	110
418.051	103
418.274	104
418.497	103
418.72	95
418.943	87
419.166	96
419.389	97
419.611	95
419.834	92
420.057	93
420.28	102
420.503	85
420.726	88
420.948	84
421.171	93
421.394	95
421.617	83
421.839	86
422.062	96
422.285	88
422.507	109
422.73	103
422.953	102
423.175	103
423.398	90
423.621	104
423.843	85
424.066	89
424.288	109
424.511	99
424.733	112
424.956	118
425.178	119
425.401	120
425.623	96
425.846	110
426.068	113
426.291	94
426.513	81
426.735	102
426.958	104
427.18	112
427.402	189
427.625	250
427.847	220
428.069	222
428.292	138
428.514	86
428.736	92
428.958	98
429.181	85
429.403	80
429.625	94
429.847	103
430.069	101
430.292	106
430.514	84
430.736	99
430.958	104
431.18	95
431.402	86
431.624	86
431.846	107
432.068	114
432.29	91
432.512	92
432.734	95
432.956	104
433.178	103
433.4	97
433.622	94
433.844	99
434.066	88
434.287	89
434.509	96
434.731	95
434.953	98
435.175	108
435.397	91
435.618	96
435.84	126
436.062	138
436.284	128
436.505	120
436.727	105
436.949	105
437.17	105
437.392	103
437.614	83
437.835	116
438.057	138
438.278	142
438.5	91
438.721	143
438.943	109
439.165	99
439.386	96
439.608	97
439.829	134
440.05	167
440.272	196
440.493	105
440.715	92
440.936	88
441.158	77
441.379	95
441.6	111
441.822	115
442.043	103
442.264	125
442.486	123
442.707	97
442.928	133
443.149	155
443.371	160
443.592	116
443.813	126
444.034	119
444.255	90
444.476	97
444.698	108
444.919	95
445.14	140
445.361	147
445.582	144
445.803	176
446.024	178
446.245	161
446.466	128
446.687	93
446.908	97
447.129	107
447.35	100
447.571	91
447.792	91
448.013	95
448.234	118
448.455	112
448.675	124
448.896	136
449.117	109
449.338	104
449.559	158
449.779	163
450	112
450.221	96
450.442	87
450.662	92
450.883	108
451.104	119
451.324	118
451.545	102
451.766	97
451.986	109
452.207	110
452.428	108
452.648	109
452.869	115
453.089	124
453.31	134
453.53	103
453.751	100
453.971	132
454.192	130
454.412	95
454.633	90
454.853	87
455.073	83
455.294	118
455.514	123
455.734	101
455.955	94
456.175	91
456.395	92
456.616	91
456.836	90
457.056	92
457.276	85
457.497	95
457.717	103
457.937	104
458.157	108
458.377	94
458.598	104
458.818	192
459.038	216
459.258	151
459.478	113
459.698	97
459.918	101
460.138	80
460.358	96
460.578	97
460.798	101
461.018	96
461.238	94
461.458	93
461.678	106
461.898	95
462.118	77
462.338	94
462.558	89
462.777	83
462.997	103
463.217	90
463.437	103
463.657	92
463.876	99
464.096	105
464.316	104
464.536	88
464.755	108
464.975	129
465.195	220
465.414	207
465.634	100
465.854	87
466.073	103
466.293	97
466.512	95
466.732	89
466.951	99
467.171	104
467.391	110
467.61	136
467.829	205
468.049	453
468.268	687
468.488	192
468.707	102
468.927	101
469.146	103
469.365	97
469.585	107
469.804	106
470.023	112
470.243	100
470.462	109
470.681	140
470.901	100
471.12	95
471.339	100
471.558	124
471.777	157
471.997	281
472.216	908
472.435	2028
472.654	489
472.873	170
473.092	116
473.311	105
473.53	98
473.749	93
473.968	87
474.187	126
474.406	108
474.625	84
474.844	77
475.063	104
475.282	87
475.501	97
475.72	86
475.939	79
476.158	100
476.377	110
476.596	101
476.814	104
477.033	108
477.252	91
477.471	105
477.69	87
477.908	106
478.127	98
478.346	108
478.564	89
478.783	106
479.002	112
479.22	115
479.439	119
479.658	122
479.876	114
480.095	111
480.313	136
480.532	162
480.751	265
480.969	885
481.188	3506
481.406	1955
481.624	309
481.843	126
482.061	102
482.28	102
482.498	92
482.717	90
482.935	115
483.153	101
483.372	96
483.59	97
483.808	94
484.027	89
484.245	89
484.463	110
484.681	105
484.9	104
485.118	96
485.336	106
485.554	94
485.772	107
485.99	115
486.209	112
486.427	112
486.645	115
486.863	109
487.081	111
487.299	102
487.517	104
487.735	99
487.953	111
488.171	97
488.389	104
488.607	95
488.825	99
489.043	97
489.261	95
489.479	102
489.696	85
489.914	102
490.132	93
490.35	80
490.568	88
490.786	91
491.003	84
491.221	75
491.439	92
491.657	111
491.874	95
492.092	94
492.31	94
492.527	104
492.745	90
492.963	83
493.18	76
493.398	89
493.615	88
493.833	86
494.05	88
494.268	88
494.485	109
494.703	86
494.92	91
495.138	101
495.355	107
495.573	95
495.79	95
496.008	82
496.225	111
496.442	104
496.66	101
496.877	87
497.094	92
497.312	99
497.529	91
497.746	95
497.963	103
498.181	103
498.398	107
498.615	122
498.832	111
499.049	93
499.267	103
499.484	94
499.701	99
499.918	93
500.135	94
500.352	97
500.569	107
500.786	94
501.003	86
501.22	94
501.437	80
501.654	102
501.871	111
502.088	117
502.305	89
502.522	90
502.739	87
502.956	87
503.172	80
503.389	107
503.606	113
503.823	103
504.04	100
504.256	97
504.473	75
504.69	99
504.907	88
505.123	95
505.34	93
505.557	96
505.773	87
505.99	88
506.207	82
506.423	94
506.64	92
506.856	92
507.073	99
507.289	101
507.506	95
507.722	131
507.939	123
508.155	114
508.372	93
508.588	102
508.805	101
509.021	83
509.238	106
509.454	91
509.67	109
509.887	122
510.103	147
510.319	235
510.536	796
510.752	2567
510.968	706
511.184	169
511.401	115
511.617	107
511.833	103
512.049	113
512.265	89
512.481	107
512.698	105
512.914	96
513.13	100
513.346	92
513.562	100
513.778	100
513.994	117
514.21	108
514.426	140
514.642	174
514.858	138
515.074	194
515.29	621
515.506	1985
515.721	738
515.937	197
516.153	134
516.369	113
516.585	109
516.801	95
517.016	96
517.232	105
517.448	106
517.664	84
517.879	94
518.095	98
518.311	117
518.527	108
518.742	103
518.958	107
519.173	93
519.389	91
519.605	100
519.82	99
520.036	125
520.251	158
520.467	119
520.682	110
520.898	123
521.113	134
521.329	164
521.544	279
521.76	799
521.975	3477
522.19	2007
522.406	419
522.621	138
522.836	122
523.052	115
523.267	109
523.482	106
523.698	115
523.913	127
524.128	125
524.343	100
524.559	97
524.774	94
524.989	97
525.204	126
525.419	119
525.634	101
525.849	95
526.064	105
526.28	92
526.495	98
526.71	78
526.925	84
527.14	97
527.355	94
527.57	107
527.785	89
527.999	97
528.214	89
528.429	111
528.644	95
528.859	72
529.074	96
529.289	148
529.503	243
529.718	104
529.933	102
530.148	93
530.363	91
530.577	95
530.792	101
531.007	99
531.221	91
531.436	92
531.651	90
531.865	95
532.08	117
532.295	97
532.509	87
532.724	83
532.938	93
533.153	96
533.367	108
533.582	96
533.796	101
534.011	97
534.225	93
534.44	92
534.654	90
534.868	101
535.083	101
535.297	97
535.511	119
535.726	117
535.94	100
536.154	98
536.369	109
536.583	90
536.797	85
537.011	92
537.225	98
537.44	107
537.654	94
537.868	84
538.082	86
538.296	81
538.51	94
538.724	95
538.938	106
539.153	107
539.367	108
539.581	123
539.795	80
540.009	73
540.222	89
540.436	95
540.65	87
540.864	86
541.078	111
541.292	92
541.506	86
541.72	100
541.934	87
542.147	87
542.361	98
542.575	97
542.789	95
543.002	95
543.216	102
543.43	108
543.644	103
543.857	87
544.071	98
544.285	92
544.498	88
544.712	86
544.925	78
545.139	104
545.352	77
545.566	99
545.779	84
545.993	82
546.206	95
546.42	99
546.633	96
546.847	86
547.06	85
547.274	95
547.487	100
547.7	95
547.914	90
548.127	81
548.34	99
548.554	99
548.767	90
548.98	104
549.193	91
549.407	92
549.62	96
549.833	95
550.046	89
550.259	95
550.473	90
550.686	89
550.899	84
551.112	91
551.325	83
551.538	80
551.751	86
551.964	93
552.177	81
552.39	91
552.603	95
552.816	94
553.029	81
553.242	94
553.455	104
553.667	128
553.88	112
554.093	116
554.306	118
554.519	118
554.732	101
554.944	86
555.157	83
555.37	95
555.583	104
555.795	98
556.008	95
556.221	98
556.433	80
556.646	91
556.859	103
557.071	93
557.284	82
557.496	87
557.709	84
557.921	95
558.134	90
558.346	94
558.559	81
558.771	87
558.984	90
559.196	86
559.409	89
559.621	92
559.833	95
560.046	77
560.258	105
560.47	127
560.683	110
560.895	103
561.107	87
561.32	89
561.532	87
561.744	93
561.956	93
562.168	77
562.381	84
562.593	89
562.805	102
563.017	98
563.229	88
563.441	87
563.653	102
563.865	101
564.077	77
564.289	87
564.501	87
564.713	95
564.925	108
565.137	104
565.349	90
565.561	92
565.773	90
565.985	83
566.197	92
566.408	114
566.62	80
566.832	95
567.044	99
567.255	101
567.467	83
567.679	93
567.891	107
568.102	97
568.314	96
568.526	86
568.737	83
568.949	101
569.161	93
569.372	85
569.584	83
569.795	85
570.007	121
570.218	241
570.43	139
570.641	88
570.853	90
571.064	89
571.276	70
571.487	93
571.698	82
571.91	97
572.121	88
572.333	85
572.544	92
572.755	79
572.966	75
573.178	79
573.389	85
573.6	89
573.811	95
574.023	91
574.234	101
574.445	92
574.656	95
574.867	101
575.078	88
575.289	99
575.501	101
575.712	85
575.923	98
576.134	96
576.345	104
576.556	97
576.767	103
576.978	103
577.188	93
577.399	110
577.61	99
577.821	103
578.032	110
578.243	271
