Data from Circ_2001_H10_HRD10591_00002.txt Node
Date: Wed Jan 03 10:45:39 EST 2024
User: Yrep
Spectrometer: HR+D1059
Trigger mode: 1
Integration Time (sec): 1.000000E-1
Scans to average: 1
Electric dark correction enabled: true
Nonlinearity correction enabled: false
Boxcar width: 0
XAxis mode: Wavelengths
Number of Pixels in Spectrum: 2048
>>>>>Begin Spectral Data<<<<<
223.165	-27.44
223.4	-27.44
223.635	-27.44
223.869	-6.44
224.104	-22.44
224.338	-15.44
224.573	-10.44
224.808	-13.44
225.042	-5.44
225.277	-8.44
225.511	-4.44
225.746	13.56
225.98	4.56
226.215	9.56
226.449	10.56
226.683	14.56
226.918	26.56
227.152	34.56
227.387	44.56
227.621	48.56
227.856	46.56
228.09	47.56
228.324	51.56
228.559	68.56
228.793	58.56
229.027	63.56
229.262	66.56
229.496	71.56
229.73	85.56
229.964	83.56
230.199	83.56
230.433	79.56
230.667	77.56
230.901	83.56
231.136	50.56
231.37	70.56
231.604	84.56
231.838	92.56
232.072	83.56
232.306	84.56
232.541	100.56
232.775	79.56
233.009	78.56
233.243	89.56
233.477	92.56
233.711	92.56
233.945	91.56
234.179	79.56
234.413	85.56
234.647	101.56
234.881	64.56
235.115	67.56
235.349	73.56
235.583	100.56
235.817	88.56
236.051	80.56
236.285	85.56
236.519	95.56
236.753	86.56
236.987	77.56
237.221	79.56
237.455	84.56
237.689	78.56
237.922	66.56
238.156	82.56
238.39	74.56
238.624	75.56
238.858	73.56
239.091	78.56
239.325	86.56
239.559	84.56
239.793	67.56
240.027	78.56
240.26	90.56
240.494	83.56
240.728	68.56
240.961	77.56
241.195	84.56
241.429	74.56
241.662	79.56
241.896	83.56
242.13	72.56
242.363	80.56
242.597	91.56
242.83	66.56
243.064	57.56
243.298	72.56
243.531	94.56
243.765	73.56
243.998	83.56
244.232	74.56
244.465	85.56
244.699	81.56
244.932	76.56
245.166	86.56
245.399	77.56
245.633	86.56
245.866	76.56
246.099	81.56
246.333	75.56
246.566	66.56
246.8	68.56
247.033	86.56
247.266	79.56
247.5	72.56
247.733	78.56
247.966	100.56
248.2	92.56
248.433	84.56
248.666	70.56
248.899	87.56
249.133	72.56
249.366	96.56
249.599	98.56
249.832	87.56
250.066	87.56
250.299	76.56
250.532	97.56
250.765	70.56
250.998	76.56
251.231	90.56
251.465	78.56
251.698	85.56
251.931	75.56
252.164	84.56
252.397	72.56
252.63	81.56
252.863	82.56
253.096	99.56
253.329	85.56
253.562	84.56
253.795	74.56
254.028	89.56
254.261	91.56
254.494	88.56
254.727	66.56
254.96	89.56
255.193	83.56
255.426	84.56
255.659	83.56
255.892	91.56
256.124	91.56
256.357	91.56
256.59	82.56
256.823	79.56
257.056	71.56
257.289	78.56
257.521	93.56
257.754	89.56
257.987	85.56
258.22	83.56
258.452	78.56
258.685	89.56
258.918	98.56
259.151	82.56
259.383	83.56
259.616	92.56
259.849	88.56
260.081	82.56
260.314	79.56
260.547	90.56
260.779	79.56
261.012	100.56
261.244	99.56
261.477	80.56
261.71	97.56
261.942	102.56
262.175	115.56
262.407	94.56
262.64	80.56
262.872	81.56
263.105	85.56
263.337	83.56
263.57	88.56
263.802	81.56
264.035	85.56
264.267	87.56
264.499	88.56
264.732	87.56
264.964	89.56
265.197	88.56
265.429	74.56
265.661	78.56
265.894	78.56
266.126	73.56
266.358	75.56
266.591	83.56
266.823	83.56
267.055	82.56
267.287	96.56
267.52	85.56
267.752	91.56
267.984	81.56
268.216	93.56
268.448	93.56
268.681	83.56
268.913	90.56
269.145	83.56
269.377	74.56
269.609	83.56
269.841	78.56
270.073	90.56
270.306	82.56
270.538	79.56
270.77	77.56
271.002	84.56
271.234	84.56
271.466	84.56
271.698	80.56
271.93	87.56
272.162	86.56
272.394	100.56
272.626	90.56
272.858	91.56
273.09	96.56
273.322	77.56
273.553	85.56
273.785	70.56
274.017	79.56
274.249	86.56
274.481	94.56
274.713	88.56
274.945	82.56
275.176	91.56
275.408	83.56
275.64	86.56
275.872	93.56
276.104	89.56
276.335	91.56
276.567	110.56
276.799	104.56
277.031	119.56
277.262	134.56
277.494	94.56
277.726	84.56
277.957	93.56
278.189	81.56
278.421	85.56
278.652	90.56
278.884	97.56
279.115	78.56
279.347	93.56
279.579	90.56
279.81	97.56
280.042	110.56
280.273	124.56
280.505	95.56
280.736	87.56
280.968	87.56
281.199	92.56
281.431	89.56
281.662	83.56
281.894	82.56
282.125	107.56
282.356	115.56
282.588	130.56
282.819	115.56
283.051	78.56
283.282	84.56
283.513	93.56
283.745	93.56
283.976	84.56
284.207	90.56
284.439	78.56
284.67	89.56
284.901	81.56
285.132	77.56
285.364	92.56
285.595	91.56
285.826	88.56
286.057	91.56
286.288	83.56
286.52	81.56
286.751	82.56
286.982	71.56
287.213	82.56
287.444	87.56
287.675	96.56
287.906	96.56
288.138	83.56
288.369	103.56
288.6	94.56
288.831	95.56
289.062	73.56
289.293	97.56
289.524	93.56
289.755	96.56
289.986	84.56
290.217	85.56
290.448	85.56
290.679	85.56
290.91	102.56
291.141	87.56
291.371	87.56
291.602	80.56
291.833	81.56
292.064	90.56
292.295	96.56
292.526	94.56
292.757	88.56
292.987	75.56
293.218	83.56
293.449	77.56
293.68	92.56
293.91	88.56
294.141	86.56
294.372	87.56
294.603	102.56
294.833	78.56
295.064	86.56
295.295	102.56
295.525	100.56
295.756	100.56
295.987	108.56
296.217	133.56
296.448	122.56
296.679	92.56
296.909	78.56
297.14	107.56
297.37	84.56
297.601	77.56
297.831	89.56
298.062	89.56
298.292	91.56
298.523	100.56
298.753	81.56
298.984	90.56
299.214	86.56
299.445	79.56
299.675	86.56
299.905	100.56
300.136	99.56
300.366	75.56
300.597	88.56
300.827	101.56
301.057	105.56
301.288	104.56
301.518	95.56
301.748	78.56
301.979	104.56
302.209	91.56
302.439	98.56
302.669	93.56
302.9	100.56
303.13	78.56
303.36	93.56
303.59	93.56
303.82	105.56
304.051	95.56
304.281	88.56
304.511	92.56
304.741	68.56
304.971	78.56
305.201	83.56
305.431	90.56
305.661	87.56
305.891	85.56
306.121	89.56
306.352	99.56
306.582	85.56
306.812	99.56
307.042	90.56
307.272	124.56
307.502	123.56
307.731	125.56
307.961	100.56
308.191	94.56
308.421	80.56
308.651	75.56
308.881	79.56
309.111	100.56
309.341	88.56
309.571	95.56
309.8	84.56
310.03	89.56
310.26	89.56
310.49	85.56
310.72	102.56
310.949	98.56
311.179	95.56
311.409	100.56
311.639	91.56
311.868	106.56
312.098	95.56
312.328	94.56
312.557	108.56
312.787	109.56
313.017	91.56
313.246	87.56
313.476	105.56
313.706	94.56
313.935	91.56
314.165	103.56
314.394	104.56
314.624	100.56
314.853	97.56
315.083	98.56
315.312	87.56
315.542	97.56
315.771	93.56
316.001	102.56
316.23	84.56
316.46	77.56
316.689	87.56
316.919	97.56
317.148	90.56
317.377	96.56
317.607	98.56
317.836	91.56
318.065	81.56
318.295	85.56
318.524	83.56
318.753	98.56
318.983	87.56
319.212	92.56
319.441	100.56
319.67	88.56
319.9	93.56
320.129	89.56
320.358	90.56
320.587	71.56
320.816	93.56
321.046	97.56
321.275	97.56
321.504	96.56
321.733	92.56
321.962	103.56
322.191	100.56
322.42	86.56
322.649	99.56
322.878	107.56
323.108	122.56
323.337	122.56
323.566	144.56
323.795	144.56
324.024	208.56
324.253	373.56
324.482	758.56
324.71	1514.56
324.939	1994.56
325.168	731.56
325.397	228.56
325.626	144.56
325.855	128.56
326.084	119.56
326.313	126.56
326.542	140.56
326.77	204.56
326.999	444.56
327.228	862.56
327.457	1540.56
327.686	1229.56
327.914	373.56
328.143	279.56
328.372	256.56
328.6	176.56
328.829	140.56
329.058	116.56
329.287	137.56
329.515	128.56
329.744	141.56
329.972	220.56
330.201	337.56
330.43	458.56
330.658	236.56
330.887	164.56
331.115	133.56
331.344	98.56
331.572	105.56
331.801	107.56
332.03	121.56
332.258	86.56
332.486	82.56
332.715	98.56
332.943	111.56
333.172	109.56
333.4	110.56
333.629	125.56
333.857	142.56
334.085	195.56
334.314	350.56
334.542	555.56
334.771	507.56
334.999	190.56
335.227	132.56
335.455	89.56
335.684	117.56
335.912	89.56
336.14	109.56
336.369	101.56
336.597	110.56
336.825	103.56
337.053	84.56
337.281	89.56
337.51	106.56
337.738	94.56
337.966	106.56
338.194	88.56
338.422	101.56
338.65	88.56
338.878	93.56
339.106	90.56
339.334	100.56
339.562	86.56
339.79	103.56
340.018	104.56
340.246	106.56
340.474	76.56
340.702	92.56
340.93	94.56
341.158	92.56
341.386	90.56
341.614	93.56
341.842	86.56
342.07	94.56
342.298	81.56
342.526	103.56
342.754	90.56
342.981	89.56
343.209	78.56
343.437	103.56
343.665	91.56
343.893	87.56
344.12	82.56
344.348	87.56
344.576	71.56
344.804	91.56
345.031	93.56
345.259	99.56
345.487	94.56
345.714	89.56
345.942	85.56
346.17	91.56
346.397	83.56
346.625	89.56
346.853	90.56
347.08	80.56
347.308	87.56
347.535	91.56
347.763	88.56
347.99	93.56
348.218	81.56
348.445	93.56
348.673	95.56
348.9	83.56
349.128	100.56
349.355	101.56
349.583	95.56
349.81	85.56
350.037	86.56
350.265	100.56
350.492	102.56
350.72	94.56
350.947	84.56
351.174	98.56
351.402	101.56
351.629	99.56
351.856	98.56
352.083	101.56
352.311	120.56
352.538	116.56
352.765	95.56
352.992	126.56
353.22	125.56
353.447	84.56
353.674	98.56
353.901	99.56
354.128	101.56
354.355	108.56
354.583	97.56
354.81	109.56
355.037	114.56
355.264	97.56
355.491	94.56
355.718	96.56
355.945	92.56
356.172	100.56
356.399	105.56
356.626	83.56
356.853	89.56
357.08	94.56
357.307	107.56
357.534	88.56
357.761	86.56
357.988	95.56
358.215	98.56
358.441	101.56
358.668	93.56
358.895	90.56
359.122	97.56
359.349	89.56
359.576	91.56
359.802	108.56
360.029	123.56
360.256	101.56
360.483	106.56
360.709	96.56
360.936	97.56
361.163	103.56
361.39	97.56
361.616	100.56
361.843	96.56
362.07	107.56
362.296	94.56
362.523	105.56
362.749	89.56
362.976	94.56
363.203	100.56
363.429	86.56
363.656	90.56
363.882	93.56
364.109	83.56
364.335	94.56
364.562	77.56
364.788	89.56
365.015	92.56
365.241	96.56
365.468	116.56
365.694	114.56
365.92	97.56
366.147	85.56
366.373	94.56
366.599	88.56
366.826	90.56
367.052	94.56
367.278	97.56
367.505	98.56
367.731	98.56
367.957	94.56
368.184	95.56
368.41	93.56
368.636	103.56
368.862	116.56
369.089	110.56
369.315	88.56
369.541	93.56
369.767	85.56
369.993	101.56
370.219	90.56
370.445	100.56
370.672	86.56
370.898	84.56
371.124	84.56
371.35	79.56
371.576	84.56
371.802	96.56
372.028	94.56
372.254	90.56
372.48	90.56
372.706	91.56
372.932	81.56
373.158	93.56
373.384	85.56
373.61	91.56
373.835	86.56
374.061	83.56
374.287	90.56
374.513	88.56
374.739	90.56
374.965	82.56
375.191	82.56
375.416	95.56
375.642	95.56
375.868	99.56
376.094	85.56
376.319	105.56
376.545	96.56
376.771	87.56
376.997	98.56
377.222	89.56
377.448	100.56
377.674	98.56
377.899	90.56
378.125	86.56
378.35	83.56
378.576	92.56
378.802	104.56
379.027	114.56
379.253	92.56
379.478	107.56
379.704	87.56
379.929	100.56
380.155	96.56
380.38	108.56
380.606	97.56
380.831	93.56
381.057	95.56
381.282	105.56
381.507	111.56
381.733	114.56
381.958	90.56
382.184	106.56
382.409	100.56
382.634	119.56
382.86	107.56
383.085	116.56
383.31	108.56
383.535	125.56
383.761	124.56
383.986	108.56
384.211	110.56
384.436	100.56
384.662	112.56
384.887	135.56
385.112	140.56
385.337	128.56
385.562	132.56
385.787	121.56
386.013	125.56
386.238	137.56
386.463	132.56
386.688	144.56
386.913	130.56
387.138	131.56
387.363	119.56
387.588	121.56
387.813	114.56
388.038	109.56
388.263	131.56
388.488	144.56
388.713	90.56
388.938	96.56
389.163	106.56
389.387	90.56
389.612	89.56
389.837	88.56
390.062	101.56
390.287	86.56
390.512	84.56
390.736	104.56
390.961	89.56
391.186	115.56
391.411	92.56
391.636	83.56
391.86	82.56
392.085	85.56
392.31	96.56
392.534	98.56
392.759	94.56
392.984	86.56
393.208	109.56
393.433	101.56
393.658	94.56
393.882	88.56
394.107	76.56
394.331	86.56
394.556	100.56
394.78	98.56
395.005	86.56
395.229	86.56
395.454	93.56
395.678	81.56
395.903	84.56
396.127	89.56
396.352	97.56
396.576	96.56
396.801	101.56
397.025	115.56
397.249	89.56
397.474	96.56
397.698	80.56
397.922	76.56
398.147	83.56
398.371	91.56
398.595	106.56
398.82	78.56
399.044	75.56
399.268	94.56
399.492	102.56
399.717	76.56
399.941	85.56
400.165	87.56
400.389	84.56
400.613	87.56
400.837	91.56
401.062	103.56
401.286	103.56
401.51	100.56
401.734	84.56
401.958	106.56
402.182	120.56
402.406	143.56
402.63	116.56
402.854	88.56
403.078	84.56
403.302	93.56
403.526	90.56
403.75	85.56
403.974	86.56
404.198	92.56
404.422	78.56
404.645	90.56
404.869	89.56
405.093	104.56
405.317	114.56
405.541	105.56
405.765	95.56
405.988	117.56
406.212	159.56
406.436	215.56
406.66	138.56
406.883	111.56
407.107	87.56
407.331	95.56
407.555	108.56
407.778	86.56
408.002	98.56
408.226	78.56
408.449	88.56
408.673	65.56
408.896	107.56
409.12	93.56
409.344	94.56
409.567	85.56
409.791	97.56
410.014	104.56
410.238	105.56
410.461	85.56
410.685	106.56
410.908	98.56
411.132	99.56
411.355	98.56
411.578	91.56
411.802	100.56
412.025	94.56
412.249	97.56
412.472	104.56
412.695	103.56
412.919	97.56
413.142	91.56
413.365	86.56
413.589	100.56
413.812	109.56
414.035	85.56
414.258	93.56
414.482	91.56
414.705	95.56
414.928	93.56
415.151	93.56
415.374	106.56
415.597	97.56
415.821	94.56
416.044	95.56
416.267	87.56
416.49	92.56
416.713	92.56
416.936	89.56
417.159	103.56
417.382	93.56
417.605	100.56
417.828	99.56
418.051	101.56
418.274	109.56
418.497	89.56
418.72	84.56
418.943	82.56
419.166	93.56
419.389	101.56
419.611	98.56
419.834	96.56
420.057	74.56
420.28	92.56
420.503	82.56
420.726	88.56
420.948	82.56
421.171	88.56
421.394	87.56
421.617	91.56
421.839	95.56
422.062	102.56
422.285	91.56
422.507	100.56
422.73	101.56
422.953	93.56
423.175	88.56
423.398	96.56
423.621	89.56
423.843	101.56
424.066	85.56
424.288	99.56
424.511	98.56
424.733	97.56
424.956	107.56
425.178	102.56
425.401	107.56
425.623	96.56
425.846	92.56
426.068	82.56
426.291	81.56
426.513	92.56
426.735	99.56
426.958	97.56
427.18	97.56
427.402	140.56
427.625	167.56
427.847	166.56
428.069	145.56
428.292	101.56
428.514	99.56
428.736	90.56
428.958	89.56
429.181	83.56
429.403	76.56
429.625	82.56
429.847	97.56
430.069	95.56
430.292	86.56
430.514	80.56
430.736	91.56
430.958	95.56
431.18	81.56
431.402	89.56
431.624	88.56
431.846	91.56
432.068	102.56
432.29	91.56
432.512	100.56
432.734	80.56
432.956	105.56
433.178	98.56
433.4	109.56
433.622	102.56
433.844	105.56
434.066	93.56
434.287	87.56
434.509	83.56
434.731	80.56
434.953	76.56
435.175	99.56
435.397	99.56
435.618	82.56
435.84	100.56
436.062	109.56
436.284	111.56
436.505	85.56
436.727	104.56
436.949	77.56
437.17	96.56
437.392	81.56
437.614	96.56
437.835	108.56
438.057	136.56
438.278	106.56
438.5	83.56
438.721	108.56
438.943	100.56
439.165	101.56
439.386	87.56
439.608	80.56
439.829	101.56
440.05	130.56
440.272	130.56
440.493	100.56
440.715	96.56
440.936	76.56
441.158	80.56
441.379	80.56
441.6	84.56
441.822	97.56
442.043	98.56
442.264	98.56
442.486	100.56
442.707	91.56
442.928	101.56
443.149	118.56
443.371	127.56
443.592	106.56
443.813	106.56
444.034	99.56
444.255	100.56
444.476	93.56
444.698	81.56
444.919	103.56
445.14	146.56
445.361	121.56
445.582	113.56
445.803	129.56
446.024	128.56
446.245	131.56
446.466	107.56
446.687	93.56
446.908	90.56
447.129	89.56
447.35	101.56
447.571	91.56
447.792	103.56
448.013	95.56
448.234	98.56
448.455	116.56
448.675	119.56
448.896	100.56
449.117	88.56
449.338	103.56
449.559	119.56
449.779	134.56
450	93.56
450.221	95.56
450.442	86.56
450.662	97.56
450.883	108.56
451.104	116.56
451.324	105.56
451.545	75.56
451.766	79.56
451.986	89.56
452.207	101.56
452.428	85.56
452.648	96.56
452.869	109.56
453.089	112.56
453.31	116.56
453.53	94.56
453.751	88.56
453.971	92.56
454.192	116.56
454.412	86.56
454.633	89.56
454.853	96.56
455.073	86.56
455.294	82.56
455.514	102.56
455.734	88.56
455.955	81.56
456.175	85.56
456.395	88.56
456.616	92.56
456.836	91.56
457.056	97.56
457.276	94.56
457.497	94.56
457.717	71.56
457.937	80.56
458.157	76.56
458.377	88.56
458.598	109.56
458.818	137.56
459.038	167.56
459.258	112.56
459.478	84.56
459.698	93.56
459.918	78.56
460.138	83.56
460.358	75.56
460.578	84.56
460.798	85.56
461.018	94.56
461.238	95.56
461.458	92.56
461.678	96.56
461.898	84.56
462.118	90.56
462.338	86.56
462.558	98.56
462.777	94.56
462.997	88.56
463.217	82.56
463.437	94.56
463.657	88.56
463.876	85.56
464.096	99.56
464.316	100.56
464.536	96.56
464.755	90.56
464.975	113.56
465.195	152.56
465.414	155.56
465.634	99.56
465.854	94.56
466.073	78.56
466.293	77.56
466.512	75.56
466.732	88.56
466.951	93.56
467.171	91.56
467.391	97.56
467.61	116.56
467.829	127.56
468.049	241.56
468.268	282.56
468.488	113.56
468.707	93.56
468.927	89.56
469.146	89.56
469.365	84.56
469.585	92.56
469.804	103.56
470.023	100.56
470.243	98.56
470.462	102.56
470.681	99.56
470.901	87.56
471.12	101.56
471.339	84.56
471.558	104.56
471.777	108.56
471.997	148.56
472.216	385.56
472.435	764.56
472.654	220.56
472.873	115.56
473.092	101.56
473.311	89.56
473.53	87.56
473.749	92.56
473.968	98.56
474.187	101.56
474.406	102.56
474.625	94.56
474.844	85.56
475.063	91.56
475.282	82.56
475.501	99.56
475.72	89.56
475.939	104.56
476.158	80.56
476.377	85.56
476.596	91.56
476.814	90.56
477.033	97.56
477.252	100.56
477.471	105.56
477.69	94.56
477.908	82.56
478.127	104.56
478.346	80.56
478.564	97.56
478.783	100.56
479.002	96.56
479.22	93.56
479.439	110.56
479.658	121.56
479.876	110.56
480.095	96.56
480.313	103.56
480.532	103.56
480.751	153.56
480.969	378.56
481.188	1309.56
481.406	778.56
481.624	178.56
481.843	109.56
482.061	80.56
482.28	95.56
482.498	104.56
482.717	87.56
482.935	92.56
483.153	86.56
483.372	110.56
483.59	106.56
483.808	104.56
484.027	85.56
484.245	88.56
484.463	93.56
484.681	89.56
484.9	98.56
485.118	88.56
485.336	88.56
485.554	91.56
485.772	104.56
485.99	104.56
486.209	96.56
486.427	100.56
486.645	109.56
486.863	121.56
487.081	107.56
487.299	107.56
487.517	87.56
487.735	110.56
487.953	97.56
488.171	97.56
488.389	104.56
488.607	95.56
488.825	103.56
489.043	80.56
489.261	89.56
489.479	84.56
489.696	88.56
489.914	85.56
490.132	95.56
490.35	92.56
490.568	93.56
490.786	93.56
491.003	92.56
491.221	74.56
491.439	81.56
491.657	99.56
491.874	110.56
492.092	87.56
492.31	84.56
492.527	84.56
492.745	90.56
492.963	101.56
493.18	112.56
493.398	86.56
493.615	89.56
493.833	98.56
494.05	95.56
494.268	88.56
494.485	91.56
494.703	84.56
494.92	81.56
495.138	89.56
495.355	90.56
495.573	101.56
495.79	104.56
496.008	94.56
496.225	86.56
496.442	93.56
496.66	98.56
496.877	101.56
497.094	82.56
497.312	84.56
497.529	91.56
497.746	89.56
497.963	88.56
498.181	86.56
498.398	116.56
498.615	101.56
498.832	108.56
499.049	99.56
499.267	96.56
499.484	95.56
499.701	92.56
499.918	89.56
500.135	86.56
500.352	88.56
500.569	84.56
500.786	84.56
501.003	88.56
501.22	90.56
501.437	91.56
501.654	97.56
501.871	125.56
502.088	94.56
502.305	98.56
502.522	101.56
502.739	100.56
502.956	92.56
503.172	96.56
503.389	113.56
503.606	108.56
503.823	91.56
504.04	94.56
504.256	95.56
504.473	91.56
504.69	99.56
504.907	96.56
505.123	84.56
505.34	88.56
505.557	92.56
505.773	100.56
505.99	99.56
506.207	86.56
506.423	101.56
506.64	90.56
506.856	89.56
507.073	85.56
507.289	89.56
507.506	103.56
507.722	120.56
507.939	117.56
508.155	99.56
508.372	94.56
508.588	111.56
508.805	86.56
509.021	102.56
509.238	107.56
509.454	98.56
509.67	111.56
509.887	109.56
510.103	127.56
510.319	205.56
510.536	668.56
510.752	2015.56
510.968	564.56
511.184	152.56
511.401	104.56
511.617	98.56
511.833	86.56
512.049	91.56
512.265	100.56
512.481	104.56
512.698	86.56
512.914	98.56
513.13	87.56
513.346	89.56
513.562	97.56
513.778	101.56
513.994	111.56
514.21	105.56
514.426	109.56
