Data from Circ_2001_H10_HRD10591_00094.txt Node
Date: Wed Jan 03 10:45:57 EST 2024
User: Yrep
Spectrometer: HR+D1059
Trigger mode: 1
Integration Time (sec): 1.000000E-1
Scans to average: 1
Electric dark correction enabled: true
Nonlinearity correction enabled: false
Boxcar width: 0
XAxis mode: Wavelengths
Number of Pixels in Spectrum: 2048
>>>>>Begin Spectral Data<<<<<
223.165	-29.69
223.4	-29.69
223.635	-29.69
223.869	-22.69
224.104	-12.69
224.338	-22.69
224.573	-14.69
224.808	-5.69
225.042	-8.69
225.277	-1.69
225.511	7.31
225.746	5.31
225.98	10.31
226.215	9.31
226.449	4.31
226.683	35.31
226.918	24.31
227.152	22.31
227.387	38.31
227.621	46.31
227.856	43.31
228.09	48.31
228.324	43.31
228.559	61.31
228.793	73.31
229.027	56.31
229.262	54.31
229.496	82.31
229.73	96.31
229.964	86.31
230.199	87.31
230.433	64.31
230.667	90.31
230.901	84.31
231.136	81.31
231.37	66.31
231.604	77.31
231.838	81.31
232.072	72.31
232.306	81.31
232.541	96.31
232.775	104.31
233.009	84.31
233.243	84.31
233.477	64.31
233.711	75.31
233.945	81.31
234.179	77.31
234.413	85.31
234.647	72.31
234.881	79.31
235.115	71.31
235.349	69.31
235.583	85.31
235.817	82.31
236.051	73.31
236.285	69.31
236.519	71.31
236.753	86.31
236.987	89.31
237.221	85.31
237.455	87.31
237.689	67.31
237.922	73.31
238.156	71.31
238.39	80.31
238.624	77.31
238.858	80.31
239.091	70.31
239.325	76.31
239.559	81.31
239.793	73.31
240.027	84.31
240.26	90.31
240.494	93.31
240.728	61.31
240.961	74.31
241.195	74.31
241.429	75.31
241.662	81.31
241.896	79.31
242.13	65.31
242.363	65.31
242.597	81.31
242.83	71.31
243.064	77.31
243.298	76.31
243.531	83.31
243.765	78.31
243.998	71.31
244.232	75.31
244.465	88.31
244.699	83.31
244.932	68.31
245.166	78.31
245.399	91.31
245.633	69.31
245.866	80.31
246.099	70.31
246.333	78.31
246.566	71.31
246.8	86.31
247.033	71.31
247.266	75.31
247.5	80.31
247.733	83.31
247.966	68.31
248.2	62.31
248.433	73.31
248.666	79.31
248.899	89.31
249.133	89.31
249.366	85.31
249.599	89.31
249.832	71.31
250.066	84.31
250.299	80.31
250.532	87.31
250.765	82.31
250.998	83.31
251.231	79.31
251.465	78.31
251.698	79.31
251.931	94.31
252.164	65.31
252.397	76.31
252.63	80.31
252.863	71.31
253.096	73.31
253.329	86.31
253.562	82.31
253.795	76.31
254.028	81.31
254.261	63.31
254.494	90.31
254.727	71.31
254.96	86.31
255.193	75.31
255.426	94.31
255.659	70.31
255.892	83.31
256.124	86.31
256.357	75.31
256.59	63.31
256.823	85.31
257.056	91.31
257.289	96.31
257.521	85.31
257.754	77.31
257.987	74.31
258.22	81.31
258.452	85.31
258.685	93.31
258.918	95.31
259.151	73.31
259.383	81.31
259.616	75.31
259.849	82.31
260.081	69.31
260.314	84.31
260.547	73.31
260.779	89.31
261.012	105.31
261.244	97.31
261.477	73.31
261.71	100.31
261.942	117.31
262.175	139.31
262.407	90.31
262.64	78.31
262.872	93.31
263.105	88.31
263.337	84.31
263.57	56.31
263.802	71.31
264.035	86.31
264.267	81.31
264.499	78.31
264.732	82.31
264.964	76.31
265.197	76.31
265.429	89.31
265.661	85.31
265.894	82.31
266.126	80.31
266.358	70.31
266.591	88.31
266.823	81.31
267.055	70.31
267.287	85.31
267.52	73.31
267.752	76.31
267.984	77.31
268.216	73.31
268.448	64.31
268.681	89.31
268.913	92.31
269.145	86.31
269.377	94.31
269.609	96.31
269.841	78.31
270.073	82.31
270.306	89.31
270.538	79.31
270.77	91.31
271.002	97.31
271.234	90.31
271.466	90.31
271.698	83.31
271.93	87.31
272.162	85.31
272.394	85.31
272.626	88.31
272.858	84.31
273.09	99.31
273.322	82.31
273.553	73.31
273.785	90.31
274.017	87.31
274.249	88.31
274.481	102.31
274.713	82.31
274.945	89.31
275.176	67.31
275.408	95.31
275.64	110.31
275.872	105.31
276.104	85.31
276.335	78.31
276.567	107.31
276.799	116.31
277.031	156.31
277.262	161.31
277.494	99.31
277.726	100.31
277.957	101.31
278.189	85.31
278.421	99.31
278.652	100.31
278.884	87.31
279.115	91.31
279.347	78.31
279.579	103.31
279.81	101.31
280.042	164.31
280.273	194.31
280.505	155.31
280.736	97.31
280.968	86.31
281.199	93.31
281.431	92.31
281.662	73.31
281.894	84.31
282.125	99.31
282.356	121.31
282.588	143.31
282.819	105.31
283.051	89.31
283.282	75.31
283.513	93.31
283.745	79.31
283.976	82.31
284.207	80.31
284.439	93.31
284.67	85.31
284.901	85.31
285.132	83.31
285.364	80.31
285.595	82.31
285.826	74.31
286.057	94.31
286.288	81.31
286.52	83.31
286.751	72.31
286.982	85.31
287.213	77.31
287.444	87.31
287.675	90.31
287.906	91.31
288.138	86.31
288.369	81.31
288.6	81.31
288.831	81.31
289.062	87.31
289.293	96.31
289.524	88.31
289.755	92.31
289.986	91.31
290.217	97.31
290.448	92.31
290.679	93.31
290.91	86.31
291.141	89.31
291.371	101.31
291.602	102.31
291.833	82.31
292.064	91.31
292.295	86.31
292.526	82.31
292.757	89.31
292.987	90.31
293.218	91.31
293.449	88.31
293.68	95.31
293.91	82.31
294.141	83.31
294.372	97.31
294.603	93.31
294.833	80.31
295.064	104.31
295.295	95.31
295.525	102.31
295.756	104.31
295.987	113.31
296.217	139.31
296.448	129.31
296.679	84.31
296.909	92.31
297.14	94.31
297.37	89.31
297.601	91.31
297.831	88.31
298.062	85.31
298.292	96.31
298.523	96.31
298.753	91.31
298.984	95.31
299.214	91.31
299.445	99.31
299.675	93.31
299.905	105.31
300.136	87.31
300.366	87.31
300.597	89.31
300.827	99.31
301.057	88.31
301.288	104.31
301.518	95.31
301.748	99.31
301.979	94.31
302.209	92.31
302.439	99.31
302.669	100.31
302.9	97.31
303.13	84.31
303.36	114.31
303.59	125.31
303.82	112.31
304.051	105.31
304.281	83.31
304.511	83.31
304.741	93.31
304.971	93.31
305.201	81.31
305.431	87.31
305.661	100.31
305.891	90.31
306.121	95.31
306.352	111.31
306.582	97.31
306.812	97.31
307.042	117.31
307.272	123.31
307.502	154.31
307.731	160.31
307.961	126.31
308.191	82.31
308.421	106.31
308.651	83.31
308.881	99.31
309.111	88.31
309.341	78.31
309.571	90.31
309.8	98.31
310.03	93.31
310.26	102.31
310.49	94.31
310.72	106.31
310.949	107.31
311.179	95.31
311.409	91.31
311.639	105.31
311.868	106.31
312.098	100.31
312.328	102.31
312.557	104.31
312.787	118.31
313.017	91.31
313.246	86.31
313.476	98.31
313.706	94.31
313.935	86.31
314.165	96.31
314.394	107.31
314.624	94.31
314.853	98.31
315.083	93.31
315.312	81.31
315.542	85.31
315.771	98.31
316.001	78.31
316.23	82.31
316.46	86.31
316.689	90.31
316.919	87.31
317.148	99.31
317.377	87.31
317.607	96.31
317.836	79.31
318.065	89.31
318.295	82.31
318.524	109.31
318.753	85.31
318.983	94.31
319.212	90.31
319.441	98.31
319.67	102.31
319.9	96.31
320.129	97.31
320.358	91.31
320.587	97.31
320.816	94.31
321.046	101.31
321.275	90.31
321.504	99.31
321.733	101.31
321.962	96.31
322.191	111.31
322.42	96.31
322.649	113.31
322.878	108.31
323.108	110.31
323.337	145.31
323.566	147.31
323.795	189.31
324.024	245.31
324.253	459.31
324.482	952.31
324.71	2001.31
324.939	2638.31
325.168	963.31
325.397	265.31
325.626	162.31
325.855	132.31
326.084	125.31
326.313	138.31
326.542	157.31
326.77	241.31
326.999	520.31
327.228	1101.31
327.457	2018.31
327.686	1570.31
327.914	491.31
328.143	424.31
328.372	534.31
328.6	297.31
328.829	161.31
329.058	165.31
329.287	170.31
329.515	149.31
329.744	233.31
329.972	399.31
330.201	759.31
330.43	1079.31
330.658	522.31
330.887	226.31
331.115	163.31
331.344	110.31
331.572	110.31
331.801	100.31
332.03	108.31
332.258	91.31
332.486	98.31
332.715	102.31
332.943	103.31
333.172	94.31
333.4	128.31
333.629	139.31
333.857	202.31
334.085	352.31
334.314	715.31
334.542	1375.31
334.771	1299.31
334.999	361.31
335.227	153.31
335.455	109.31
335.684	106.31
335.912	98.31
336.14	105.31
336.369	97.31
336.597	96.31
336.825	115.31
337.053	96.31
337.281	97.31
337.51	98.31
337.738	95.31
337.966	101.31
338.194	97.31
338.422	103.31
338.65	77.31
338.878	85.31
339.106	75.31
339.334	88.31
339.562	83.31
339.79	92.31
340.018	98.31
340.246	94.31
340.474	93.31
340.702	97.31
340.93	88.31
341.158	111.31
341.386	93.31
341.614	93.31
341.842	88.31
342.07	89.31
342.298	93.31
342.526	83.31
342.754	86.31
342.981	82.31
343.209	89.31
343.437	91.31
343.665	95.31
343.893	88.31
344.12	86.31
344.348	81.31
344.576	96.31
344.804	90.31
345.031	103.31
345.259	98.31
345.487	94.31
345.714	98.31
345.942	95.31
346.17	82.31
346.397	89.31
346.625	89.31
346.853	80.31
347.08	82.31
347.308	99.31
347.535	104.31
347.763	97.31
347.99	73.31
348.218	98.31
348.445	105.31
348.673	103.31
348.9	81.31
349.128	97.31
349.355	91.31
349.583	97.31
349.81	101.31
350.037	86.31
350.265	90.31
350.492	99.31
350.72	101.31
350.947	95.31
351.174	107.31
351.402	114.31
351.629	108.31
351.856	109.31
352.083	115.31
352.311	102.31
352.538	100.31
352.765	103.31
352.992	110.31
353.22	104.31
353.447	102.31
353.674	102.31
353.901	96.31
354.128	84.31
354.355	100.31
354.583	91.31
354.81	94.31
355.037	103.31
355.264	97.31
355.491	84.31
355.718	85.31
355.945	86.31
356.172	79.31
356.399	87.31
356.626	95.31
356.853	99.31
357.08	93.31
357.307	97.31
357.534	83.31
357.761	81.31
357.988	91.31
358.215	87.31
358.441	86.31
358.668	79.31
358.895	86.31
359.122	90.31
359.349	72.31
359.576	98.31
359.802	106.31
360.029	124.31
360.256	121.31
360.483	100.31
360.709	71.31
360.936	97.31
361.163	94.31
361.39	99.31
361.616	110.31
361.843	102.31
362.07	95.31
362.296	94.31
362.523	89.31
362.749	85.31
362.976	94.31
363.203	98.31
363.429	90.31
363.656	89.31
363.882	98.31
364.109	87.31
364.335	97.31
364.562	100.31
364.788	104.31
365.015	93.31
365.241	103.31
365.468	105.31
365.694	108.31
365.92	96.31
366.147	89.31
366.373	89.31
366.599	86.31
366.826	75.31
367.052	96.31
367.278	91.31
367.505	90.31
367.731	96.31
367.957	90.31
368.184	83.31
368.41	102.31
368.636	103.31
368.862	120.31
369.089	117.31
369.315	100.31
369.541	102.31
369.767	77.31
369.993	80.31
370.219	88.31
370.445	88.31
370.672	73.31
370.898	96.31
371.124	78.31
371.35	88.31
371.576	102.31
371.802	88.31
372.028	85.31
372.254	90.31
372.48	89.31
372.706	96.31
372.932	75.31
373.158	87.31
373.384	82.31
373.61	74.31
373.835	85.31
374.061	92.31
374.287	79.31
374.513	101.31
374.739	86.31
374.965	86.31
375.191	94.31
375.416	82.31
375.642	83.31
375.868	86.31
376.094	81.31
376.319	80.31
376.545	95.31
376.771	90.31
376.997	73.31
377.222	84.31
377.448	99.31
377.674	73.31
377.899	91.31
378.125	88.31
378.35	76.31
378.576	96.31
378.802	81.31
379.027	88.31
379.253	104.31
379.478	93.31
379.704	85.31
379.929	92.31
380.155	84.31
380.38	84.31
380.606	103.31
380.831	88.31
381.057	100.31
381.282	89.31
381.507	91.31
381.733	87.31
381.958	96.31
382.184	106.31
382.409	96.31
382.634	104.31
382.86	86.31
383.085	93.31
383.31	100.31
383.535	94.31
383.761	86.31
383.986	100.31
384.211	95.31
384.436	78.31
384.662	95.31
384.887	87.31
385.112	98.31
385.337	100.31
385.562	95.31
385.787	93.31
386.013	106.31
386.238	101.31
386.463	91.31
386.688	100.31
386.913	93.31
387.138	105.31
387.363	101.31
387.588	95.31
387.813	98.31
388.038	97.31
388.263	104.31
388.488	99.31
388.713	83.31
388.938	89.31
389.163	94.31
389.387	99.31
389.612	101.31
389.837	99.31
390.062	81.31
390.287	96.31
390.512	74.31
390.736	67.31
390.961	81.31
391.186	98.31
391.411	90.31
391.636	83.31
391.86	98.31
392.085	93.31
392.31	87.31
392.534	91.31
392.759	82.31
392.984	73.31
393.208	77.31
393.433	97.31
393.658	75.31
393.882	86.31
394.107	84.31
394.331	81.31
394.556	87.31
394.78	97.31
395.005	86.31
395.229	77.31
395.454	70.31
395.678	89.31
395.903	91.31
396.127	91.31
396.352	91.31
396.576	83.31
396.801	87.31
397.025	86.31
397.249	82.31
397.474	83.31
397.698	88.31
397.922	75.31
398.147	77.31
398.371	82.31
398.595	68.31
398.82	95.31
399.044	84.31
399.268	88.31
399.492	73.31
399.717	88.31
399.941	90.31
400.165	93.31
400.389	79.31
400.613	96.31
400.837	81.31
401.062	81.31
401.286	93.31
401.51	84.31
401.734	97.31
401.958	90.31
402.182	112.31
402.406	153.31
402.63	136.31
402.854	98.31
403.078	91.31
403.302	91.31
403.526	86.31
403.75	86.31
403.974	94.31
404.198	92.31
404.422	99.31
404.645	92.31
404.869	107.31
405.093	117.31
405.317	124.31
405.541	121.31
405.765	105.31
405.988	111.31
406.212	187.31
406.436	263.31
406.66	169.31
406.883	109.31
407.107	95.31
407.331	92.31
407.555	100.31
407.778	99.31
408.002	86.31
408.226	89.31
408.449	93.31
408.673	93.31
408.896	95.31
409.12	96.31
409.344	81.31
409.567	74.31
409.791	94.31
410.014	94.31
410.238	81.31
410.461	80.31
410.685	85.31
410.908	92.31
411.132	108.31
411.355	95.31
411.578	87.31
411.802	79.31
412.025	89.31
412.249	96.31
412.472	105.31
412.695	125.31
412.919	107.31
413.142	87.31
413.365	86.31
413.589	90.31
413.812	77.31
414.035	99.31
414.258	89.31
414.482	83.31
414.705	89.31
414.928	80.31
415.151	76.31
415.374	82.31
415.597	88.31
415.821	83.31
416.044	85.31
416.267	83.31
416.49	86.31
416.713	79.31
416.936	111.31
417.159	103.31
417.382	83.31
417.605	106.31
417.828	113.31
418.051	106.31
418.274	110.31
418.497	76.31
418.72	71.31
418.943	83.31
419.166	74.31
419.389	73.31
419.611	83.31
419.834	93.31
420.057	82.31
420.28	86.31
420.503	85.31
420.726	86.31
420.948	99.31
421.171	98.31
421.394	98.31
421.617	82.31
421.839	91.31
422.062	80.31
422.285	89.31
422.507	82.31
422.73	83.31
422.953	81.31
423.175	89.31
423.398	89.31
423.621	88.31
423.843	85.31
424.066	80.31
424.288	86.31
424.511	98.31
424.733	99.31
424.956	97.31
425.178	96.31
425.401	103.31
425.623	103.31
425.846	92.31
426.068	89.31
426.291	91.31
426.513	94.31
426.735	88.31
426.958	101.31
427.18	127.31
427.402	163.31
427.625	227.31
427.847	216.31
428.069	217.31
428.292	126.31
428.514	95.31
428.736	80.31
428.958	79.31
429.181	90.31
429.403	88.31
429.625	99.31
429.847	85.31
430.069	94.31
430.292	100.31
430.514	79.31
430.736	79.31
430.958	75.31
431.18	77.31
431.402	75.31
431.624	92.31
431.846	94.31
432.068	95.31
432.29	81.31
432.512	97.31
432.734	73.31
432.956	91.31
433.178	98.31
433.4	106.31
433.622	85.31
433.844	93.31
434.066	85.31
434.287	90.31
434.509	85.31
434.731	93.31
434.953	101.31
435.175	98.31
435.397	92.31
435.618	91.31
435.84	96.31
436.062	146.31
436.284	109.31
436.505	102.31
436.727	105.31
436.949	100.31
437.17	104.31
437.392	88.31
437.614	104.31
437.835	116.31
438.057	147.31
438.278	117.31
438.5	109.31
438.721	133.31
438.943	101.31
439.165	88.31
439.386	77.31
439.608	85.31
439.829	101.31
440.05	137.31
440.272	171.31
440.493	106.31
440.715	83.31
440.936	92.31
441.158	73.31
441.379	78.31
441.6	90.31
441.822	101.31
442.043	99.31
442.264	106.31
442.486	112.31
442.707	96.31
442.928	103.31
443.149	138.31
443.371	151.31
443.592	122.31
443.813	133.31
444.034	120.31
444.255	98.31
444.476	86.31
444.698	79.31
444.919	86.31
445.14	134.31
445.361	125.31
445.582	120.31
445.803	144.31
446.024	158.31
446.245	168.31
446.466	126.31
446.687	82.31
446.908	93.31
447.129	70.31
447.35	91.31
447.571	91.31
447.792	91.31
448.013	108.31
448.234	117.31
448.455	107.31
448.675	125.31
448.896	127.31
449.117	99.31
449.338	102.31
449.559	133.31
449.779	137.31
450	91.31
450.221	79.31
450.442	95.31
450.662	93.31
450.883	121.31
451.104	114.31
451.324	85.31
451.545	95.31
451.766	89.31
451.986	100.31
452.207	93.31
452.428	83.31
452.648	83.31
452.869	110.31
453.089	138.31
453.31	118.31
453.53	96.31
453.751	106.31
453.971	102.31
454.192	117.31
454.412	91.31
454.633	83.31
454.853	95.31
455.073	81.31
455.294	86.31
455.514	98.31
455.734	87.31
455.955	96.31
456.175	87.31
456.395	88.31
456.616	100.31
456.836	90.31
457.056	87.31
457.276	84.31
457.497	85.31
457.717	82.31
457.937	94.31
458.157	100.31
458.377	84.31
458.598	113.31
458.818	173.31
459.038	171.31
459.258	117.31
459.478	96.31
459.698	79.31
459.918	89.31
460.138	93.31
460.358	81.31
460.578	94.31
460.798	98.31
461.018	86.31
461.238	87.31
461.458	75.31
461.678	87.31
461.898	86.31
462.118	90.31
462.338	97.31
462.558	92.31
462.777	80.31
462.997	89.31
463.217	98.31
463.437	84.31
463.657	96.31
463.876	86.31
464.096	99.31
464.316	90.31
464.536	99.31
464.755	98.31
464.975	112.31
465.195	209.31
465.414	185.31
465.634	97.31
465.854	89.31
466.073	90.31
466.293	80.31
466.512	85.31
466.732	86.31
466.951	94.31
467.171	111.31
467.391	104.31
467.61	136.31
467.829	168.31
468.049	463.31
468.268	642.31
468.488	189.31
468.707	95.31
468.927	91.31
469.146	78.31
469.365	86.31
469.585	84.31
469.804	110.31
470.023	110.31
470.243	91.31
470.462	121.31
470.681	122.31
470.901	105.31
471.12	107.31
471.339	101.31
471.558	112.31
471.777	138.31
471.997	268.31
472.216	855.31
472.435	1918.31
472.654	478.31
472.873	129.31
473.092	102.31
473.311	92.31
473.53	95.31
473.749	108.31
473.968	90.31
474.187	122.31
474.406	97.31
474.625	87.31
474.844	81.31
475.063	75.31
475.282	84.31
475.501	90.31
475.72	93.31
475.939	99.31
476.158	90.31
476.377	78.31
476.596	78.31
476.814	104.31
477.033	94.31
477.252	84.31
477.471	87.31
477.69	89.31
477.908	88.31
478.127	83.31
478.346	110.31
478.564	103.31
478.783	108.31
479.002	100.31
479.22	88.31
479.439	108.31
479.658	121.31
479.876	111.31
480.095	111.31
480.313	118.31
480.532	126.31
480.751	239.31
480.969	813.31
481.188	3316.31
481.406	1904.31
481.624	287.31
481.843	125.31
482.061	102.31
482.28	92.31
482.498	94.31
482.717	82.31
482.935	95.31
483.153	93.31
483.372	79.31
483.59	97.31
483.808	107.31
484.027	93.31
484.245	94.31
484.463	92.31
484.681	96.31
484.9	99.31
485.118	87.31
485.336	109.31
485.554	93.31
485.772	92.31
485.99	110.31
486.209	102.31
486.427	96.31
486.645	127.31
486.863	111.31
487.081	98.31
487.299	91.31
487.517	97.31
487.735	101.31
487.953	94.31
488.171	97.31
488.389	94.31
488.607	105.31
488.825	100.31
489.043	86.31
489.261	78.31
489.479	83.31
489.696	91.31
489.914	78.31
490.132	86.31
490.35	98.31
490.568	86.31
490.786	96.31
491.003	87.31
491.221	89.31
491.439	81.31
491.657	96.31
491.874	91.31
492.092	95.31
492.31	81.31
492.527	107.31
492.745	94.31
492.963	86.31
493.18	87.31
493.398	73.31
493.615	88.31
493.833	103.31
494.05	86.31
494.268	70.31
494.485	81.31
494.703	94.31
494.92	87.31
495.138	87.31
495.355	93.31
495.573	91.31
495.79	90.31
496.008	100.31
496.225	99.31
496.442	97.31
496.66	96.31
496.877	89.31
497.094	92.31
497.312	81.31
497.529	75.31
497.746	96.31
497.963	93.31
498.181	90.31
498.398	104.31
498.615	115.31
498.832	114.31
499.049	91.31
499.267	92.31
499.484	85.31
499.701	98.31
499.918	100.31
500.135	91.31
500.352	94.31
500.569	98.31
500.786	94.31
501.003	81.31
501.22	106.31
501.437	100.31
501.654	89.31
501.871	123.31
502.088	98.31
502.305	100.31
502.522	97.31
502.739	66.31
502.956	79.31
503.172	93.31
503.389	105.31
503.606	117.31
503.823	108.31
504.04	86.31
504.256	80.31
504.473	79.31
504.69	91.31
504.907	90.31
505.123	80.31
505.34	92.31
505.557	90.31
505.773	103.31
505.99	82.31
506.207	83.31
506.423	84.31
506.64	88.31
506.856	84.31
507.073	86.31
507.289	87.31
507.506	99.31
507.722	107.31
507.939	110.31
508.155	109.31
508.372	88.31
508.588	104.31
508.805	93.31
509.021	104.31
509.238	93.31
509.454	104.31
509.67	87.31
509.887	112.31
510.103	134.31
510.319	213.31
510.536	719.31
510.752	2304.31
510.968	657.31
511.184	145.31
511.401	129.31
511.617	98.31
511.833	117.31
512.049	105.31
512.265	88.31
512.481	107.31
512.698	98.31
512.914	89.31
513.13	88.31
513.346	91.31
513.562	85.31
513.778	90.31
513.994	81.31
514.21	107.31
514.426	131.31
514.642	142.31
514.858	130.31
