Data from Circ_2001_H10_HRD10591_00068.txt Node
Date: Wed Jan 03 10:45:52 EST 2024
User: Yrep
Spectrometer: HR+D1059
Trigger mode: 1
Integration Time (sec): 1.000000E-1
Scans to average: 1
Electric dark correction enabled: true
Nonlinearity correction enabled: false
Boxcar width: 0
XAxis mode: Wavelengths
Number of Pixels in Spectrum: 2048
>>>>>Begin Spectral Data<<<<<
223.165	-24.5
223.4	-24.5
223.635	-24.5
223.869	-13.5
224.104	-29.5
224.338	-14.5
224.573	-7.5
224.808	-10.5
225.042	0.5
225.277	-2.5
225.511	-9.5
225.746	1.5
225.98	7.5
226.215	12.5
226.449	13.5
226.683	30.5
226.918	5.5
227.152	40.5
227.387	34.5
227.621	36.5
227.856	39.5
228.09	49.5
228.324	51.5
228.559	57.5
228.793	55.5
229.027	73.5
229.262	75.5
229.496	68.5
229.73	82.5
229.964	98.5
230.199	57.5
230.433	65.5
230.667	87.5
230.901	78.5
231.136	71.5
231.37	73.5
231.604	77.5
231.838	82.5
232.072	86.5
232.306	79.5
232.541	87.5
232.775	75.5
233.009	71.5
233.243	82.5
233.477	71.5
233.711	94.5
233.945	77.5
234.179	87.5
234.413	80.5
234.647	81.5
234.881	84.5
235.115	78.5
235.349	89.5
235.583	85.5
235.817	68.5
236.051	83.5
236.285	69.5
236.519	74.5
236.753	79.5
236.987	77.5
237.221	88.5
237.455	98.5
237.689	69.5
237.922	80.5
238.156	80.5
238.39	78.5
238.624	77.5
238.858	65.5
239.091	77.5
239.325	78.5
239.559	81.5
239.793	54.5
240.027	69.5
240.26	61.5
240.494	83.5
240.728	74.5
240.961	89.5
241.195	66.5
241.429	68.5
241.662	77.5
241.896	81.5
242.13	87.5
242.363	86.5
242.597	78.5
242.83	83.5
243.064	83.5
243.298	84.5
243.531	80.5
243.765	87.5
243.998	70.5
244.232	86.5
244.465	81.5
244.699	69.5
244.932	64.5
245.166	79.5
245.399	81.5
245.633	74.5
245.866	84.5
246.099	57.5
246.333	68.5
246.566	81.5
246.8	81.5
247.033	76.5
247.266	75.5
247.5	85.5
247.733	79.5
247.966	65.5
248.2	77.5
248.433	72.5
248.666	84.5
248.899	97.5
249.133	81.5
249.366	100.5
249.599	83.5
249.832	77.5
250.066	81.5
250.299	88.5
250.532	82.5
250.765	89.5
250.998	70.5
251.231	88.5
251.465	78.5
251.698	83.5
251.931	89.5
252.164	91.5
252.397	80.5
252.63	87.5
252.863	76.5
253.096	81.5
253.329	75.5
253.562	67.5
253.795	80.5
254.028	69.5
254.261	80.5
254.494	81.5
254.727	95.5
254.96	80.5
255.193	75.5
255.426	80.5
255.659	80.5
255.892	91.5
256.124	74.5
256.357	81.5
256.59	83.5
256.823	84.5
257.056	77.5
257.289	96.5
257.521	94.5
257.754	76.5
257.987	86.5
258.22	91.5
258.452	83.5
258.685	89.5
258.918	82.5
259.151	87.5
259.383	87.5
259.616	81.5
259.849	71.5
260.081	75.5
260.314	83.5
260.547	83.5
260.779	64.5
261.012	85.5
261.244	83.5
261.477	96.5
261.71	89.5
261.942	121.5
262.175	118.5
262.407	81.5
262.64	86.5
262.872	86.5
263.105	90.5
263.337	78.5
263.57	81.5
263.802	96.5
264.035	79.5
264.267	79.5
264.499	68.5
264.732	80.5
264.964	81.5
265.197	83.5
265.429	86.5
265.661	71.5
265.894	73.5
266.126	87.5
266.358	100.5
266.591	73.5
266.823	92.5
267.055	84.5
267.287	95.5
267.52	81.5
267.752	85.5
267.984	79.5
268.216	71.5
268.448	82.5
268.681	71.5
268.913	73.5
269.145	85.5
269.377	77.5
269.609	68.5
269.841	85.5
270.073	86.5
270.306	79.5
270.538	89.5
270.77	85.5
271.002	89.5
271.234	81.5
271.466	73.5
271.698	83.5
271.93	66.5
272.162	92.5
272.394	86.5
272.626	74.5
272.858	86.5
273.09	75.5
273.322	88.5
273.553	75.5
273.785	78.5
274.017	73.5
274.249	86.5
274.481	90.5
274.713	96.5
274.945	87.5
275.176	92.5
275.408	79.5
275.64	105.5
275.872	101.5
276.104	96.5
276.335	91.5
276.567	99.5
276.799	105.5
277.031	126.5
277.262	127.5
277.494	99.5
277.726	79.5
277.957	79.5
278.189	89.5
278.421	81.5
278.652	80.5
278.884	79.5
279.115	93.5
279.347	86.5
279.579	99.5
279.81	111.5
280.042	133.5
280.273	158.5
280.505	112.5
280.736	93.5
280.968	94.5
281.199	91.5
281.431	80.5
281.662	77.5
281.894	102.5
282.125	98.5
282.356	117.5
282.588	143.5
282.819	97.5
283.051	99.5
283.282	87.5
283.513	85.5
283.745	81.5
283.976	88.5
284.207	102.5
284.439	88.5
284.67	91.5
284.901	91.5
285.132	80.5
285.364	79.5
285.595	81.5
285.826	86.5
286.057	88.5
286.288	103.5
286.52	90.5
286.751	89.5
286.982	86.5
287.213	77.5
287.444	94.5
287.675	86.5
287.906	85.5
288.138	99.5
288.369	96.5
288.6	83.5
288.831	67.5
289.062	85.5
289.293	81.5
289.524	78.5
289.755	94.5
289.986	98.5
290.217	93.5
290.448	103.5
290.679	84.5
290.91	90.5
291.141	82.5
291.371	100.5
291.602	74.5
291.833	78.5
292.064	70.5
292.295	79.5
292.526	94.5
292.757	93.5
292.987	91.5
293.218	91.5
293.449	74.5
293.68	77.5
293.91	98.5
294.141	75.5
294.372	80.5
294.603	95.5
294.833	88.5
295.064	82.5
295.295	94.5
295.525	95.5
295.756	104.5
295.987	112.5
296.217	129.5
296.448	122.5
296.679	97.5
296.909	95.5
297.14	95.5
297.37	86.5
297.601	90.5
297.831	94.5
298.062	93.5
298.292	80.5
298.523	81.5
298.753	88.5
298.984	85.5
299.214	81.5
299.445	95.5
299.675	95.5
299.905	102.5
300.136	93.5
300.366	81.5
300.597	91.5
300.827	85.5
301.057	100.5
301.288	91.5
301.518	85.5
301.748	93.5
301.979	107.5
302.209	96.5
302.439	98.5
302.669	87.5
302.9	97.5
303.13	94.5
303.36	92.5
303.59	96.5
303.82	117.5
304.051	75.5
304.281	81.5
304.511	91.5
304.741	96.5
304.971	92.5
305.201	87.5
305.431	84.5
305.661	99.5
305.891	100.5
306.121	112.5
306.352	86.5
306.582	110.5
306.812	106.5
307.042	120.5
307.272	124.5
307.502	140.5
307.731	125.5
307.961	110.5
308.191	104.5
308.421	90.5
308.651	89.5
308.881	87.5
309.111	91.5
309.341	96.5
309.571	95.5
309.8	85.5
310.03	107.5
310.26	102.5
310.49	86.5
310.72	90.5
310.949	102.5
311.179	95.5
311.409	95.5
311.639	109.5
311.868	93.5
312.098	89.5
312.328	104.5
312.557	96.5
312.787	101.5
313.017	101.5
313.246	99.5
313.476	97.5
313.706	94.5
313.935	93.5
314.165	103.5
314.394	111.5
314.624	95.5
314.853	91.5
315.083	98.5
315.312	97.5
315.542	87.5
315.771	97.5
316.001	90.5
316.23	91.5
316.46	82.5
316.689	86.5
316.919	88.5
317.148	96.5
317.377	81.5
317.607	81.5
317.836	89.5
318.065	90.5
318.295	80.5
318.524	72.5
318.753	94.5
318.983	73.5
319.212	100.5
319.441	97.5
319.67	111.5
319.9	94.5
320.129	95.5
320.358	104.5
320.587	110.5
320.816	104.5
321.046	99.5
321.275	84.5
321.504	100.5
321.733	89.5
321.962	92.5
322.191	103.5
322.42	99.5
322.649	111.5
322.878	106.5
323.108	114.5
323.337	136.5
323.566	140.5
323.795	156.5
324.024	198.5
324.253	421.5
324.482	875.5
324.71	1790.5
324.939	2361.5
325.168	829.5
325.397	263.5
325.626	161.5
325.855	119.5
326.084	116.5
326.313	129.5
326.542	169.5
326.77	245.5
326.999	489.5
327.228	1021.5
327.457	1793.5
327.686	1416.5
327.914	436.5
328.143	336.5
328.372	371.5
328.6	227.5
328.829	144.5
329.058	146.5
329.287	162.5
329.515	138.5
329.744	185.5
329.972	283.5
330.201	548.5
330.43	763.5
330.658	345.5
330.887	184.5
331.115	146.5
331.344	118.5
331.572	116.5
331.801	107.5
332.03	114.5
332.258	106.5
332.486	91.5
332.715	101.5
332.943	103.5
333.172	110.5
333.4	98.5
333.629	130.5
333.857	170.5
334.085	266.5
334.314	505.5
334.542	919.5
334.771	864.5
334.999	256.5
335.227	141.5
335.455	91.5
335.684	95.5
335.912	105.5
336.14	94.5
336.369	98.5
336.597	105.5
336.825	102.5
337.053	95.5
337.281	74.5
337.51	90.5
337.738	89.5
337.966	97.5
338.194	101.5
338.422	97.5
338.65	101.5
338.878	85.5
339.106	83.5
339.334	92.5
339.562	97.5
339.79	87.5
340.018	91.5
340.246	83.5
340.474	95.5
340.702	96.5
340.93	97.5
341.158	84.5
341.386	92.5
341.614	100.5
341.842	83.5
342.07	98.5
342.298	104.5
342.526	83.5
342.754	86.5
342.981	96.5
343.209	106.5
343.437	98.5
343.665	96.5
343.893	86.5
344.12	91.5
344.348	93.5
344.576	97.5
344.804	97.5
345.031	95.5
345.259	95.5
345.487	87.5
345.714	89.5
345.942	87.5
346.17	85.5
346.397	99.5
346.625	94.5
346.853	81.5
347.08	80.5
347.308	89.5
347.535	102.5
347.763	91.5
347.99	87.5
348.218	96.5
348.445	100.5
348.673	98.5
348.9	95.5
349.128	96.5
349.355	102.5
349.583	90.5
349.81	94.5
350.037	84.5
350.265	104.5
350.492	98.5
350.72	90.5
350.947	96.5
351.174	88.5
351.402	99.5
351.629	103.5
351.856	94.5
352.083	104.5
352.311	95.5
352.538	96.5
352.765	107.5
352.992	110.5
353.22	120.5
353.447	112.5
353.674	95.5
353.901	89.5
354.128	86.5
354.355	89.5
354.583	91.5
354.81	81.5
355.037	88.5
355.264	94.5
355.491	98.5
355.718	82.5
355.945	86.5
356.172	105.5
356.399	112.5
356.626	90.5
356.853	86.5
357.08	94.5
357.307	94.5
357.534	87.5
357.761	91.5
357.988	83.5
358.215	95.5
358.441	85.5
358.668	92.5
358.895	95.5
359.122	74.5
359.349	85.5
359.576	93.5
359.802	90.5
360.029	112.5
360.256	115.5
360.483	95.5
360.709	94.5
360.936	104.5
361.163	81.5
361.39	106.5
361.616	85.5
361.843	92.5
362.07	83.5
362.296	73.5
362.523	80.5
362.749	89.5
362.976	94.5
363.203	105.5
363.429	79.5
363.656	94.5
363.882	79.5
364.109	84.5
364.335	87.5
364.562	77.5
364.788	96.5
365.015	94.5
365.241	84.5
365.468	120.5
365.694	108.5
365.92	87.5
366.147	91.5
366.373	91.5
366.599	89.5
366.826	89.5
367.052	96.5
367.278	94.5
367.505	88.5
367.731	81.5
367.957	105.5
368.184	89.5
368.41	88.5
368.636	113.5
368.862	110.5
369.089	104.5
369.315	91.5
369.541	91.5
369.767	74.5
369.993	91.5
370.219	94.5
370.445	89.5
370.672	77.5
370.898	81.5
371.124	96.5
371.35	81.5
371.576	83.5
371.802	86.5
372.028	89.5
372.254	88.5
372.48	74.5
372.706	89.5
372.932	86.5
373.158	67.5
373.384	82.5
373.61	89.5
373.835	91.5
374.061	80.5
374.287	104.5
374.513	59.5
374.739	71.5
374.965	72.5
375.191	86.5
375.416	95.5
375.642	97.5
375.868	93.5
376.094	77.5
376.319	86.5
376.545	82.5
376.771	90.5
376.997	86.5
377.222	76.5
377.448	82.5
377.674	102.5
377.899	82.5
378.125	87.5
378.35	88.5
378.576	95.5
378.802	80.5
379.027	101.5
379.253	94.5
379.478	89.5
379.704	102.5
379.929	99.5
380.155	91.5
380.38	97.5
380.606	98.5
380.831	85.5
381.057	90.5
381.282	108.5
381.507	86.5
381.733	89.5
381.958	99.5
382.184	101.5
382.409	98.5
382.634	88.5
382.86	77.5
383.085	84.5
383.31	90.5
383.535	106.5
383.761	90.5
383.986	89.5
384.211	93.5
384.436	114.5
384.662	97.5
384.887	98.5
385.112	87.5
385.337	88.5
385.562	84.5
385.787	91.5
386.013	105.5
386.238	115.5
386.463	106.5
386.688	106.5
386.913	98.5
387.138	89.5
387.363	87.5
387.588	84.5
387.813	102.5
388.038	104.5
388.263	109.5
388.488	105.5
388.713	95.5
388.938	79.5
389.163	85.5
389.387	91.5
389.612	87.5
389.837	91.5
390.062	88.5
390.287	88.5
390.512	83.5
390.736	82.5
390.961	85.5
391.186	94.5
391.411	63.5
391.636	82.5
391.86	86.5
392.085	81.5
392.31	64.5
392.534	75.5
392.759	84.5
392.984	90.5
393.208	76.5
393.433	93.5
393.658	80.5
393.882	87.5
394.107	85.5
394.331	77.5
394.556	85.5
394.78	82.5
395.005	73.5
395.229	73.5
395.454	86.5
395.678	78.5
395.903	81.5
396.127	95.5
396.352	84.5
396.576	77.5
396.801	85.5
397.025	79.5
397.249	82.5
397.474	74.5
397.698	86.5
397.922	101.5
398.147	90.5
398.371	85.5
398.595	78.5
398.82	90.5
399.044	79.5
399.268	82.5
399.492	91.5
399.717	85.5
399.941	86.5
400.165	85.5
400.389	91.5
400.613	79.5
400.837	84.5
401.062	83.5
401.286	82.5
401.51	94.5
401.734	95.5
401.958	107.5
402.182	128.5
402.406	155.5
402.63	121.5
402.854	97.5
403.078	85.5
403.302	86.5
403.526	86.5
403.75	78.5
403.974	71.5
404.198	90.5
404.422	87.5
404.645	86.5
404.869	87.5
405.093	100.5
405.317	119.5
405.541	97.5
405.765	102.5
405.988	113.5
406.212	169.5
406.436	225.5
406.66	160.5
406.883	101.5
407.107	82.5
407.331	96.5
407.555	97.5
407.778	99.5
408.002	73.5
408.226	87.5
408.449	84.5
408.673	84.5
408.896	91.5
409.12	94.5
409.344	110.5
409.567	87.5
409.791	95.5
410.014	103.5
410.238	96.5
410.461	98.5
410.685	86.5
410.908	91.5
411.132	100.5
411.355	81.5
411.578	85.5
411.802	75.5
412.025	69.5
412.249	91.5
412.472	106.5
412.695	99.5
412.919	99.5
413.142	96.5
413.365	89.5
413.589	85.5
413.812	63.5
414.035	98.5
414.258	78.5
414.482	99.5
414.705	81.5
414.928	79.5
415.151	84.5
415.374	88.5
415.597	101.5
415.821	89.5
416.044	97.5
416.267	72.5
416.49	85.5
416.713	88.5
416.936	80.5
417.159	91.5
417.382	83.5
417.605	101.5
417.828	93.5
418.051	94.5
418.274	94.5
418.497	70.5
418.72	80.5
418.943	59.5
419.166	91.5
419.389	69.5
419.611	98.5
419.834	81.5
420.057	86.5
420.28	90.5
420.503	88.5
420.726	81.5
420.948	84.5
421.171	95.5
421.394	95.5
421.617	77.5
421.839	79.5
422.062	93.5
422.285	92.5
422.507	94.5
422.73	103.5
422.953	95.5
423.175	88.5
423.398	89.5
423.621	90.5
423.843	97.5
424.066	88.5
424.288	101.5
424.511	78.5
424.733	83.5
424.956	99.5
425.178	99.5
425.401	95.5
425.623	101.5
425.846	88.5
426.068	91.5
426.291	103.5
426.513	81.5
426.735	102.5
426.958	83.5
427.18	98.5
427.402	140.5
427.625	179.5
427.847	178.5
428.069	173.5
428.292	97.5
428.514	90.5
428.736	97.5
428.958	92.5
429.181	81.5
429.403	80.5
429.625	85.5
429.847	85.5
430.069	87.5
430.292	91.5
430.514	79.5
430.736	73.5
430.958	78.5
431.18	86.5
431.402	80.5
431.624	81.5
431.846	82.5
432.068	93.5
432.29	79.5
432.512	79.5
432.734	92.5
432.956	81.5
433.178	93.5
433.4	91.5
433.622	106.5
433.844	86.5
434.066	83.5
434.287	77.5
434.509	78.5
434.731	82.5
434.953	80.5
435.175	89.5
435.397	74.5
435.618	80.5
435.84	102.5
436.062	128.5
436.284	96.5
436.505	101.5
436.727	105.5
436.949	83.5
437.17	73.5
437.392	98.5
437.614	89.5
437.835	84.5
438.057	112.5
438.278	102.5
438.5	87.5
438.721	114.5
438.943	97.5
439.165	90.5
439.386	80.5
439.608	90.5
439.829	95.5
440.05	117.5
440.272	136.5
440.493	93.5
440.715	79.5
440.936	86.5
441.158	93.5
441.379	86.5
441.6	86.5
441.822	80.5
442.043	72.5
442.264	92.5
442.486	104.5
442.707	80.5
442.928	90.5
443.149	136.5
443.371	154.5
443.592	113.5
443.813	106.5
444.034	111.5
444.255	88.5
444.476	95.5
444.698	79.5
444.919	85.5
445.14	143.5
445.361	119.5
445.582	106.5
445.803	155.5
446.024	133.5
446.245	120.5
446.466	115.5
446.687	92.5
446.908	101.5
447.129	90.5
447.35	83.5
447.571	84.5
447.792	90.5
448.013	101.5
448.234	103.5
448.455	91.5
448.675	98.5
448.896	103.5
449.117	98.5
449.338	90.5
449.559	118.5
449.779	125.5
450	90.5
450.221	86.5
450.442	67.5
450.662	89.5
450.883	103.5
451.104	98.5
451.324	86.5
451.545	84.5
451.766	85.5
451.986	82.5
452.207	75.5
452.428	90.5
452.648	106.5
452.869	112.5
453.089	109.5
453.31	115.5
453.53	97.5
453.751	86.5
453.971	107.5
454.192	115.5
454.412	79.5
454.633	98.5
454.853	73.5
455.073	80.5
455.294	86.5
455.514	80.5
455.734	94.5
455.955	87.5
456.175	83.5
456.395	87.5
456.616	92.5
456.836	78.5
457.056	83.5
457.276	81.5
457.497	87.5
457.717	89.5
457.937	90.5
458.157	90.5
458.377	91.5
458.598	95.5
458.818	161.5
459.038	169.5
459.258	114.5
459.478	89.5
459.698	89.5
459.918	92.5
460.138	78.5
460.358	74.5
460.578	91.5
460.798	106.5
461.018	89.5
461.238	81.5
461.458	82.5
461.678	90.5
461.898	90.5
462.118	93.5
462.338	83.5
462.558	81.5
462.777	90.5
462.997	87.5
463.217	84.5
463.437	82.5
463.657	93.5
463.876	85.5
464.096	95.5
464.316	100.5
464.536	91.5
464.755	105.5
464.975	109.5
465.195	171.5
465.414	159.5
465.634	103.5
465.854	93.5
466.073	90.5
466.293	81.5
466.512	80.5
466.732	80.5
466.951	97.5
467.171	89.5
467.391	99.5
467.61	138.5
467.829	155.5
468.049	355.5
468.268	475.5
468.488	135.5
468.707	101.5
468.927	84.5
469.146	82.5
469.365	68.5
469.585	94.5
469.804	103.5
470.023	107.5
470.243	106.5
470.462	96.5
470.681	105.5
470.901	99.5
471.12	85.5
471.339	107.5
471.558	96.5
471.777	119.5
471.997	207.5
472.216	671.5
472.435	1351.5
472.654	350.5
472.873	122.5
473.092	97.5
473.311	88.5
473.53	87.5
473.749	94.5
473.968	87.5
474.187	105.5
474.406	92.5
474.625	96.5
474.844	91.5
475.063	90.5
475.282	79.5
475.501	87.5
475.72	96.5
475.939	87.5
476.158	83.5
476.377	85.5
476.596	90.5
476.814	90.5
477.033	95.5
477.252	81.5
477.471	85.5
477.69	95.5
477.908	90.5
478.127	83.5
478.346	83.5
478.564	88.5
478.783	89.5
479.002	81.5
479.22	99.5
479.439	108.5
479.658	113.5
479.876	99.5
480.095	102.5
480.313	134.5
480.532	120.5
480.751	185.5
480.969	620.5
481.188	2365.5
481.406	1357.5
481.624	233.5
481.843	115.5
482.061	111.5
482.28	91.5
482.498	83.5
482.717	87.5
482.935	91.5
483.153	81.5
483.372	79.5
483.59	90.5
483.808	94.5
484.027	83.5
484.245	83.5
484.463	88.5
484.681	99.5
484.9	81.5
485.118	96.5
485.336	102.5
485.554	90.5
485.772	82.5
485.99	106.5
486.209	100.5
486.427	114.5
486.645	97.5
486.863	96.5
487.081	104.5
487.299	87.5
487.517	98.5
487.735	98.5
487.953	96.5
488.171	89.5
488.389	88.5
488.607	93.5
488.825	99.5
489.043	95.5
489.261	88.5
489.479	90.5
489.696	86.5
489.914	83.5
490.132	82.5
490.35	80.5
490.568	85.5
490.786	97.5
491.003	77.5
491.221	72.5
491.439	86.5
491.657	81.5
491.874	88.5
492.092	74.5
492.31	95.5
492.527	91.5
492.745	106.5
492.963	97.5
493.18	87.5
493.398	89.5
493.615	99.5
493.833	84.5
494.05	101.5
494.268	86.5
494.485	87.5
494.703	89.5
494.92	90.5
495.138	92.5
495.355	94.5
495.573	88.5
495.79	102.5
496.008	88.5
496.225	86.5
496.442	78.5
496.66	102.5
496.877	99.5
497.094	111.5
497.312	94.5
497.529	93.5
497.746	78.5
497.963	69.5
498.181	87.5
498.398	94.5
498.615	98.5
498.832	94.5
499.049	82.5
499.267	99.5
499.484	85.5
499.701	86.5
499.918	78.5
500.135	84.5
500.352	82.5
500.569	89.5
500.786	96.5
501.003	87.5
501.22	96.5
501.437	86.5
501.654	87.5
501.871	99.5
502.088	86.5
502.305	79.5
502.522	98.5
502.739	83.5
502.956	98.5
503.172	98.5
503.389	95.5
503.606	114.5
503.823	92.5
504.04	98.5
504.256	73.5
504.473	75.5
504.69	76.5
504.907	88.5
505.123	88.5
505.34	85.5
505.557	105.5
505.773	87.5
505.99	87.5
506.207	90.5
506.423	82.5
506.64	93.5
506.856	78.5
507.073	82.5
507.289	87.5
507.506	100.5
507.722	115.5
507.939	109.5
508.155	91.5
508.372	77.5
508.588	89.5
508.805	84.5
509.021	88.5
509.238	98.5
509.454	102.5
509.67	95.5
509.887	90.5
510.103	125.5
510.319	204.5
510.536	701.5
510.752	2196.5
510.968	618.5
511.184	151.5
511.401	105.5
511.617	106.5
511.833	96.5
512.049	84.5
512.265	82.5
512.481	91.5
512.698	87.5
512.914	87.5
513.13	97.5
513.346	96.5
513.562	96.5
513.778	86.5
513.994	89.5
514.21	99.5
514.426	115.5
514.642	141.5
514.858	137.5
515.074	149.5
515.29	468.5
515.506	1509.5
515.721	564.5
515.937	150.5
516.153	105.5
516.369	107.5
516.585	98.5
516.801	98.5
517.016	106.5
517.232	94.5
517.448	93.5
517.664	91.5
517.879	101.5
518.095	91.5
518.311	107.5
518.527	91.5
518.742	94.5
518.958	94.5
519.173	93.5
519.389	99.5
519.605	87.5
519.82	86.5
520.036	103.5
520.251	119.5
520.467	110.5
520.682	109.5
520.898	106.5
521.113	113.5
521.329	141.5
521.544	224.5
521.76	561.5
521.975	2517.5
522.19	1524.5
522.406	318.5
522.621	123.5
522.836	114.5
523.052	100.5
523.267	91.5
523.482	94.5
523.698	94.5
523.913	114.5
524.128	106.5
524.343	93.5
524.559	94.5
524.774	97.5
524.989	97.5
525.204	97.5
525.419	97.5
525.634	87.5
525.849	77.5
526.064	96.5
526.28	103.5
526.495	87.5
526.71	92.5
526.925	90.5
527.14	95.5
527.355	91.5
527.57	85.5
527.785	81.5
527.999	103.5
528.214	91.5
528.429	83.5
528.644	77.5
528.859	76.5
529.074	98.5
529.289	125.5
529.503	181.5
529.718	107.5
529.933	83.5
530.148	86.5
530.363	99.5
530.577	82.5
530.792	69.5
531.007	81.5
531.221	91.5
531.436	94.5
531.651	93.5
531.865	92.5
532.08	81.5
532.295	95.5
532.509	88.5
532.724	85.5
532.938	103.5
533.153	86.5
533.367	96.5
533.582	82.5
533.796	79.5
534.011	89.5
534.225	94.5
534.44	76.5
534.654	87.5
534.868	84.5
535.083	87.5
535.297	100.5
535.511	110.5
