Data from Circ_2001_H10_HRD10591_00020.txt Node
Date: Wed Jan 03 10:45:42 EST 2024
User: Yrep
Spectrometer: HR+D1059
Trigger mode: 1
Integration Time (sec): 1.000000E-1
Scans to average: 1
Electric dark correction enabled: true
Nonlinearity correction enabled: false
Boxcar width: 0
XAxis mode: Wavelengths
Number of Pixels in Spectrum: 2048
>>>>>Begin Spectral Data<<<<<
223.165	-20.31
223.4	-20.31
223.635	-20.31
223.869	-16.31
224.104	-24.31
224.338	-23.31
224.573	-18.31
224.808	-21.31
225.042	-0.31
225.277	-4.31
225.511	1.69
225.746	-2.31
225.98	-2.31
226.215	7.69
226.449	17.69
226.683	25.69
226.918	30.69
227.152	49.69
227.387	25.69
227.621	24.69
227.856	54.69
228.09	47.69
228.324	51.69
228.559	65.69
228.793	56.69
229.027	57.69
229.262	65.69
229.496	83.69
229.73	91.69
229.964	96.69
230.199	75.69
230.433	66.69
230.667	79.69
230.901	70.69
231.136	83.69
231.37	58.69
231.604	82.69
231.838	88.69
232.072	65.69
232.306	83.69
232.541	80.69
232.775	83.69
233.009	78.69
233.243	92.69
233.477	84.69
233.711	79.69
233.945	81.69
234.179	72.69
234.413	81.69
234.647	75.69
234.881	65.69
235.115	70.69
235.349	67.69
235.583	78.69
235.817	82.69
236.051	80.69
236.285	79.69
236.519	82.69
236.753	88.69
236.987	78.69
237.221	94.69
237.455	98.69
237.689	66.69
237.922	75.69
238.156	63.69
238.39	87.69
238.624	79.69
238.858	84.69
239.091	85.69
239.325	69.69
239.559	87.69
239.793	77.69
240.027	78.69
240.26	88.69
240.494	78.69
240.728	69.69
240.961	70.69
241.195	85.69
241.429	83.69
241.662	81.69
241.896	61.69
242.13	67.69
242.363	75.69
242.597	71.69
242.83	79.69
243.064	76.69
243.298	89.69
243.531	66.69
243.765	74.69
243.998	71.69
244.232	80.69
244.465	83.69
244.699	79.69
244.932	82.69
245.166	75.69
245.399	72.69
245.633	96.69
245.866	78.69
246.099	85.69
246.333	70.69
246.566	71.69
246.8	77.69
247.033	88.69
247.266	91.69
247.5	96.69
247.733	75.69
247.966	86.69
248.2	83.69
248.433	69.69
248.666	83.69
248.899	70.69
249.133	94.69
249.366	91.69
249.599	82.69
249.832	69.69
250.066	81.69
250.299	79.69
250.532	72.69
250.765	90.69
250.998	91.69
251.231	75.69
251.465	70.69
251.698	72.69
251.931	83.69
252.164	82.69
252.397	92.69
252.63	82.69
252.863	66.69
253.096	71.69
253.329	85.69
253.562	72.69
253.795	71.69
254.028	74.69
254.261	73.69
254.494	77.69
254.727	85.69
254.96	81.69
255.193	67.69
255.426	62.69
255.659	89.69
255.892	98.69
256.124	85.69
256.357	73.69
256.59	82.69
256.823	80.69
257.056	80.69
257.289	80.69
257.521	94.69
257.754	78.69
257.987	88.69
258.22	87.69
258.452	90.69
258.685	82.69
258.918	75.69
259.151	77.69
259.383	92.69
259.616	71.69
259.849	82.69
260.081	87.69
260.314	82.69
260.547	83.69
260.779	95.69
261.012	78.69
261.244	94.69
261.477	101.69
261.71	112.69
261.942	96.69
262.175	105.69
262.407	99.69
262.64	90.69
262.872	84.69
263.105	66.69
263.337	81.69
263.57	84.69
263.802	74.69
264.035	95.69
264.267	99.69
264.499	70.69
264.732	84.69
264.964	67.69
265.197	73.69
265.429	78.69
265.661	79.69
265.894	69.69
266.126	79.69
266.358	74.69
266.591	73.69
266.823	81.69
267.055	77.69
267.287	83.69
267.52	73.69
267.752	92.69
267.984	88.69
268.216	75.69
268.448	75.69
268.681	90.69
268.913	80.69
269.145	89.69
269.377	78.69
269.609	85.69
269.841	69.69
270.073	84.69
270.306	79.69
270.538	80.69
270.77	92.69
271.002	75.69
271.234	88.69
271.466	96.69
271.698	69.69
271.93	87.69
272.162	90.69
272.394	83.69
272.626	91.69
272.858	94.69
273.09	84.69
273.322	82.69
273.553	89.69
273.785	89.69
274.017	79.69
274.249	79.69
274.481	89.69
274.713	91.69
274.945	78.69
275.176	82.69
275.408	90.69
275.64	96.69
275.872	96.69
276.104	80.69
276.335	97.69
276.567	101.69
276.799	118.69
277.031	127.69
277.262	122.69
277.494	119.69
277.726	84.69
277.957	80.69
278.189	80.69
278.421	89.69
278.652	99.69
278.884	79.69
279.115	90.69
279.347	71.69
279.579	90.69
279.81	94.69
280.042	127.69
280.273	160.69
280.505	114.69
280.736	89.69
280.968	82.69
281.199	84.69
281.431	79.69
281.662	83.69
281.894	97.69
282.125	84.69
282.356	122.69
282.588	143.69
282.819	125.69
283.051	95.69
283.282	82.69
283.513	75.69
283.745	77.69
283.976	90.69
284.207	82.69
284.439	80.69
284.67	89.69
284.901	71.69
285.132	82.69
285.364	84.69
285.595	83.69
285.826	88.69
286.057	88.69
286.288	93.69
286.52	70.69
286.751	78.69
286.982	73.69
287.213	91.69
287.444	86.69
287.675	81.69
287.906	93.69
288.138	79.69
288.369	91.69
288.6	102.69
288.831	95.69
289.062	96.69
289.293	103.69
289.524	79.69
289.755	86.69
289.986	87.69
290.217	88.69
290.448	102.69
290.679	80.69
290.91	88.69
291.141	74.69
291.371	95.69
291.602	91.69
291.833	95.69
292.064	66.69
292.295	78.69
292.526	98.69
292.757	78.69
292.987	79.69
293.218	81.69
293.449	86.69
293.68	86.69
293.91	85.69
294.141	90.69
294.372	88.69
294.603	84.69
294.833	89.69
295.064	80.69
295.295	84.69
295.525	84.69
295.756	109.69
295.987	123.69
296.217	138.69
296.448	139.69
296.679	90.69
296.909	99.69
297.14	75.69
297.37	96.69
297.601	83.69
297.831	91.69
298.062	89.69
298.292	80.69
298.523	79.69
298.753	94.69
298.984	80.69
299.214	87.69
299.445	78.69
299.675	89.69
299.905	80.69
300.136	97.69
300.366	99.69
300.597	89.69
300.827	77.69
301.057	103.69
301.288	121.69
301.518	91.69
301.748	97.69
301.979	101.69
302.209	89.69
302.439	101.69
302.669	90.69
302.9	92.69
303.13	97.69
303.36	109.69
303.59	106.69
303.82	119.69
304.051	101.69
304.281	85.69
304.511	77.69
304.741	95.69
304.971	108.69
305.201	88.69
305.431	104.69
305.661	84.69
305.891	83.69
306.121	95.69
306.352	108.69
306.582	109.69
306.812	94.69
307.042	110.69
307.272	117.69
307.502	120.69
307.731	137.69
307.961	103.69
308.191	91.69
308.421	92.69
308.651	87.69
308.881	106.69
309.111	97.69
309.341	92.69
309.571	108.69
309.8	94.69
310.03	113.69
310.26	96.69
310.49	87.69
310.72	103.69
310.949	96.69
311.179	89.69
311.409	99.69
311.639	94.69
311.868	86.69
312.098	100.69
312.328	102.69
312.557	110.69
312.787	102.69
313.017	103.69
313.246	90.69
313.476	102.69
313.706	101.69
313.935	112.69
314.165	103.69
314.394	112.69
314.624	97.69
314.853	104.69
315.083	89.69
315.312	81.69
315.542	81.69
315.771	98.69
316.001	94.69
316.23	91.69
316.46	95.69
316.689	91.69
316.919	88.69
317.148	103.69
317.377	96.69
317.607	113.69
317.836	82.69
318.065	79.69
318.295	88.69
318.524	98.69
318.753	96.69
318.983	105.69
319.212	94.69
319.441	109.69
319.67	94.69
319.9	101.69
320.129	101.69
320.358	82.69
320.587	96.69
320.816	94.69
321.046	95.69
321.275	105.69
321.504	101.69
321.733	100.69
321.962	97.69
322.191	115.69
322.42	106.69
322.649	113.69
322.878	120.69
323.108	119.69
323.337	124.69
323.566	121.69
323.795	148.69
324.024	213.69
324.253	439.69
324.482	933.69
324.71	1961.69
324.939	2477.69
325.168	911.69
325.397	257.69
325.626	151.69
325.855	145.69
326.084	110.69
326.313	149.69
326.542	169.69
326.77	233.69
326.999	505.69
327.228	1008.69
327.457	1894.69
327.686	1496.69
327.914	453.69
328.143	338.69
328.372	378.69
328.6	230.69
328.829	147.69
329.058	153.69
329.287	159.69
329.515	134.69
329.744	179.69
329.972	301.69
330.201	541.69
330.43	779.69
330.658	378.69
330.887	199.69
331.115	159.69
331.344	114.69
331.572	116.69
331.801	104.69
332.03	103.69
332.258	99.69
332.486	100.69
332.715	104.69
332.943	120.69
333.172	118.69
333.4	112.69
333.629	134.69
333.857	159.69
334.085	270.69
334.314	537.69
334.542	948.69
334.771	867.69
334.999	269.69
335.227	143.69
335.455	98.69
335.684	111.69
335.912	103.69
336.14	95.69
336.369	87.69
336.597	105.69
336.825	103.69
337.053	97.69
337.281	97.69
337.51	88.69
337.738	89.69
337.966	102.69
338.194	97.69
338.422	96.69
338.65	98.69
338.878	92.69
339.106	70.69
339.334	97.69
339.562	103.69
339.79	101.69
340.018	96.69
340.246	97.69
340.474	95.69
340.702	91.69
340.93	97.69
341.158	95.69
341.386	85.69
341.614	89.69
341.842	103.69
342.07	97.69
342.298	94.69
342.526	86.69
342.754	94.69
342.981	90.69
343.209	84.69
343.437	95.69
343.665	81.69
343.893	90.69
344.12	85.69
344.348	100.69
344.576	80.69
344.804	83.69
345.031	87.69
345.259	96.69
345.487	98.69
345.714	90.69
345.942	82.69
346.17	90.69
346.397	98.69
346.625	80.69
346.853	98.69
347.08	74.69
347.308	103.69
347.535	94.69
347.763	99.69
347.99	109.69
348.218	98.69
348.445	110.69
348.673	105.69
348.9	91.69
349.128	94.69
349.355	81.69
349.583	95.69
349.81	88.69
350.037	98.69
350.265	89.69
350.492	87.69
350.72	105.69
350.947	93.69
351.174	100.69
351.402	105.69
351.629	98.69
351.856	93.69
352.083	102.69
352.311	113.69
352.538	109.69
352.765	106.69
352.992	105.69
353.22	105.69
353.447	95.69
353.674	97.69
353.901	93.69
354.128	100.69
354.355	93.69
354.583	93.69
354.81	105.69
355.037	94.69
355.264	81.69
355.491	92.69
355.718	94.69
355.945	102.69
356.172	97.69
356.399	87.69
356.626	81.69
356.853	102.69
357.08	90.69
357.307	80.69
357.534	80.69
357.761	95.69
357.988	98.69
358.215	100.69
358.441	88.69
358.668	82.69
358.895	88.69
359.122	87.69
359.349	90.69
359.576	96.69
359.802	112.69
360.029	96.69
360.256	117.69
360.483	96.69
360.709	79.69
360.936	92.69
361.163	97.69
361.39	101.69
361.616	103.69
361.843	97.69
362.07	85.69
362.296	83.69
362.523	91.69
362.749	84.69
362.976	86.69
363.203	84.69
363.429	72.69
363.656	91.69
363.882	97.69
364.109	99.69
364.335	89.69
364.562	88.69
364.788	82.69
365.015	97.69
365.241	93.69
365.468	111.69
365.694	102.69
365.92	99.69
366.147	96.69
366.373	89.69
366.599	85.69
366.826	86.69
367.052	75.69
367.278	81.69
367.505	96.69
367.731	91.69
367.957	87.69
368.184	95.69
368.41	96.69
368.636	98.69
368.862	121.69
369.089	120.69
369.315	115.69
369.541	95.69
369.767	91.69
369.993	86.69
370.219	90.69
370.445	81.69
370.672	89.69
370.898	78.69
371.124	71.69
371.35	73.69
371.576	81.69
371.802	74.69
372.028	87.69
372.254	85.69
372.48	73.69
372.706	88.69
372.932	99.69
373.158	86.69
373.384	80.69
373.61	98.69
373.835	86.69
374.061	93.69
374.287	81.69
374.513	84.69
374.739	86.69
374.965	87.69
375.191	79.69
375.416	100.69
375.642	100.69
375.868	89.69
376.094	83.69
376.319	87.69
376.545	90.69
376.771	84.69
376.997	89.69
377.222	80.69
377.448	89.69
377.674	100.69
377.899	77.69
378.125	94.69
378.35	81.69
378.576	77.69
378.802	90.69
379.027	93.69
379.253	99.69
379.478	86.69
379.704	96.69
379.929	103.69
380.155	102.69
380.38	96.69
380.606	102.69
380.831	102.69
381.057	89.69
381.282	89.69
381.507	96.69
381.733	99.69
381.958	100.69
382.184	102.69
382.409	96.69
382.634	97.69
382.86	94.69
383.085	94.69
383.31	96.69
383.535	80.69
383.761	101.69
383.986	101.69
384.211	99.69
384.436	101.69
384.662	99.69
384.887	96.69
385.112	92.69
385.337	129.69
385.562	117.69
385.787	117.69
386.013	108.69
386.238	119.69
386.463	119.69
386.688	122.69
386.913	105.69
387.138	110.69
387.363	101.69
387.588	106.69
387.813	105.69
388.038	109.69
388.263	122.69
388.488	119.69
388.713	102.69
388.938	90.69
389.163	100.69
389.387	95.69
389.612	102.69
389.837	84.69
390.062	85.69
390.287	75.69
390.512	93.69
390.736	86.69
390.961	100.69
391.186	107.69
391.411	88.69
391.636	79.69
391.86	82.69
392.085	89.69
392.31	83.69
392.534	74.69
392.759	83.69
392.984	96.69
393.208	101.69
393.433	98.69
393.658	101.69
393.882	75.69
394.107	89.69
394.331	89.69
394.556	83.69
394.78	77.69
395.005	85.69
395.229	98.69
395.454	84.69
395.678	88.69
395.903	84.69
396.127	82.69
396.352	88.69
396.576	82.69
396.801	78.69
397.025	87.69
397.249	78.69
397.474	102.69
397.698	89.69
397.922	87.69
398.147	90.69
398.371	77.69
398.595	78.69
398.82	89.69
399.044	82.69
399.268	85.69
399.492	96.69
399.717	96.69
399.941	95.69
400.165	87.69
400.389	81.69
400.613	80.69
400.837	90.69
401.062	76.69
401.286	89.69
401.51	100.69
401.734	82.69
401.958	94.69
402.182	136.69
402.406	169.69
402.63	121.69
402.854	101.69
403.078	96.69
403.302	96.69
403.526	98.69
403.75	83.69
403.974	87.69
404.198	69.69
404.422	76.69
404.645	88.69
404.869	99.69
405.093	105.69
405.317	95.69
405.541	123.69
405.765	97.69
405.988	115.69
406.212	186.69
406.436	267.69
406.66	171.69
406.883	109.69
407.107	98.69
407.331	82.69
407.555	117.69
407.778	110.69
408.002	87.69
408.226	89.69
408.449	92.69
408.673	79.69
408.896	86.69
409.12	93.69
409.344	81.69
409.567	71.69
409.791	75.69
410.014	95.69
410.238	93.69
410.461	102.69
410.685	94.69
410.908	98.69
411.132	107.69
411.355	99.69
411.578	87.69
411.802	87.69
412.025	91.69
412.249	105.69
412.472	110.69
412.695	114.69
412.919	112.69
413.142	82.69
413.365	89.69
413.589	88.69
413.812	89.69
414.035	86.69
414.258	78.69
414.482	97.69
414.705	102.69
414.928	80.69
415.151	80.69
415.374	89.69
415.597	76.69
415.821	89.69
416.044	82.69
416.267	74.69
416.49	81.69
416.713	98.69
416.936	87.69
417.159	89.69
417.382	91.69
417.605	101.69
417.828	92.69
418.051	90.69
418.274	94.69
418.497	82.69
418.72	75.69
418.943	84.69
419.166	81.69
419.389	83.69
419.611	101.69
419.834	90.69
420.057	92.69
420.28	85.69
420.503	83.69
420.726	87.69
420.948	90.69
421.171	96.69
421.394	100.69
421.617	88.69
421.839	88.69
422.062	89.69
422.285	82.69
422.507	98.69
422.73	113.69
422.953	104.69
423.175	85.69
423.398	89.69
423.621	79.69
423.843	96.69
424.066	97.69
424.288	94.69
424.511	87.69
424.733	93.69
424.956	102.69
425.178	97.69
425.401	98.69
425.623	99.69
425.846	91.69
426.068	97.69
426.291	91.69
426.513	86.69
426.735	86.69
426.958	93.69
427.18	100.69
427.402	138.69
427.625	208.69
427.847	188.69
428.069	170.69
428.292	104.69
428.514	89.69
428.736	83.69
428.958	77.69
429.181	78.69
429.403	86.69
429.625	83.69
429.847	105.69
430.069	105.69
430.292	86.69
430.514	77.69
430.736	98.69
430.958	95.69
431.18	84.69
431.402	76.69
431.624	90.69
431.846	98.69
432.068	97.69
432.29	97.69
432.512	85.69
432.734	94.69
432.956	96.69
433.178	99.69
433.4	87.69
433.622	103.69
433.844	91.69
434.066	91.69
434.287	93.69
434.509	95.69
434.731	89.69
434.953	94.69
435.175	79.69
435.397	77.69
435.618	83.69
435.84	90.69
436.062	112.69
436.284	102.69
436.505	91.69
436.727	85.69
436.949	83.69
437.17	77.69
437.392	79.69
437.614	89.69
437.835	117.69
438.057	137.69
438.278	130.69
438.5	109.69
438.721	129.69
438.943	98.69
439.165	103.69
439.386	85.69
439.608	86.69
439.829	108.69
440.05	143.69
440.272	157.69
440.493	93.69
440.715	92.69
440.936	92.69
441.158	90.69
441.379	100.69
441.6	87.69
441.822	96.69
442.043	84.69
442.264	98.69
442.486	100.69
442.707	103.69
442.928	102.69
443.149	142.69
443.371	159.69
443.592	119.69
443.813	104.69
444.034	117.69
444.255	94.69
444.476	97.69
444.698	83.69
444.919	86.69
445.14	126.69
445.361	130.69
445.582	127.69
445.803	165.69
446.024	146.69
446.245	149.69
446.466	101.69
446.687	83.69
446.908	95.69
447.129	79.69
447.35	90.69
447.571	89.69
447.792	98.69
448.013	114.69
448.234	107.69
448.455	102.69
448.675	101.69
448.896	138.69
449.117	112.69
449.338	102.69
449.559	110.69
449.779	128.69
450	95.69
450.221	70.69
450.442	87.69
450.662	88.69
450.883	108.69
451.104	127.69
451.324	122.69
451.545	75.69
451.766	82.69
451.986	85.69
452.207	80.69
452.428	104.69
452.648	104.69
452.869	111.69
453.089	135.69
453.31	135.69
453.53	103.69
453.751	91.69
453.971	113.69
454.192	140.69
454.412	99.69
454.633	94.69
454.853	83.69
455.073	98.69
455.294	102.69
455.514	85.69
455.734	92.69
455.955	77.69
456.175	96.69
456.395	89.69
456.616	81.69
456.836	91.69
457.056	87.69
457.276	85.69
457.497	81.69
457.717	89.69
457.937	84.69
458.157	82.69
458.377	86.69
458.598	124.69
458.818	177.69
459.038	189.69
459.258	127.69
459.478	86.69
459.698	88.69
459.918	89.69
460.138	76.69
460.358	86.69
460.578	84.69
460.798	98.69
461.018	91.69
461.238	85.69
461.458	84.69
461.678	72.69
461.898	83.69
462.118	88.69
462.338	77.69
462.558	75.69
462.777	83.69
462.997	102.69
463.217	102.69
463.437	97.69
463.657	79.69
463.876	81.69
464.096	92.69
464.316	104.69
464.536	88.69
464.755	107.69
464.975	118.69
465.195	172.69
465.414	193.69
465.634	106.69
465.854	99.69
466.073	98.69
466.293	85.69
466.512	89.69
466.732	103.69
466.951	87.69
467.171	80.69
467.391	88.69
467.61	119.69
467.829	155.69
468.049	317.69
468.268	449.69
468.488	145.69
468.707	109.69
468.927	79.69
469.146	82.69
469.365	93.69
469.585	85.69
469.804	87.69
470.023	98.69
470.243	99.69
470.462	98.69
470.681	123.69
470.901	91.69
471.12	81.69
471.339	99.69
471.558	114.69
471.777	151.69
471.997	199.69
472.216	617.69
472.435	1273.69
472.654	333.69
472.873	113.69
473.092	93.69
473.311	91.69
473.53	79.69
473.749	94.69
473.968	105.69
474.187	109.69
474.406	102.69
474.625	92.69
474.844	96.69
475.063	73.69
475.282	100.69
475.501	99.69
475.72	94.69
475.939	86.69
476.158	82.69
476.377	98.69
476.596	86.69
476.814	97.69
477.033	85.69
477.252	81.69
477.471	71.69
477.69	88.69
477.908	80.69
478.127	81.69
478.346	84.69
478.564	69.69
478.783	115.69
479.002	95.69
479.22	100.69
479.439	97.69
479.658	99.69
479.876	99.69
480.095	97.69
480.313	110.69
480.532	129.69
480.751	192.69
480.969	551.69
481.188	2277.69
481.406	1303.69
481.624	242.69
481.843	110.69
482.061	99.69
482.28	99.69
482.498	87.69
482.717	110.69
482.935	90.69
483.153	89.69
483.372	91.69
483.59	93.69
483.808	83.69
484.027	86.69
484.245	91.69
484.463	91.69
484.681	85.69
484.9	98.69
485.118	88.69
485.336	82.69
485.554	93.69
485.772	105.69
485.99	110.69
486.209	104.69
486.427	99.69
486.645	116.69
486.863	118.69
487.081	102.69
487.299	98.69
487.517	99.69
487.735	90.69
487.953	94.69
488.171	111.69
488.389	86.69
488.607	103.69
488.825	88.69
489.043	89.69
489.261	79.69
489.479	85.69
489.696	100.69
489.914	77.69
490.132	83.69
490.35	82.69
490.568	91.69
490.786	96.69
491.003	87.69
491.221	103.69
491.439	80.69
491.657	90.69
491.874	93.69
492.092	93.69
492.31	87.69
492.527	87.69
492.745	99.69
492.963	99.69
493.18	83.69
493.398	105.69
493.615	79.69
493.833	95.69
494.05	88.69
494.268	94.69
494.485	86.69
494.703	95.69
494.92	90.69
495.138	90.69
495.355	95.69
495.573	84.69
495.79	95.69
496.008	101.69
496.225	80.69
496.442	79.69
496.66	98.69
496.877	90.69
497.094	90.69
497.312	89.69
497.529	77.69
497.746	83.69
497.963	81.69
498.181	89.69
498.398	92.69
498.615	102.69
498.832	114.69
499.049	91.69
499.267	80.69
499.484	71.69
499.701	82.69
499.918	81.69
500.135	86.69
500.352	102.69
500.569	94.69
500.786	85.69
501.003	95.69
501.22	96.69
501.437	104.69
501.654	106.69
501.871	119.69
502.088	85.69
502.305	86.69
502.522	88.69
502.739	79.69
502.956	88.69
503.172	100.69
503.389	106.69
503.606	109.69
503.823	86.69
504.04	107.69
504.256	84.69
504.473	87.69
504.69	95.69
504.907	85.69
505.123	99.69
505.34	88.69
505.557	78.69
505.773	90.69
505.99	85.69
506.207	73.69
506.423	94.69
506.64	83.69
506.856	83.69
507.073	79.69
507.289	95.69
507.506	89.69
507.722	109.69
507.939	122.69
508.155	95.69
508.372	92.69
508.588	93.69
508.805	90.69
509.021	81.69
509.238	99.69
509.454	87.69
509.67	85.69
509.887	102.69
510.103	131.69
510.319	219.69
510.536	810.69
510.752	2576.69
510.968	709.69
511.184	169.69
511.401	107.69
511.617	95.69
511.833	106.69
512.049	99.69
512.265	104.69
512.481	85.69
512.698	91.69
512.914	87.69
513.13	81.69
513.346	96.69
513.562	96.69
513.778	87.69
513.994	118.69
514.21	97.69
514.426	130.69
514.642	141.69
514.858	133.69
