Data from Circ_2001_H10_HRD10591_00038.txt Node
Date: Wed Jan 03 10:45:46 EST 2024
User: Yrep
Spectrometer: HR+D1059
Trigger mode: 1
Integration Time (sec): 1.000000E-1
Scans to average: 1
Electric dark correction enabled: true
Nonlinearity correction enabled: false
Boxcar width: 0
XAxis mode: Wavelengths
Number of Pixels in Spectrum: 2048
>>>>>Begin Spectral Data<<<<<
223.165	-20.5
223.4	-20.5
223.635	-20.5
223.869	-22.5
224.104	-23.5
224.338	-25.5
224.573	-21.5
224.808	-10.5
225.042	-2.5
225.277	-8.5
225.511	1.5
225.746	9.5
225.98	9.5
226.215	14.5
226.449	24.5
226.683	27.5
226.918	20.5
227.152	27.5
227.387	28.5
227.621	42.5
227.856	34.5
228.09	40.5
228.324	54.5
228.559	53.5
228.793	62.5
229.027	64.5
229.262	66.5
229.496	68.5
229.73	98.5
229.964	80.5
230.199	79.5
230.433	84.5
230.667	70.5
230.901	63.5
231.136	80.5
231.37	79.5
231.604	81.5
231.838	74.5
232.072	76.5
232.306	82.5
232.541	82.5
232.775	79.5
233.009	75.5
233.243	80.5
233.477	94.5
233.711	89.5
233.945	95.5
234.179	75.5
234.413	89.5
234.647	76.5
234.881	90.5
235.115	82.5
235.349	71.5
235.583	75.5
235.817	60.5
236.051	75.5
236.285	87.5
236.519	70.5
236.753	85.5
236.987	72.5
237.221	95.5
237.455	89.5
237.689	79.5
237.922	90.5
238.156	64.5
238.39	65.5
238.624	80.5
238.858	79.5
239.091	64.5
239.325	81.5
239.559	87.5
239.793	91.5
240.027	78.5
240.26	76.5
240.494	79.5
240.728	80.5
240.961	84.5
241.195	72.5
241.429	70.5
241.662	89.5
241.896	84.5
242.13	95.5
242.363	77.5
242.597	76.5
242.83	79.5
243.064	74.5
243.298	93.5
243.531	83.5
243.765	83.5
243.998	79.5
244.232	85.5
244.465	74.5
244.699	89.5
244.932	75.5
245.166	71.5
245.399	80.5
245.633	85.5
245.866	81.5
246.099	84.5
246.333	71.5
246.566	87.5
246.8	65.5
247.033	81.5
247.266	69.5
247.5	83.5
247.733	76.5
247.966	84.5
248.2	83.5
248.433	74.5
248.666	83.5
248.899	86.5
249.133	83.5
249.366	89.5
249.599	90.5
249.832	99.5
250.066	81.5
250.299	87.5
250.532	65.5
250.765	82.5
250.998	79.5
251.231	68.5
251.465	85.5
251.698	74.5
251.931	88.5
252.164	70.5
252.397	87.5
252.63	82.5
252.863	96.5
253.096	90.5
253.329	76.5
253.562	89.5
253.795	88.5
254.028	73.5
254.261	82.5
254.494	72.5
254.727	75.5
254.96	69.5
255.193	85.5
255.426	88.5
255.659	74.5
255.892	91.5
256.124	102.5
256.357	82.5
256.59	74.5
256.823	100.5
257.056	79.5
257.289	72.5
257.521	89.5
257.754	82.5
257.987	89.5
258.22	85.5
258.452	88.5
258.685	100.5
258.918	75.5
259.151	85.5
259.383	76.5
259.616	78.5
259.849	89.5
260.081	81.5
260.314	67.5
260.547	81.5
260.779	88.5
261.012	87.5
261.244	96.5
261.477	90.5
261.71	108.5
261.942	112.5
262.175	118.5
262.407	104.5
262.64	84.5
262.872	81.5
263.105	79.5
263.337	78.5
263.57	80.5
263.802	86.5
264.035	80.5
264.267	80.5
264.499	77.5
264.732	87.5
264.964	77.5
265.197	79.5
265.429	76.5
265.661	93.5
265.894	91.5
266.126	78.5
266.358	72.5
266.591	88.5
266.823	84.5
267.055	75.5
267.287	74.5
267.52	84.5
267.752	84.5
267.984	90.5
268.216	79.5
268.448	86.5
268.681	87.5
268.913	85.5
269.145	79.5
269.377	99.5
269.609	83.5
269.841	89.5
270.073	79.5
270.306	83.5
270.538	80.5
270.77	85.5
271.002	79.5
271.234	83.5
271.466	87.5
271.698	82.5
271.93	73.5
272.162	89.5
272.394	84.5
272.626	88.5
272.858	77.5
273.09	89.5
273.322	93.5
273.553	105.5
273.785	77.5
274.017	82.5
274.249	86.5
274.481	95.5
274.713	83.5
274.945	64.5
275.176	92.5
275.408	102.5
275.64	94.5
275.872	103.5
276.104	78.5
276.335	113.5
276.567	110.5
276.799	124.5
277.031	120.5
277.262	123.5
277.494	105.5
277.726	83.5
277.957	87.5
278.189	84.5
278.421	98.5
278.652	97.5
278.884	91.5
279.115	81.5
279.347	99.5
279.579	85.5
279.81	96.5
280.042	140.5
280.273	166.5
280.505	132.5
280.736	95.5
280.968	76.5
281.199	84.5
281.431	90.5
281.662	97.5
281.894	106.5
282.125	88.5
282.356	121.5
282.588	143.5
282.819	121.5
283.051	102.5
283.282	82.5
283.513	98.5
283.745	93.5
283.976	88.5
284.207	101.5
284.439	86.5
284.67	91.5
284.901	94.5
285.132	90.5
285.364	87.5
285.595	95.5
285.826	82.5
286.057	75.5
286.288	79.5
286.52	79.5
286.751	73.5
286.982	83.5
287.213	86.5
287.444	98.5
287.675	84.5
287.906	91.5
288.138	87.5
288.369	98.5
288.6	98.5
288.831	100.5
289.062	96.5
289.293	83.5
289.524	83.5
289.755	88.5
289.986	92.5
290.217	93.5
290.448	73.5
290.679	70.5
290.91	81.5
291.141	82.5
291.371	85.5
291.602	86.5
291.833	91.5
292.064	84.5
292.295	99.5
292.526	85.5
292.757	77.5
292.987	76.5
293.218	97.5
293.449	85.5
293.68	85.5
293.91	82.5
294.141	105.5
294.372	80.5
294.603	95.5
294.833	94.5
295.064	89.5
295.295	76.5
295.525	86.5
295.756	103.5
295.987	120.5
296.217	156.5
296.448	123.5
296.679	109.5
296.909	98.5
297.14	84.5
297.37	85.5
297.601	95.5
297.831	87.5
298.062	98.5
298.292	117.5
298.523	76.5
298.753	93.5
298.984	84.5
299.214	94.5
299.445	90.5
299.675	91.5
299.905	103.5
300.136	91.5
300.366	107.5
300.597	93.5
300.827	87.5
301.057	95.5
301.288	109.5
301.518	107.5
301.748	100.5
301.979	107.5
302.209	91.5
302.439	92.5
302.669	85.5
302.9	89.5
303.13	90.5
303.36	101.5
303.59	108.5
303.82	126.5
304.051	97.5
304.281	93.5
304.511	107.5
304.741	89.5
304.971	84.5
305.201	90.5
305.431	86.5
305.661	77.5
305.891	82.5
306.121	99.5
306.352	103.5
306.582	107.5
306.812	96.5
307.042	103.5
307.272	121.5
307.502	142.5
307.731	123.5
307.961	97.5
308.191	104.5
308.421	97.5
308.651	96.5
308.881	106.5
309.111	90.5
309.341	98.5
309.571	88.5
309.8	100.5
310.03	95.5
310.26	106.5
310.49	100.5
310.72	102.5
310.949	103.5
311.179	104.5
311.409	85.5
311.639	111.5
311.868	91.5
312.098	104.5
312.328	103.5
312.557	93.5
312.787	112.5
313.017	106.5
313.246	99.5
313.476	99.5
313.706	90.5
313.935	96.5
314.165	116.5
314.394	99.5
314.624	110.5
314.853	92.5
315.083	96.5
315.312	92.5
315.542	87.5
315.771	91.5
316.001	107.5
316.23	84.5
316.46	82.5
316.689	97.5
316.919	91.5
317.148	96.5
317.377	110.5
317.607	79.5
317.836	90.5
318.065	87.5
318.295	99.5
318.524	95.5
318.753	106.5
318.983	80.5
319.212	116.5
319.441	106.5
319.67	100.5
319.9	98.5
320.129	92.5
320.358	82.5
320.587	84.5
320.816	91.5
321.046	109.5
321.275	96.5
321.504	94.5
321.733	87.5
321.962	98.5
322.191	96.5
322.42	106.5
322.649	107.5
322.878	112.5
323.108	110.5
323.337	134.5
323.566	123.5
323.795	174.5
324.024	221.5
324.253	388.5
324.482	875.5
324.71	1741.5
324.939	2214.5
325.168	822.5
325.397	246.5
325.626	151.5
325.855	125.5
326.084	112.5
326.313	135.5
326.542	156.5
326.77	224.5
326.999	476.5
327.228	998.5
327.457	1700.5
327.686	1340.5
327.914	435.5
328.143	376.5
328.372	378.5
328.6	222.5
328.829	156.5
329.058	158.5
329.287	140.5
329.515	146.5
329.744	179.5
329.972	311.5
330.201	549.5
330.43	764.5
330.658	383.5
330.887	190.5
331.115	157.5
331.344	104.5
331.572	106.5
331.801	105.5
332.03	120.5
332.258	104.5
332.486	115.5
332.715	83.5
332.943	104.5
333.172	105.5
333.4	121.5
333.629	127.5
333.857	181.5
334.085	305.5
334.314	540.5
334.542	959.5
334.771	858.5
334.999	251.5
335.227	148.5
335.455	119.5
335.684	106.5
335.912	85.5
336.14	103.5
336.369	100.5
336.597	109.5
336.825	117.5
337.053	87.5
337.281	96.5
337.51	81.5
337.738	105.5
337.966	103.5
338.194	103.5
338.422	98.5
338.65	100.5
338.878	100.5
339.106	103.5
339.334	104.5
339.562	67.5
339.79	104.5
340.018	97.5
340.246	103.5
340.474	105.5
340.702	84.5
340.93	103.5
341.158	101.5
341.386	88.5
341.614	112.5
341.842	95.5
342.07	98.5
342.298	98.5
342.526	81.5
342.754	80.5
342.981	96.5
343.209	82.5
343.437	103.5
343.665	90.5
343.893	89.5
344.12	92.5
344.348	90.5
344.576	103.5
344.804	91.5
345.031	89.5
345.259	103.5
345.487	98.5
345.714	87.5
345.942	98.5
346.17	88.5
346.397	100.5
346.625	86.5
346.853	88.5
347.08	95.5
347.308	95.5
347.535	104.5
347.763	96.5
347.99	104.5
348.218	103.5
348.445	110.5
348.673	118.5
348.9	99.5
349.128	88.5
349.355	96.5
349.583	96.5
349.81	83.5
350.037	98.5
350.265	84.5
350.492	98.5
350.72	94.5
350.947	104.5
351.174	103.5
351.402	111.5
351.629	91.5
351.856	97.5
352.083	110.5
352.311	100.5
352.538	114.5
352.765	115.5
352.992	120.5
353.22	114.5
353.447	100.5
353.674	95.5
353.901	94.5
354.128	98.5
354.355	89.5
354.583	111.5
354.81	83.5
355.037	99.5
355.264	90.5
355.491	99.5
355.718	92.5
355.945	78.5
356.172	96.5
356.399	94.5
356.626	93.5
356.853	86.5
357.08	84.5
357.307	75.5
357.534	105.5
357.761	85.5
357.988	87.5
358.215	92.5
358.441	74.5
358.668	80.5
358.895	92.5
359.122	66.5
359.349	79.5
359.576	95.5
359.802	102.5
360.029	113.5
360.256	115.5
360.483	105.5
360.709	83.5
360.936	88.5
361.163	89.5
361.39	99.5
361.616	84.5
361.843	96.5
362.07	101.5
362.296	103.5
362.523	101.5
362.749	90.5
362.976	81.5
363.203	82.5
363.429	78.5
363.656	82.5
363.882	87.5
364.109	83.5
364.335	95.5
364.562	89.5
364.788	96.5
365.015	94.5
365.241	98.5
365.468	116.5
365.694	115.5
365.92	110.5
366.147	86.5
366.373	87.5
366.599	97.5
366.826	87.5
367.052	79.5
367.278	90.5
367.505	74.5
367.731	84.5
367.957	110.5
368.184	81.5
368.41	78.5
368.636	111.5
368.862	131.5
369.089	92.5
369.315	89.5
369.541	98.5
369.767	84.5
369.993	109.5
370.219	93.5
370.445	71.5
370.672	93.5
370.898	73.5
371.124	85.5
371.35	80.5
371.576	103.5
371.802	80.5
372.028	90.5
372.254	95.5
372.48	89.5
372.706	79.5
372.932	82.5
373.158	81.5
373.384	95.5
373.61	95.5
373.835	78.5
374.061	90.5
374.287	98.5
374.513	95.5
374.739	94.5
374.965	100.5
375.191	79.5
375.416	81.5
375.642	94.5
375.868	89.5
376.094	87.5
376.319	88.5
376.545	96.5
376.771	76.5
376.997	92.5
377.222	84.5
377.448	99.5
377.674	101.5
377.899	85.5
378.125	74.5
378.35	84.5
378.576	82.5
378.802	91.5
379.027	94.5
379.253	97.5
379.478	98.5
379.704	97.5
379.929	86.5
380.155	94.5
380.38	105.5
380.606	88.5
380.831	99.5
381.057	98.5
381.282	92.5
381.507	80.5
381.733	92.5
381.958	78.5
382.184	90.5
382.409	91.5
382.634	100.5
382.86	88.5
383.085	102.5
383.31	105.5
383.535	95.5
383.761	93.5
383.986	96.5
384.211	73.5
384.436	86.5
384.662	79.5
384.887	102.5
385.112	104.5
385.337	98.5
385.562	88.5
385.787	110.5
386.013	104.5
386.238	114.5
386.463	101.5
386.688	111.5
386.913	103.5
387.138	98.5
387.363	95.5
387.588	83.5
387.813	90.5
388.038	121.5
388.263	100.5
388.488	101.5
388.713	73.5
388.938	97.5
389.163	95.5
389.387	87.5
389.612	71.5
389.837	96.5
390.062	91.5
390.287	104.5
390.512	87.5
390.736	92.5
390.961	92.5
391.186	101.5
391.411	84.5
391.636	101.5
391.86	83.5
392.085	83.5
392.31	88.5
392.534	74.5
392.759	95.5
392.984	92.5
393.208	106.5
393.433	107.5
393.658	91.5
393.882	87.5
394.107	79.5
394.331	94.5
394.556	83.5
394.78	82.5
395.005	86.5
395.229	74.5
395.454	79.5
395.678	92.5
395.903	88.5
396.127	88.5
396.352	96.5
396.576	82.5
396.801	100.5
397.025	86.5
397.249	86.5
397.474	82.5
397.698	89.5
397.922	66.5
398.147	73.5
398.371	80.5
398.595	90.5
398.82	80.5
399.044	89.5
399.268	86.5
399.492	86.5
399.717	84.5
399.941	83.5
400.165	91.5
400.389	82.5
400.613	80.5
400.837	84.5
401.062	91.5
401.286	86.5
401.51	87.5
401.734	84.5
401.958	86.5
402.182	133.5
402.406	168.5
402.63	120.5
402.854	96.5
403.078	100.5
403.302	88.5
403.526	82.5
403.75	90.5
403.974	79.5
404.198	96.5
404.422	78.5
404.645	70.5
404.869	90.5
405.093	107.5
405.317	122.5
405.541	114.5
405.765	96.5
405.988	133.5
406.212	194.5
406.436	255.5
406.66	158.5
406.883	103.5
407.107	94.5
407.331	86.5
407.555	83.5
407.778	92.5
408.002	96.5
408.226	91.5
408.449	80.5
408.673	102.5
408.896	84.5
409.12	84.5
409.344	89.5
409.567	87.5
409.791	87.5
410.014	93.5
410.238	96.5
410.461	90.5
410.685	99.5
410.908	105.5
411.132	100.5
411.355	107.5
411.578	86.5
411.802	86.5
412.025	85.5
412.249	99.5
412.472	102.5
412.695	121.5
412.919	95.5
413.142	84.5
413.365	85.5
413.589	70.5
413.812	99.5
414.035	80.5
414.258	83.5
414.482	94.5
414.705	82.5
414.928	79.5
415.151	84.5
415.374	94.5
415.597	90.5
415.821	96.5
416.044	98.5
416.267	88.5
416.49	84.5
416.713	92.5
416.936	97.5
417.159	73.5
417.382	88.5
417.605	95.5
417.828	98.5
418.051	103.5
418.274	94.5
418.497	99.5
418.72	91.5
418.943	99.5
419.166	89.5
419.389	78.5
419.611	91.5
419.834	90.5
420.057	94.5
420.28	87.5
420.503	98.5
420.726	85.5
420.948	92.5
421.171	99.5
421.394	94.5
421.617	96.5
421.839	83.5
422.062	93.5
422.285	94.5
422.507	108.5
422.73	99.5
422.953	91.5
423.175	78.5
423.398	80.5
423.621	90.5
423.843	92.5
424.066	78.5
424.288	87.5
424.511	96.5
424.733	109.5
424.956	106.5
425.178	91.5
425.401	100.5
425.623	91.5
425.846	103.5
426.068	106.5
426.291	99.5
426.513	98.5
426.735	88.5
426.958	88.5
427.18	120.5
427.402	148.5
427.625	200.5
427.847	167.5
428.069	169.5
428.292	107.5
428.514	106.5
428.736	79.5
428.958	84.5
429.181	93.5
429.403	80.5
429.625	84.5
429.847	95.5
430.069	97.5
430.292	106.5
430.514	92.5
430.736	74.5
430.958	88.5
431.18	89.5
431.402	96.5
431.624	75.5
431.846	86.5
432.068	101.5
432.29	102.5
432.512	103.5
432.734	87.5
432.956	81.5
433.178	98.5
433.4	106.5
433.622	96.5
433.844	99.5
434.066	94.5
434.287	75.5
434.509	91.5
434.731	80.5
434.953	86.5
435.175	73.5
435.397	86.5
435.618	89.5
435.84	101.5
436.062	137.5
436.284	102.5
436.505	82.5
436.727	85.5
436.949	92.5
437.17	96.5
437.392	85.5
437.614	85.5
437.835	112.5
438.057	131.5
438.278	118.5
438.5	106.5
438.721	106.5
438.943	91.5
439.165	87.5
439.386	88.5
439.608	107.5
439.829	111.5
440.05	143.5
440.272	148.5
440.493	107.5
440.715	87.5
440.936	90.5
441.158	90.5
441.379	87.5
441.6	85.5
441.822	96.5
442.043	98.5
442.264	89.5
442.486	95.5
442.707	102.5
442.928	99.5
443.149	153.5
443.371	134.5
443.592	112.5
443.813	131.5
444.034	102.5
444.255	82.5
444.476	92.5
444.698	88.5
444.919	75.5
445.14	123.5
445.361	130.5
445.582	117.5
445.803	149.5
446.024	152.5
446.245	145.5
446.466	120.5
446.687	91.5
446.908	97.5
447.129	95.5
447.35	83.5
447.571	119.5
447.792	98.5
448.013	101.5
448.234	92.5
448.455	107.5
448.675	103.5
448.896	119.5
449.117	105.5
449.338	102.5
449.559	121.5
449.779	131.5
450	91.5
450.221	85.5
450.442	74.5
450.662	96.5
450.883	113.5
451.104	108.5
451.324	100.5
451.545	83.5
451.766	85.5
451.986	88.5
452.207	94.5
452.428	96.5
452.648	92.5
452.869	115.5
453.089	130.5
453.31	130.5
453.53	97.5
453.751	94.5
453.971	110.5
454.192	109.5
454.412	91.5
454.633	88.5
454.853	98.5
455.073	97.5
455.294	87.5
455.514	104.5
455.734	83.5
455.955	88.5
456.175	78.5
456.395	89.5
456.616	96.5
456.836	84.5
457.056	78.5
457.276	80.5
457.497	79.5
457.717	86.5
457.937	79.5
458.157	91.5
458.377	84.5
458.598	100.5
458.818	150.5
459.038	174.5
459.258	117.5
459.478	83.5
459.698	75.5
459.918	101.5
460.138	80.5
460.358	76.5
460.578	75.5
460.798	107.5
461.018	88.5
461.238	80.5
461.458	75.5
461.678	71.5
461.898	90.5
462.118	78.5
462.338	101.5
462.558	87.5
462.777	79.5
462.997	96.5
463.217	88.5
463.437	103.5
463.657	99.5
463.876	90.5
464.096	92.5
464.316	95.5
464.536	81.5
464.755	106.5
464.975	99.5
465.195	199.5
465.414	190.5
465.634	99.5
465.854	89.5
466.073	89.5
466.293	95.5
466.512	89.5
466.732	90.5
466.951	83.5
467.171	98.5
467.391	103.5
467.61	113.5
467.829	160.5
468.049	347.5
468.268	465.5
468.488	162.5
468.707	86.5
468.927	83.5
469.146	100.5
469.365	94.5
469.585	89.5
469.804	103.5
470.023	102.5
470.243	88.5
470.462	109.5
470.681	111.5
470.901	94.5
471.12	72.5
471.339	118.5
471.558	102.5
471.777	124.5
471.997	203.5
472.216	626.5
472.435	1318.5
472.654	347.5
472.873	123.5
473.092	79.5
473.311	97.5
473.53	94.5
473.749	95.5
473.968	90.5
474.187	104.5
474.406	99.5
474.625	88.5
474.844	92.5
475.063	74.5
475.282	84.5
475.501	84.5
475.72	106.5
475.939	91.5
476.158	89.5
476.377	87.5
476.596	91.5
476.814	89.5
477.033	85.5
477.252	88.5
477.471	88.5
477.69	86.5
477.908	99.5
478.127	80.5
478.346	109.5
478.564	104.5
478.783	91.5
479.002	90.5
479.22	90.5
479.439	94.5
479.658	111.5
479.876	115.5
480.095	97.5
480.313	98.5
480.532	129.5
480.751	214.5
480.969	609.5
481.188	2312.5
481.406	1327.5
481.624	254.5
481.843	105.5
482.061	85.5
482.28	97.5
482.498	104.5
482.717	96.5
482.935	95.5
483.153	83.5
483.372	89.5
483.59	93.5
483.808	113.5
484.027	98.5
484.245	86.5
484.463	87.5
484.681	113.5
484.9	102.5
485.118	82.5
485.336	95.5
485.554	101.5
485.772	99.5
485.99	95.5
486.209	98.5
486.427	112.5
486.645	108.5
486.863	126.5
487.081	116.5
487.299	89.5
487.517	96.5
487.735	95.5
487.953	85.5
488.171	92.5
488.389	110.5
488.607	95.5
488.825	83.5
489.043	106.5
489.261	95.5
489.479	84.5
489.696	91.5
489.914	101.5
490.132	91.5
490.35	88.5
490.568	89.5
490.786	86.5
491.003	83.5
491.221	77.5
491.439	73.5
491.657	95.5
491.874	80.5
492.092	91.5
492.31	92.5
492.527	88.5
492.745	98.5
492.963	106.5
493.18	95.5
493.398	84.5
493.615	97.5
493.833	84.5
494.05	100.5
494.268	89.5
494.485	88.5
494.703	90.5
494.92	96.5
495.138	86.5
495.355	104.5
495.573	81.5
495.79	88.5
496.008	89.5
496.225	85.5
496.442	83.5
496.66	92.5
496.877	91.5
497.094	86.5
497.312	87.5
497.529	87.5
497.746	85.5
497.963	89.5
498.181	90.5
498.398	87.5
498.615	129.5
498.832	134.5
499.049	100.5
499.267	88.5
499.484	83.5
499.701	116.5
499.918	102.5
500.135	84.5
500.352	75.5
500.569	90.5
500.786	104.5
501.003	97.5
501.22	76.5
501.437	101.5
501.654	102.5
501.871	100.5
502.088	93.5
502.305	91.5
502.522	103.5
502.739	92.5
502.956	88.5
503.172	87.5
503.389	98.5
503.606	106.5
503.823	86.5
504.04	102.5
504.256	90.5
504.473	89.5
504.69	93.5
504.907	97.5
505.123	83.5
505.34	85.5
505.557	91.5
505.773	81.5
505.99	81.5
506.207	100.5
506.423	81.5
506.64	88.5
506.856	90.5
507.073	84.5
507.289	85.5
507.506	105.5
507.722	107.5
507.939	118.5
508.155	100.5
508.372	91.5
508.588	97.5
508.805	91.5
509.021	95.5
509.238	98.5
509.454	98.5
509.67	98.5
509.887	115.5
510.103	137.5
510.319	204.5
510.536	776.5
510.752	2395.5
510.968	681.5
511.184	147.5
511.401	106.5
511.617	96.5
511.833	100.5
512.049	94.5
512.265	85.5
512.481	91.5
512.698	103.5
512.914	84.5
513.13	89.5
513.346	90.5
513.562	96.5
513.778	102.5
513.994	100.5
514.21	116.5
514.426	120.5
514.642	157.5
514.858	130.5
515.074	183.5
515.29	540.5
515.506	1762.5
515.721	637.5
515.937	168.5
516.153	124.5
516.369	101.5
516.585	107.5
516.801	89.5
517.016	97.5
517.232	90.5
517.448	91.5
517.664	96.5
517.879	88.5
518.095	103.5
518.311	97.5
518.527	113.5
518.742	105.5
518.958	93.5
519.173	92.5
519.389	98.5
519.605	104.5
519.82	112.5
520.036	111.5
520.251	107.5
520.467	118.5
520.682	112.5
520.898	123.5
521.113	121.5
521.329	145.5
521.544	221.5
521.76	676.5
521.975	2916.5
522.19	1704.5
522.406	370.5
522.621	139.5
522.836	111.5
523.052	92.5
523.267	103.5
523.482	89.5
523.698	104.5
523.913	114.5
524.128	102.5
524.343	83.5
524.559	94.5
524.774	87.5
524.989	112.5
525.204	119.5
525.419	108.5
525.634	97.5
525.849	95.5
526.064	91.5
526.28	84.5
526.495	93.5
526.71	80.5
526.925	73.5
527.14	84.5
527.355	96.5
527.57	94.5
527.785	91.5
527.999	82.5
528.214	84.5
528.429	90.5
528.644	95.5
528.859	94.5
529.074	100.5
529.289	117.5
529.503	173.5
529.718	97.5
529.933	92.5
530.148	95.5
530.363	107.5
530.577	92.5
530.792	82.5
531.007	91.5
531.221	84.5
531.436	103.5
531.651	87.5
531.865	92.5
532.08	84.5
532.295	92.5
532.509	102.5
532.724	98.5
532.938	81.5
533.153	97.5
533.367	99.5
533.582	90.5
533.796	101.5
534.011	96.5
