Data from Circ_2001_H10_HRD10591_00027.txt Node
Date: Wed Jan 03 10:45:44 EST 2024
User: Yrep
Spectrometer: HR+D1059
Trigger mode: 1
Integration Time (sec): 1.000000E-1
Scans to average: 1
Electric dark correction enabled: true
Nonlinearity correction enabled: false
Boxcar width: 0
XAxis mode: Wavelengths
Number of Pixels in Spectrum: 2048
>>>>>Begin Spectral Data<<<<<
223.165	-7.75
223.4	-7.75
223.635	-7.75
223.869	-20.75
224.104	-37.75
224.338	-13.75
224.573	-12.75
224.808	-15.75
225.042	3.25
225.277	-8.75
225.511	-3.75
225.746	-1.75
225.98	11.25
226.215	28.25
226.449	19.25
226.683	13.25
226.918	19.25
227.152	28.25
227.387	38.25
227.621	28.25
227.856	50.25
228.09	51.25
228.324	44.25
228.559	71.25
228.793	71.25
229.027	59.25
229.262	81.25
229.496	74.25
229.73	89.25
229.964	82.25
230.199	77.25
230.433	78.25
230.667	68.25
230.901	78.25
231.136	67.25
231.37	74.25
231.604	72.25
231.838	80.25
232.072	73.25
232.306	72.25
232.541	67.25
232.775	87.25
233.009	87.25
233.243	74.25
233.477	90.25
233.711	80.25
233.945	100.25
234.179	76.25
234.413	74.25
234.647	80.25
234.881	81.25
235.115	86.25
235.349	63.25
235.583	76.25
235.817	67.25
236.051	83.25
236.285	89.25
236.519	73.25
236.753	68.25
236.987	76.25
237.221	85.25
237.455	83.25
237.689	89.25
237.922	69.25
238.156	84.25
238.39	60.25
238.624	81.25
238.858	74.25
239.091	73.25
239.325	84.25
239.559	69.25
239.793	77.25
240.027	81.25
240.26	80.25
240.494	98.25
240.728	84.25
240.961	92.25
241.195	73.25
241.429	67.25
241.662	68.25
241.896	76.25
242.13	87.25
242.363	87.25
242.597	69.25
242.83	77.25
243.064	64.25
243.298	67.25
243.531	71.25
243.765	72.25
243.998	85.25
244.232	92.25
244.465	89.25
244.699	84.25
244.932	85.25
245.166	75.25
245.399	87.25
245.633	68.25
245.866	73.25
246.099	78.25
246.333	81.25
246.566	70.25
246.8	79.25
247.033	92.25
247.266	87.25
247.5	81.25
247.733	74.25
247.966	72.25
248.2	85.25
248.433	69.25
248.666	87.25
248.899	80.25
249.133	77.25
249.366	89.25
249.599	93.25
249.832	80.25
250.066	70.25
250.299	79.25
250.532	88.25
250.765	75.25
250.998	81.25
251.231	61.25
251.465	82.25
251.698	79.25
251.931	92.25
252.164	78.25
252.397	83.25
252.63	87.25
252.863	69.25
253.096	67.25
253.329	80.25
253.562	80.25
253.795	73.25
254.028	82.25
254.261	75.25
254.494	94.25
254.727	84.25
254.96	81.25
255.193	83.25
255.426	78.25
255.659	73.25
255.892	84.25
256.124	87.25
256.357	77.25
256.59	88.25
256.823	70.25
257.056	65.25
257.289	74.25
257.521	89.25
257.754	91.25
257.987	82.25
258.22	86.25
258.452	91.25
258.685	89.25
258.918	88.25
259.151	84.25
259.383	88.25
259.616	82.25
259.849	70.25
260.081	82.25
260.314	76.25
260.547	91.25
260.779	88.25
261.012	89.25
261.244	105.25
261.477	95.25
261.71	105.25
261.942	114.25
262.175	101.25
262.407	82.25
262.64	79.25
262.872	72.25
263.105	87.25
263.337	94.25
263.57	83.25
263.802	72.25
264.035	93.25
264.267	77.25
264.499	80.25
264.732	90.25
264.964	75.25
265.197	92.25
265.429	97.25
265.661	97.25
265.894	95.25
266.126	74.25
266.358	92.25
266.591	89.25
266.823	89.25
267.055	88.25
267.287	85.25
267.52	79.25
267.752	82.25
267.984	76.25
268.216	91.25
268.448	90.25
268.681	86.25
268.913	79.25
269.145	84.25
269.377	90.25
269.609	89.25
269.841	94.25
270.073	79.25
270.306	69.25
270.538	75.25
270.77	90.25
271.002	94.25
271.234	91.25
271.466	101.25
271.698	91.25
271.93	85.25
272.162	88.25
272.394	82.25
272.626	82.25
272.858	74.25
273.09	81.25
273.322	88.25
273.553	79.25
273.785	86.25
274.017	91.25
274.249	97.25
274.481	90.25
274.713	84.25
274.945	84.25
275.176	96.25
275.408	100.25
275.64	92.25
275.872	85.25
276.104	99.25
276.335	88.25
276.567	93.25
276.799	114.25
277.031	99.25
277.262	128.25
277.494	105.25
277.726	85.25
277.957	94.25
278.189	104.25
278.421	86.25
278.652	83.25
278.884	88.25
279.115	95.25
279.347	95.25
279.579	97.25
279.81	101.25
280.042	120.25
280.273	148.25
280.505	120.25
280.736	93.25
280.968	94.25
281.199	97.25
281.431	96.25
281.662	82.25
281.894	80.25
282.125	94.25
282.356	112.25
282.588	143.25
282.819	102.25
283.051	89.25
283.282	88.25
283.513	83.25
283.745	81.25
283.976	81.25
284.207	77.25
284.439	88.25
284.67	91.25
284.901	85.25
285.132	92.25
285.364	76.25
285.595	92.25
285.826	87.25
286.057	75.25
286.288	81.25
286.52	86.25
286.751	90.25
286.982	86.25
287.213	103.25
287.444	80.25
287.675	83.25
287.906	89.25
288.138	77.25
288.369	98.25
288.6	83.25
288.831	85.25
289.062	92.25
289.293	85.25
289.524	88.25
289.755	82.25
289.986	84.25
290.217	77.25
290.448	81.25
290.679	63.25
290.91	82.25
291.141	87.25
291.371	89.25
291.602	87.25
291.833	89.25
292.064	81.25
292.295	89.25
292.526	93.25
292.757	90.25
292.987	89.25
293.218	87.25
293.449	85.25
293.68	98.25
293.91	94.25
294.141	100.25
294.372	88.25
294.603	85.25
294.833	88.25
295.064	87.25
295.295	82.25
295.525	98.25
295.756	107.25
295.987	120.25
296.217	124.25
296.448	118.25
296.679	93.25
296.909	101.25
297.14	86.25
297.37	84.25
297.601	103.25
297.831	77.25
298.062	92.25
298.292	89.25
298.523	86.25
298.753	92.25
298.984	84.25
299.214	87.25
299.445	98.25
299.675	84.25
299.905	96.25
300.136	90.25
300.366	88.25
300.597	91.25
300.827	87.25
301.057	97.25
301.288	86.25
301.518	90.25
301.748	78.25
301.979	108.25
302.209	93.25
302.439	93.25
302.669	96.25
302.9	90.25
303.13	91.25
303.36	89.25
303.59	109.25
303.82	118.25
304.051	102.25
304.281	90.25
304.511	95.25
304.741	86.25
304.971	89.25
305.201	72.25
305.431	85.25
305.661	103.25
305.891	88.25
306.121	110.25
306.352	93.25
306.582	105.25
306.812	99.25
307.042	110.25
307.272	124.25
307.502	128.25
307.731	114.25
307.961	100.25
308.191	93.25
308.421	93.25
308.651	104.25
308.881	97.25
309.111	85.25
309.341	89.25
309.571	96.25
309.8	90.25
310.03	101.25
310.26	101.25
310.49	100.25
310.72	108.25
310.949	102.25
311.179	98.25
311.409	101.25
311.639	94.25
311.868	88.25
312.098	97.25
312.328	91.25
312.557	108.25
312.787	108.25
313.017	103.25
313.246	91.25
313.476	97.25
313.706	90.25
313.935	95.25
314.165	99.25
314.394	104.25
314.624	97.25
314.853	94.25
315.083	76.25
315.312	100.25
315.542	87.25
315.771	88.25
316.001	81.25
316.23	101.25
316.46	89.25
316.689	78.25
316.919	91.25
317.148	97.25
317.377	103.25
317.607	97.25
317.836	98.25
318.065	100.25
318.295	91.25
318.524	98.25
318.753	91.25
318.983	85.25
319.212	97.25
319.441	102.25
319.67	113.25
319.9	95.25
320.129	103.25
320.358	81.25
320.587	90.25
320.816	113.25
321.046	102.25
321.275	96.25
321.504	96.25
321.733	88.25
321.962	97.25
322.191	87.25
322.42	84.25
322.649	112.25
322.878	104.25
323.108	123.25
323.337	100.25
323.566	128.25
323.795	153.25
324.024	220.25
324.253	391.25
324.482	816.25
324.71	1658.25
324.939	2190.25
325.168	796.25
325.397	260.25
325.626	166.25
325.855	131.25
326.084	115.25
326.313	125.25
326.542	163.25
326.77	221.25
326.999	464.25
327.228	907.25
327.457	1684.25
327.686	1349.25
327.914	415.25
328.143	299.25
328.372	321.25
328.6	183.25
328.829	120.25
329.058	134.25
329.287	153.25
329.515	131.25
329.744	148.25
329.972	243.25
330.201	424.25
330.43	609.25
330.658	303.25
330.887	164.25
331.115	131.25
331.344	109.25
331.572	106.25
331.801	103.25
332.03	106.25
332.258	106.25
332.486	97.25
332.715	97.25
332.943	97.25
333.172	112.25
333.4	107.25
333.629	119.25
333.857	167.25
334.085	244.25
334.314	444.25
334.542	741.25
334.771	671.25
334.999	230.25
335.227	131.25
335.455	108.25
335.684	103.25
335.912	103.25
336.14	99.25
336.369	100.25
336.597	99.25
336.825	88.25
337.053	93.25
337.281	106.25
337.51	100.25
337.738	100.25
337.966	96.25
338.194	88.25
338.422	95.25
338.65	93.25
338.878	98.25
339.106	96.25
339.334	86.25
339.562	90.25
339.79	90.25
340.018	91.25
340.246	92.25
340.474	89.25
340.702	101.25
340.93	91.25
341.158	99.25
341.386	89.25
341.614	107.25
341.842	82.25
342.07	99.25
342.298	91.25
342.526	87.25
342.754	92.25
342.981	95.25
343.209	85.25
343.437	91.25
343.665	93.25
343.893	84.25
344.12	82.25
344.348	95.25
344.576	90.25
344.804	100.25
345.031	107.25
345.259	112.25
345.487	101.25
345.714	98.25
345.942	87.25
346.17	89.25
346.397	84.25
346.625	89.25
346.853	101.25
347.08	75.25
347.308	97.25
347.535	90.25
347.763	91.25
347.99	106.25
348.218	104.25
348.445	109.25
348.673	98.25
348.9	104.25
349.128	93.25
349.355	109.25
349.583	68.25
349.81	97.25
350.037	105.25
350.265	94.25
350.492	99.25
350.72	96.25
350.947	89.25
351.174	103.25
351.402	104.25
351.629	103.25
351.856	103.25
352.083	95.25
352.311	103.25
352.538	110.25
352.765	110.25
352.992	113.25
353.22	103.25
353.447	98.25
353.674	99.25
353.901	104.25
354.128	95.25
354.355	98.25
354.583	98.25
354.81	91.25
355.037	76.25
355.264	88.25
355.491	92.25
355.718	92.25
355.945	93.25
356.172	95.25
356.399	96.25
356.626	95.25
356.853	107.25
357.08	90.25
357.307	92.25
357.534	90.25
357.761	78.25
357.988	108.25
358.215	105.25
358.441	93.25
358.668	88.25
358.895	99.25
359.122	95.25
359.349	91.25
359.576	87.25
359.802	102.25
360.029	116.25
360.256	108.25
360.483	101.25
360.709	92.25
360.936	103.25
361.163	98.25
361.39	85.25
361.616	85.25
361.843	101.25
362.07	118.25
362.296	111.25
362.523	93.25
362.749	112.25
362.976	87.25
363.203	85.25
363.429	79.25
363.656	93.25
363.882	92.25
364.109	99.25
364.335	93.25
364.562	95.25
364.788	85.25
365.015	100.25
365.241	89.25
365.468	99.25
365.694	85.25
365.92	99.25
366.147	103.25
366.373	86.25
366.599	94.25
366.826	91.25
367.052	92.25
367.278	102.25
367.505	92.25
367.731	91.25
367.957	93.25
368.184	97.25
368.41	92.25
368.636	119.25
368.862	99.25
369.089	92.25
369.315	99.25
369.541	103.25
369.767	102.25
369.993	84.25
370.219	99.25
370.445	69.25
370.672	79.25
370.898	93.25
371.124	85.25
371.35	78.25
371.576	95.25
371.802	77.25
372.028	87.25
372.254	102.25
372.48	95.25
372.706	92.25
372.932	90.25
373.158	88.25
373.384	90.25
373.61	99.25
373.835	92.25
374.061	80.25
374.287	86.25
374.513	76.25
374.739	71.25
374.965	89.25
375.191	91.25
375.416	82.25
375.642	96.25
375.868	90.25
376.094	100.25
376.319	97.25
376.545	97.25
376.771	87.25
376.997	80.25
377.222	94.25
377.448	83.25
377.674	93.25
377.899	89.25
378.125	106.25
378.35	87.25
378.576	79.25
378.802	89.25
379.027	91.25
379.253	105.25
379.478	90.25
379.704	83.25
379.929	94.25
380.155	87.25
380.38	88.25
380.606	107.25
380.831	93.25
381.057	111.25
381.282	96.25
381.507	99.25
381.733	98.25
381.958	107.25
382.184	107.25
382.409	96.25
382.634	97.25
382.86	98.25
383.085	101.25
383.31	100.25
383.535	108.25
383.761	100.25
383.986	101.25
384.211	94.25
384.436	103.25
384.662	99.25
384.887	107.25
385.112	105.25
385.337	104.25
385.562	108.25
385.787	107.25
386.013	113.25
386.238	130.25
386.463	110.25
386.688	99.25
386.913	106.25
387.138	103.25
387.363	105.25
387.588	112.25
387.813	111.25
388.038	109.25
388.263	110.25
388.488	96.25
388.713	99.25
388.938	91.25
389.163	108.25
389.387	99.25
389.612	97.25
389.837	80.25
390.062	79.25
390.287	103.25
390.512	84.25
390.736	92.25
390.961	84.25
391.186	104.25
391.411	102.25
391.636	97.25
391.86	99.25
392.085	84.25
392.31	78.25
392.534	89.25
392.759	79.25
392.984	96.25
393.208	96.25
393.433	109.25
393.658	100.25
393.882	77.25
394.107	97.25
394.331	77.25
394.556	86.25
394.78	105.25
395.005	73.25
395.229	102.25
395.454	90.25
395.678	90.25
395.903	90.25
396.127	95.25
396.352	75.25
396.576	94.25
396.801	102.25
397.025	102.25
397.249	76.25
397.474	96.25
397.698	85.25
397.922	76.25
398.147	73.25
398.371	92.25
398.595	79.25
398.82	68.25
399.044	76.25
399.268	79.25
399.492	82.25
399.717	85.25
399.941	80.25
400.165	98.25
400.389	93.25
400.613	101.25
400.837	81.25
401.062	79.25
401.286	98.25
401.51	84.25
401.734	104.25
401.958	98.25
402.182	111.25
402.406	159.25
402.63	128.25
402.854	107.25
403.078	100.25
403.302	80.25
403.526	87.25
403.75	94.25
403.974	99.25
404.198	92.25
404.422	85.25
404.645	92.25
404.869	89.25
405.093	112.25
405.317	112.25
405.541	112.25
405.765	100.25
405.988	128.25
406.212	152.25
406.436	227.25
406.66	137.25
406.883	102.25
407.107	81.25
407.331	81.25
407.555	99.25
407.778	98.25
408.002	84.25
408.226	86.25
408.449	80.25
408.673	80.25
408.896	106.25
409.12	109.25
409.344	89.25
409.567	96.25
409.791	81.25
410.014	96.25
410.238	83.25
410.461	92.25
410.685	82.25
410.908	93.25
411.132	100.25
411.355	112.25
411.578	93.25
411.802	100.25
412.025	89.25
412.249	77.25
412.472	106.25
412.695	111.25
412.919	104.25
413.142	78.25
413.365	76.25
413.589	107.25
413.812	95.25
414.035	88.25
414.258	87.25
414.482	83.25
414.705	91.25
414.928	92.25
415.151	80.25
415.374	106.25
415.597	87.25
415.821	90.25
416.044	88.25
416.267	84.25
416.49	102.25
416.713	82.25
416.936	95.25
417.159	97.25
417.382	86.25
417.605	95.25
417.828	101.25
418.051	89.25
418.274	91.25
418.497	85.25
418.72	78.25
418.943	89.25
419.166	97.25
419.389	95.25
419.611	75.25
419.834	87.25
420.057	83.25
420.28	100.25
420.503	95.25
420.726	97.25
420.948	90.25
421.171	95.25
421.394	96.25
421.617	80.25
421.839	106.25
422.062	95.25
422.285	92.25
422.507	83.25
422.73	127.25
422.953	97.25
423.175	95.25
423.398	92.25
423.621	97.25
423.843	79.25
424.066	87.25
424.288	76.25
424.511	89.25
424.733	80.25
424.956	103.25
425.178	90.25
425.401	90.25
425.623	90.25
425.846	101.25
426.068	87.25
426.291	88.25
426.513	89.25
426.735	96.25
426.958	99.25
427.18	100.25
427.402	127.25
427.625	184.25
427.847	184.25
428.069	157.25
428.292	118.25
428.514	99.25
428.736	85.25
428.958	98.25
429.181	95.25
429.403	75.25
429.625	95.25
429.847	96.25
430.069	114.25
430.292	78.25
430.514	102.25
430.736	92.25
430.958	95.25
431.18	83.25
431.402	87.25
431.624	85.25
431.846	81.25
432.068	88.25
432.29	96.25
432.512	93.25
432.734	93.25
432.956	87.25
433.178	92.25
433.4	93.25
433.622	107.25
433.844	85.25
434.066	97.25
434.287	91.25
434.509	104.25
434.731	79.25
434.953	93.25
435.175	93.25
435.397	81.25
435.618	89.25
435.84	99.25
436.062	112.25
436.284	106.25
436.505	83.25
436.727	105.25
436.949	106.25
437.17	101.25
437.392	80.25
437.614	83.25
437.835	96.25
438.057	129.25
438.278	107.25
438.5	92.25
438.721	115.25
438.943	97.25
439.165	93.25
439.386	91.25
439.608	99.25
439.829	86.25
440.05	139.25
440.272	149.25
440.493	104.25
440.715	100.25
440.936	90.25
441.158	79.25
441.379	83.25
441.6	93.25
441.822	77.25
442.043	105.25
442.264	110.25
442.486	100.25
442.707	93.25
442.928	103.25
443.149	132.25
443.371	124.25
443.592	105.25
443.813	117.25
444.034	118.25
444.255	95.25
444.476	88.25
444.698	90.25
444.919	95.25
445.14	147.25
445.361	123.25
445.582	123.25
445.803	131.25
446.024	130.25
446.245	147.25
446.466	104.25
446.687	87.25
446.908	73.25
447.129	81.25
447.35	80.25
447.571	88.25
447.792	101.25
448.013	98.25
448.234	100.25
448.455	104.25
448.675	114.25
448.896	87.25
449.117	89.25
449.338	99.25
449.559	115.25
449.779	123.25
450	97.25
450.221	102.25
450.442	80.25
450.662	100.25
450.883	103.25
451.104	105.25
451.324	85.25
451.545	92.25
451.766	90.25
451.986	90.25
452.207	87.25
452.428	83.25
452.648	104.25
452.869	110.25
453.089	107.25
453.31	101.25
453.53	104.25
453.751	87.25
453.971	97.25
454.192	114.25
454.412	83.25
454.633	93.25
454.853	81.25
455.073	77.25
455.294	84.25
455.514	87.25
455.734	97.25
455.955	83.25
456.175	76.25
456.395	84.25
456.616	97.25
456.836	84.25
457.056	100.25
457.276	97.25
457.497	84.25
457.717	84.25
457.937	78.25
458.157	85.25
458.377	101.25
458.598	90.25
458.818	148.25
459.038	167.25
459.258	111.25
459.478	88.25
459.698	91.25
459.918	94.25
460.138	80.25
460.358	88.25
460.578	75.25
460.798	93.25
461.018	100.25
461.238	91.25
461.458	93.25
461.678	81.25
461.898	83.25
462.118	72.25
462.338	89.25
462.558	85.25
462.777	85.25
462.997	91.25
463.217	98.25
463.437	83.25
463.657	81.25
463.876	86.25
464.096	96.25
464.316	88.25
464.536	103.25
464.755	92.25
464.975	112.25
465.195	188.25
465.414	171.25
465.634	97.25
465.854	89.25
466.073	93.25
466.293	91.25
466.512	82.25
466.732	82.25
466.951	69.25
467.171	79.25
467.391	97.25
467.61	102.25
467.829	158.25
468.049	290.25
468.268	365.25
468.488	118.25
468.707	84.25
468.927	86.25
469.146	93.25
469.365	95.25
469.585	95.25
469.804	98.25
470.023	88.25
470.243	96.25
470.462	93.25
470.681	96.25
470.901	83.25
471.12	85.25
471.339	93.25
471.558	107.25
471.777	114.25
471.997	178.25
472.216	502.25
472.435	1027.25
472.654	284.25
472.873	118.25
473.092	107.25
473.311	77.25
473.53	85.25
473.749	80.25
473.968	86.25
474.187	101.25
474.406	111.25
474.625	85.25
474.844	90.25
475.063	80.25
475.282	104.25
475.501	83.25
475.72	81.25
475.939	88.25
476.158	97.25
476.377	92.25
476.596	90.25
476.814	90.25
477.033	98.25
477.252	81.25
477.471	76.25
477.69	91.25
477.908	91.25
478.127	94.25
478.346	90.25
478.564	101.25
478.783	92.25
479.002	89.25
479.22	96.25
479.439	108.25
479.658	113.25
479.876	112.25
480.095	106.25
480.313	106.25
480.532	121.25
480.751	178.25
480.969	483.25
481.188	1771.25
481.406	1052.25
481.624	197.25
481.843	107.25
482.061	97.25
482.28	93.25
482.498	81.25
482.717	79.25
482.935	96.25
483.153	86.25
483.372	81.25
483.59	87.25
483.808	80.25
484.027	94.25
484.245	84.25
484.463	87.25
484.681	91.25
484.9	89.25
485.118	97.25
485.336	96.25
485.554	97.25
485.772	100.25
485.99	106.25
486.209	97.25
486.427	101.25
486.645	110.25
486.863	119.25
487.081	90.25
487.299	89.25
487.517	88.25
487.735	96.25
487.953	89.25
488.171	96.25
488.389	87.25
488.607	96.25
488.825	93.25
489.043	77.25
489.261	82.25
489.479	96.25
489.696	89.25
489.914	87.25
490.132	91.25
490.35	83.25
490.568	84.25
490.786	78.25
491.003	78.25
491.221	84.25
491.439	102.25
491.657	87.25
491.874	77.25
492.092	82.25
492.31	87.25
492.527	93.25
492.745	98.25
492.963	86.25
493.18	103.25
493.398	99.25
493.615	93.25
493.833	89.25
494.05	92.25
494.268	87.25
494.485	84.25
494.703	93.25
494.92	78.25
495.138	82.25
495.355	83.25
495.573	92.25
495.79	89.25
496.008	85.25
496.225	96.25
496.442	79.25
496.66	94.25
496.877	91.25
497.094	80.25
497.312	92.25
497.529	85.25
497.746	95.25
497.963	90.25
498.181	79.25
498.398	96.25
498.615	108.25
498.832	97.25
499.049	91.25
499.267	81.25
499.484	105.25
499.701	93.25
499.918	94.25
500.135	99.25
500.352	93.25
500.569	90.25
500.786	94.25
501.003	93.25
501.22	88.25
501.437	93.25
501.654	97.25
501.871	107.25
502.088	92.25
502.305	94.25
502.522	92.25
502.739	72.25
502.956	90.25
503.172	84.25
503.389	97.25
503.606	99.25
503.823	93.25
504.04	100.25
504.256	87.25
504.473	83.25
504.69	95.25
504.907	101.25
505.123	101.25
505.34	91.25
505.557	83.25
505.773	93.25
505.99	95.25
506.207	91.25
506.423	81.25
506.64	91.25
506.856	87.25
507.073	84.25
507.289	81.25
507.506	91.25
507.722	95.25
507.939	119.25
508.155	96.25
508.372	83.25
508.588	81.25
508.805	101.25
509.021	91.25
509.238	93.25
509.454	100.25
509.67	88.25
509.887	101.25
510.103	114.25
510.319	206.25
510.536	670.25
510.752	2212.25
510.968	605.25
511.184	151.25
511.401	112.25
511.617	98.25
511.833	88.25
512.049	92.25
512.265	99.25
512.481	92.25
512.698	87.25
512.914	86.25
513.13	80.25
513.346	101.25
513.562	93.25
513.778	79.25
513.994	95.25
514.21	102.25
514.426	110.25
514.642	133.25
514.858	130.25
515.074	160.25
