Data from Circ_2001_H10_HRD10591_00007.txt Node
Date: Wed Jan 03 10:45:40 EST 2024
User: Yrep
Spectrometer: HR+D1059
Trigger mode: 1
Integration Time (sec): 1.000000E-1
Scans to average: 1
Electric dark correction enabled: true
Nonlinearity correction enabled: false
Boxcar width: 0
XAxis mode: Wavelengths
Number of Pixels in Spectrum: 2048
>>>>>Begin Spectral Data<<<<<
223.165	-19.62
223.4	-19.62
223.635	-19.62
223.869	-18.62
224.104	-31.62
224.338	-22.62
224.573	-3.62
224.808	-15.62
225.042	6.38
225.277	-11.62
225.511	4.38
225.746	-5.62
225.98	9.38
226.215	9.38
226.449	16.38
226.683	16.38
226.918	18.38
227.152	48.38
227.387	40.38
227.621	37.38
227.856	55.38
228.09	55.38
228.324	67.38
228.559	57.38
228.793	66.38
229.027	53.38
229.262	78.38
229.496	81.38
229.73	81.38
229.964	84.38
230.199	69.38
230.433	76.38
230.667	70.38
230.901	87.38
231.136	80.38
231.37	78.38
231.604	86.38
231.838	81.38
232.072	69.38
232.306	78.38
232.541	79.38
232.775	78.38
233.009	81.38
233.243	61.38
233.477	80.38
233.711	74.38
233.945	77.38
234.179	75.38
234.413	78.38
234.647	70.38
234.881	74.38
235.115	91.38
235.349	75.38
235.583	89.38
235.817	77.38
236.051	72.38
236.285	80.38
236.519	78.38
236.753	80.38
236.987	74.38
237.221	85.38
237.455	75.38
237.689	71.38
237.922	91.38
238.156	83.38
238.39	75.38
238.624	93.38
238.858	72.38
239.091	85.38
239.325	75.38
239.559	85.38
239.793	91.38
240.027	102.38
240.26	87.38
240.494	79.38
240.728	79.38
240.961	58.38
241.195	72.38
241.429	68.38
241.662	69.38
241.896	68.38
242.13	83.38
242.363	60.38
242.597	84.38
242.83	90.38
243.064	89.38
243.298	76.38
243.531	73.38
243.765	88.38
243.998	95.38
244.232	84.38
244.465	84.38
244.699	84.38
244.932	78.38
245.166	81.38
245.399	64.38
245.633	84.38
245.866	92.38
246.099	86.38
246.333	75.38
246.566	85.38
246.8	87.38
247.033	73.38
247.266	75.38
247.5	70.38
247.733	67.38
247.966	83.38
248.2	86.38
248.433	69.38
248.666	87.38
248.899	84.38
249.133	88.38
249.366	91.38
249.599	99.38
249.832	81.38
250.066	81.38
250.299	78.38
250.532	80.38
250.765	83.38
250.998	68.38
251.231	69.38
251.465	84.38
251.698	83.38
251.931	85.38
252.164	74.38
252.397	82.38
252.63	84.38
252.863	86.38
253.096	79.38
253.329	82.38
253.562	74.38
253.795	91.38
254.028	93.38
254.261	77.38
254.494	89.38
254.727	89.38
254.96	81.38
255.193	86.38
255.426	75.38
255.659	86.38
255.892	85.38
256.124	91.38
256.357	90.38
256.59	80.38
256.823	81.38
257.056	85.38
257.289	79.38
257.521	86.38
257.754	69.38
257.987	83.38
258.22	82.38
258.452	82.38
258.685	84.38
258.918	84.38
259.151	81.38
259.383	84.38
259.616	89.38
259.849	79.38
260.081	77.38
260.314	83.38
260.547	81.38
260.779	95.38
261.012	89.38
261.244	77.38
261.477	94.38
261.71	89.38
261.942	110.38
262.175	104.38
262.407	90.38
262.64	94.38
262.872	95.38
263.105	63.38
263.337	81.38
263.57	88.38
263.802	86.38
264.035	72.38
264.267	90.38
264.499	86.38
264.732	82.38
264.964	84.38
265.197	86.38
265.429	81.38
265.661	73.38
265.894	90.38
266.126	74.38
266.358	83.38
266.591	82.38
266.823	85.38
267.055	96.38
267.287	88.38
267.52	81.38
267.752	99.38
267.984	88.38
268.216	95.38
268.448	90.38
268.681	77.38
268.913	72.38
269.145	79.38
269.377	87.38
269.609	78.38
269.841	87.38
270.073	86.38
270.306	82.38
270.538	72.38
270.77	69.38
271.002	79.38
271.234	84.38
271.466	77.38
271.698	89.38
271.93	74.38
272.162	89.38
272.394	80.38
272.626	76.38
272.858	92.38
273.09	77.38
273.322	90.38
273.553	94.38
273.785	86.38
274.017	84.38
274.249	77.38
274.481	82.38
274.713	95.38
274.945	89.38
275.176	88.38
275.408	96.38
275.64	81.38
275.872	86.38
276.104	92.38
276.335	91.38
276.567	95.38
276.799	115.38
277.031	117.38
277.262	121.38
277.494	101.38
277.726	89.38
277.957	87.38
278.189	81.38
278.421	82.38
278.652	81.38
278.884	75.38
279.115	73.38
279.347	82.38
279.579	88.38
279.81	92.38
280.042	117.38
280.273	115.38
280.505	108.38
280.736	84.38
280.968	96.38
281.199	89.38
281.431	82.38
281.662	90.38
281.894	96.38
282.125	100.38
282.356	97.38
282.588	124.38
282.819	99.38
283.051	93.38
283.282	70.38
283.513	87.38
283.745	92.38
283.976	79.38
284.207	83.38
284.439	83.38
284.67	83.38
284.901	96.38
285.132	88.38
285.364	91.38
285.595	86.38
285.826	87.38
286.057	85.38
286.288	82.38
286.52	83.38
286.751	93.38
286.982	93.38
287.213	80.38
287.444	93.38
287.675	91.38
287.906	74.38
288.138	88.38
288.369	97.38
288.6	93.38
288.831	80.38
289.062	79.38
289.293	84.38
289.524	97.38
289.755	84.38
289.986	88.38
290.217	80.38
290.448	87.38
290.679	73.38
290.91	88.38
291.141	74.38
291.371	99.38
291.602	78.38
291.833	92.38
292.064	96.38
292.295	91.38
292.526	87.38
292.757	84.38
292.987	81.38
293.218	87.38
293.449	89.38
293.68	100.38
293.91	89.38
294.141	99.38
294.372	87.38
294.603	109.38
294.833	81.38
295.064	82.38
295.295	91.38
295.525	111.38
295.756	101.38
295.987	91.38
296.217	117.38
296.448	112.38
296.679	89.38
296.909	84.38
297.14	92.38
297.37	88.38
297.601	87.38
297.831	97.38
298.062	101.38
298.292	93.38
298.523	103.38
298.753	99.38
298.984	83.38
299.214	79.38
299.445	90.38
299.675	96.38
299.905	104.38
300.136	100.38
300.366	98.38
300.597	84.38
300.827	85.38
301.057	105.38
301.288	90.38
301.518	90.38
301.748	90.38
301.979	96.38
302.209	96.38
302.439	85.38
302.669	93.38
302.9	72.38
303.13	91.38
303.36	100.38
303.59	95.38
303.82	106.38
304.051	93.38
304.281	87.38
304.511	99.38
304.741	97.38
304.971	83.38
305.201	91.38
305.431	91.38
305.661	100.38
305.891	97.38
306.121	89.38
306.352	111.38
306.582	110.38
306.812	102.38
307.042	92.38
307.272	100.38
307.502	112.38
307.731	105.38
307.961	102.38
308.191	95.38
308.421	95.38
308.651	96.38
308.881	81.38
309.111	83.38
309.341	101.38
309.571	93.38
309.8	96.38
310.03	95.38
310.26	97.38
310.49	96.38
310.72	88.38
310.949	96.38
311.179	93.38
311.409	84.38
311.639	97.38
311.868	85.38
312.098	95.38
312.328	108.38
312.557	91.38
312.787	102.38
313.017	92.38
313.246	92.38
313.476	83.38
313.706	98.38
313.935	101.38
314.165	100.38
314.394	91.38
314.624	88.38
314.853	103.38
315.083	91.38
315.312	93.38
315.542	85.38
315.771	104.38
316.001	98.38
316.23	96.38
316.46	89.38
316.689	90.38
316.919	84.38
317.148	105.38
317.377	83.38
317.607	103.38
317.836	87.38
318.065	84.38
318.295	79.38
318.524	100.38
318.753	97.38
318.983	85.38
319.212	102.38
319.441	109.38
319.67	106.38
319.9	88.38
320.129	85.38
320.358	97.38
320.587	87.38
320.816	88.38
321.046	95.38
321.275	82.38
321.504	81.38
321.733	101.38
321.962	92.38
322.191	104.38
322.42	100.38
322.649	108.38
322.878	104.38
323.108	107.38
323.337	114.38
323.566	111.38
323.795	162.38
324.024	199.38
324.253	375.38
324.482	781.38
324.71	1525.38
324.939	1989.38
325.168	742.38
325.397	225.38
325.626	156.38
325.855	135.38
326.084	128.38
326.313	143.38
326.542	147.38
326.77	213.38
326.999	434.38
327.228	863.38
327.457	1565.38
327.686	1231.38
327.914	366.38
328.143	245.38
328.372	274.38
328.6	171.38
328.829	131.38
329.058	124.38
329.287	135.38
329.515	127.38
329.744	151.38
329.972	201.38
330.201	343.38
330.43	452.38
330.658	259.38
330.887	152.38
331.115	119.38
331.344	91.38
331.572	119.38
331.801	107.38
332.03	115.38
332.258	87.38
332.486	96.38
332.715	93.38
332.943	95.38
333.172	95.38
333.4	117.38
333.629	125.38
333.857	133.38
334.085	218.38
334.314	335.38
334.542	581.38
334.771	511.38
334.999	183.38
335.227	116.38
335.455	112.38
335.684	108.38
335.912	97.38
336.14	101.38
336.369	93.38
336.597	93.38
336.825	105.38
337.053	99.38
337.281	98.38
337.51	81.38
337.738	103.38
337.966	85.38
338.194	84.38
338.422	95.38
338.65	81.38
338.878	90.38
339.106	99.38
339.334	105.38
339.562	113.38
339.79	99.38
340.018	92.38
340.246	100.38
340.474	97.38
340.702	85.38
340.93	89.38
341.158	101.38
341.386	99.38
341.614	85.38
341.842	79.38
342.07	77.38
342.298	88.38
342.526	84.38
342.754	84.38
342.981	84.38
343.209	93.38
343.437	107.38
343.665	89.38
343.893	89.38
344.12	104.38
344.348	79.38
344.576	89.38
344.804	74.38
345.031	94.38
345.259	90.38
345.487	100.38
345.714	92.38
345.942	93.38
346.17	83.38
346.397	86.38
346.625	86.38
346.853	84.38
347.08	96.38
347.308	102.38
347.535	107.38
347.763	105.38
347.99	103.38
348.218	98.38
348.445	102.38
348.673	96.38
348.9	91.38
349.128	85.38
349.355	97.38
349.583	101.38
349.81	85.38
350.037	95.38
350.265	92.38
350.492	97.38
350.72	112.38
350.947	90.38
351.174	103.38
351.402	113.38
351.629	106.38
351.856	93.38
352.083	102.38
352.311	98.38
352.538	100.38
352.765	106.38
352.992	122.38
353.22	113.38
353.447	98.38
353.674	95.38
353.901	99.38
354.128	112.38
354.355	99.38
354.583	99.38
354.81	104.38
355.037	92.38
355.264	105.38
355.491	98.38
355.718	102.38
355.945	91.38
356.172	97.38
356.399	83.38
356.626	97.38
356.853	111.38
357.08	101.38
357.307	98.38
357.534	93.38
357.761	93.38
357.988	93.38
358.215	113.38
358.441	105.38
358.668	107.38
358.895	85.38
359.122	87.38
359.349	90.38
359.576	98.38
359.802	101.38
360.029	102.38
360.256	113.38
360.483	96.38
360.709	91.38
360.936	95.38
361.163	98.38
361.39	91.38
361.616	93.38
361.843	98.38
362.07	99.38
362.296	79.38
362.523	79.38
362.749	84.38
362.976	78.38
363.203	96.38
363.429	102.38
363.656	100.38
363.882	91.38
364.109	92.38
364.335	92.38
364.562	76.38
364.788	83.38
365.015	99.38
365.241	100.38
365.468	95.38
365.694	107.38
365.92	91.38
366.147	97.38
366.373	92.38
366.599	95.38
366.826	96.38
367.052	88.38
367.278	86.38
367.505	80.38
367.731	93.38
367.957	68.38
368.184	81.38
368.41	88.38
368.636	111.38
368.862	120.38
369.089	89.38
369.315	84.38
369.541	91.38
369.767	100.38
369.993	97.38
370.219	88.38
370.445	69.38
370.672	79.38
370.898	95.38
371.124	90.38
371.35	89.38
371.576	110.38
371.802	76.38
372.028	81.38
372.254	87.38
372.48	76.38
372.706	91.38
372.932	79.38
373.158	90.38
373.384	89.38
373.61	88.38
373.835	90.38
374.061	99.38
374.287	94.38
374.513	96.38
374.739	97.38
374.965	90.38
375.191	88.38
375.416	79.38
375.642	82.38
375.868	85.38
376.094	80.38
376.319	82.38
376.545	88.38
376.771	89.38
376.997	106.38
377.222	92.38
377.448	86.38
377.674	99.38
377.899	95.38
378.125	94.38
378.35	89.38
378.576	88.38
378.802	91.38
379.027	99.38
379.253	93.38
379.478	93.38
379.704	92.38
379.929	94.38
380.155	105.38
380.38	97.38
380.606	86.38
380.831	108.38
381.057	109.38
381.282	93.38
381.507	101.38
381.733	102.38
381.958	93.38
382.184	106.38
382.409	106.38
382.634	107.38
382.86	109.38
383.085	103.38
383.31	105.38
383.535	100.38
383.761	116.38
383.986	107.38
384.211	94.38
384.436	103.38
384.662	108.38
384.887	117.38
385.112	119.38
385.337	128.38
385.562	120.38
385.787	107.38
386.013	127.38
386.238	133.38
386.463	121.38
386.688	119.38
386.913	108.38
387.138	107.38
387.363	107.38
387.588	99.38
387.813	116.38
388.038	116.38
388.263	132.38
388.488	136.38
388.713	102.38
388.938	95.38
389.163	85.38
389.387	101.38
389.612	94.38
389.837	90.38
390.062	90.38
390.287	89.38
390.512	74.38
390.736	82.38
390.961	93.38
391.186	99.38
391.411	89.38
391.636	90.38
391.86	74.38
392.085	86.38
392.31	85.38
392.534	82.38
392.759	90.38
392.984	91.38
393.208	91.38
393.433	119.38
393.658	108.38
393.882	93.38
394.107	87.38
394.331	101.38
394.556	88.38
394.78	89.38
395.005	94.38
395.229	85.38
395.454	84.38
395.678	74.38
395.903	90.38
396.127	91.38
396.352	99.38
396.576	89.38
396.801	105.38
397.025	91.38
397.249	84.38
397.474	88.38
397.698	80.38
397.922	89.38
398.147	100.38
398.371	96.38
398.595	98.38
398.82	74.38
399.044	76.38
399.268	69.38
399.492	97.38
399.717	92.38
399.941	76.38
400.165	86.38
400.389	108.38
400.613	96.38
400.837	98.38
401.062	88.38
401.286	85.38
401.51	91.38
401.734	82.38
401.958	91.38
402.182	112.38
402.406	141.38
402.63	116.38
402.854	96.38
403.078	83.38
403.302	88.38
403.526	83.38
403.75	96.38
403.974	92.38
404.198	80.38
404.422	90.38
404.645	104.38
404.869	91.38
405.093	99.38
405.317	103.38
405.541	88.38
405.765	104.38
405.988	100.38
406.212	163.38
406.436	203.38
406.66	140.38
406.883	97.38
407.107	94.38
407.331	96.38
407.555	93.38
407.778	88.38
408.002	88.38
408.226	83.38
408.449	73.38
408.673	80.38
408.896	94.38
409.12	93.38
409.344	77.38
409.567	84.38
409.791	98.38
410.014	99.38
410.238	95.38
410.461	100.38
410.685	99.38
410.908	97.38
411.132	105.38
411.355	104.38
411.578	89.38
411.802	100.38
412.025	73.38
412.249	93.38
412.472	92.38
412.695	112.38
412.919	102.38
413.142	82.38
413.365	90.38
413.589	73.38
413.812	82.38
414.035	105.38
414.258	101.38
414.482	97.38
414.705	94.38
414.928	91.38
415.151	68.38
415.374	100.38
415.597	82.38
415.821	101.38
416.044	99.38
416.267	80.38
416.49	83.38
416.713	82.38
416.936	89.38
417.159	89.38
417.382	76.38
417.605	92.38
417.828	96.38
418.051	79.38
418.274	107.38
418.497	88.38
418.72	77.38
418.943	87.38
419.166	87.38
419.389	88.38
419.611	97.38
419.834	109.38
420.057	83.38
420.28	93.38
420.503	88.38
420.726	113.38
420.948	92.38
421.171	92.38
421.394	94.38
421.617	96.38
421.839	91.38
422.062	98.38
422.285	97.38
422.507	99.38
422.73	94.38
422.953	102.38
423.175	100.38
423.398	83.38
423.621	82.38
423.843	89.38
424.066	88.38
424.288	99.38
424.511	91.38
424.733	80.38
424.956	96.38
425.178	85.38
425.401	92.38
425.623	108.38
425.846	96.38
426.068	90.38
426.291	83.38
426.513	99.38
426.735	78.38
426.958	97.38
427.18	106.38
427.402	138.38
427.625	158.38
427.847	145.38
428.069	144.38
428.292	105.38
428.514	88.38
428.736	72.38
428.958	83.38
429.181	84.38
429.403	96.38
429.625	103.38
429.847	112.38
430.069	94.38
430.292	97.38
430.514	88.38
430.736	81.38
430.958	90.38
431.18	73.38
431.402	94.38
431.624	95.38
431.846	78.38
432.068	95.38
432.29	91.38
432.512	88.38
432.734	87.38
432.956	88.38
433.178	94.38
433.4	79.38
433.622	89.38
433.844	99.38
434.066	85.38
434.287	93.38
434.509	93.38
434.731	100.38
434.953	82.38
435.175	93.38
435.397	96.38
435.618	91.38
435.84	104.38
436.062	107.38
436.284	109.38
436.505	75.38
436.727	99.38
436.949	79.38
437.17	104.38
437.392	99.38
437.614	108.38
437.835	107.38
438.057	113.38
438.278	93.38
438.5	96.38
438.721	120.38
438.943	93.38
439.165	87.38
439.386	102.38
439.608	95.38
439.829	94.38
440.05	112.38
440.272	130.38
440.493	106.38
440.715	98.38
440.936	83.38
441.158	92.38
441.379	88.38
441.6	96.38
441.822	92.38
442.043	95.38
442.264	98.38
442.486	90.38
442.707	84.38
442.928	105.38
443.149	125.38
443.371	141.38
443.592	90.38
443.813	101.38
444.034	98.38
444.255	80.38
444.476	85.38
444.698	95.38
444.919	96.38
445.14	140.38
445.361	127.38
445.582	115.38
445.803	132.38
446.024	141.38
446.245	135.38
446.466	111.38
446.687	93.38
446.908	85.38
447.129	71.38
447.35	84.38
447.571	97.38
447.792	87.38
448.013	89.38
448.234	114.38
448.455	93.38
448.675	114.38
448.896	130.38
449.117	90.38
449.338	111.38
449.559	130.38
449.779	107.38
450	108.38
450.221	90.38
450.442	102.38
450.662	97.38
450.883	100.38
451.104	120.38
451.324	94.38
451.545	85.38
451.766	73.38
451.986	85.38
452.207	79.38
452.428	85.38
452.648	92.38
452.869	110.38
453.089	110.38
453.31	121.38
453.53	98.38
453.751	106.38
453.971	91.38
454.192	105.38
454.412	89.38
454.633	92.38
454.853	89.38
455.073	92.38
455.294	82.38
455.514	98.38
455.734	83.38
455.955	77.38
456.175	68.38
456.395	71.38
456.616	79.38
456.836	85.38
457.056	93.38
457.276	83.38
457.497	90.38
457.717	80.38
457.937	96.38
458.157	90.38
458.377	91.38
458.598	98.38
458.818	141.38
459.038	151.38
459.258	114.38
459.478	82.38
459.698	80.38
459.918	80.38
460.138	71.38
460.358	76.38
460.578	79.38
460.798	88.38
461.018	82.38
461.238	75.38
461.458	87.38
461.678	83.38
461.898	77.38
462.118	84.38
462.338	86.38
462.558	85.38
462.777	83.38
462.997	83.38
463.217	106.38
463.437	83.38
463.657	81.38
463.876	76.38
464.096	86.38
464.316	91.38
464.536	96.38
464.755	77.38
464.975	114.38
465.195	130.38
465.414	153.38
465.634	97.38
465.854	91.38
466.073	86.38
466.293	84.38
466.512	96.38
466.732	76.38
466.951	81.38
467.171	90.38
467.391	92.38
467.61	112.38
467.829	112.38
468.049	227.38
468.268	286.38
468.488	113.38
468.707	92.38
468.927	79.38
469.146	78.38
469.365	97.38
469.585	92.38
469.804	85.38
470.023	83.38
470.243	98.38
470.462	92.38
470.681	110.38
470.901	82.38
471.12	104.38
471.339	101.38
471.558	92.38
471.777	115.38
471.997	158.38
472.216	404.38
472.435	787.38
472.654	232.38
472.873	101.38
473.092	88.38
473.311	87.38
473.53	83.38
473.749	103.38
473.968	107.38
474.187	114.38
474.406	107.38
474.625	85.38
474.844	98.38
475.063	88.38
475.282	99.38
475.501	80.38
475.72	89.38
475.939	98.38
476.158	90.38
476.377	83.38
476.596	85.38
476.814	89.38
477.033	80.38
477.252	83.38
477.471	100.38
477.69	88.38
477.908	74.38
478.127	89.38
478.346	88.38
478.564	81.38
478.783	100.38
479.002	69.38
479.22	87.38
479.439	108.38
479.658	113.38
479.876	88.38
480.095	92.38
480.313	109.38
480.532	117.38
480.751	166.38
480.969	371.38
481.188	1325.38
481.406	771.38
481.624	158.38
481.843	98.38
482.061	93.38
482.28	89.38
482.498	87.38
482.717	105.38
482.935	100.38
483.153	100.38
483.372	85.38
483.59	85.38
483.808	86.38
484.027	96.38
484.245	95.38
484.463	96.38
484.681	97.38
484.9	82.38
485.118	92.38
485.336	92.38
485.554	87.38
485.772	102.38
485.99	106.38
486.209	85.38
486.427	91.38
486.645	101.38
486.863	122.38
487.081	123.38
487.299	111.38
487.517	86.38
487.735	91.38
487.953	86.38
488.171	90.38
488.389	106.38
488.607	96.38
488.825	88.38
489.043	85.38
489.261	111.38
489.479	79.38
489.696	93.38
489.914	87.38
490.132	88.38
490.35	89.38
490.568	91.38
490.786	88.38
491.003	89.38
491.221	83.38
491.439	81.38
491.657	78.38
491.874	86.38
492.092	86.38
492.31	77.38
492.527	85.38
492.745	87.38
492.963	83.38
493.18	98.38
493.398	96.38
493.615	91.38
493.833	100.38
494.05	93.38
494.268	91.38
494.485	87.38
494.703	92.38
494.92	95.38
495.138	81.38
495.355	81.38
495.573	100.38
495.79	82.38
496.008	84.38
496.225	108.38
496.442	76.38
496.66	88.38
496.877	101.38
497.094	92.38
497.312	91.38
497.529	89.38
497.746	85.38
497.963	88.38
498.181	94.38
498.398	93.38
498.615	99.38
498.832	88.38
499.049	95.38
499.267	99.38
499.484	79.38
499.701	80.38
499.918	88.38
500.135	87.38
500.352	103.38
500.569	89.38
500.786	94.38
501.003	105.38
501.22	101.38
501.437	88.38
501.654	95.38
501.871	109.38
502.088	89.38
502.305	88.38
502.522	74.38
502.739	86.38
502.956	86.38
503.172	85.38
503.389	112.38
503.606	102.38
503.823	86.38
504.04	85.38
504.256	100.38
504.473	106.38
504.69	83.38
504.907	80.38
505.123	73.38
505.34	96.38
505.557	95.38
505.773	98.38
505.99	84.38
506.207	92.38
506.423	97.38
506.64	101.38
506.856	89.38
507.073	91.38
507.289	88.38
507.506	110.38
507.722	109.38
507.939	110.38
508.155	91.38
508.372	100.38
508.588	98.38
508.805	86.38
509.021	92.38
509.238	92.38
509.454	98.38
509.67	93.38
509.887	108.38
510.103	136.38
510.319	199.38
510.536	659.38
510.752	2082.38
510.968	588.38
511.184	157.38
511.401	118.38
511.617	93.38
511.833	85.38
512.049	97.38
512.265	92.38
512.481	99.38
512.698	93.38
512.914	97.38
513.13	102.38
513.346	109.38
513.562	97.38
513.778	98.38
513.994	101.38
514.21	101.38
514.426	103.38
514.642	134.38
514.858	124.38
515.074	167.38
515.29	430.38
