Data from Circ_2001_H10_HRD10591_00005.txt Node
Date: Wed Jan 03 10:45:39 EST 2024
User: Yrep
Spectrometer: HR+D1059
Trigger mode: 1
Integration Time (sec): 1.000000E-1
Scans to average: 1
Electric dark correction enabled: true
Nonlinearity correction enabled: false
Boxcar width: 0
XAxis mode: Wavelengths
Number of Pixels in Spectrum: 2048
>>>>>Begin Spectral Data<<<<<
223.165	-28.5
223.4	-28.5
223.635	-28.5
223.869	-5.5
224.104	-26.5
224.338	-16.5
224.573	-7.5
224.808	-1.5
225.042	4.5
225.277	-8.5
225.511	-9.5
225.746	-14.5
225.98	3.5
226.215	1.5
226.449	16.5
226.683	28.5
226.918	33.5
227.152	30.5
227.387	40.5
227.621	40.5
227.856	62.5
228.09	45.5
228.324	47.5
228.559	56.5
228.793	66.5
229.027	66.5
229.262	60.5
229.496	73.5
229.73	83.5
229.964	69.5
230.199	77.5
230.433	76.5
230.667	68.5
230.901	79.5
231.136	87.5
231.37	57.5
231.604	70.5
231.838	90.5
232.072	98.5
232.306	90.5
232.541	80.5
232.775	74.5
233.009	68.5
233.243	80.5
233.477	86.5
233.711	87.5
233.945	89.5
234.179	89.5
234.413	74.5
234.647	84.5
234.881	81.5
235.115	82.5
235.349	80.5
235.583	88.5
235.817	86.5
236.051	66.5
236.285	70.5
236.519	85.5
236.753	69.5
236.987	72.5
237.221	63.5
237.455	85.5
237.689	68.5
237.922	85.5
238.156	66.5
238.39	66.5
238.624	69.5
238.858	78.5
239.091	85.5
239.325	86.5
239.559	81.5
239.793	88.5
240.027	70.5
240.26	86.5
240.494	92.5
240.728	76.5
240.961	77.5
241.195	74.5
241.429	80.5
241.662	70.5
241.896	80.5
242.13	63.5
242.363	81.5
242.597	82.5
242.83	89.5
243.064	83.5
243.298	75.5
243.531	81.5
243.765	60.5
243.998	88.5
244.232	62.5
244.465	79.5
244.699	70.5
244.932	77.5
245.166	92.5
245.399	60.5
245.633	73.5
245.866	75.5
246.099	66.5
246.333	71.5
246.566	84.5
246.8	72.5
247.033	65.5
247.266	82.5
247.5	72.5
247.733	68.5
247.966	67.5
248.2	86.5
248.433	84.5
248.666	64.5
248.899	80.5
249.133	91.5
249.366	70.5
249.599	93.5
249.832	87.5
250.066	73.5
250.299	80.5
250.532	80.5
250.765	82.5
250.998	68.5
251.231	81.5
251.465	83.5
251.698	84.5
251.931	78.5
252.164	87.5
252.397	88.5
252.63	75.5
252.863	77.5
253.096	87.5
253.329	71.5
253.562	83.5
253.795	81.5
254.028	82.5
254.261	83.5
254.494	70.5
254.727	67.5
254.96	85.5
255.193	76.5
255.426	90.5
255.659	85.5
255.892	84.5
256.124	89.5
256.357	86.5
256.59	83.5
256.823	72.5
257.056	68.5
257.289	79.5
257.521	87.5
257.754	81.5
257.987	70.5
258.22	84.5
258.452	86.5
258.685	80.5
258.918	79.5
259.151	72.5
259.383	84.5
259.616	77.5
259.849	96.5
260.081	83.5
260.314	78.5
260.547	79.5
260.779	73.5
261.012	80.5
261.244	81.5
261.477	98.5
261.71	103.5
261.942	110.5
262.175	107.5
262.407	97.5
262.64	88.5
262.872	80.5
263.105	69.5
263.337	78.5
263.57	82.5
263.802	74.5
264.035	76.5
264.267	77.5
264.499	99.5
264.732	96.5
264.964	90.5
265.197	70.5
265.429	83.5
265.661	77.5
265.894	74.5
266.126	94.5
266.358	81.5
266.591	83.5
266.823	82.5
267.055	80.5
267.287	86.5
267.52	80.5
267.752	86.5
267.984	95.5
268.216	86.5
268.448	75.5
268.681	70.5
268.913	78.5
269.145	90.5
269.377	80.5
269.609	73.5
269.841	73.5
270.073	90.5
270.306	73.5
270.538	72.5
270.77	86.5
271.002	87.5
271.234	84.5
271.466	86.5
271.698	76.5
271.93	86.5
272.162	95.5
272.394	90.5
272.626	82.5
272.858	86.5
273.09	82.5
273.322	88.5
273.553	85.5
273.785	86.5
274.017	87.5
274.249	82.5
274.481	84.5
274.713	75.5
274.945	88.5
275.176	83.5
275.408	86.5
275.64	96.5
275.872	99.5
276.104	85.5
276.335	78.5
276.567	106.5
276.799	109.5
277.031	105.5
277.262	108.5
277.494	98.5
277.726	83.5
277.957	93.5
278.189	79.5
278.421	88.5
278.652	85.5
278.884	80.5
279.115	83.5
279.347	89.5
279.579	104.5
279.81	102.5
280.042	126.5
280.273	123.5
280.505	123.5
280.736	103.5
280.968	99.5
281.199	86.5
281.431	79.5
281.662	97.5
281.894	93.5
282.125	92.5
282.356	114.5
282.588	130.5
282.819	112.5
283.051	85.5
283.282	96.5
283.513	95.5
283.745	86.5
283.976	72.5
284.207	83.5
284.439	83.5
284.67	78.5
284.901	84.5
285.132	85.5
285.364	84.5
285.595	97.5
285.826	87.5
286.057	84.5
286.288	86.5
286.52	90.5
286.751	79.5
286.982	83.5
287.213	79.5
287.444	95.5
287.675	99.5
287.906	95.5
288.138	87.5
288.369	84.5
288.6	76.5
288.831	69.5
289.062	86.5
289.293	96.5
289.524	103.5
289.755	69.5
289.986	84.5
290.217	100.5
290.448	79.5
290.679	73.5
290.91	85.5
291.141	76.5
291.371	89.5
291.602	102.5
291.833	71.5
292.064	88.5
292.295	89.5
292.526	83.5
292.757	92.5
292.987	84.5
293.218	94.5
293.449	78.5
293.68	80.5
293.91	73.5
294.141	94.5
294.372	85.5
294.603	80.5
294.833	81.5
295.064	68.5
295.295	72.5
295.525	90.5
295.756	107.5
295.987	103.5
296.217	122.5
296.448	119.5
296.679	90.5
296.909	81.5
297.14	84.5
297.37	94.5
297.601	98.5
297.831	97.5
298.062	92.5
298.292	91.5
298.523	89.5
298.753	86.5
298.984	88.5
299.214	100.5
299.445	99.5
299.675	94.5
299.905	85.5
300.136	84.5
300.366	91.5
300.597	76.5
300.827	95.5
301.057	91.5
301.288	102.5
301.518	98.5
301.748	90.5
301.979	112.5
302.209	74.5
302.439	82.5
302.669	92.5
302.9	72.5
303.13	96.5
303.36	92.5
303.59	112.5
303.82	102.5
304.051	102.5
304.281	90.5
304.511	97.5
304.741	115.5
304.971	83.5
305.201	88.5
305.431	80.5
305.661	89.5
305.891	88.5
306.121	92.5
306.352	97.5
306.582	99.5
306.812	98.5
307.042	96.5
307.272	114.5
307.502	108.5
307.731	110.5
307.961	103.5
308.191	95.5
308.421	92.5
308.651	90.5
308.881	82.5
309.111	92.5
309.341	104.5
309.571	107.5
309.8	98.5
310.03	102.5
310.26	99.5
310.49	85.5
310.72	94.5
310.949	94.5
311.179	111.5
311.409	84.5
311.639	92.5
311.868	112.5
312.098	93.5
312.328	90.5
312.557	100.5
312.787	92.5
313.017	91.5
313.246	83.5
313.476	82.5
313.706	87.5
313.935	84.5
314.165	89.5
314.394	92.5
314.624	95.5
314.853	91.5
315.083	107.5
315.312	103.5
315.542	81.5
315.771	82.5
316.001	86.5
316.23	88.5
316.46	83.5
316.689	90.5
316.919	98.5
317.148	91.5
317.377	95.5
317.607	82.5
317.836	88.5
318.065	71.5
318.295	82.5
318.524	89.5
318.753	91.5
318.983	95.5
319.212	94.5
319.441	104.5
319.67	100.5
319.9	97.5
320.129	98.5
320.358	95.5
320.587	91.5
320.816	105.5
321.046	92.5
321.275	101.5
321.504	97.5
321.733	91.5
321.962	92.5
322.191	80.5
322.42	96.5
322.649	111.5
322.878	104.5
323.108	122.5
323.337	127.5
323.566	130.5
323.795	146.5
324.024	184.5
324.253	358.5
324.482	709.5
324.71	1425.5
324.939	1894.5
325.168	694.5
325.397	219.5
325.626	140.5
325.855	121.5
326.084	115.5
326.313	120.5
326.542	135.5
326.77	203.5
326.999	415.5
327.228	813.5
327.457	1462.5
327.686	1153.5
327.914	374.5
328.143	242.5
328.372	258.5
328.6	177.5
328.829	122.5
329.058	137.5
329.287	125.5
329.515	111.5
329.744	146.5
329.972	202.5
330.201	345.5
330.43	432.5
330.658	236.5
330.887	155.5
331.115	128.5
331.344	107.5
331.572	111.5
331.801	100.5
332.03	99.5
332.258	91.5
332.486	80.5
332.715	84.5
332.943	107.5
333.172	97.5
333.4	118.5
333.629	118.5
333.857	128.5
334.085	191.5
334.314	322.5
334.542	564.5
334.771	497.5
334.999	186.5
335.227	123.5
335.455	102.5
335.684	95.5
335.912	106.5
336.14	99.5
336.369	92.5
336.597	94.5
336.825	85.5
337.053	92.5
337.281	98.5
337.51	99.5
337.738	87.5
337.966	97.5
338.194	94.5
338.422	74.5
338.65	96.5
338.878	93.5
339.106	91.5
339.334	103.5
339.562	88.5
339.79	93.5
340.018	94.5
340.246	89.5
340.474	93.5
340.702	102.5
340.93	101.5
341.158	85.5
341.386	92.5
341.614	91.5
341.842	89.5
342.07	84.5
342.298	95.5
342.526	85.5
342.754	76.5
342.981	92.5
343.209	79.5
343.437	97.5
343.665	94.5
343.893	96.5
344.12	87.5
344.348	80.5
344.576	99.5
344.804	83.5
345.031	104.5
345.259	110.5
345.487	87.5
345.714	99.5
345.942	92.5
346.17	90.5
346.397	83.5
346.625	101.5
346.853	84.5
347.08	81.5
347.308	80.5
347.535	95.5
347.763	105.5
347.99	90.5
348.218	107.5
348.445	85.5
348.673	87.5
348.9	86.5
349.128	93.5
349.355	90.5
349.583	100.5
349.81	84.5
350.037	102.5
350.265	99.5
350.492	99.5
350.72	93.5
350.947	95.5
351.174	118.5
351.402	111.5
351.629	81.5
351.856	103.5
352.083	98.5
352.311	110.5
352.538	95.5
352.765	119.5
352.992	114.5
353.22	120.5
353.447	107.5
353.674	87.5
353.901	97.5
354.128	88.5
354.355	87.5
354.583	84.5
354.81	98.5
355.037	89.5
355.264	98.5
355.491	91.5
355.718	103.5
355.945	96.5
356.172	103.5
356.399	82.5
356.626	103.5
356.853	80.5
357.08	90.5
357.307	95.5
357.534	103.5
357.761	103.5
357.988	95.5
358.215	90.5
358.441	97.5
358.668	101.5
358.895	104.5
359.122	89.5
359.349	78.5
359.576	82.5
359.802	97.5
360.029	104.5
360.256	107.5
360.483	106.5
360.709	95.5
360.936	104.5
361.163	85.5
361.39	96.5
361.616	97.5
361.843	89.5
362.07	95.5
362.296	83.5
362.523	84.5
362.749	98.5
362.976	80.5
363.203	90.5
363.429	90.5
363.656	82.5
363.882	105.5
364.109	87.5
364.335	94.5
364.562	88.5
364.788	84.5
365.015	108.5
365.241	90.5
365.468	113.5
365.694	112.5
365.92	86.5
366.147	90.5
366.373	68.5
366.599	90.5
366.826	105.5
367.052	87.5
367.278	95.5
367.505	96.5
367.731	91.5
367.957	89.5
368.184	110.5
368.41	111.5
368.636	97.5
368.862	118.5
369.089	105.5
369.315	93.5
369.541	80.5
369.767	85.5
369.993	84.5
370.219	89.5
370.445	81.5
370.672	91.5
370.898	82.5
371.124	95.5
371.35	90.5
371.576	73.5
371.802	79.5
372.028	83.5
372.254	99.5
372.48	78.5
372.706	85.5
372.932	102.5
373.158	86.5
373.384	84.5
373.61	83.5
373.835	96.5
374.061	81.5
374.287	91.5
374.513	90.5
374.739	95.5
374.965	96.5
375.191	94.5
375.416	92.5
375.642	71.5
375.868	102.5
376.094	90.5
376.319	92.5
376.545	90.5
376.771	83.5
376.997	99.5
377.222	89.5
377.448	97.5
377.674	86.5
377.899	90.5
378.125	93.5
378.35	100.5
378.576	85.5
378.802	92.5
379.027	85.5
379.253	90.5
379.478	93.5
379.704	99.5
379.929	106.5
380.155	78.5
380.38	93.5
380.606	77.5
380.831	94.5
381.057	98.5
381.282	90.5
381.507	97.5
381.733	102.5
381.958	96.5
382.184	96.5
382.409	107.5
382.634	113.5
382.86	108.5
383.085	96.5
383.31	102.5
383.535	106.5
383.761	92.5
383.986	112.5
384.211	117.5
384.436	93.5
384.662	110.5
384.887	118.5
385.112	118.5
385.337	121.5
385.562	124.5
385.787	112.5
386.013	126.5
386.238	131.5
386.463	120.5
386.688	124.5
386.913	120.5
387.138	124.5
387.363	106.5
387.588	116.5
387.813	117.5
388.038	122.5
388.263	126.5
388.488	129.5
388.713	101.5
388.938	90.5
389.163	88.5
389.387	101.5
389.612	96.5
389.837	100.5
390.062	99.5
390.287	90.5
390.512	86.5
390.736	90.5
390.961	84.5
391.186	95.5
391.411	96.5
391.636	85.5
391.86	82.5
392.085	92.5
392.31	77.5
392.534	71.5
392.759	86.5
392.984	88.5
393.208	91.5
393.433	115.5
393.658	109.5
393.882	81.5
394.107	87.5
394.331	86.5
394.556	78.5
394.78	87.5
395.005	98.5
395.229	88.5
395.454	78.5
395.678	88.5
395.903	85.5
396.127	91.5
396.352	86.5
396.576	97.5
396.801	90.5
397.025	105.5
397.249	88.5
397.474	94.5
397.698	94.5
397.922	80.5
398.147	89.5
398.371	73.5
398.595	79.5
398.82	79.5
399.044	79.5
399.268	86.5
399.492	82.5
399.717	87.5
399.941	99.5
400.165	99.5
400.389	78.5
400.613	85.5
400.837	81.5
401.062	92.5
401.286	75.5
401.51	78.5
401.734	94.5
401.958	95.5
402.182	104.5
402.406	153.5
402.63	118.5
402.854	86.5
403.078	76.5
403.302	82.5
403.526	92.5
403.75	96.5
403.974	92.5
404.198	96.5
404.422	82.5
404.645	84.5
404.869	77.5
405.093	98.5
405.317	104.5
405.541	89.5
405.765	92.5
405.988	117.5
406.212	166.5
406.436	209.5
406.66	136.5
406.883	107.5
407.107	99.5
407.331	102.5
407.555	104.5
407.778	98.5
408.002	83.5
408.226	90.5
408.449	84.5
408.673	97.5
408.896	98.5
409.12	96.5
409.344	86.5
409.567	75.5
409.791	95.5
410.014	97.5
410.238	86.5
410.461	90.5
410.685	73.5
410.908	101.5
411.132	95.5
411.355	91.5
411.578	102.5
411.802	88.5
412.025	90.5
412.249	97.5
412.472	96.5
412.695	99.5
412.919	107.5
413.142	84.5
413.365	84.5
413.589	86.5
413.812	90.5
414.035	89.5
414.258	88.5
414.482	91.5
414.705	88.5
414.928	96.5
415.151	84.5
415.374	88.5
415.597	83.5
415.821	76.5
416.044	94.5
416.267	90.5
416.49	76.5
416.713	79.5
416.936	103.5
417.159	84.5
417.382	86.5
417.605	89.5
417.828	96.5
418.051	91.5
418.274	90.5
418.497	89.5
418.72	79.5
418.943	103.5
419.166	102.5
419.389	92.5
419.611	83.5
419.834	98.5
420.057	92.5
420.28	78.5
420.503	81.5
420.726	73.5
420.948	84.5
421.171	86.5
421.394	96.5
421.617	99.5
421.839	88.5
422.062	88.5
422.285	112.5
422.507	104.5
422.73	106.5
422.953	88.5
423.175	105.5
423.398	94.5
423.621	101.5
423.843	98.5
424.066	84.5
424.288	96.5
424.511	85.5
424.733	105.5
424.956	93.5
425.178	99.5
425.401	98.5
425.623	90.5
425.846	94.5
426.068	99.5
426.291	78.5
426.513	96.5
426.735	92.5
426.958	98.5
427.18	113.5
427.402	129.5
427.625	168.5
427.847	144.5
428.069	142.5
428.292	101.5
428.514	78.5
428.736	84.5
428.958	91.5
429.181	85.5
429.403	88.5
429.625	90.5
429.847	88.5
430.069	98.5
430.292	88.5
430.514	100.5
430.736	92.5
430.958	89.5
431.18	84.5
431.402	76.5
431.624	104.5
431.846	97.5
432.068	84.5
432.29	84.5
432.512	85.5
432.734	91.5
432.956	90.5
433.178	88.5
433.4	101.5
433.622	89.5
433.844	90.5
434.066	92.5
434.287	94.5
434.509	92.5
434.731	86.5
434.953	87.5
435.175	80.5
435.397	98.5
435.618	98.5
435.84	111.5
436.062	111.5
436.284	107.5
436.505	100.5
436.727	91.5
436.949	83.5
437.17	80.5
437.392	87.5
437.614	80.5
437.835	93.5
438.057	111.5
438.278	104.5
438.5	114.5
438.721	111.5
438.943	95.5
439.165	94.5
439.386	77.5
439.608	98.5
439.829	98.5
440.05	131.5
440.272	141.5
440.493	92.5
440.715	90.5
440.936	92.5
441.158	91.5
441.379	87.5
441.6	84.5
441.822	87.5
442.043	93.5
442.264	95.5
442.486	89.5
442.707	102.5
442.928	98.5
443.149	105.5
443.371	131.5
443.592	98.5
443.813	107.5
444.034	95.5
444.255	90.5
444.476	91.5
444.698	102.5
444.919	84.5
445.14	130.5
445.361	109.5
445.582	110.5
445.803	144.5
446.024	124.5
446.245	119.5
446.466	104.5
446.687	89.5
446.908	93.5
447.129	94.5
447.35	97.5
447.571	94.5
447.792	76.5
448.013	79.5
448.234	102.5
448.455	111.5
448.675	79.5
448.896	101.5
449.117	108.5
449.338	98.5
449.559	98.5
449.779	139.5
450	93.5
450.221	90.5
450.442	90.5
450.662	86.5
450.883	106.5
451.104	106.5
451.324	90.5
451.545	80.5
451.766	76.5
451.986	82.5
452.207	90.5
452.428	92.5
452.648	88.5
452.869	112.5
453.089	96.5
453.31	115.5
453.53	83.5
453.751	84.5
453.971	103.5
454.192	95.5
454.412	110.5
454.633	90.5
454.853	93.5
455.073	86.5
455.294	75.5
455.514	111.5
455.734	96.5
455.955	88.5
456.175	94.5
456.395	76.5
456.616	81.5
456.836	78.5
457.056	81.5
457.276	91.5
457.497	92.5
457.717	92.5
457.937	68.5
458.157	96.5
458.377	99.5
458.598	98.5
458.818	145.5
459.038	154.5
459.258	106.5
459.478	78.5
459.698	91.5
459.918	90.5
460.138	84.5
460.358	83.5
460.578	73.5
460.798	90.5
461.018	76.5
461.238	81.5
461.458	83.5
461.678	70.5
461.898	81.5
462.118	83.5
462.338	91.5
462.558	97.5
462.777	87.5
462.997	76.5
463.217	89.5
463.437	95.5
463.657	87.5
463.876	95.5
464.096	98.5
464.316	86.5
464.536	82.5
464.755	89.5
464.975	104.5
465.195	147.5
465.414	138.5
465.634	100.5
465.854	90.5
466.073	79.5
466.293	78.5
466.512	77.5
466.732	91.5
466.951	94.5
467.171	100.5
467.391	97.5
467.61	101.5
467.829	129.5
468.049	204.5
468.268	279.5
468.488	123.5
468.707	95.5
468.927	90.5
469.146	88.5
469.365	78.5
469.585	91.5
469.804	100.5
470.023	99.5
470.243	82.5
470.462	106.5
470.681	110.5
470.901	97.5
471.12	88.5
471.339	92.5
471.558	86.5
471.777	101.5
471.997	153.5
472.216	374.5
472.435	779.5
472.654	224.5
472.873	113.5
473.092	104.5
473.311	97.5
473.53	92.5
473.749	93.5
473.968	99.5
474.187	97.5
474.406	90.5
474.625	81.5
474.844	104.5
475.063	92.5
475.282	88.5
475.501	80.5
475.72	78.5
475.939	83.5
476.158	82.5
476.377	99.5
476.596	86.5
476.814	90.5
477.033	89.5
477.252	105.5
477.471	88.5
477.69	103.5
477.908	94.5
478.127	90.5
478.346	82.5
478.564	84.5
478.783	104.5
479.002	105.5
479.22	96.5
479.439	102.5
479.658	108.5
479.876	100.5
480.095	95.5
480.313	90.5
480.532	116.5
480.751	149.5
480.969	377.5
481.188	1260.5
481.406	748.5
481.624	181.5
481.843	95.5
482.061	98.5
482.28	82.5
482.498	101.5
482.717	86.5
482.935	89.5
483.153	102.5
483.372	91.5
483.59	89.5
483.808	94.5
484.027	89.5
484.245	100.5
484.463	90.5
484.681	100.5
484.9	89.5
485.118	104.5
485.336	110.5
485.554	100.5
485.772	99.5
485.99	100.5
486.209	97.5
486.427	104.5
486.645	123.5
486.863	116.5
487.081	100.5
487.299	91.5
487.517	81.5
487.735	87.5
487.953	102.5
488.171	104.5
488.389	94.5
488.607	98.5
488.825	98.5
489.043	104.5
489.261	91.5
489.479	77.5
489.696	78.5
489.914	96.5
490.132	101.5
490.35	78.5
490.568	87.5
490.786	84.5
491.003	92.5
491.221	95.5
491.439	90.5
491.657	85.5
491.874	83.5
492.092	83.5
492.31	89.5
492.527	99.5
492.745	67.5
492.963	90.5
493.18	88.5
493.398	91.5
493.615	102.5
493.833	95.5
494.05	88.5
494.268	74.5
494.485	95.5
494.703	92.5
494.92	85.5
495.138	76.5
495.355	103.5
495.573	90.5
495.79	82.5
496.008	91.5
496.225	94.5
496.442	94.5
496.66	81.5
496.877	82.5
497.094	81.5
497.312	85.5
497.529	91.5
497.746	89.5
497.963	96.5
498.181	100.5
498.398	106.5
498.615	114.5
498.832	97.5
499.049	95.5
499.267	100.5
499.484	99.5
499.701	87.5
499.918	92.5
500.135	79.5
500.352	89.5
500.569	95.5
500.786	80.5
501.003	78.5
501.22	84.5
501.437	84.5
501.654	90.5
501.871	101.5
502.088	97.5
502.305	95.5
502.522	79.5
502.739	86.5
502.956	84.5
503.172	89.5
503.389	97.5
503.606	112.5
503.823	105.5
504.04	97.5
504.256	78.5
504.473	82.5
504.69	95.5
504.907	94.5
505.123	83.5
505.34	86.5
505.557	90.5
505.773	94.5
505.99	87.5
506.207	84.5
506.423	101.5
506.64	72.5
506.856	82.5
507.073	86.5
507.289	97.5
507.506	97.5
507.722	96.5
507.939	102.5
508.155	98.5
508.372	100.5
508.588	92.5
508.805	89.5
509.021	114.5
509.238	89.5
509.454	95.5
509.67	104.5
509.887	106.5
510.103	120.5
510.319	193.5
510.536	629.5
510.752	1974.5
510.968	559.5
511.184	141.5
511.401	91.5
511.617	100.5
511.833	93.5
512.049	90.5
512.265	85.5
512.481	97.5
512.698	92.5
512.914	89.5
513.13	95.5
513.346	99.5
513.562	90.5
513.778	107.5
513.994	83.5
514.21	104.5
514.426	110.5
514.642	123.5
514.858	120.5
515.074	155.5
515.29	384.5
515.506	1288.5
515.721	476.5
515.937	142.5
516.153	115.5
516.369	95.5
516.585	99.5
516.801	104.5
517.016	105.5
517.232	100.5
517.448	81.5
517.664	82.5
517.879	96.5
518.095	102.5
518.311	96.5
518.527	98.5
518.742	88.5
518.958	84.5
519.173	79.5
519.389	91.5
519.605	100.5
519.82	92.5
520.036	99.5
520.251	127.5
520.467	127.5
520.682	88.5
520.898	110.5
521.113	103.5
521.329	126.5
521.544	207.5
521.76	475.5
521.975	2054.5
522.19	1249.5
522.406	278.5
522.621	115.5
522.836	104.5
523.052	82.5
523.267	91.5
523.482	97.5
523.698	94.5
523.913	100.5
524.128	97.5
524.343	94.5
524.559	83.5
524.774	73.5
524.989	96.5
525.204	91.5
525.419	101.5
525.634	98.5
525.849	86.5
526.064	84.5
526.28	89.5
526.495	97.5
526.71	89.5
526.925	95.5
527.14	82.5
527.355	99.5
527.57	84.5
527.785	97.5
527.999	88.5
528.214	82.5
528.429	97.5
528.644	79.5
528.859	90.5
529.074	90.5
529.289	124.5
529.503	171.5
529.718	112.5
529.933	96.5
530.148	93.5
530.363	88.5
530.577	85.5
530.792	91.5
531.007	93.5
531.221	86.5
531.436	88.5
531.651	97.5
531.865	92.5
532.08	103.5
532.295	99.5
532.509	80.5
532.724	92.5
532.938	98.5
533.153	99.5
533.367	108.5
533.582	107.5
533.796	93.5
534.011	86.5
534.225	102.5
534.44	93.5
534.654	95.5
534.868	80.5
535.083	89.5
