Data from Circ_2001_H10_HRD10591_00060.txt Node
Date: Wed Jan 03 10:45:50 EST 2024
User: Yrep
Spectrometer: HR+D1059
Trigger mode: 1
Integration Time (sec): 1.000000E-1
Scans to average: 1
Electric dark correction enabled: true
Nonlinearity correction enabled: false
Boxcar width: 0
XAxis mode: Wavelengths
Number of Pixels in Spectrum: 2048
>>>>>Begin Spectral Data<<<<<
223.165	-26.69
223.4	-26.69
223.635	-26.69
223.869	-15.69
224.104	-12.69
224.338	-8.69
224.573	-10.69
224.808	-6.69
225.042	-6.69
225.277	-12.69
225.511	-7.69
225.746	-11.69
225.98	6.31
226.215	9.31
226.449	22.31
226.683	15.31
226.918	37.31
227.152	29.31
227.387	38.31
227.621	40.31
227.856	41.31
228.09	41.31
228.324	52.31
228.559	59.31
228.793	43.31
229.027	52.31
229.262	60.31
229.496	82.31
229.73	88.31
229.964	84.31
230.199	88.31
230.433	88.31
230.667	92.31
230.901	77.31
231.136	78.31
231.37	76.31
231.604	96.31
231.838	87.31
232.072	72.31
232.306	75.31
232.541	87.31
232.775	67.31
233.009	80.31
233.243	79.31
233.477	92.31
233.711	84.31
233.945	82.31
234.179	90.31
234.413	84.31
234.647	83.31
234.881	70.31
235.115	77.31
235.349	75.31
235.583	82.31
235.817	76.31
236.051	81.31
236.285	76.31
236.519	72.31
236.753	81.31
236.987	89.31
237.221	88.31
237.455	91.31
237.689	86.31
237.922	80.31
238.156	83.31
238.39	75.31
238.624	68.31
238.858	80.31
239.091	69.31
239.325	96.31
239.559	87.31
239.793	83.31
240.027	72.31
240.26	84.31
240.494	80.31
240.728	72.31
240.961	86.31
241.195	89.31
241.429	80.31
241.662	79.31
241.896	59.31
242.13	81.31
242.363	72.31
242.597	75.31
242.83	75.31
243.064	83.31
243.298	74.31
243.531	83.31
243.765	77.31
243.998	72.31
244.232	78.31
244.465	89.31
244.699	95.31
244.932	85.31
245.166	91.31
245.399	86.31
245.633	80.31
245.866	72.31
246.099	76.31
246.333	66.31
246.566	86.31
246.8	82.31
247.033	89.31
247.266	81.31
247.5	76.31
247.733	71.31
247.966	69.31
248.2	73.31
248.433	81.31
248.666	83.31
248.899	81.31
249.133	84.31
249.366	97.31
249.599	101.31
249.832	86.31
250.066	79.31
250.299	61.31
250.532	85.31
250.765	74.31
250.998	77.31
251.231	91.31
251.465	87.31
251.698	78.31
251.931	92.31
252.164	86.31
252.397	70.31
252.63	82.31
252.863	73.31
253.096	77.31
253.329	79.31
253.562	68.31
253.795	72.31
254.028	74.31
254.261	80.31
254.494	79.31
254.727	96.31
254.96	86.31
255.193	88.31
255.426	75.31
255.659	97.31
255.892	75.31
256.124	91.31
256.357	90.31
256.59	95.31
256.823	84.31
257.056	71.31
257.289	74.31
257.521	86.31
257.754	81.31
257.987	88.31
258.22	84.31
258.452	94.31
258.685	86.31
258.918	100.31
259.151	83.31
259.383	87.31
259.616	76.31
259.849	77.31
260.081	60.31
260.314	83.31
260.547	93.31
260.779	83.31
261.012	97.31
261.244	92.31
261.477	90.31
261.71	104.31
261.942	128.31
262.175	127.31
262.407	96.31
262.64	98.31
262.872	85.31
263.105	87.31
263.337	74.31
263.57	88.31
263.802	86.31
264.035	85.31
264.267	77.31
264.499	82.31
264.732	83.31
264.964	96.31
265.197	80.31
265.429	90.31
265.661	95.31
265.894	79.31
266.126	88.31
266.358	77.31
266.591	82.31
266.823	90.31
267.055	97.31
267.287	95.31
267.52	76.31
267.752	81.31
267.984	87.31
268.216	74.31
268.448	80.31
268.681	99.31
268.913	79.31
269.145	86.31
269.377	91.31
269.609	95.31
269.841	81.31
270.073	74.31
270.306	95.31
270.538	74.31
270.77	83.31
271.002	98.31
271.234	93.31
271.466	85.31
271.698	80.31
271.93	90.31
272.162	82.31
272.394	100.31
272.626	86.31
272.858	105.31
273.09	92.31
273.322	79.31
273.553	86.31
273.785	84.31
274.017	83.31
274.249	79.31
274.481	77.31
274.713	85.31
274.945	85.31
275.176	99.31
275.408	87.31
275.64	99.31
275.872	112.31
276.104	99.31
276.335	93.31
276.567	107.31
276.799	114.31
277.031	142.31
277.262	161.31
277.494	133.31
277.726	103.31
277.957	96.31
278.189	97.31
278.421	110.31
278.652	82.31
278.884	88.31
279.115	104.31
279.347	89.31
279.579	99.31
279.81	122.31
280.042	143.31
280.273	197.31
280.505	148.31
280.736	111.31
280.968	84.31
281.199	83.31
281.431	96.31
281.662	89.31
281.894	88.31
282.125	119.31
282.356	125.31
282.588	154.31
282.819	126.31
283.051	95.31
283.282	97.31
283.513	90.31
283.745	91.31
283.976	85.31
284.207	79.31
284.439	85.31
284.67	83.31
284.901	97.31
285.132	93.31
285.364	80.31
285.595	83.31
285.826	90.31
286.057	106.31
286.288	92.31
286.52	79.31
286.751	80.31
286.982	90.31
287.213	93.31
287.444	91.31
287.675	96.31
287.906	84.31
288.138	93.31
288.369	92.31
288.6	92.31
288.831	71.31
289.062	84.31
289.293	88.31
289.524	82.31
289.755	83.31
289.986	83.31
290.217	77.31
290.448	92.31
290.679	88.31
290.91	81.31
291.141	85.31
291.371	91.31
291.602	77.31
291.833	92.31
292.064	77.31
292.295	86.31
292.526	88.31
292.757	94.31
292.987	83.31
293.218	96.31
293.449	95.31
293.68	93.31
293.91	85.31
294.141	94.31
294.372	87.31
294.603	78.31
294.833	81.31
295.064	83.31
295.295	90.31
295.525	92.31
295.756	97.31
295.987	133.31
296.217	143.31
296.448	133.31
296.679	103.31
296.909	102.31
297.14	81.31
297.37	97.31
297.601	96.31
297.831	96.31
298.062	99.31
298.292	79.31
298.523	98.31
298.753	94.31
298.984	83.31
299.214	91.31
299.445	83.31
299.675	94.31
299.905	91.31
300.136	92.31
300.366	95.31
300.597	102.31
300.827	108.31
301.057	100.31
301.288	120.31
301.518	110.31
301.748	112.31
301.979	103.31
302.209	97.31
302.439	100.31
302.669	92.31
302.9	78.31
303.13	88.31
303.36	106.31
303.59	130.31
303.82	131.31
304.051	111.31
304.281	99.31
304.511	87.31
304.741	90.31
304.971	91.31
305.201	79.31
305.431	85.31
305.661	97.31
305.891	101.31
306.121	91.31
306.352	92.31
306.582	112.31
306.812	99.31
307.042	117.31
307.272	119.31
307.502	146.31
307.731	151.31
307.961	127.31
308.191	94.31
308.421	95.31
308.651	100.31
308.881	89.31
309.111	99.31
309.341	93.31
309.571	96.31
309.8	110.31
310.03	103.31
310.26	101.31
310.49	92.31
310.72	98.31
310.949	103.31
311.179	109.31
311.409	99.31
311.639	95.31
311.868	111.31
312.098	103.31
312.328	103.31
312.557	115.31
312.787	111.31
313.017	103.31
313.246	114.31
313.476	104.31
313.706	94.31
313.935	86.31
314.165	96.31
314.394	109.31
314.624	98.31
314.853	99.31
315.083	93.31
315.312	88.31
315.542	88.31
315.771	98.31
316.001	93.31
316.23	102.31
316.46	78.31
316.689	96.31
316.919	88.31
317.148	96.31
317.377	95.31
317.607	100.31
317.836	96.31
318.065	98.31
318.295	99.31
318.524	92.31
318.753	92.31
318.983	93.31
319.212	96.31
319.441	106.31
319.67	98.31
319.9	97.31
320.129	91.31
320.358	94.31
320.587	100.31
320.816	112.31
321.046	112.31
321.275	94.31
321.504	104.31
321.733	83.31
321.962	89.31
322.191	112.31
322.42	115.31
322.649	107.31
322.878	125.31
323.108	128.31
323.337	137.31
323.566	144.31
323.795	183.31
324.024	216.31
324.253	429.31
324.482	919.31
324.71	1935.31
324.939	2487.31
325.168	885.31
325.397	264.31
325.626	167.31
325.855	153.31
326.084	143.31
326.313	150.31
326.542	172.31
326.77	267.31
326.999	496.31
327.228	1058.31
327.457	1849.31
327.686	1471.31
327.914	460.31
328.143	405.31
328.372	472.31
328.6	290.31
328.829	161.31
329.058	170.31
329.287	174.31
329.515	167.31
329.744	225.31
329.972	384.31
330.201	717.31
330.43	990.31
330.658	474.31
330.887	243.31
331.115	166.31
331.344	92.31
331.572	110.31
331.801	110.31
332.03	111.31
332.258	105.31
332.486	99.31
332.715	119.31
332.943	118.31
333.172	108.31
333.4	117.31
333.629	147.31
333.857	189.31
334.085	349.31
334.314	692.31
334.542	1268.31
334.771	1151.31
334.999	327.31
335.227	154.31
335.455	104.31
335.684	118.31
335.912	92.31
336.14	111.31
336.369	119.31
336.597	107.31
336.825	105.31
337.053	97.31
337.281	105.31
337.51	80.31
337.738	101.31
337.966	100.31
338.194	100.31
338.422	96.31
338.65	101.31
338.878	92.31
339.106	90.31
339.334	88.31
339.562	93.31
339.79	92.31
340.018	99.31
340.246	92.31
340.474	107.31
340.702	94.31
340.93	75.31
341.158	90.31
341.386	107.31
341.614	96.31
341.842	109.31
342.07	102.31
342.298	87.31
342.526	84.31
342.754	84.31
342.981	91.31
343.209	92.31
343.437	95.31
343.665	82.31
343.893	83.31
344.12	95.31
344.348	85.31
344.576	96.31
344.804	95.31
345.031	99.31
345.259	91.31
345.487	90.31
345.714	96.31
345.942	91.31
346.17	103.31
346.397	81.31
346.625	92.31
346.853	99.31
347.08	83.31
347.308	95.31
347.535	102.31
347.763	113.31
347.99	93.31
348.218	100.31
348.445	108.31
348.673	102.31
348.9	102.31
349.128	97.31
349.355	90.31
349.583	92.31
349.81	94.31
350.037	76.31
350.265	100.31
350.492	94.31
350.72	87.31
350.947	95.31
351.174	120.31
351.402	128.31
351.629	97.31
351.856	103.31
352.083	106.31
352.311	112.31
352.538	119.31
352.765	103.31
352.992	131.31
353.22	127.31
353.447	106.31
353.674	107.31
353.901	104.31
354.128	99.31
354.355	90.31
354.583	104.31
354.81	93.31
355.037	88.31
355.264	93.31
355.491	99.31
355.718	91.31
355.945	100.31
356.172	90.31
356.399	94.31
356.626	91.31
356.853	93.31
357.08	87.31
357.307	86.31
357.534	95.31
357.761	90.31
357.988	93.31
358.215	88.31
358.441	85.31
358.668	80.31
358.895	87.31
359.122	92.31
359.349	97.31
359.576	91.31
359.802	87.31
360.029	115.31
360.256	116.31
360.483	111.31
360.709	100.31
360.936	105.31
361.163	93.31
361.39	94.31
361.616	105.31
361.843	92.31
362.07	88.31
362.296	108.31
362.523	106.31
362.749	93.31
362.976	94.31
363.203	100.31
363.429	91.31
363.656	93.31
363.882	91.31
364.109	87.31
364.335	73.31
364.562	99.31
364.788	89.31
365.015	102.31
365.241	100.31
365.468	115.31
365.694	113.31
365.92	100.31
366.147	106.31
366.373	97.31
366.599	105.31
366.826	92.31
367.052	98.31
367.278	89.31
367.505	84.31
367.731	89.31
367.957	88.31
368.184	99.31
368.41	95.31
368.636	115.31
368.862	123.31
369.089	113.31
369.315	87.31
369.541	84.31
369.767	103.31
369.993	94.31
370.219	95.31
370.445	94.31
370.672	89.31
370.898	88.31
371.124	95.31
371.35	88.31
371.576	82.31
371.802	98.31
372.028	85.31
372.254	76.31
372.48	79.31
372.706	91.31
372.932	90.31
373.158	100.31
373.384	96.31
373.61	89.31
373.835	85.31
374.061	86.31
374.287	97.31
374.513	92.31
374.739	91.31
374.965	93.31
375.191	92.31
375.416	90.31
375.642	107.31
375.868	95.31
376.094	100.31
376.319	98.31
376.545	102.31
376.771	93.31
376.997	98.31
377.222	92.31
377.448	93.31
377.674	89.31
377.899	97.31
378.125	95.31
378.35	95.31
378.576	99.31
378.802	96.31
379.027	84.31
379.253	97.31
379.478	79.31
379.704	100.31
379.929	87.31
380.155	90.31
380.38	79.31
380.606	98.31
380.831	97.31
381.057	94.31
381.282	94.31
381.507	105.31
381.733	97.31
381.958	100.31
382.184	104.31
382.409	93.31
382.634	111.31
382.86	90.31
383.085	98.31
383.31	94.31
383.535	98.31
383.761	104.31
383.986	99.31
384.211	97.31
384.436	92.31
384.662	83.31
384.887	98.31
385.112	107.31
385.337	89.31
385.562	115.31
385.787	103.31
386.013	111.31
386.238	123.31
386.463	97.31
386.688	115.31
386.913	102.31
387.138	85.31
387.363	84.31
387.588	105.31
387.813	112.31
388.038	105.31
388.263	116.31
388.488	101.31
388.713	111.31
388.938	107.31
389.163	91.31
389.387	98.31
389.612	93.31
389.837	83.31
390.062	77.31
390.287	85.31
390.512	86.31
390.736	99.31
390.961	88.31
391.186	88.31
391.411	80.31
391.636	101.31
391.86	106.31
392.085	82.31
392.31	96.31
392.534	84.31
392.759	85.31
392.984	98.31
393.208	93.31
393.433	83.31
393.658	85.31
393.882	84.31
394.107	90.31
394.331	100.31
394.556	95.31
394.78	100.31
395.005	82.31
395.229	80.31
395.454	92.31
395.678	89.31
395.903	94.31
396.127	98.31
396.352	90.31
396.576	77.31
396.801	100.31
397.025	91.31
397.249	80.31
397.474	78.31
397.698	83.31
397.922	88.31
398.147	83.31
398.371	68.31
398.595	80.31
398.82	102.31
399.044	79.31
399.268	81.31
399.492	98.31
399.717	91.31
399.941	99.31
400.165	102.31
400.389	87.31
400.613	93.31
400.837	73.31
401.062	85.31
401.286	102.31
401.51	97.31
401.734	87.31
401.958	106.31
402.182	132.31
402.406	182.31
402.63	141.31
402.854	97.31
403.078	89.31
403.302	90.31
403.526	83.31
403.75	88.31
403.974	83.31
404.198	83.31
404.422	87.31
404.645	91.31
404.869	98.31
405.093	118.31
405.317	132.31
405.541	114.31
405.765	98.31
405.988	132.31
406.212	191.31
406.436	269.31
406.66	175.31
406.883	115.31
407.107	100.31
407.331	112.31
407.555	115.31
407.778	109.31
408.002	87.31
408.226	85.31
408.449	91.31
408.673	83.31
408.896	87.31
409.12	91.31
409.344	93.31
409.567	90.31
409.791	91.31
410.014	96.31
410.238	79.31
410.461	96.31
410.685	88.31
410.908	106.31
411.132	108.31
411.355	108.31
411.578	90.31
411.802	96.31
412.025	84.31
412.249	92.31
412.472	105.31
412.695	130.31
412.919	125.31
413.142	81.31
413.365	89.31
413.589	89.31
413.812	89.31
414.035	107.31
414.258	93.31
414.482	99.31
414.705	81.31
414.928	81.31
415.151	93.31
415.374	90.31
415.597	80.31
415.821	96.31
416.044	80.31
416.267	81.31
416.49	88.31
416.713	77.31
416.936	84.31
417.159	90.31
417.382	95.31
417.605	97.31
417.828	99.31
418.051	97.31
418.274	107.31
418.497	98.31
418.72	102.31
418.943	73.31
419.166	99.31
419.389	96.31
419.611	103.31
419.834	100.31
420.057	90.31
420.28	91.31
420.503	90.31
420.726	84.31
420.948	94.31
421.171	85.31
421.394	111.31
421.617	87.31
421.839	88.31
422.062	83.31
422.285	93.31
422.507	105.31
422.73	103.31
422.953	98.31
423.175	94.31
423.398	84.31
423.621	81.31
423.843	86.31
424.066	88.31
424.288	69.31
424.511	96.31
424.733	89.31
424.956	108.31
425.178	108.31
425.401	100.31
425.623	94.31
425.846	106.31
426.068	88.31
426.291	89.31
426.513	92.31
426.735	97.31
426.958	99.31
427.18	119.31
427.402	163.31
427.625	219.31
427.847	203.31
428.069	181.31
428.292	108.31
428.514	77.31
428.736	99.31
428.958	89.31
429.181	103.31
429.403	101.31
429.625	92.31
429.847	104.31
430.069	106.31
430.292	90.31
430.514	85.31
430.736	86.31
430.958	85.31
431.18	80.31
431.402	80.31
431.624	92.31
431.846	101.31
432.068	78.31
432.29	78.31
432.512	85.31
432.734	90.31
432.956	92.31
433.178	97.31
433.4	98.31
433.622	98.31
433.844	76.31
434.066	92.31
434.287	98.31
434.509	88.31
434.731	95.31
434.953	86.31
435.175	89.31
435.397	88.31
435.618	101.31
435.84	97.31
436.062	123.31
436.284	118.31
436.505	105.31
436.727	97.31
436.949	106.31
437.17	101.31
437.392	90.31
437.614	97.31
437.835	100.31
438.057	118.31
438.278	128.31
438.5	112.31
438.721	121.31
438.943	114.31
439.165	98.31
439.386	82.31
439.608	80.31
439.829	95.31
440.05	112.31
440.272	159.31
440.493	95.31
440.715	89.31
440.936	93.31
441.158	90.31
441.379	93.31
441.6	106.31
441.822	98.31
442.043	110.31
442.264	118.31
442.486	108.31
442.707	95.31
442.928	117.31
443.149	145.31
443.371	132.31
443.592	135.31
443.813	123.31
444.034	109.31
444.255	93.31
444.476	99.31
444.698	91.31
444.919	72.31
445.14	148.31
445.361	150.31
445.582	121.31
445.803	170.31
446.024	145.31
446.245	131.31
446.466	116.31
446.687	92.31
446.908	83.31
447.129	86.31
447.35	87.31
447.571	96.31
447.792	102.31
448.013	97.31
448.234	107.31
448.455	114.31
448.675	124.31
448.896	107.31
449.117	97.31
449.338	92.31
449.559	124.31
449.779	131.31
450	97.31
450.221	80.31
450.442	86.31
450.662	101.31
450.883	127.31
451.104	124.31
451.324	92.31
451.545	92.31
451.766	88.31
451.986	75.31
452.207	94.31
452.428	99.31
452.648	111.31
452.869	113.31
453.089	125.31
453.31	130.31
453.53	78.31
453.751	90.31
453.971	106.31
454.192	121.31
454.412	105.31
454.633	84.31
454.853	88.31
455.073	83.31
455.294	81.31
455.514	86.31
455.734	75.31
455.955	87.31
456.175	82.31
456.395	82.31
456.616	88.31
456.836	100.31
457.056	87.31
457.276	95.31
457.497	80.31
457.717	98.31
457.937	82.31
458.157	85.31
458.377	107.31
458.598	109.31
458.818	184.31
459.038	194.31
459.258	123.31
459.478	92.31
459.698	108.31
459.918	89.31
460.138	93.31
460.358	88.31
460.578	85.31
460.798	71.31
461.018	85.31
461.238	92.31
461.458	79.31
461.678	77.31
461.898	84.31
462.118	75.31
462.338	99.31
462.558	78.31
462.777	85.31
462.997	84.31
463.217	99.31
463.437	98.31
463.657	84.31
463.876	103.31
464.096	78.31
464.316	101.31
464.536	102.31
464.755	91.31
464.975	102.31
465.195	218.31
465.414	204.31
465.634	98.31
465.854	87.31
466.073	91.31
466.293	90.31
466.512	97.31
466.732	86.31
466.951	107.31
467.171	82.31
467.391	93.31
467.61	119.31
467.829	167.31
468.049	408.31
468.268	599.31
468.488	176.31
468.707	97.31
468.927	105.31
469.146	88.31
469.365	97.31
469.585	109.31
469.804	106.31
470.023	101.31
470.243	106.31
470.462	120.31
470.681	124.31
470.901	101.31
471.12	93.31
471.339	107.31
471.558	104.31
471.777	135.31
471.997	240.31
472.216	819.31
472.435	1754.31
472.654	429.31
472.873	141.31
473.092	106.31
473.311	99.31
473.53	112.31
473.749	100.31
473.968	94.31
474.187	105.31
474.406	90.31
474.625	95.31
474.844	85.31
475.063	89.31
475.282	102.31
475.501	88.31
475.72	87.31
475.939	92.31
476.158	87.31
476.377	81.31
476.596	100.31
476.814	88.31
477.033	104.31
477.252	100.31
477.471	86.31
477.69	92.31
477.908	82.31
478.127	84.31
478.346	83.31
478.564	90.31
478.783	99.31
479.002	94.31
479.22	102.31
479.439	121.31
479.658	108.31
479.876	106.31
480.095	107.31
480.313	130.31
480.532	158.31
480.751	243.31
480.969	775.31
481.188	3027.31
481.406	1711.31
481.624	290.31
481.843	116.31
482.061	95.31
482.28	92.31
482.498	101.31
482.717	71.31
482.935	91.31
483.153	86.31
483.372	104.31
483.59	91.31
483.808	81.31
484.027	103.31
484.245	92.31
484.463	107.31
484.681	88.31
484.9	93.31
485.118	85.31
485.336	92.31
485.554	100.31
485.772	97.31
485.99	106.31
486.209	104.31
486.427	117.31
486.645	129.31
486.863	122.31
487.081	99.31
487.299	98.31
487.517	89.31
487.735	95.31
487.953	87.31
488.171	88.31
488.389	94.31
488.607	96.31
488.825	99.31
489.043	82.31
489.261	89.31
489.479	86.31
489.696	90.31
489.914	83.31
490.132	89.31
490.35	85.31
490.568	92.31
490.786	100.31
491.003	89.31
491.221	81.31
491.439	92.31
491.657	90.31
491.874	85.31
492.092	96.31
492.31	89.31
492.527	90.31
492.745	94.31
492.963	98.31
493.18	94.31
493.398	120.31
493.615	99.31
493.833	98.31
494.05	93.31
494.268	93.31
494.485	90.31
494.703	100.31
494.92	109.31
495.138	93.31
495.355	80.31
495.573	108.31
495.79	96.31
496.008	94.31
496.225	102.31
496.442	77.31
496.66	81.31
496.877	98.31
497.094	95.31
497.312	107.31
497.529	89.31
497.746	88.31
497.963	92.31
498.181	95.31
498.398	105.31
498.615	111.31
498.832	94.31
499.049	105.31
499.267	100.31
499.484	87.31
499.701	88.31
499.918	98.31
500.135	101.31
500.352	86.31
500.569	91.31
500.786	82.31
501.003	92.31
501.22	85.31
501.437	92.31
501.654	98.31
501.871	127.31
502.088	94.31
502.305	100.31
502.522	78.31
502.739	75.31
502.956	84.31
503.172	84.31
503.389	101.31
503.606	120.31
503.823	98.31
504.04	93.31
504.256	92.31
504.473	95.31
504.69	91.31
504.907	93.31
505.123	100.31
505.34	99.31
505.557	87.31
505.773	102.31
505.99	103.31
506.207	93.31
506.423	95.31
506.64	103.31
506.856	91.31
507.073	88.31
507.289	97.31
507.506	88.31
507.722	131.31
507.939	126.31
508.155	99.31
508.372	98.31
508.588	98.31
508.805	100.31
509.021	100.31
509.238	91.31
509.454	99.31
509.67	113.31
509.887	100.31
510.103	119.31
510.319	209.31
510.536	784.31
510.752	2567.31
510.968	711.31
511.184	168.31
511.401	125.31
511.617	93.31
511.833	101.31
512.049	90.31
512.265	100.31
512.481	103.31
512.698	99.31
512.914	78.31
513.13	92.31
513.346	79.31
513.562	109.31
513.778	106.31
513.994	95.31
