Data from Circ_2001_H10_HRD10591_00089.txt Node
Date: Wed Jan 03 10:45:56 EST 2024
User: Yrep
Spectrometer: HR+D1059
Trigger mode: 1
Integration Time (sec): 1.000000E-1
Scans to average: 1
Electric dark correction enabled: true
Nonlinearity correction enabled: false
Boxcar width: 0
XAxis mode: Wavelengths
Number of Pixels in Spectrum: 2048
>>>>>Begin Spectral Data<<<<<
223.165	-20.06
223.4	-20.06
223.635	-20.06
223.869	-18.06
224.104	-11.06
224.338	-30.06
224.573	-1.06
224.808	-5.06
225.042	-13.06
225.277	-5.06
225.511	5.94
225.746	-1.06
225.98	1.94
226.215	15.94
226.449	19.94
226.683	17.94
226.918	14.94
227.152	27.94
227.387	30.94
227.621	41.94
227.856	33.94
228.09	56.94
228.324	59.94
228.559	55.94
228.793	60.94
229.027	69.94
229.262	71.94
229.496	72.94
229.73	82.94
229.964	71.94
230.199	71.94
230.433	93.94
230.667	66.94
230.901	101.94
231.136	76.94
231.37	75.94
231.604	85.94
231.838	82.94
232.072	73.94
232.306	83.94
232.541	72.94
232.775	74.94
233.009	61.94
233.243	92.94
233.477	81.94
233.711	83.94
233.945	88.94
234.179	81.94
234.413	80.94
234.647	87.94
234.881	81.94
235.115	89.94
235.349	88.94
235.583	88.94
235.817	70.94
236.051	86.94
236.285	82.94
236.519	81.94
236.753	62.94
236.987	78.94
237.221	74.94
237.455	93.94
237.689	84.94
237.922	78.94
238.156	81.94
238.39	65.94
238.624	83.94
238.858	77.94
239.091	74.94
239.325	88.94
239.559	92.94
239.793	76.94
240.027	84.94
240.26	86.94
240.494	82.94
240.728	78.94
240.961	83.94
241.195	80.94
241.429	74.94
241.662	84.94
241.896	75.94
242.13	65.94
242.363	82.94
242.597	75.94
242.83	73.94
243.064	73.94
243.298	75.94
243.531	87.94
243.765	89.94
243.998	75.94
244.232	88.94
244.465	85.94
244.699	73.94
244.932	82.94
245.166	71.94
245.399	79.94
245.633	83.94
245.866	69.94
246.099	83.94
246.333	81.94
246.566	90.94
246.8	87.94
247.033	73.94
247.266	86.94
247.5	77.94
247.733	84.94
247.966	91.94
248.2	78.94
248.433	90.94
248.666	87.94
248.899	93.94
249.133	105.94
249.366	105.94
249.599	104.94
249.832	97.94
250.066	90.94
250.299	83.94
250.532	91.94
250.765	94.94
250.998	76.94
251.231	83.94
251.465	100.94
251.698	93.94
251.931	87.94
252.164	86.94
252.397	87.94
252.63	98.94
252.863	79.94
253.096	88.94
253.329	90.94
253.562	77.94
253.795	90.94
254.028	94.94
254.261	62.94
254.494	80.94
254.727	91.94
254.96	97.94
255.193	91.94
255.426	89.94
255.659	81.94
255.892	97.94
256.124	100.94
256.357	101.94
256.59	76.94
256.823	77.94
257.056	82.94
257.289	77.94
257.521	99.94
257.754	76.94
257.987	88.94
258.22	113.94
258.452	96.94
258.685	98.94
258.918	90.94
259.151	93.94
259.383	97.94
259.616	90.94
259.849	84.94
260.081	78.94
260.314	99.94
260.547	94.94
260.779	85.94
261.012	103.94
261.244	104.94
261.477	99.94
261.71	102.94
261.942	139.94
262.175	132.94
262.407	106.94
262.64	88.94
262.872	84.94
263.105	99.94
263.337	94.94
263.57	99.94
263.802	97.94
264.035	82.94
264.267	81.94
264.499	94.94
264.732	89.94
264.964	92.94
265.197	84.94
265.429	91.94
265.661	69.94
265.894	91.94
266.126	69.94
266.358	90.94
266.591	84.94
266.823	82.94
267.055	68.94
267.287	75.94
267.52	86.94
267.752	89.94
267.984	83.94
268.216	94.94
268.448	78.94
268.681	91.94
268.913	81.94
269.145	83.94
269.377	77.94
269.609	73.94
269.841	80.94
270.073	83.94
270.306	88.94
270.538	98.94
270.77	87.94
271.002	88.94
271.234	83.94
271.466	94.94
271.698	94.94
271.93	85.94
272.162	94.94
272.394	93.94
272.626	99.94
272.858	94.94
273.09	86.94
273.322	84.94
273.553	84.94
273.785	79.94
274.017	78.94
274.249	91.94
274.481	85.94
274.713	85.94
274.945	94.94
275.176	88.94
275.408	100.94
275.64	104.94
275.872	104.94
276.104	105.94
276.335	89.94
276.567	109.94
276.799	135.94
277.031	147.94
277.262	165.94
277.494	142.94
277.726	98.94
277.957	110.94
278.189	91.94
278.421	88.94
278.652	88.94
278.884	81.94
279.115	91.94
279.347	89.94
279.579	104.94
279.81	138.94
280.042	170.94
280.273	217.94
280.505	171.94
280.736	111.94
280.968	85.94
281.199	103.94
281.431	90.94
281.662	93.94
281.894	98.94
282.125	121.94
282.356	122.94
282.588	154.94
282.819	133.94
283.051	89.94
283.282	86.94
283.513	88.94
283.745	87.94
283.976	86.94
284.207	94.94
284.439	92.94
284.67	84.94
284.901	82.94
285.132	93.94
285.364	94.94
285.595	84.94
285.826	101.94
286.057	102.94
286.288	81.94
286.52	92.94
286.751	83.94
286.982	87.94
287.213	91.94
287.444	94.94
287.675	91.94
287.906	82.94
288.138	85.94
288.369	85.94
288.6	105.94
288.831	80.94
289.062	81.94
289.293	97.94
289.524	84.94
289.755	87.94
289.986	91.94
290.217	75.94
290.448	94.94
290.679	93.94
290.91	80.94
291.141	91.94
291.371	90.94
291.602	90.94
291.833	83.94
292.064	86.94
292.295	100.94
292.526	97.94
292.757	102.94
292.987	87.94
293.218	81.94
293.449	96.94
293.68	76.94
293.91	105.94
294.141	102.94
294.372	106.94
294.603	94.94
294.833	81.94
295.064	93.94
295.295	98.94
295.525	101.94
295.756	104.94
295.987	121.94
296.217	157.94
296.448	128.94
296.679	93.94
296.909	87.94
297.14	94.94
297.37	111.94
297.601	102.94
297.831	105.94
298.062	92.94
298.292	94.94
298.523	94.94
298.753	94.94
298.984	103.94
299.214	101.94
299.445	109.94
299.675	92.94
299.905	108.94
300.136	86.94
300.366	108.94
300.597	94.94
300.827	109.94
301.057	101.94
301.288	110.94
301.518	99.94
301.748	98.94
301.979	105.94
302.209	95.94
302.439	89.94
302.669	98.94
302.9	84.94
303.13	91.94
303.36	113.94
303.59	113.94
303.82	131.94
304.051	92.94
304.281	93.94
304.511	91.94
304.741	97.94
304.971	86.94
305.201	93.94
305.431	85.94
305.661	86.94
305.891	86.94
306.121	96.94
306.352	113.94
306.582	103.94
306.812	102.94
307.042	108.94
307.272	149.94
307.502	166.94
307.731	145.94
307.961	119.94
308.191	113.94
308.421	109.94
308.651	97.94
308.881	93.94
309.111	101.94
309.341	112.94
309.571	108.94
309.8	108.94
310.03	107.94
310.26	113.94
310.49	109.94
310.72	109.94
310.949	115.94
311.179	99.94
311.409	101.94
311.639	94.94
311.868	99.94
312.098	112.94
312.328	95.94
312.557	116.94
312.787	108.94
313.017	104.94
313.246	102.94
313.476	101.94
313.706	99.94
313.935	100.94
314.165	113.94
314.394	111.94
314.624	110.94
314.853	105.94
315.083	83.94
315.312	102.94
315.542	102.94
315.771	98.94
316.001	84.94
316.23	101.94
316.46	91.94
316.689	93.94
316.919	102.94
317.148	98.94
317.377	101.94
317.607	92.94
317.836	92.94
318.065	105.94
318.295	95.94
318.524	102.94
318.753	106.94
318.983	109.94
319.212	103.94
319.441	115.94
319.67	118.94
319.9	90.94
320.129	99.94
320.358	91.94
320.587	106.94
320.816	110.94
321.046	100.94
321.275	95.94
321.504	101.94
321.733	92.94
321.962	101.94
322.191	107.94
322.42	118.94
322.649	124.94
322.878	132.94
323.108	149.94
323.337	144.94
323.566	145.94
323.795	185.94
324.024	253.94
324.253	520.94
324.482	1133.94
324.71	2409.94
324.939	3148.94
325.168	1093.94
325.397	298.94
325.626	190.94
325.855	140.94
326.084	135.94
326.313	156.94
326.542	177.94
326.77	286.94
326.999	602.94
327.228	1254.94
327.457	2402.94
327.686	1848.94
327.914	573.94
328.143	476.94
328.372	563.94
328.6	326.94
328.829	172.94
329.058	169.94
329.287	190.94
329.515	165.94
329.744	230.94
329.972	424.94
330.201	826.94
330.43	1201.94
330.658	553.94
330.887	258.94
331.115	175.94
331.344	129.94
331.572	124.94
331.801	132.94
332.03	107.94
332.258	106.94
332.486	112.94
332.715	114.94
332.943	114.94
333.172	125.94
333.4	148.94
333.629	164.94
333.857	221.94
334.085	385.94
334.314	808.94
334.542	1542.94
334.771	1441.94
334.999	387.94
335.227	157.94
335.455	134.94
335.684	116.94
335.912	117.94
336.14	113.94
336.369	99.94
336.597	120.94
336.825	114.94
337.053	99.94
337.281	97.94
337.51	96.94
337.738	114.94
337.966	93.94
338.194	120.94
338.422	114.94
338.65	97.94
338.878	96.94
339.106	90.94
339.334	99.94
339.562	92.94
339.79	96.94
340.018	87.94
340.246	98.94
340.474	102.94
340.702	100.94
340.93	101.94
341.158	104.94
341.386	98.94
341.614	110.94
341.842	101.94
342.07	106.94
342.298	105.94
342.526	109.94
342.754	94.94
342.981	94.94
343.209	94.94
343.437	101.94
343.665	88.94
343.893	100.94
344.12	95.94
344.348	88.94
344.576	102.94
344.804	101.94
345.031	122.94
345.259	121.94
345.487	108.94
345.714	95.94
345.942	105.94
346.17	101.94
346.397	104.94
346.625	98.94
346.853	106.94
347.08	107.94
347.308	109.94
347.535	105.94
347.763	117.94
347.99	114.94
348.218	103.94
348.445	110.94
348.673	115.94
348.9	104.94
349.128	98.94
349.355	96.94
349.583	89.94
349.81	98.94
350.037	95.94
350.265	93.94
350.492	98.94
350.72	94.94
350.947	88.94
351.174	114.94
351.402	120.94
351.629	102.94
351.856	115.94
352.083	117.94
352.311	100.94
352.538	107.94
352.765	125.94
352.992	132.94
353.22	122.94
353.447	108.94
353.674	109.94
353.901	105.94
354.128	105.94
354.355	86.94
354.583	95.94
354.81	102.94
355.037	101.94
355.264	100.94
355.491	91.94
355.718	92.94
355.945	108.94
356.172	95.94
356.399	95.94
356.626	98.94
356.853	82.94
357.08	85.94
357.307	94.94
357.534	103.94
357.761	92.94
357.988	85.94
358.215	92.94
358.441	93.94
358.668	94.94
358.895	99.94
359.122	94.94
359.349	95.94
359.576	103.94
359.802	109.94
360.029	142.94
360.256	138.94
360.483	110.94
360.709	98.94
360.936	84.94
361.163	85.94
361.39	106.94
361.616	109.94
361.843	110.94
362.07	95.94
362.296	76.94
362.523	102.94
362.749	95.94
362.976	88.94
363.203	107.94
363.429	94.94
363.656	103.94
363.882	91.94
364.109	98.94
364.335	104.94
364.562	86.94
364.788	83.94
365.015	93.94
365.241	90.94
365.468	113.94
365.694	115.94
365.92	111.94
366.147	100.94
366.373	86.94
366.599	105.94
366.826	90.94
367.052	85.94
367.278	95.94
367.505	107.94
367.731	101.94
367.957	92.94
368.184	88.94
368.41	103.94
368.636	120.94
368.862	123.94
369.089	107.94
369.315	98.94
369.541	91.94
369.767	84.94
369.993	84.94
370.219	96.94
370.445	91.94
370.672	98.94
370.898	93.94
371.124	106.94
371.35	96.94
371.576	87.94
371.802	89.94
372.028	82.94
372.254	78.94
372.48	99.94
372.706	92.94
372.932	95.94
373.158	107.94
373.384	108.94
373.61	99.94
373.835	90.94
374.061	102.94
374.287	100.94
374.513	95.94
374.739	104.94
374.965	83.94
375.191	95.94
375.416	95.94
375.642	95.94
375.868	98.94
376.094	93.94
376.319	97.94
376.545	87.94
376.771	90.94
376.997	85.94
377.222	89.94
377.448	85.94
377.674	89.94
377.899	83.94
378.125	80.94
378.35	96.94
378.576	107.94
378.802	95.94
379.027	89.94
379.253	85.94
379.478	101.94
379.704	110.94
379.929	97.94
380.155	99.94
380.38	94.94
380.606	107.94
380.831	90.94
381.057	116.94
381.282	88.94
381.507	99.94
381.733	88.94
381.958	91.94
382.184	97.94
382.409	105.94
382.634	100.94
382.86	102.94
383.085	83.94
383.31	113.94
383.535	84.94
383.761	98.94
383.986	94.94
384.211	97.94
384.436	86.94
384.662	106.94
384.887	105.94
385.112	99.94
385.337	105.94
385.562	96.94
385.787	114.94
386.013	106.94
386.238	108.94
386.463	94.94
386.688	105.94
386.913	97.94
387.138	94.94
387.363	87.94
387.588	87.94
387.813	109.94
388.038	89.94
388.263	110.94
388.488	101.94
388.713	102.94
388.938	103.94
389.163	82.94
389.387	97.94
389.612	91.94
389.837	83.94
390.062	117.94
390.287	96.94
390.512	87.94
390.736	86.94
390.961	87.94
391.186	94.94
391.411	102.94
391.636	86.94
391.86	87.94
392.085	93.94
392.31	91.94
392.534	92.94
392.759	86.94
392.984	95.94
393.208	96.94
393.433	101.94
393.658	94.94
393.882	102.94
394.107	91.94
394.331	77.94
394.556	86.94
394.78	86.94
395.005	101.94
395.229	81.94
395.454	94.94
395.678	95.94
395.903	79.94
396.127	85.94
396.352	97.94
396.576	93.94
396.801	81.94
397.025	110.94
397.249	96.94
397.474	84.94
397.698	99.94
397.922	99.94
398.147	87.94
398.371	95.94
398.595	93.94
398.82	93.94
399.044	90.94
399.268	83.94
399.492	81.94
399.717	87.94
399.941	93.94
400.165	83.94
400.389	89.94
400.613	96.94
400.837	81.94
401.062	90.94
401.286	103.94
401.51	91.94
401.734	100.94
401.958	105.94
402.182	119.94
402.406	187.94
402.63	126.94
402.854	114.94
403.078	92.94
403.302	93.94
403.526	84.94
403.75	88.94
403.974	101.94
404.198	90.94
404.422	77.94
404.645	99.94
404.869	84.94
405.093	120.94
405.317	145.94
405.541	126.94
405.765	111.94
405.988	102.94
406.212	185.94
406.436	284.94
406.66	178.94
406.883	113.94
407.107	117.94
407.331	104.94
407.555	108.94
407.778	109.94
408.002	104.94
408.226	104.94
408.449	91.94
408.673	95.94
408.896	97.94
409.12	100.94
409.344	91.94
409.567	75.94
409.791	87.94
410.014	88.94
410.238	89.94
410.461	95.94
410.685	84.94
410.908	92.94
411.132	109.94
411.355	99.94
411.578	100.94
411.802	100.94
412.025	92.94
412.249	100.94
412.472	120.94
412.695	148.94
412.919	121.94
413.142	102.94
413.365	85.94
413.589	92.94
413.812	84.94
414.035	96.94
414.258	94.94
414.482	93.94
414.705	93.94
414.928	100.94
415.151	91.94
415.374	90.94
415.597	88.94
415.821	88.94
416.044	87.94
416.267	86.94
416.49	84.94
416.713	100.94
416.936	94.94
417.159	84.94
417.382	97.94
417.605	104.94
417.828	116.94
418.051	102.94
418.274	94.94
418.497	90.94
418.72	86.94
418.943	87.94
419.166	71.94
419.389	99.94
419.611	87.94
419.834	92.94
420.057	93.94
420.28	93.94
420.503	111.94
420.726	78.94
420.948	98.94
421.171	107.94
421.394	90.94
421.617	101.94
421.839	110.94
422.062	95.94
422.285	107.94
422.507	86.94
422.73	107.94
422.953	105.94
423.175	91.94
423.398	97.94
423.621	84.94
423.843	84.94
424.066	93.94
424.288	90.94
424.511	98.94
424.733	101.94
424.956	119.94
425.178	92.94
425.401	91.94
425.623	104.94
425.846	80.94
426.068	110.94
426.291	110.94
426.513	107.94
426.735	92.94
426.958	103.94
427.18	116.94
427.402	178.94
427.625	252.94
427.847	218.94
428.069	230.94
428.292	143.94
428.514	92.94
428.736	93.94
428.958	79.94
429.181	99.94
429.403	82.94
429.625	97.94
429.847	90.94
430.069	104.94
430.292	96.94
430.514	78.94
430.736	90.94
430.958	99.94
431.18	75.94
431.402	90.94
431.624	96.94
431.846	96.94
432.068	96.94
432.29	97.94
432.512	91.94
432.734	88.94
432.956	88.94
433.178	113.94
433.4	110.94
433.622	105.94
433.844	91.94
434.066	106.94
434.287	93.94
434.509	97.94
434.731	95.94
434.953	95.94
435.175	100.94
435.397	91.94
435.618	107.94
435.84	111.94
436.062	143.94
436.284	111.94
436.505	107.94
436.727	108.94
436.949	100.94
437.17	95.94
437.392	108.94
437.614	94.94
437.835	126.94
438.057	139.94
438.278	124.94
438.5	109.94
438.721	142.94
438.943	124.94
439.165	89.94
439.386	91.94
439.608	98.94
439.829	103.94
440.05	153.94
440.272	193.94
440.493	106.94
440.715	96.94
440.936	82.94
441.158	83.94
441.379	82.94
441.6	84.94
441.822	98.94
442.043	99.94
442.264	112.94
442.486	124.94
442.707	103.94
442.928	120.94
443.149	150.94
443.371	165.94
443.592	132.94
443.813	131.94
444.034	130.94
444.255	90.94
444.476	94.94
444.698	77.94
444.919	102.94
445.14	142.94
445.361	127.94
445.582	142.94
445.803	170.94
446.024	170.94
446.245	168.94
446.466	125.94
446.687	97.94
446.908	95.94
447.129	98.94
447.35	103.94
447.571	109.94
447.792	95.94
448.013	102.94
448.234	108.94
448.455	117.94
448.675	149.94
448.896	138.94
449.117	107.94
449.338	100.94
449.559	166.94
449.779	148.94
450	103.94
450.221	89.94
450.442	84.94
450.662	103.94
450.883	118.94
451.104	134.94
451.324	111.94
451.545	98.94
451.766	89.94
451.986	87.94
452.207	101.94
452.428	103.94
452.648	113.94
452.869	139.94
453.089	137.94
453.31	132.94
453.53	105.94
453.751	81.94
453.971	108.94
454.192	115.94
454.412	94.94
454.633	84.94
454.853	92.94
455.073	72.94
455.294	91.94
455.514	111.94
455.734	106.94
455.955	93.94
456.175	95.94
456.395	97.94
456.616	85.94
456.836	100.94
457.056	82.94
457.276	89.94
457.497	83.94
457.717	101.94
457.937	91.94
458.157	83.94
458.377	97.94
458.598	124.94
458.818	196.94
459.038	198.94
459.258	147.94
459.478	84.94
459.698	86.94
459.918	94.94
460.138	87.94
460.358	75.94
460.578	77.94
460.798	92.94
461.018	91.94
461.238	94.94
461.458	85.94
461.678	96.94
461.898	84.94
462.118	94.94
462.338	87.94
462.558	101.94
462.777	86.94
462.997	103.94
463.217	90.94
463.437	94.94
463.657	91.94
463.876	92.94
464.096	93.94
464.316	100.94
464.536	102.94
464.755	101.94
464.975	127.94
465.195	216.94
465.414	199.94
465.634	108.94
465.854	97.94
466.073	100.94
466.293	91.94
466.512	87.94
466.732	90.94
466.951	102.94
467.171	91.94
467.391	101.94
467.61	130.94
467.829	194.94
468.049	483.94
468.268	725.94
468.488	204.94
468.707	104.94
468.927	99.94
469.146	94.94
469.365	85.94
469.585	99.94
469.804	110.94
470.023	116.94
470.243	118.94
470.462	114.94
470.681	137.94
470.901	87.94
471.12	103.94
471.339	104.94
471.558	121.94
471.777	153.94
471.997	264.94
472.216	965.94
472.435	2110.94
472.654	507.94
472.873	158.94
473.092	101.94
473.311	99.94
473.53	117.94
473.749	108.94
473.968	111.94
474.187	131.94
474.406	128.94
474.625	86.94
474.844	88.94
475.063	93.94
475.282	86.94
475.501	86.94
475.72	91.94
475.939	86.94
476.158	83.94
476.377	99.94
476.596	78.94
476.814	100.94
477.033	96.94
477.252	94.94
477.471	89.94
477.69	99.94
477.908	91.94
478.127	91.94
478.346	74.94
478.564	91.94
478.783	101.94
479.002	106.94
479.22	105.94
479.439	125.94
479.658	118.94
479.876	105.94
480.095	103.94
480.313	123.94
480.532	155.94
480.751	261.94
480.969	880.94
481.188	3653.94
481.406	2132.94
481.624	319.94
481.843	131.94
482.061	104.94
482.28	93.94
482.498	91.94
482.717	92.94
482.935	111.94
483.153	99.94
483.372	90.94
483.59	88.94
483.808	99.94
484.027	96.94
484.245	95.94
484.463	77.94
484.681	94.94
484.9	93.94
485.118	107.94
485.336	111.94
485.554	107.94
485.772	109.94
485.99	96.94
486.209	110.94
486.427	109.94
486.645	115.94
486.863	118.94
487.081	111.94
487.299	92.94
487.517	93.94
487.735	98.94
487.953	113.94
488.171	107.94
488.389	114.94
488.607	112.94
488.825	96.94
489.043	97.94
489.261	76.94
489.479	89.94
489.696	90.94
489.914	82.94
490.132	84.94
490.35	88.94
490.568	91.94
490.786	79.94
491.003	94.94
491.221	94.94
491.439	96.94
491.657	99.94
491.874	93.94
492.092	84.94
492.31	92.94
492.527	95.94
492.745	89.94
492.963	91.94
493.18	85.94
493.398	95.94
493.615	94.94
493.833	93.94
494.05	98.94
494.268	89.94
494.485	89.94
494.703	107.94
494.92	94.94
495.138	92.94
495.355	89.94
495.573	107.94
495.79	90.94
496.008	103.94
496.225	107.94
496.442	88.94
496.66	88.94
496.877	95.94
497.094	94.94
497.312	95.94
497.529	99.94
497.746	81.94
497.963	93.94
498.181	100.94
498.398	108.94
498.615	115.94
498.832	95.94
499.049	99.94
499.267	80.94
499.484	104.94
499.701	87.94
499.918	92.94
500.135	94.94
500.352	98.94
500.569	101.94
500.786	94.94
501.003	90.94
501.22	90.94
501.437	107.94
501.654	114.94
501.871	130.94
502.088	98.94
502.305	88.94
502.522	91.94
502.739	85.94
502.956	94.94
503.172	92.94
503.389	105.94
503.606	110.94
503.823	94.94
504.04	101.94
504.256	96.94
504.473	81.94
504.69	82.94
504.907	102.94
505.123	88.94
505.34	95.94
505.557	83.94
505.773	85.94
505.99	90.94
506.207	78.94
506.423	94.94
506.64	97.94
506.856	94.94
507.073	81.94
507.289	90.94
507.506	98.94
507.722	118.94
507.939	127.94
508.155	91.94
508.372	88.94
508.588	102.94
508.805	100.94
509.021	88.94
509.238	105.94
509.454	108.94
509.67	103.94
509.887	121.94
510.103	121.94
510.319	213.94
510.536	769.94
510.752	2491.94
510.968	710.94
511.184	166.94
511.401	133.94
511.617	108.94
511.833	95.94
512.049	101.94
512.265	91.94
512.481	98.94
