Data from Circ_2001_H10_HRD10591_00011.txt Node
Date: Wed Jan 03 10:45:41 EST 2024
User: Yrep
Spectrometer: HR+D1059
Trigger mode: 1
Integration Time (sec): 1.000000E-1
Scans to average: 1
Electric dark correction enabled: true
Nonlinearity correction enabled: false
Boxcar width: 0
XAxis mode: Wavelengths
Number of Pixels in Spectrum: 2048
>>>>>Begin Spectral Data<<<<<
223.165	-29.06
223.4	-29.06
223.635	-29.06
223.869	-18.06
224.104	-19.06
224.338	-14.06
224.573	-22.06
224.808	-13.06
225.042	-16.06
225.277	-12.06
225.511	0.94
225.746	10.94
225.98	10.94
226.215	14.94
226.449	20.94
226.683	17.94
226.918	28.94
227.152	37.94
227.387	42.94
227.621	32.94
227.856	43.94
228.09	45.94
228.324	62.94
228.559	39.94
228.793	63.94
229.027	66.94
229.262	76.94
229.496	57.94
229.73	89.94
229.964	88.94
230.199	71.94
230.433	84.94
230.667	92.94
230.901	90.94
231.136	79.94
231.37	63.94
231.604	80.94
231.838	74.94
232.072	69.94
232.306	79.94
232.541	82.94
232.775	84.94
233.009	75.94
233.243	78.94
233.477	75.94
233.711	81.94
233.945	86.94
234.179	79.94
234.413	82.94
234.647	73.94
234.881	74.94
235.115	79.94
235.349	87.94
235.583	80.94
235.817	85.94
236.051	66.94
236.285	84.94
236.519	93.94
236.753	70.94
236.987	85.94
237.221	94.94
237.455	84.94
237.689	62.94
237.922	80.94
238.156	76.94
238.39	80.94
238.624	64.94
238.858	78.94
239.091	81.94
239.325	79.94
239.559	78.94
239.793	80.94
240.027	74.94
240.26	79.94
240.494	85.94
240.728	68.94
240.961	75.94
241.195	75.94
241.429	83.94
241.662	63.94
241.896	74.94
242.13	72.94
242.363	72.94
242.597	73.94
242.83	75.94
243.064	62.94
243.298	68.94
243.531	77.94
243.765	73.94
243.998	84.94
244.232	74.94
244.465	76.94
244.699	90.94
244.932	81.94
245.166	82.94
245.399	71.94
245.633	71.94
245.866	72.94
246.099	70.94
246.333	74.94
246.566	81.94
246.8	76.94
247.033	75.94
247.266	82.94
247.5	82.94
247.733	74.94
247.966	90.94
248.2	73.94
248.433	100.94
248.666	67.94
248.899	74.94
249.133	80.94
249.366	86.94
249.599	106.94
249.832	85.94
250.066	77.94
250.299	74.94
250.532	79.94
250.765	78.94
250.998	79.94
251.231	88.94
251.465	72.94
251.698	68.94
251.931	71.94
252.164	74.94
252.397	69.94
252.63	72.94
252.863	73.94
253.096	93.94
253.329	77.94
253.562	73.94
253.795	72.94
254.028	79.94
254.261	72.94
254.494	81.94
254.727	68.94
254.96	86.94
255.193	78.94
255.426	87.94
255.659	68.94
255.892	89.94
256.124	97.94
256.357	83.94
256.59	88.94
256.823	71.94
257.056	71.94
257.289	71.94
257.521	83.94
257.754	80.94
257.987	93.94
258.22	80.94
258.452	82.94
258.685	72.94
258.918	86.94
259.151	79.94
259.383	90.94
259.616	85.94
259.849	85.94
260.081	86.94
260.314	73.94
260.547	72.94
260.779	92.94
261.012	99.94
261.244	99.94
261.477	91.94
261.71	103.94
261.942	108.94
262.175	131.94
262.407	93.94
262.64	86.94
262.872	97.94
263.105	90.94
263.337	88.94
263.57	78.94
263.802	76.94
264.035	79.94
264.267	79.94
264.499	88.94
264.732	78.94
264.964	79.94
265.197	85.94
265.429	81.94
265.661	77.94
265.894	81.94
266.126	77.94
266.358	78.94
266.591	63.94
266.823	83.94
267.055	79.94
267.287	81.94
267.52	85.94
267.752	80.94
267.984	89.94
268.216	83.94
268.448	72.94
268.681	80.94
268.913	92.94
269.145	82.94
269.377	85.94
269.609	78.94
269.841	73.94
270.073	88.94
270.306	69.94
270.538	100.94
270.77	76.94
271.002	79.94
271.234	69.94
271.466	83.94
271.698	99.94
271.93	77.94
272.162	85.94
272.394	91.94
272.626	86.94
272.858	75.94
273.09	71.94
273.322	90.94
273.553	72.94
273.785	88.94
274.017	82.94
274.249	76.94
274.481	95.94
274.713	83.94
274.945	84.94
275.176	78.94
275.408	88.94
275.64	104.94
275.872	113.94
276.104	81.94
276.335	80.94
276.567	101.94
276.799	127.94
277.031	138.94
277.262	148.94
277.494	109.94
277.726	93.94
277.957	87.94
278.189	71.94
278.421	95.94
278.652	84.94
278.884	94.94
279.115	94.94
279.347	90.94
279.579	102.94
279.81	94.94
280.042	149.94
280.273	184.94
280.505	148.94
280.736	94.94
280.968	89.94
281.199	94.94
281.431	82.94
281.662	77.94
281.894	94.94
282.125	98.94
282.356	130.94
282.588	149.94
282.819	98.94
283.051	83.94
283.282	81.94
283.513	88.94
283.745	78.94
283.976	85.94
284.207	92.94
284.439	87.94
284.67	81.94
284.901	94.94
285.132	84.94
285.364	83.94
285.595	99.94
285.826	81.94
286.057	84.94
286.288	63.94
286.52	83.94
286.751	96.94
286.982	102.94
287.213	68.94
287.444	90.94
287.675	89.94
287.906	80.94
288.138	89.94
288.369	88.94
288.6	85.94
288.831	87.94
289.062	94.94
289.293	92.94
289.524	66.94
289.755	86.94
289.986	72.94
290.217	89.94
290.448	97.94
290.679	69.94
290.91	80.94
291.141	78.94
291.371	84.94
291.602	69.94
291.833	73.94
292.064	76.94
292.295	86.94
292.526	83.94
292.757	108.94
292.987	76.94
293.218	96.94
293.449	89.94
293.68	101.94
293.91	76.94
294.141	77.94
294.372	84.94
294.603	86.94
294.833	85.94
295.064	92.94
295.295	86.94
295.525	108.94
295.756	110.94
295.987	124.94
296.217	154.94
296.448	138.94
296.679	86.94
296.909	95.94
297.14	93.94
297.37	78.94
297.601	88.94
297.831	101.94
298.062	93.94
298.292	99.94
298.523	88.94
298.753	87.94
298.984	89.94
299.214	83.94
299.445	88.94
299.675	91.94
299.905	96.94
300.136	87.94
300.366	89.94
300.597	90.94
300.827	94.94
301.057	92.94
301.288	96.94
301.518	99.94
301.748	73.94
301.979	122.94
302.209	78.94
302.439	90.94
302.669	76.94
302.9	85.94
303.13	99.94
303.36	101.94
303.59	90.94
303.82	129.94
304.051	95.94
304.281	91.94
304.511	85.94
304.741	73.94
304.971	82.94
305.201	85.94
305.431	88.94
305.661	93.94
305.891	88.94
306.121	99.94
306.352	111.94
306.582	104.94
306.812	98.94
307.042	108.94
307.272	123.94
307.502	157.94
307.731	127.94
307.961	109.94
308.191	99.94
308.421	97.94
308.651	92.94
308.881	90.94
309.111	84.94
309.341	95.94
309.571	101.94
309.8	110.94
310.03	95.94
310.26	98.94
310.49	88.94
310.72	95.94
310.949	113.94
311.179	109.94
311.409	84.94
311.639	93.94
311.868	96.94
312.098	90.94
312.328	87.94
312.557	100.94
312.787	102.94
313.017	102.94
313.246	102.94
313.476	94.94
313.706	84.94
313.935	106.94
314.165	98.94
314.394	110.94
314.624	108.94
314.853	102.94
315.083	93.94
315.312	89.94
315.542	81.94
315.771	84.94
316.001	100.94
316.23	87.94
316.46	92.94
316.689	105.94
316.919	84.94
317.148	97.94
317.377	102.94
317.607	97.94
317.836	95.94
318.065	96.94
318.295	88.94
318.524	95.94
318.753	85.94
318.983	100.94
319.212	108.94
319.441	110.94
319.67	115.94
319.9	85.94
320.129	103.94
320.358	94.94
320.587	94.94
320.816	99.94
321.046	103.94
321.275	100.94
321.504	96.94
321.733	94.94
321.962	110.94
322.191	92.94
322.42	95.94
322.649	118.94
322.878	116.94
323.108	130.94
323.337	143.94
323.566	152.94
323.795	166.94
324.024	232.94
324.253	462.94
324.482	1010.94
324.71	2083.94
324.939	2708.94
325.168	973.94
325.397	282.94
325.626	160.94
325.855	146.94
326.084	136.94
326.313	148.94
326.542	152.94
326.77	269.94
326.999	517.94
327.228	1095.94
327.457	2006.94
327.686	1586.94
327.914	508.94
328.143	416.94
328.372	461.94
328.6	278.94
328.829	148.94
329.058	155.94
329.287	177.94
329.515	161.94
329.744	196.94
329.972	337.94
330.201	652.94
330.43	950.94
330.658	455.94
330.887	229.94
331.115	168.94
331.344	121.94
331.572	117.94
331.801	105.94
332.03	108.94
332.258	116.94
332.486	116.94
332.715	88.94
332.943	101.94
333.172	115.94
333.4	117.94
333.629	138.94
333.857	184.94
334.085	322.94
334.314	618.94
334.542	1167.94
334.771	1094.94
334.999	308.94
335.227	153.94
335.455	115.94
335.684	107.94
335.912	98.94
336.14	92.94
336.369	108.94
336.597	114.94
336.825	97.94
337.053	99.94
337.281	89.94
337.51	101.94
337.738	96.94
337.966	94.94
338.194	104.94
338.422	100.94
338.65	94.94
338.878	96.94
339.106	86.94
339.334	84.94
339.562	93.94
339.79	98.94
340.018	75.94
340.246	96.94
340.474	112.94
340.702	95.94
340.93	90.94
341.158	102.94
341.386	104.94
341.614	84.94
341.842	102.94
342.07	101.94
342.298	104.94
342.526	105.94
342.754	94.94
342.981	85.94
343.209	75.94
343.437	87.94
343.665	91.94
343.893	93.94
344.12	88.94
344.348	82.94
344.576	90.94
344.804	95.94
345.031	98.94
345.259	103.94
345.487	89.94
345.714	96.94
345.942	94.94
346.17	104.94
346.397	92.94
346.625	89.94
346.853	96.94
347.08	87.94
347.308	88.94
347.535	101.94
347.763	99.94
347.99	84.94
348.218	112.94
348.445	101.94
348.673	97.94
348.9	85.94
349.128	99.94
349.355	90.94
349.583	83.94
349.81	86.94
350.037	86.94
350.265	81.94
350.492	83.94
350.72	81.94
350.947	90.94
351.174	104.94
351.402	102.94
351.629	112.94
351.856	102.94
352.083	113.94
352.311	112.94
352.538	111.94
352.765	100.94
352.992	100.94
353.22	128.94
353.447	103.94
353.674	94.94
353.901	96.94
354.128	74.94
354.355	105.94
354.583	104.94
354.81	95.94
355.037	93.94
355.264	84.94
355.491	85.94
355.718	82.94
355.945	78.94
356.172	77.94
356.399	88.94
356.626	106.94
356.853	89.94
357.08	90.94
357.307	90.94
357.534	89.94
357.761	77.94
357.988	100.94
358.215	101.94
358.441	108.94
358.668	84.94
358.895	90.94
359.122	105.94
359.349	91.94
359.576	76.94
359.802	99.94
360.029	120.94
360.256	116.94
360.483	116.94
360.709	81.94
360.936	73.94
361.163	89.94
361.39	93.94
361.616	101.94
361.843	95.94
362.07	105.94
362.296	93.94
362.523	109.94
362.749	105.94
362.976	99.94
363.203	97.94
363.429	80.94
363.656	97.94
363.882	82.94
364.109	95.94
364.335	99.94
364.562	95.94
364.788	93.94
365.015	87.94
365.241	91.94
365.468	115.94
365.694	111.94
365.92	98.94
366.147	98.94
366.373	78.94
366.599	83.94
366.826	82.94
367.052	88.94
367.278	103.94
367.505	99.94
367.731	97.94
367.957	82.94
368.184	94.94
368.41	103.94
368.636	105.94
368.862	112.94
369.089	105.94
369.315	93.94
369.541	88.94
369.767	97.94
369.993	90.94
370.219	81.94
370.445	97.94
370.672	70.94
370.898	95.94
371.124	84.94
371.35	78.94
371.576	92.94
371.802	81.94
372.028	76.94
372.254	92.94
372.48	76.94
372.706	76.94
372.932	86.94
373.158	84.94
373.384	87.94
373.61	104.94
373.835	88.94
374.061	102.94
374.287	95.94
374.513	79.94
374.739	81.94
374.965	76.94
375.191	92.94
375.416	81.94
375.642	90.94
375.868	87.94
376.094	85.94
376.319	87.94
376.545	99.94
376.771	84.94
376.997	98.94
377.222	101.94
377.448	83.94
377.674	89.94
377.899	87.94
378.125	94.94
378.35	92.94
378.576	85.94
378.802	94.94
379.027	86.94
379.253	97.94
379.478	98.94
379.704	91.94
379.929	101.94
380.155	97.94
380.38	84.94
380.606	101.94
380.831	97.94
381.057	101.94
381.282	94.94
381.507	94.94
381.733	96.94
381.958	72.94
382.184	93.94
382.409	86.94
382.634	129.94
382.86	98.94
383.085	108.94
383.31	96.94
383.535	114.94
383.761	104.94
383.986	112.94
384.211	107.94
384.436	100.94
384.662	110.94
384.887	114.94
385.112	121.94
385.337	115.94
385.562	117.94
385.787	105.94
386.013	133.94
386.238	118.94
386.463	112.94
386.688	121.94
386.913	109.94
387.138	116.94
387.363	119.94
387.588	100.94
387.813	113.94
388.038	112.94
388.263	123.94
388.488	125.94
388.713	98.94
388.938	96.94
389.163	92.94
389.387	76.94
389.612	89.94
389.837	84.94
390.062	80.94
390.287	97.94
390.512	81.94
390.736	84.94
390.961	89.94
391.186	94.94
391.411	86.94
391.636	97.94
391.86	84.94
392.085	90.94
392.31	80.94
392.534	75.94
392.759	89.94
392.984	88.94
393.208	92.94
393.433	103.94
393.658	113.94
393.882	80.94
394.107	69.94
394.331	82.94
394.556	89.94
394.78	76.94
395.005	74.94
395.229	73.94
395.454	90.94
395.678	80.94
395.903	90.94
396.127	91.94
396.352	91.94
396.576	83.94
396.801	78.94
397.025	94.94
397.249	84.94
397.474	86.94
397.698	94.94
397.922	93.94
398.147	83.94
398.371	84.94
398.595	78.94
398.82	76.94
399.044	86.94
399.268	80.94
399.492	82.94
399.717	82.94
399.941	99.94
400.165	83.94
400.389	83.94
400.613	83.94
400.837	87.94
401.062	89.94
401.286	87.94
401.51	86.94
401.734	80.94
401.958	97.94
402.182	134.94
402.406	181.94
402.63	129.94
402.854	89.94
403.078	94.94
403.302	103.94
403.526	90.94
403.75	96.94
403.974	94.94
404.198	94.94
404.422	92.94
404.645	90.94
404.869	88.94
405.093	109.94
405.317	120.94
405.541	115.94
405.765	97.94
405.988	116.94
406.212	185.94
406.436	280.94
406.66	188.94
406.883	104.94
407.107	95.94
407.331	86.94
407.555	105.94
407.778	107.94
408.002	98.94
408.226	94.94
408.449	86.94
408.673	90.94
408.896	87.94
409.12	85.94
409.344	77.94
409.567	84.94
409.791	85.94
410.014	89.94
410.238	104.94
410.461	76.94
410.685	96.94
410.908	93.94
411.132	98.94
411.355	111.94
411.578	104.94
411.802	99.94
412.025	88.94
412.249	97.94
412.472	110.94
412.695	119.94
412.919	110.94
413.142	93.94
413.365	84.94
413.589	88.94
413.812	85.94
414.035	85.94
414.258	87.94
414.482	107.94
414.705	80.94
414.928	81.94
415.151	109.94
415.374	76.94
415.597	94.94
415.821	92.94
416.044	89.94
416.267	91.94
416.49	94.94
416.713	84.94
416.936	88.94
417.159	94.94
417.382	85.94
417.605	96.94
417.828	98.94
418.051	95.94
418.274	90.94
418.497	63.94
418.72	92.94
418.943	83.94
419.166	101.94
419.389	95.94
419.611	102.94
419.834	89.94
420.057	88.94
420.28	82.94
420.503	96.94
420.726	75.94
420.948	96.94
421.171	104.94
421.394	84.94
421.617	89.94
421.839	77.94
422.062	78.94
422.285	104.94
422.507	83.94
422.73	104.94
422.953	92.94
423.175	100.94
423.398	103.94
423.621	87.94
423.843	86.94
424.066	79.94
424.288	87.94
424.511	83.94
424.733	98.94
424.956	103.94
425.178	102.94
425.401	93.94
425.623	97.94
425.846	105.94
426.068	95.94
426.291	104.94
426.513	101.94
426.735	104.94
426.958	88.94
427.18	106.94
427.402	143.94
427.625	231.94
427.847	223.94
428.069	206.94
428.292	103.94
428.514	73.94
428.736	85.94
428.958	73.94
429.181	85.94
429.403	77.94
429.625	93.94
429.847	81.94
430.069	96.94
430.292	94.94
430.514	86.94
430.736	72.94
430.958	90.94
431.18	88.94
431.402	71.94
431.624	69.94
431.846	79.94
432.068	89.94
432.29	72.94
432.512	83.94
432.734	83.94
432.956	97.94
433.178	106.94
433.4	94.94
433.622	73.94
433.844	89.94
434.066	94.94
434.287	86.94
434.509	90.94
434.731	87.94
434.953	90.94
435.175	90.94
435.397	94.94
435.618	82.94
435.84	103.94
436.062	125.94
436.284	118.94
436.505	97.94
436.727	97.94
436.949	97.94
437.17	74.94
437.392	91.94
437.614	93.94
437.835	113.94
438.057	128.94
438.278	126.94
438.5	110.94
438.721	136.94
438.943	103.94
439.165	76.94
439.386	90.94
439.608	97.94
439.829	109.94
440.05	131.94
440.272	172.94
440.493	121.94
440.715	92.94
440.936	78.94
441.158	83.94
441.379	72.94
441.6	91.94
441.822	102.94
442.043	81.94
442.264	102.94
442.486	106.94
442.707	101.94
442.928	124.94
443.149	144.94
443.371	173.94
443.592	103.94
443.813	125.94
444.034	124.94
444.255	93.94
444.476	92.94
444.698	78.94
444.919	86.94
445.14	133.94
445.361	128.94
445.582	145.94
445.803	174.94
446.024	167.94
446.245	154.94
446.466	127.94
446.687	103.94
446.908	97.94
447.129	64.94
447.35	92.94
447.571	93.94
447.792	93.94
448.013	110.94
448.234	93.94
448.455	103.94
448.675	128.94
448.896	133.94
449.117	97.94
449.338	102.94
449.559	152.94
449.779	141.94
450	96.94
450.221	95.94
450.442	102.94
450.662	99.94
450.883	123.94
451.104	117.94
451.324	96.94
451.545	97.94
451.766	90.94
451.986	84.94
452.207	100.94
452.428	97.94
452.648	102.94
452.869	127.94
453.089	117.94
453.31	121.94
453.53	96.94
453.751	86.94
453.971	96.94
454.192	132.94
454.412	101.94
454.633	97.94
454.853	87.94
455.073	80.94
455.294	95.94
455.514	102.94
455.734	108.94
455.955	86.94
456.175	95.94
456.395	70.94
456.616	86.94
456.836	81.94
457.056	84.94
457.276	78.94
457.497	84.94
457.717	80.94
457.937	71.94
458.157	90.94
458.377	91.94
458.598	110.94
458.818	181.94
459.038	201.94
459.258	125.94
459.478	93.94
459.698	88.94
459.918	80.94
460.138	82.94
460.358	82.94
460.578	103.94
460.798	93.94
461.018	92.94
461.238	100.94
461.458	86.94
461.678	66.94
461.898	83.94
462.118	79.94
462.338	85.94
462.558	100.94
462.777	94.94
462.997	102.94
463.217	90.94
463.437	76.94
463.657	84.94
463.876	83.94
464.096	95.94
464.316	108.94
464.536	100.94
464.755	94.94
464.975	124.94
465.195	211.94
465.414	208.94
465.634	92.94
465.854	73.94
466.073	78.94
466.293	77.94
466.512	82.94
466.732	90.94
466.951	92.94
467.171	90.94
467.391	89.94
467.61	114.94
467.829	164.94
468.049	364.94
468.268	559.94
468.488	171.94
468.707	100.94
468.927	90.94
469.146	88.94
469.365	87.94
469.585	101.94
469.804	92.94
470.023	107.94
470.243	99.94
470.462	114.94
470.681	112.94
470.901	97.94
471.12	95.94
471.339	98.94
471.558	96.94
471.777	130.94
471.997	222.94
472.216	693.94
472.435	1537.94
472.654	402.94
472.873	135.94
473.092	90.94
473.311	96.94
473.53	84.94
473.749	87.94
473.968	77.94
474.187	110.94
474.406	107.94
474.625	71.94
474.844	90.94
475.063	82.94
475.282	86.94
475.501	87.94
475.72	71.94
475.939	81.94
476.158	90.94
476.377	86.94
476.596	98.94
476.814	97.94
477.033	94.94
477.252	86.94
477.471	87.94
477.69	92.94
477.908	86.94
478.127	91.94
478.346	80.94
478.564	103.94
478.783	80.94
479.002	110.94
479.22	113.94
479.439	100.94
479.658	118.94
479.876	101.94
480.095	102.94
480.313	131.94
480.532	139.94
480.751	208.94
480.969	680.94
481.188	2605.94
481.406	1574.94
481.624	262.94
481.843	118.94
482.061	95.94
482.28	96.94
482.498	84.94
482.717	85.94
482.935	90.94
483.153	82.94
483.372	75.94
483.59	84.94
483.808	79.94
484.027	95.94
484.245	97.94
484.463	94.94
484.681	89.94
484.9	85.94
485.118	76.94
485.336	76.94
485.554	81.94
485.772	94.94
485.99	101.94
486.209	109.94
486.427	88.94
486.645	123.94
486.863	133.94
487.081	104.94
487.299	96.94
487.517	87.94
487.735	88.94
487.953	87.94
488.171	92.94
488.389	94.94
488.607	116.94
488.825	93.94
489.043	85.94
489.261	66.94
489.479	93.94
489.696	79.94
489.914	93.94
490.132	88.94
490.35	79.94
490.568	101.94
490.786	89.94
491.003	106.94
491.221	103.94
491.439	77.94
491.657	83.94
491.874	92.94
492.092	90.94
492.31	104.94
492.527	96.94
492.745	81.94
492.963	89.94
493.18	90.94
493.398	102.94
493.615	78.94
493.833	79.94
494.05	78.94
494.268	78.94
494.485	75.94
494.703	88.94
494.92	91.94
495.138	87.94
495.355	83.94
495.573	82.94
495.79	88.94
496.008	91.94
496.225	92.94
496.442	90.94
496.66	91.94
496.877	92.94
497.094	89.94
497.312	102.94
497.529	87.94
497.746	87.94
497.963	86.94
498.181	108.94
498.398	84.94
498.615	97.94
498.832	112.94
499.049	81.94
499.267	85.94
499.484	78.94
499.701	89.94
499.918	78.94
500.135	78.94
500.352	90.94
500.569	82.94
500.786	89.94
501.003	91.94
501.22	79.94
501.437	85.94
501.654	95.94
501.871	118.94
502.088	88.94
502.305	89.94
502.522	83.94
502.739	85.94
502.956	100.94
503.172	100.94
503.389	97.94
503.606	106.94
503.823	96.94
504.04	88.94
504.256	90.94
504.473	77.94
504.69	88.94
504.907	83.94
505.123	72.94
505.34	84.94
505.557	88.94
505.773	87.94
505.99	90.94
506.207	83.94
506.423	87.94
506.64	81.94
506.856	92.94
507.073	100.94
507.289	70.94
507.506	101.94
507.722	117.94
507.939	122.94
508.155	104.94
508.372	95.94
508.588	88.94
508.805	110.94
509.021	89.94
509.238	101.94
509.454	92.94
509.67	105.94
509.887	96.94
510.103	120.94
510.319	217.94
510.536	815.94
510.752	2670.94
510.968	750.94
511.184	159.94
511.401	130.94
511.617	115.94
511.833	98.94
512.049	106.94
512.265	78.94
512.481	103.94
512.698	82.94
512.914	86.94
513.13	77.94
513.346	78.94
513.562	96.94
513.778	98.94
513.994	93.94
514.21	102.94
514.426	135.94
514.642	166.94
