Data from Circ_2001_H10_HRD10591_00076.txt Node
Date: Wed Jan 03 10:45:54 EST 2024
User: Yrep
Spectrometer: HR+D1059
Trigger mode: 1
Integration Time (sec): 1.000000E-1
Scans to average: 1
Electric dark correction enabled: true
Nonlinearity correction enabled: false
Boxcar width: 0
XAxis mode: Wavelengths
Number of Pixels in Spectrum: 2048
>>>>>Begin Spectral Data<<<<<
223.165	-32.56
223.4	-32.56
223.635	-32.56
223.869	-20.56
224.104	-12.56
224.338	-26.56
224.573	-11.56
224.808	-12.56
225.042	0.44
225.277	4.44
225.511	-9.56
225.746	15.44
225.98	1.44
226.215	7.44
226.449	17.44
226.683	27.44
226.918	27.44
227.152	24.44
227.387	31.44
227.621	37.44
227.856	42.44
228.09	53.44
228.324	59.44
228.559	61.44
228.793	65.44
229.027	63.44
229.262	63.44
229.496	83.44
229.73	88.44
229.964	83.44
230.199	74.44
230.433	79.44
230.667	76.44
230.901	77.44
231.136	65.44
231.37	73.44
231.604	84.44
231.838	78.44
232.072	72.44
232.306	85.44
232.541	69.44
232.775	87.44
233.009	86.44
233.243	81.44
233.477	82.44
233.711	79.44
233.945	80.44
234.179	91.44
234.413	59.44
234.647	60.44
234.881	79.44
235.115	81.44
235.349	83.44
235.583	76.44
235.817	83.44
236.051	86.44
236.285	75.44
236.519	86.44
236.753	86.44
236.987	96.44
237.221	91.44
237.455	80.44
237.689	95.44
237.922	61.44
238.156	78.44
238.39	74.44
238.624	64.44
238.858	71.44
239.091	88.44
239.325	83.44
239.559	85.44
239.793	86.44
240.027	84.44
240.26	76.44
240.494	67.44
240.728	78.44
240.961	75.44
241.195	67.44
241.429	85.44
241.662	74.44
241.896	72.44
242.13	79.44
242.363	65.44
242.597	70.44
242.83	82.44
243.064	73.44
243.298	81.44
243.531	77.44
243.765	82.44
243.998	76.44
244.232	87.44
244.465	92.44
244.699	84.44
244.932	74.44
245.166	68.44
245.399	94.44
245.633	85.44
245.866	84.44
246.099	74.44
246.333	74.44
246.566	72.44
246.8	70.44
247.033	93.44
247.266	83.44
247.5	72.44
247.733	75.44
247.966	84.44
248.2	88.44
248.433	69.44
248.666	78.44
248.899	65.44
249.133	77.44
249.366	96.44
249.599	83.44
249.832	84.44
250.066	77.44
250.299	75.44
250.532	93.44
250.765	72.44
250.998	85.44
251.231	81.44
251.465	93.44
251.698	82.44
251.931	90.44
252.164	84.44
252.397	80.44
252.63	92.44
252.863	72.44
253.096	87.44
253.329	91.44
253.562	87.44
253.795	82.44
254.028	87.44
254.261	86.44
254.494	90.44
254.727	76.44
254.96	84.44
255.193	82.44
255.426	72.44
255.659	85.44
255.892	83.44
256.124	85.44
256.357	76.44
256.59	92.44
256.823	87.44
257.056	75.44
257.289	82.44
257.521	79.44
257.754	84.44
257.987	81.44
258.22	87.44
258.452	75.44
258.685	90.44
258.918	99.44
259.151	78.44
259.383	80.44
259.616	82.44
259.849	68.44
260.081	85.44
260.314	88.44
260.547	105.44
260.779	90.44
261.012	91.44
261.244	111.44
261.477	100.44
261.71	99.44
261.942	120.44
262.175	137.44
262.407	87.44
262.64	76.44
262.872	76.44
263.105	83.44
263.337	80.44
263.57	93.44
263.802	90.44
264.035	89.44
264.267	75.44
264.499	84.44
264.732	87.44
264.964	86.44
265.197	97.44
265.429	73.44
265.661	88.44
265.894	94.44
266.126	97.44
266.358	98.44
266.591	75.44
266.823	81.44
267.055	83.44
267.287	84.44
267.52	87.44
267.752	90.44
267.984	79.44
268.216	87.44
268.448	84.44
268.681	90.44
268.913	91.44
269.145	85.44
269.377	86.44
269.609	76.44
269.841	81.44
270.073	86.44
270.306	91.44
270.538	92.44
270.77	83.44
271.002	82.44
271.234	90.44
271.466	87.44
271.698	92.44
271.93	91.44
272.162	87.44
272.394	95.44
272.626	87.44
272.858	74.44
273.09	85.44
273.322	98.44
273.553	89.44
273.785	87.44
274.017	84.44
274.249	93.44
274.481	81.44
274.713	91.44
274.945	98.44
275.176	95.44
275.408	100.44
275.64	91.44
275.872	113.44
276.104	98.44
276.335	112.44
276.567	103.44
276.799	149.44
277.031	134.44
277.262	151.44
277.494	119.44
277.726	85.44
277.957	89.44
278.189	81.44
278.421	90.44
278.652	92.44
278.884	75.44
279.115	83.44
279.347	97.44
279.579	87.44
279.81	118.44
280.042	163.44
280.273	204.44
280.505	131.44
280.736	106.44
280.968	102.44
281.199	87.44
281.431	84.44
281.662	75.44
281.894	95.44
282.125	117.44
282.356	124.44
282.588	144.44
282.819	125.44
283.051	100.44
283.282	90.44
283.513	103.44
283.745	94.44
283.976	84.44
284.207	81.44
284.439	91.44
284.67	92.44
284.901	85.44
285.132	96.44
285.364	90.44
285.595	82.44
285.826	87.44
286.057	95.44
286.288	81.44
286.52	73.44
286.751	87.44
286.982	81.44
287.213	76.44
287.444	93.44
287.675	86.44
287.906	90.44
288.138	80.44
288.369	90.44
288.6	78.44
288.831	86.44
289.062	79.44
289.293	97.44
289.524	74.44
289.755	82.44
289.986	85.44
290.217	85.44
290.448	87.44
290.679	91.44
290.91	84.44
291.141	81.44
291.371	99.44
291.602	86.44
291.833	91.44
292.064	78.44
292.295	98.44
292.526	74.44
292.757	85.44
292.987	94.44
293.218	96.44
293.449	97.44
293.68	93.44
293.91	85.44
294.141	86.44
294.372	77.44
294.603	100.44
294.833	89.44
295.064	101.44
295.295	87.44
295.525	89.44
295.756	93.44
295.987	127.44
296.217	133.44
296.448	131.44
296.679	90.44
296.909	92.44
297.14	100.44
297.37	88.44
297.601	75.44
297.831	89.44
298.062	100.44
298.292	91.44
298.523	86.44
298.753	93.44
298.984	81.44
299.214	88.44
299.445	97.44
299.675	98.44
299.905	96.44
300.136	95.44
300.366	88.44
300.597	93.44
300.827	95.44
301.057	93.44
301.288	98.44
301.518	96.44
301.748	97.44
301.979	117.44
302.209	102.44
302.439	92.44
302.669	97.44
302.9	88.44
303.13	93.44
303.36	108.44
303.59	114.44
303.82	127.44
304.051	89.44
304.281	106.44
304.511	96.44
304.741	80.44
304.971	90.44
305.201	91.44
305.431	81.44
305.661	78.44
305.891	107.44
306.121	110.44
306.352	105.44
306.582	104.44
306.812	105.44
307.042	115.44
307.272	133.44
307.502	153.44
307.731	147.44
307.961	130.44
308.191	93.44
308.421	85.44
308.651	88.44
308.881	97.44
309.111	106.44
309.341	100.44
309.571	93.44
309.8	93.44
310.03	106.44
310.26	96.44
310.49	93.44
310.72	92.44
310.949	109.44
311.179	92.44
311.409	87.44
311.639	93.44
311.868	102.44
312.098	73.44
312.328	99.44
312.557	132.44
312.787	108.44
313.017	104.44
313.246	99.44
313.476	104.44
313.706	102.44
313.935	96.44
314.165	113.44
314.394	105.44
314.624	88.44
314.853	99.44
315.083	93.44
315.312	71.44
315.542	90.44
315.771	98.44
316.001	102.44
316.23	96.44
316.46	90.44
316.689	72.44
316.919	103.44
317.148	122.44
317.377	92.44
317.607	92.44
317.836	97.44
318.065	99.44
318.295	103.44
318.524	109.44
318.753	88.44
318.983	106.44
319.212	110.44
319.441	101.44
319.67	132.44
319.9	96.44
320.129	93.44
320.358	83.44
320.587	99.44
320.816	104.44
321.046	105.44
321.275	96.44
321.504	116.44
321.733	96.44
321.962	107.44
322.191	115.44
322.42	111.44
322.649	112.44
322.878	111.44
323.108	120.44
323.337	118.44
323.566	152.44
323.795	176.44
324.024	227.44
324.253	432.44
324.482	937.44
324.71	1881.44
324.939	2394.44
325.168	870.44
325.397	249.44
325.626	150.44
325.855	130.44
326.084	151.44
326.313	150.44
326.542	170.44
326.77	241.44
326.999	483.44
327.228	1021.44
327.457	1815.44
327.686	1430.44
327.914	480.44
328.143	422.44
328.372	496.44
328.6	275.44
328.829	165.44
329.058	159.44
329.287	169.44
329.515	155.44
329.744	215.44
329.972	380.44
330.201	730.44
330.43	1035.44
330.658	471.44
330.887	234.44
331.115	170.44
331.344	119.44
331.572	108.44
331.801	117.44
332.03	116.44
332.258	118.44
332.486	95.44
332.715	95.44
332.943	128.44
333.172	114.44
333.4	116.44
333.629	127.44
333.857	191.44
334.085	344.44
334.314	693.44
334.542	1289.44
334.771	1139.44
334.999	341.44
335.227	142.44
335.455	117.44
335.684	116.44
335.912	101.44
336.14	98.44
336.369	104.44
336.597	99.44
336.825	92.44
337.053	97.44
337.281	101.44
337.51	87.44
337.738	97.44
337.966	103.44
338.194	104.44
338.422	96.44
338.65	89.44
338.878	103.44
339.106	102.44
339.334	88.44
339.562	85.44
339.79	95.44
340.018	87.44
340.246	92.44
340.474	96.44
340.702	104.44
340.93	83.44
341.158	96.44
341.386	89.44
341.614	88.44
341.842	90.44
342.07	91.44
342.298	81.44
342.526	93.44
342.754	91.44
342.981	95.44
343.209	85.44
343.437	93.44
343.665	80.44
343.893	79.44
344.12	87.44
344.348	83.44
344.576	89.44
344.804	99.44
345.031	89.44
345.259	95.44
345.487	101.44
345.714	101.44
345.942	95.44
346.17	98.44
346.397	88.44
346.625	88.44
346.853	96.44
347.08	101.44
347.308	107.44
347.535	98.44
347.763	97.44
347.99	108.44
348.218	98.44
348.445	105.44
348.673	101.44
348.9	100.44
349.128	93.44
349.355	98.44
349.583	91.44
349.81	91.44
350.037	83.44
350.265	100.44
350.492	104.44
350.72	87.44
350.947	86.44
351.174	134.44
351.402	118.44
351.629	114.44
351.856	101.44
352.083	107.44
352.311	109.44
352.538	116.44
352.765	109.44
352.992	117.44
353.22	113.44
353.447	92.44
353.674	99.44
353.901	93.44
354.128	92.44
354.355	93.44
354.583	95.44
354.81	98.44
355.037	101.44
355.264	92.44
355.491	105.44
355.718	100.44
355.945	89.44
356.172	96.44
356.399	83.44
356.626	82.44
356.853	86.44
357.08	77.44
357.307	95.44
357.534	93.44
357.761	103.44
357.988	108.44
358.215	97.44
358.441	96.44
358.668	87.44
358.895	87.44
359.122	84.44
359.349	85.44
359.576	93.44
359.802	100.44
360.029	115.44
360.256	115.44
360.483	88.44
360.709	98.44
360.936	100.44
361.163	113.44
361.39	102.44
361.616	90.44
361.843	102.44
362.07	91.44
362.296	106.44
362.523	99.44
362.749	102.44
362.976	104.44
363.203	95.44
363.429	95.44
363.656	95.44
363.882	92.44
364.109	90.44
364.335	100.44
364.562	87.44
364.788	85.44
365.015	88.44
365.241	102.44
365.468	108.44
365.694	108.44
365.92	107.44
366.147	91.44
366.373	106.44
366.599	83.44
366.826	86.44
367.052	88.44
367.278	96.44
367.505	86.44
367.731	97.44
367.957	114.44
368.184	100.44
368.41	105.44
368.636	117.44
368.862	115.44
369.089	107.44
369.315	100.44
369.541	96.44
369.767	93.44
369.993	92.44
370.219	77.44
370.445	80.44
370.672	93.44
370.898	98.44
371.124	90.44
371.35	73.44
371.576	83.44
371.802	95.44
372.028	88.44
372.254	93.44
372.48	89.44
372.706	73.44
372.932	80.44
373.158	85.44
373.384	86.44
373.61	82.44
373.835	82.44
374.061	79.44
374.287	92.44
374.513	87.44
374.739	96.44
374.965	89.44
375.191	98.44
375.416	85.44
375.642	103.44
375.868	104.44
376.094	101.44
376.319	94.44
376.545	96.44
376.771	82.44
376.997	101.44
377.222	95.44
377.448	80.44
377.674	90.44
377.899	84.44
378.125	93.44
378.35	88.44
378.576	78.44
378.802	86.44
379.027	97.44
379.253	70.44
379.478	89.44
379.704	97.44
379.929	77.44
380.155	101.44
380.38	87.44
380.606	93.44
380.831	83.44
381.057	104.44
381.282	98.44
381.507	96.44
381.733	85.44
381.958	80.44
382.184	96.44
382.409	99.44
382.634	98.44
382.86	94.44
383.085	96.44
383.31	89.44
383.535	98.44
383.761	108.44
383.986	86.44
384.211	99.44
384.436	80.44
384.662	85.44
384.887	83.44
385.112	101.44
385.337	95.44
385.562	101.44
385.787	98.44
386.013	110.44
386.238	116.44
386.463	112.44
386.688	103.44
386.913	101.44
387.138	98.44
387.363	93.44
387.588	107.44
387.813	108.44
388.038	101.44
388.263	110.44
388.488	111.44
388.713	88.44
388.938	93.44
389.163	110.44
389.387	89.44
389.612	84.44
389.837	87.44
390.062	85.44
390.287	110.44
390.512	92.44
390.736	109.44
390.961	83.44
391.186	95.44
391.411	89.44
391.636	88.44
391.86	72.44
392.085	93.44
392.31	81.44
392.534	83.44
392.759	75.44
392.984	89.44
393.208	87.44
393.433	94.44
393.658	96.44
393.882	93.44
394.107	75.44
394.331	86.44
394.556	83.44
394.78	98.44
395.005	83.44
395.229	87.44
395.454	97.44
395.678	76.44
395.903	97.44
396.127	92.44
396.352	85.44
396.576	85.44
396.801	86.44
397.025	91.44
397.249	91.44
397.474	85.44
397.698	88.44
397.922	79.44
398.147	80.44
398.371	86.44
398.595	77.44
398.82	92.44
399.044	90.44
399.268	82.44
399.492	76.44
399.717	85.44
399.941	102.44
400.165	85.44
400.389	92.44
400.613	82.44
400.837	73.44
401.062	100.44
401.286	84.44
401.51	98.44
401.734	93.44
401.958	109.44
402.182	143.44
402.406	180.44
402.63	139.44
402.854	106.44
403.078	76.44
403.302	92.44
403.526	79.44
403.75	75.44
403.974	86.44
404.198	94.44
404.422	93.44
404.645	87.44
404.869	86.44
405.093	95.44
405.317	107.44
405.541	140.44
405.765	105.44
405.988	124.44
406.212	208.44
406.436	271.44
406.66	171.44
406.883	121.44
407.107	99.44
407.331	93.44
407.555	106.44
407.778	89.44
408.002	83.44
408.226	82.44
408.449	86.44
408.673	92.44
408.896	105.44
409.12	85.44
409.344	77.44
409.567	89.44
409.791	104.44
410.014	92.44
410.238	91.44
410.461	76.44
410.685	90.44
410.908	95.44
411.132	102.44
411.355	86.44
411.578	77.44
411.802	88.44
412.025	92.44
412.249	102.44
412.472	91.44
412.695	119.44
412.919	97.44
413.142	83.44
413.365	95.44
413.589	75.44
413.812	87.44
414.035	84.44
414.258	87.44
414.482	83.44
414.705	77.44
414.928	90.44
415.151	85.44
415.374	70.44
415.597	101.44
415.821	95.44
416.044	87.44
416.267	88.44
416.49	87.44
416.713	92.44
416.936	84.44
417.159	86.44
417.382	83.44
417.605	99.44
417.828	91.44
418.051	100.44
418.274	68.44
418.497	75.44
418.72	87.44
418.943	93.44
419.166	101.44
419.389	88.44
419.611	91.44
419.834	100.44
420.057	100.44
420.28	90.44
420.503	81.44
420.726	97.44
420.948	87.44
421.171	99.44
421.394	86.44
421.617	93.44
421.839	97.44
422.062	82.44
422.285	97.44
422.507	93.44
422.73	114.44
422.953	99.44
423.175	98.44
423.398	82.44
423.621	85.44
423.843	82.44
424.066	101.44
424.288	80.44
424.511	98.44
424.733	108.44
424.956	118.44
425.178	115.44
425.401	114.44
425.623	106.44
425.846	108.44
426.068	94.44
426.291	93.44
426.513	109.44
426.735	102.44
426.958	89.44
427.18	113.44
427.402	153.44
427.625	218.44
427.847	207.44
428.069	176.44
428.292	109.44
428.514	90.44
428.736	91.44
428.958	90.44
429.181	97.44
429.403	89.44
429.625	106.44
429.847	105.44
430.069	107.44
430.292	87.44
430.514	94.44
430.736	85.44
430.958	87.44
431.18	87.44
431.402	95.44
431.624	74.44
431.846	103.44
432.068	95.44
432.29	92.44
432.512	87.44
432.734	74.44
432.956	90.44
433.178	110.44
433.4	105.44
433.622	92.44
433.844	87.44
434.066	89.44
434.287	103.44
434.509	78.44
434.731	95.44
434.953	83.44
435.175	85.44
435.397	98.44
435.618	108.44
435.84	109.44
436.062	130.44
436.284	117.44
436.505	103.44
436.727	91.44
436.949	93.44
437.17	84.44
437.392	88.44
437.614	101.44
437.835	122.44
438.057	131.44
438.278	112.44
438.5	107.44
438.721	120.44
438.943	106.44
439.165	107.44
439.386	81.44
439.608	102.44
439.829	106.44
440.05	133.44
440.272	161.44
440.493	95.44
440.715	84.44
440.936	89.44
441.158	91.44
441.379	97.44
441.6	103.44
441.822	121.44
442.043	98.44
442.264	114.44
442.486	112.44
442.707	82.44
442.928	125.44
443.149	148.44
443.371	154.44
443.592	123.44
443.813	122.44
444.034	110.44
444.255	105.44
444.476	87.44
444.698	80.44
444.919	88.44
445.14	128.44
445.361	127.44
445.582	113.44
445.803	150.44
446.024	139.44
446.245	163.44
446.466	119.44
446.687	103.44
446.908	86.44
447.129	98.44
447.35	102.44
447.571	95.44
447.792	104.44
448.013	109.44
448.234	118.44
448.455	107.44
448.675	106.44
448.896	119.44
449.117	101.44
449.338	104.44
449.559	138.44
449.779	120.44
450	97.44
450.221	83.44
450.442	84.44
450.662	84.44
450.883	115.44
451.104	127.44
451.324	112.44
451.545	81.44
451.766	95.44
451.986	78.44
452.207	87.44
452.428	97.44
452.648	103.44
452.869	103.44
453.089	117.44
453.31	127.44
453.53	91.44
453.751	108.44
453.971	107.44
454.192	132.44
454.412	104.44
454.633	89.44
454.853	80.44
455.073	98.44
455.294	94.44
455.514	106.44
455.734	118.44
455.955	77.44
456.175	81.44
456.395	89.44
456.616	91.44
456.836	83.44
457.056	84.44
457.276	96.44
457.497	90.44
457.717	85.44
457.937	92.44
458.157	93.44
458.377	94.44
458.598	105.44
458.818	185.44
459.038	191.44
459.258	112.44
459.478	83.44
459.698	93.44
459.918	92.44
460.138	81.44
460.358	95.44
460.578	86.44
460.798	94.44
461.018	101.44
461.238	81.44
461.458	81.44
461.678	83.44
461.898	90.44
462.118	93.44
462.338	82.44
462.558	106.44
462.777	87.44
462.997	104.44
463.217	98.44
463.437	89.44
463.657	99.44
463.876	89.44
464.096	87.44
464.316	88.44
464.536	85.44
464.755	93.44
464.975	107.44
465.195	209.44
465.414	195.44
465.634	99.44
465.854	96.44
466.073	97.44
466.293	89.44
466.512	86.44
466.732	83.44
466.951	97.44
467.171	93.44
467.391	104.44
467.61	135.44
467.829	174.44
468.049	427.44
468.268	624.44
468.488	192.44
468.707	99.44
468.927	83.44
469.146	86.44
469.365	76.44
469.585	90.44
469.804	95.44
470.023	113.44
470.243	104.44
470.462	111.44
470.681	133.44
470.901	99.44
471.12	83.44
471.339	104.44
471.558	108.44
471.777	140.44
471.997	256.44
472.216	884.44
472.435	1840.44
472.654	438.44
472.873	123.44
473.092	119.44
473.311	79.44
473.53	97.44
473.749	95.44
473.968	108.44
474.187	101.44
474.406	103.44
474.625	101.44
474.844	82.44
475.063	93.44
475.282	84.44
475.501	92.44
475.72	98.44
475.939	79.44
476.158	97.44
476.377	92.44
476.596	91.44
476.814	76.44
477.033	102.44
477.252	99.44
477.471	72.44
477.69	87.44
477.908	90.44
478.127	80.44
478.346	94.44
478.564	96.44
478.783	104.44
479.002	103.44
479.22	99.44
479.439	128.44
479.658	133.44
479.876	111.44
480.095	118.44
480.313	123.44
480.532	155.44
480.751	227.44
480.969	791.44
481.188	3184.44
481.406	1780.44
481.624	293.44
481.843	113.44
482.061	101.44
482.28	95.44
482.498	88.44
482.717	96.44
482.935	92.44
483.153	93.44
483.372	91.44
483.59	91.44
483.808	105.44
484.027	86.44
484.245	85.44
484.463	99.44
484.681	104.44
484.9	92.44
485.118	84.44
485.336	98.44
485.554	92.44
485.772	111.44
485.99	97.44
486.209	94.44
486.427	98.44
486.645	120.44
486.863	117.44
487.081	104.44
487.299	87.44
487.517	95.44
487.735	91.44
487.953	98.44
488.171	90.44
488.389	87.44
488.607	112.44
488.825	93.44
489.043	85.44
489.261	85.44
489.479	86.44
489.696	90.44
489.914	95.44
490.132	77.44
490.35	95.44
490.568	92.44
490.786	81.44
491.003	92.44
491.221	89.44
491.439	97.44
491.657	100.44
491.874	99.44
492.092	80.44
492.31	102.44
492.527	100.44
492.745	100.44
492.963	87.44
493.18	92.44
493.398	92.44
493.615	95.44
493.833	92.44
494.05	87.44
494.268	97.44
494.485	92.44
494.703	85.44
494.92	100.44
495.138	86.44
495.355	88.44
495.573	95.44
495.79	98.44
496.008	100.44
496.225	91.44
496.442	91.44
496.66	81.44
496.877	73.44
497.094	91.44
497.312	87.44
497.529	80.44
497.746	73.44
497.963	102.44
498.181	99.44
498.398	104.44
498.615	119.44
498.832	99.44
499.049	98.44
499.267	97.44
499.484	82.44
499.701	87.44
499.918	84.44
500.135	77.44
500.352	91.44
500.569	88.44
500.786	92.44
501.003	91.44
501.22	89.44
501.437	85.44
501.654	116.44
501.871	116.44
502.088	85.44
502.305	92.44
502.522	96.44
502.739	97.44
502.956	86.44
503.172	108.44
503.389	103.44
503.606	112.44
503.823	107.44
504.04	99.44
504.256	102.44
504.473	100.44
504.69	78.44
504.907	84.44
505.123	93.44
505.34	91.44
505.557	93.44
505.773	83.44
505.99	88.44
506.207	92.44
506.423	92.44
506.64	80.44
506.856	84.44
507.073	85.44
507.289	98.44
507.506	97.44
507.722	113.44
507.939	121.44
508.155	96.44
508.372	103.44
508.588	98.44
508.805	98.44
509.021	95.44
509.238	87.44
509.454	101.44
509.67	115.44
509.887	92.44
510.103	129.44
510.319	223.44
510.536	819.44
510.752	2617.44
510.968	747.44
511.184	185.44
511.401	117.44
511.617	108.44
511.833	106.44
512.049	92.44
512.265	80.44
512.481	87.44
512.698	97.44
512.914	94.44
513.13	96.44
513.346	91.44
513.562	98.44
513.778	102.44
513.994	93.44
514.21	114.44
