Data from Circ_2001_H10_HRD10591_00024.txt Node
Date: Wed Jan 03 10:45:43 EST 2024
User: Yrep
Spectrometer: HR+D1059
Trigger mode: 1
Integration Time (sec): 1.000000E-1
Scans to average: 1
Electric dark correction enabled: true
Nonlinearity correction enabled: false
Boxcar width: 0
XAxis mode: Wavelengths
Number of Pixels in Spectrum: 2048
>>>>>Begin Spectral Data<<<<<
223.165	-28.56
223.4	-28.56
223.635	-28.56
223.869	-25.56
224.104	-12.56
224.338	-15.56
224.573	-12.56
224.808	-11.56
225.042	-6.56
225.277	-5.56
225.511	-3.56
225.746	1.44
225.98	10.44
226.215	14.44
226.449	21.44
226.683	25.44
226.918	21.44
227.152	27.44
227.387	19.44
227.621	26.44
227.856	24.44
228.09	41.44
228.324	51.44
228.559	46.44
228.793	68.44
229.027	79.44
229.262	65.44
229.496	70.44
229.73	75.44
229.964	79.44
230.199	77.44
230.433	87.44
230.667	78.44
230.901	83.44
231.136	87.44
231.37	89.44
231.604	71.44
231.838	70.44
232.072	84.44
232.306	83.44
232.541	71.44
232.775	93.44
233.009	103.44
233.243	81.44
233.477	72.44
233.711	93.44
233.945	91.44
234.179	75.44
234.413	71.44
234.647	80.44
234.881	77.44
235.115	85.44
235.349	86.44
235.583	97.44
235.817	88.44
236.051	90.44
236.285	94.44
236.519	59.44
236.753	76.44
236.987	87.44
237.221	93.44
237.455	85.44
237.689	84.44
237.922	76.44
238.156	63.44
238.39	83.44
238.624	85.44
238.858	74.44
239.091	87.44
239.325	84.44
239.559	80.44
239.793	80.44
240.027	83.44
240.26	91.44
240.494	84.44
240.728	76.44
240.961	67.44
241.195	92.44
241.429	55.44
241.662	77.44
241.896	93.44
242.13	77.44
242.363	83.44
242.597	79.44
242.83	77.44
243.064	72.44
243.298	90.44
243.531	99.44
243.765	88.44
243.998	86.44
244.232	72.44
244.465	100.44
244.699	87.44
244.932	87.44
245.166	91.44
245.399	80.44
245.633	74.44
245.866	63.44
246.099	84.44
246.333	71.44
246.566	73.44
246.8	74.44
247.033	81.44
247.266	74.44
247.5	75.44
247.733	64.44
247.966	79.44
248.2	80.44
248.433	77.44
248.666	77.44
248.899	86.44
249.133	81.44
249.366	93.44
249.599	96.44
249.832	87.44
250.066	88.44
250.299	60.44
250.532	89.44
250.765	87.44
250.998	83.44
251.231	82.44
251.465	77.44
251.698	89.44
251.931	93.44
252.164	88.44
252.397	86.44
252.63	78.44
252.863	79.44
253.096	69.44
253.329	82.44
253.562	71.44
253.795	69.44
254.028	87.44
254.261	93.44
254.494	86.44
254.727	94.44
254.96	80.44
255.193	79.44
255.426	74.44
255.659	76.44
255.892	87.44
256.124	80.44
256.357	87.44
256.59	85.44
256.823	86.44
257.056	89.44
257.289	80.44
257.521	91.44
257.754	89.44
257.987	66.44
258.22	83.44
258.452	86.44
258.685	73.44
258.918	90.44
259.151	80.44
259.383	79.44
259.616	89.44
259.849	74.44
260.081	87.44
260.314	93.44
260.547	77.44
260.779	67.44
261.012	88.44
261.244	91.44
261.477	91.44
261.71	106.44
261.942	106.44
262.175	117.44
262.407	86.44
262.64	87.44
262.872	71.44
263.105	82.44
263.337	85.44
263.57	86.44
263.802	95.44
264.035	79.44
264.267	95.44
264.499	83.44
264.732	90.44
264.964	84.44
265.197	87.44
265.429	90.44
265.661	76.44
265.894	80.44
266.126	91.44
266.358	86.44
266.591	69.44
266.823	92.44
267.055	88.44
267.287	93.44
267.52	88.44
267.752	102.44
267.984	83.44
268.216	91.44
268.448	84.44
268.681	93.44
268.913	68.44
269.145	83.44
269.377	88.44
269.609	81.44
269.841	84.44
270.073	75.44
270.306	88.44
270.538	74.44
270.77	95.44
271.002	81.44
271.234	92.44
271.466	87.44
271.698	85.44
271.93	79.44
272.162	89.44
272.394	81.44
272.626	77.44
272.858	90.44
273.09	87.44
273.322	77.44
273.553	84.44
273.785	81.44
274.017	86.44
274.249	96.44
274.481	75.44
274.713	92.44
274.945	70.44
275.176	92.44
275.408	102.44
275.64	90.44
275.872	89.44
276.104	90.44
276.335	68.44
276.567	93.44
276.799	121.44
277.031	113.44
277.262	125.44
277.494	118.44
277.726	96.44
277.957	76.44
278.189	75.44
278.421	75.44
278.652	88.44
278.884	79.44
279.115	70.44
279.347	88.44
279.579	95.44
279.81	105.44
280.042	132.44
280.273	152.44
280.505	117.44
280.736	96.44
280.968	91.44
281.199	75.44
281.431	93.44
281.662	89.44
281.894	85.44
282.125	97.44
282.356	127.44
282.588	142.44
282.819	121.44
283.051	93.44
283.282	85.44
283.513	93.44
283.745	100.44
283.976	91.44
284.207	83.44
284.439	88.44
284.67	85.44
284.901	91.44
285.132	103.44
285.364	88.44
285.595	91.44
285.826	80.44
286.057	90.44
286.288	86.44
286.52	81.44
286.751	76.44
286.982	69.44
287.213	88.44
287.444	91.44
287.675	81.44
287.906	79.44
288.138	90.44
288.369	79.44
288.6	89.44
288.831	102.44
289.062	81.44
289.293	83.44
289.524	91.44
289.755	101.44
289.986	91.44
290.217	74.44
290.448	77.44
290.679	82.44
290.91	80.44
291.141	86.44
291.371	93.44
291.602	93.44
291.833	96.44
292.064	93.44
292.295	95.44
292.526	87.44
292.757	79.44
292.987	83.44
293.218	79.44
293.449	90.44
293.68	79.44
293.91	92.44
294.141	93.44
294.372	82.44
294.603	96.44
294.833	84.44
295.064	87.44
295.295	92.44
295.525	101.44
295.756	102.44
295.987	110.44
296.217	131.44
296.448	113.44
296.679	93.44
296.909	75.44
297.14	97.44
297.37	99.44
297.601	88.44
297.831	82.44
298.062	105.44
298.292	90.44
298.523	91.44
298.753	90.44
298.984	86.44
299.214	103.44
299.445	85.44
299.675	94.44
299.905	100.44
300.136	91.44
300.366	81.44
300.597	91.44
300.827	90.44
301.057	99.44
301.288	87.44
301.518	102.44
301.748	95.44
301.979	101.44
302.209	80.44
302.439	97.44
302.669	82.44
302.9	91.44
303.13	93.44
303.36	112.44
303.59	104.44
303.82	106.44
304.051	94.44
304.281	91.44
304.511	89.44
304.741	80.44
304.971	82.44
305.201	89.44
305.431	100.44
305.661	87.44
305.891	84.44
306.121	89.44
306.352	89.44
306.582	111.44
306.812	97.44
307.042	102.44
307.272	111.44
307.502	113.44
307.731	128.44
307.961	103.44
308.191	88.44
308.421	84.44
308.651	104.44
308.881	97.44
309.111	98.44
309.341	88.44
309.571	92.44
309.8	107.44
310.03	87.44
310.26	106.44
310.49	90.44
310.72	107.44
310.949	104.44
311.179	93.44
311.409	96.44
311.639	95.44
311.868	105.44
312.098	83.44
312.328	96.44
312.557	97.44
312.787	102.44
313.017	96.44
313.246	95.44
313.476	120.44
313.706	79.44
313.935	93.44
314.165	90.44
314.394	92.44
314.624	92.44
314.853	93.44
315.083	83.44
315.312	93.44
315.542	101.44
315.771	69.44
316.001	97.44
316.23	93.44
316.46	82.44
316.689	95.44
316.919	93.44
317.148	91.44
317.377	99.44
317.607	98.44
317.836	92.44
318.065	81.44
318.295	95.44
318.524	85.44
318.753	89.44
318.983	100.44
319.212	104.44
319.441	105.44
319.67	111.44
319.9	84.44
320.129	101.44
320.358	107.44
320.587	92.44
320.816	102.44
321.046	111.44
321.275	104.44
321.504	79.44
321.733	85.44
321.962	96.44
322.191	113.44
322.42	105.44
322.649	120.44
322.878	103.44
323.108	141.44
323.337	140.44
323.566	138.44
323.795	169.44
324.024	215.44
324.253	428.44
324.482	893.44
324.71	1830.44
324.939	2394.44
325.168	883.44
325.397	267.44
325.626	164.44
325.855	132.44
326.084	120.44
326.313	122.44
326.542	161.44
326.77	248.44
326.999	500.44
327.228	1016.44
327.457	1836.44
327.686	1447.44
327.914	449.44
328.143	311.44
328.372	353.44
328.6	204.44
328.829	125.44
329.058	143.44
329.287	153.44
329.515	129.44
329.744	167.44
329.972	263.44
330.201	469.44
330.43	657.44
330.658	342.44
330.887	179.44
331.115	143.44
331.344	95.44
331.572	103.44
331.801	110.44
332.03	101.44
332.258	109.44
332.486	94.44
332.715	84.44
332.943	96.44
333.172	107.44
333.4	116.44
333.629	121.44
333.857	147.44
334.085	247.44
334.314	472.44
334.542	808.44
334.771	775.44
334.999	237.44
335.227	130.44
335.455	104.44
335.684	117.44
335.912	106.44
336.14	105.44
336.369	95.44
336.597	102.44
336.825	112.44
337.053	96.44
337.281	101.44
337.51	91.44
337.738	100.44
337.966	104.44
338.194	96.44
338.422	95.44
338.65	79.44
338.878	97.44
339.106	92.44
339.334	89.44
339.562	93.44
339.79	99.44
340.018	80.44
340.246	83.44
340.474	90.44
340.702	73.44
340.93	89.44
341.158	76.44
341.386	91.44
341.614	100.44
341.842	102.44
342.07	83.44
342.298	89.44
342.526	91.44
342.754	96.44
342.981	97.44
343.209	73.44
343.437	107.44
343.665	80.44
343.893	95.44
344.12	88.44
344.348	79.44
344.576	96.44
344.804	97.44
345.031	95.44
345.259	98.44
345.487	107.44
345.714	102.44
345.942	80.44
346.17	105.44
346.397	83.44
346.625	95.44
346.853	99.44
347.08	103.44
347.308	99.44
347.535	112.44
347.763	103.44
347.99	104.44
348.218	94.44
348.445	108.44
348.673	97.44
348.9	93.44
349.128	101.44
349.355	84.44
349.583	103.44
349.81	101.44
350.037	106.44
350.265	102.44
350.492	82.44
350.72	96.44
350.947	101.44
351.174	95.44
351.402	100.44
351.629	108.44
351.856	106.44
352.083	90.44
352.311	101.44
352.538	111.44
352.765	99.44
352.992	106.44
353.22	106.44
353.447	99.44
353.674	108.44
353.901	98.44
354.128	96.44
354.355	107.44
354.583	90.44
354.81	106.44
355.037	99.44
355.264	102.44
355.491	107.44
355.718	88.44
355.945	89.44
356.172	110.44
356.399	99.44
356.626	92.44
356.853	105.44
357.08	91.44
357.307	86.44
357.534	93.44
357.761	98.44
357.988	100.44
358.215	107.44
358.441	92.44
358.668	104.44
358.895	97.44
359.122	84.44
359.349	75.44
359.576	106.44
359.802	96.44
360.029	112.44
360.256	121.44
360.483	92.44
360.709	86.44
360.936	97.44
361.163	101.44
361.39	97.44
361.616	102.44
361.843	96.44
362.07	96.44
362.296	90.44
362.523	86.44
362.749	91.44
362.976	95.44
363.203	90.44
363.429	81.44
363.656	93.44
363.882	78.44
364.109	98.44
364.335	90.44
364.562	100.44
364.788	76.44
365.015	105.44
365.241	101.44
365.468	100.44
365.694	98.44
365.92	86.44
366.147	79.44
366.373	87.44
366.599	86.44
366.826	87.44
367.052	82.44
367.278	86.44
367.505	90.44
367.731	99.44
367.957	93.44
368.184	92.44
368.41	96.44
368.636	116.44
368.862	100.44
369.089	120.44
369.315	106.44
369.541	85.44
369.767	91.44
369.993	98.44
370.219	83.44
370.445	83.44
370.672	80.44
370.898	84.44
371.124	95.44
371.35	85.44
371.576	82.44
371.802	81.44
372.028	81.44
372.254	71.44
372.48	79.44
372.706	97.44
372.932	89.44
373.158	109.44
373.384	93.44
373.61	92.44
373.835	98.44
374.061	78.44
374.287	91.44
374.513	99.44
374.739	95.44
374.965	93.44
375.191	96.44
375.416	89.44
375.642	87.44
375.868	96.44
376.094	91.44
376.319	100.44
376.545	78.44
376.771	80.44
376.997	91.44
377.222	88.44
377.448	102.44
377.674	84.44
377.899	89.44
378.125	72.44
378.35	89.44
378.576	91.44
378.802	83.44
379.027	86.44
379.253	82.44
379.478	100.44
379.704	82.44
379.929	82.44
380.155	104.44
380.38	92.44
380.606	104.44
380.831	95.44
381.057	101.44
381.282	105.44
381.507	100.44
381.733	89.44
381.958	93.44
382.184	97.44
382.409	104.44
382.634	100.44
382.86	98.44
383.085	92.44
383.31	104.44
383.535	103.44
383.761	96.44
383.986	102.44
384.211	96.44
384.436	98.44
384.662	112.44
384.887	96.44
385.112	101.44
385.337	110.44
385.562	112.44
385.787	102.44
386.013	115.44
386.238	109.44
386.463	117.44
386.688	118.44
386.913	103.44
387.138	121.44
387.363	107.44
387.588	98.44
387.813	98.44
388.038	111.44
388.263	111.44
388.488	115.44
388.713	100.44
388.938	88.44
389.163	90.44
389.387	83.44
389.612	77.44
389.837	90.44
390.062	93.44
390.287	95.44
390.512	97.44
390.736	82.44
390.961	102.44
391.186	83.44
391.411	89.44
391.636	92.44
391.86	97.44
392.085	82.44
392.31	88.44
392.534	93.44
392.759	85.44
392.984	88.44
393.208	93.44
393.433	108.44
393.658	89.44
393.882	79.44
394.107	89.44
394.331	84.44
394.556	89.44
394.78	79.44
395.005	87.44
395.229	91.44
395.454	76.44
395.678	87.44
395.903	103.44
396.127	93.44
396.352	95.44
396.576	85.44
396.801	104.44
397.025	93.44
397.249	73.44
397.474	91.44
397.698	83.44
397.922	87.44
398.147	85.44
398.371	82.44
398.595	82.44
398.82	86.44
399.044	86.44
399.268	101.44
399.492	88.44
399.717	99.44
399.941	96.44
400.165	97.44
400.389	98.44
400.613	90.44
400.837	102.44
401.062	106.44
401.286	94.44
401.51	82.44
401.734	85.44
401.958	104.44
402.182	129.44
402.406	154.44
402.63	112.44
402.854	105.44
403.078	84.44
403.302	88.44
403.526	100.44
403.75	84.44
403.974	98.44
404.198	95.44
404.422	99.44
404.645	86.44
404.869	90.44
405.093	107.44
405.317	131.44
405.541	127.44
405.765	99.44
405.988	114.44
406.212	171.44
406.436	239.44
406.66	163.44
406.883	104.44
407.107	96.44
407.331	87.44
407.555	86.44
407.778	91.44
408.002	98.44
408.226	97.44
408.449	94.44
408.673	86.44
408.896	101.44
409.12	95.44
409.344	79.44
409.567	84.44
409.791	97.44
410.014	87.44
410.238	99.44
410.461	90.44
410.685	102.44
410.908	103.44
411.132	93.44
411.355	88.44
411.578	87.44
411.802	89.44
412.025	93.44
412.249	93.44
412.472	96.44
412.695	91.44
412.919	110.44
413.142	83.44
413.365	92.44
413.589	99.44
413.812	94.44
414.035	89.44
414.258	90.44
414.482	101.44
414.705	100.44
414.928	99.44
415.151	107.44
415.374	91.44
415.597	82.44
415.821	106.44
416.044	98.44
416.267	97.44
416.49	93.44
416.713	91.44
416.936	79.44
417.159	84.44
417.382	92.44
417.605	86.44
417.828	106.44
418.051	87.44
418.274	100.44
418.497	93.44
418.72	88.44
418.943	101.44
419.166	89.44
419.389	85.44
419.611	87.44
419.834	88.44
420.057	88.44
420.28	91.44
420.503	102.44
420.726	82.44
420.948	84.44
421.171	85.44
421.394	101.44
421.617	98.44
421.839	83.44
422.062	91.44
422.285	93.44
422.507	89.44
422.73	101.44
422.953	91.44
423.175	103.44
423.398	87.44
423.621	77.44
423.843	89.44
424.066	86.44
424.288	81.44
424.511	84.44
424.733	97.44
424.956	106.44
425.178	102.44
425.401	92.44
425.623	89.44
425.846	83.44
426.068	86.44
426.291	83.44
426.513	95.44
426.735	79.44
426.958	90.44
427.18	121.44
427.402	145.44
427.625	187.44
427.847	185.44
428.069	166.44
428.292	107.44
428.514	96.44
428.736	93.44
428.958	91.44
429.181	89.44
429.403	91.44
429.625	85.44
429.847	101.44
430.069	94.44
430.292	87.44
430.514	84.44
430.736	82.44
430.958	85.44
431.18	83.44
431.402	76.44
431.624	85.44
431.846	87.44
432.068	100.44
432.29	88.44
432.512	86.44
432.734	81.44
432.956	95.44
433.178	95.44
433.4	103.44
433.622	98.44
433.844	89.44
434.066	108.44
434.287	104.44
434.509	90.44
434.731	104.44
434.953	93.44
435.175	87.44
435.397	99.44
435.618	111.44
435.84	88.44
436.062	115.44
436.284	122.44
436.505	107.44
436.727	99.44
436.949	99.44
437.17	81.44
437.392	92.44
437.614	103.44
437.835	100.44
438.057	126.44
438.278	116.44
438.5	99.44
438.721	129.44
438.943	105.44
439.165	89.44
439.386	73.44
439.608	83.44
439.829	85.44
440.05	120.44
440.272	148.44
440.493	92.44
440.715	80.44
440.936	104.44
441.158	94.44
441.379	86.44
441.6	98.44
441.822	101.44
442.043	93.44
442.264	99.44
442.486	86.44
442.707	93.44
442.928	107.44
443.149	132.44
443.371	137.44
443.592	115.44
443.813	113.44
444.034	110.44
444.255	98.44
444.476	76.44
444.698	83.44
444.919	99.44
445.14	134.44
445.361	124.44
445.582	121.44
445.803	156.44
446.024	135.44
446.245	140.44
446.466	117.44
446.687	85.44
446.908	109.44
447.129	93.44
447.35	91.44
447.571	91.44
447.792	81.44
448.013	84.44
448.234	115.44
448.455	103.44
448.675	110.44
448.896	120.44
449.117	97.44
449.338	100.44
449.559	133.44
449.779	119.44
450	104.44
450.221	84.44
450.442	94.44
450.662	83.44
450.883	104.44
451.104	122.44
451.324	82.44
451.545	103.44
451.766	89.44
451.986	85.44
452.207	86.44
452.428	81.44
452.648	99.44
452.869	119.44
453.089	120.44
453.31	117.44
453.53	75.44
453.751	82.44
453.971	107.44
454.192	96.44
454.412	100.44
454.633	77.44
454.853	84.44
455.073	89.44
455.294	111.44
455.514	94.44
455.734	72.44
455.955	91.44
456.175	74.44
456.395	77.44
456.616	88.44
456.836	85.44
457.056	74.44
457.276	84.44
457.497	83.44
457.717	90.44
457.937	89.44
458.157	86.44
458.377	92.44
458.598	120.44
458.818	175.44
459.038	164.44
459.258	110.44
459.478	89.44
459.698	85.44
459.918	103.44
460.138	64.44
460.358	93.44
460.578	90.44
460.798	89.44
461.018	86.44
461.238	93.44
461.458	99.44
461.678	85.44
461.898	99.44
462.118	85.44
462.338	76.44
462.558	85.44
462.777	74.44
462.997	80.44
463.217	93.44
463.437	96.44
463.657	88.44
463.876	91.44
464.096	86.44
464.316	81.44
464.536	89.44
464.755	101.44
464.975	116.44
465.195	183.44
465.414	175.44
465.634	95.44
465.854	104.44
466.073	73.44
466.293	95.44
466.512	85.44
466.732	85.44
466.951	95.44
467.171	96.44
467.391	108.44
467.61	129.44
467.829	135.44
468.049	300.44
468.268	395.44
468.488	137.44
468.707	103.44
468.927	97.44
469.146	87.44
469.365	80.44
469.585	99.44
469.804	106.44
470.023	92.44
470.243	92.44
470.462	110.44
470.681	112.44
470.901	89.44
471.12	108.44
471.339	100.44
471.558	88.44
471.777	109.44
471.997	184.44
472.216	556.44
472.435	1178.44
472.654	321.44
472.873	117.44
473.092	92.44
473.311	95.44
473.53	86.44
473.749	92.44
473.968	108.44
474.187	105.44
474.406	96.44
474.625	83.44
474.844	78.44
475.063	97.44
475.282	86.44
475.501	90.44
475.72	108.44
475.939	93.44
476.158	78.44
476.377	90.44
476.596	85.44
476.814	91.44
477.033	84.44
477.252	86.44
477.471	92.44
477.69	92.44
477.908	89.44
478.127	87.44
478.346	90.44
478.564	88.44
478.783	105.44
479.002	98.44
479.22	92.44
479.439	113.44
479.658	110.44
479.876	101.44
480.095	92.44
480.313	107.44
480.532	123.44
480.751	183.44
480.969	553.44
481.188	2033.44
481.406	1181.44
481.624	208.44
481.843	112.44
482.061	87.44
482.28	96.44
482.498	103.44
482.717	78.44
482.935	98.44
483.153	91.44
483.372	92.44
483.59	89.44
483.808	80.44
484.027	82.44
484.245	84.44
484.463	76.44
484.681	106.44
484.9	95.44
485.118	85.44
485.336	93.44
485.554	96.44
485.772	93.44
485.99	109.44
486.209	108.44
486.427	115.44
486.645	113.44
486.863	105.44
487.081	106.44
487.299	90.44
487.517	93.44
487.735	100.44
487.953	97.44
488.171	87.44
488.389	93.44
488.607	82.44
488.825	99.44
489.043	96.44
489.261	86.44
489.479	75.44
489.696	83.44
489.914	94.44
490.132	95.44
490.35	92.44
490.568	81.44
490.786	86.44
491.003	99.44
491.221	98.44
491.439	102.44
491.657	102.44
491.874	94.44
492.092	97.44
492.31	83.44
492.527	93.44
492.745	80.44
492.963	85.44
493.18	113.44
493.398	106.44
493.615	98.44
493.833	88.44
494.05	91.44
494.268	92.44
494.485	91.44
494.703	99.44
494.92	88.44
495.138	90.44
495.355	86.44
495.573	89.44
495.79	90.44
496.008	82.44
496.225	86.44
496.442	88.44
496.66	86.44
496.877	82.44
497.094	93.44
497.312	94.44
497.529	92.44
497.746	90.44
497.963	95.44
498.181	79.44
498.398	92.44
498.615	113.44
498.832	97.44
499.049	92.44
499.267	88.44
499.484	91.44
499.701	86.44
499.918	95.44
500.135	79.44
500.352	100.44
500.569	81.44
500.786	91.44
501.003	70.44
501.22	94.44
501.437	79.44
501.654	102.44
501.871	107.44
502.088	91.44
502.305	108.44
502.522	91.44
502.739	80.44
502.956	84.44
503.172	89.44
503.389	98.44
503.606	107.44
503.823	93.44
504.04	102.44
504.256	107.44
504.473	100.44
504.69	91.44
504.907	95.44
505.123	93.44
505.34	95.44
505.557	95.44
505.773	84.44
505.99	87.44
506.207	88.44
506.423	96.44
506.64	104.44
506.856	90.44
507.073	102.44
507.289	108.44
507.506	97.44
507.722	107.44
507.939	99.44
508.155	95.44
508.372	80.44
508.588	86.44
508.805	108.44
509.021	92.44
509.238	93.44
509.454	98.44
509.67	103.44
509.887	100.44
510.103	123.44
510.319	209.44
510.536	771.44
510.752	2414.44
510.968	653.44
511.184	157.44
511.401	106.44
511.617	102.44
511.833	96.44
512.049	85.44
512.265	88.44
512.481	99.44
512.698	89.44
512.914	90.44
513.13	91.44
513.346	86.44
513.562	90.44
513.778	96.44
513.994	104.44
514.21	102.44
514.426	120.44
514.642	140.44
