Data from Circ_2001_H10_HRD10591_00022.txt Node
Date: Wed Jan 03 10:45:43 EST 2024
User: Yrep
Spectrometer: HR+D1059
Trigger mode: 1
Integration Time (sec): 1.000000E-1
Scans to average: 1
Electric dark correction enabled: true
Nonlinearity correction enabled: false
Boxcar width: 0
XAxis mode: Wavelengths
Number of Pixels in Spectrum: 2048
>>>>>Begin Spectral Data<<<<<
223.165	-15.62
223.4	-15.62
223.635	-15.62
223.869	-13.62
224.104	-14.62
224.338	-21.62
224.573	-17.62
224.808	-26.62
225.042	-5.62
225.277	-4.62
225.511	13.38
225.746	6.38
225.98	0.38
226.215	12.38
226.449	2.38
226.683	23.38
226.918	24.38
227.152	37.38
227.387	45.38
227.621	37.38
227.856	41.38
228.09	36.38
228.324	38.38
228.559	56.38
228.793	50.38
229.027	59.38
229.262	54.38
229.496	73.38
229.73	87.38
229.964	78.38
230.199	81.38
230.433	79.38
230.667	67.38
230.901	62.38
231.136	79.38
231.37	80.38
231.604	83.38
231.838	86.38
232.072	84.38
232.306	99.38
232.541	74.38
232.775	76.38
233.009	89.38
233.243	86.38
233.477	89.38
233.711	81.38
233.945	80.38
234.179	88.38
234.413	80.38
234.647	71.38
234.881	86.38
235.115	77.38
235.349	80.38
235.583	83.38
235.817	82.38
236.051	87.38
236.285	83.38
236.519	76.38
236.753	85.38
236.987	77.38
237.221	89.38
237.455	96.38
237.689	87.38
237.922	87.38
238.156	87.38
238.39	80.38
238.624	79.38
238.858	78.38
239.091	95.38
239.325	80.38
239.559	88.38
239.793	66.38
240.027	73.38
240.26	81.38
240.494	82.38
240.728	86.38
240.961	76.38
241.195	75.38
241.429	81.38
241.662	87.38
241.896	86.38
242.13	71.38
242.363	75.38
242.597	78.38
242.83	67.38
243.064	77.38
243.298	78.38
243.531	80.38
243.765	69.38
243.998	66.38
244.232	77.38
244.465	92.38
244.699	84.38
244.932	94.38
245.166	91.38
245.399	92.38
245.633	93.38
245.866	75.38
246.099	94.38
246.333	74.38
246.566	73.38
246.8	70.38
247.033	78.38
247.266	78.38
247.5	80.38
247.733	88.38
247.966	88.38
248.2	77.38
248.433	86.38
248.666	90.38
248.899	94.38
249.133	89.38
249.366	111.38
249.599	99.38
249.832	90.38
250.066	87.38
250.299	88.38
250.532	87.38
250.765	74.38
250.998	84.38
251.231	90.38
251.465	83.38
251.698	88.38
251.931	87.38
252.164	78.38
252.397	82.38
252.63	93.38
252.863	76.38
253.096	84.38
253.329	88.38
253.562	84.38
253.795	99.38
254.028	78.38
254.261	88.38
254.494	70.38
254.727	78.38
254.96	54.38
255.193	74.38
255.426	73.38
255.659	81.38
255.892	88.38
256.124	90.38
256.357	87.38
256.59	90.38
256.823	87.38
257.056	82.38
257.289	90.38
257.521	78.38
257.754	83.38
257.987	81.38
258.22	93.38
258.452	95.38
258.685	84.38
258.918	86.38
259.151	72.38
259.383	87.38
259.616	74.38
259.849	78.38
260.081	91.38
260.314	99.38
260.547	85.38
260.779	88.38
261.012	79.38
261.244	95.38
261.477	99.38
261.71	94.38
261.942	115.38
262.175	109.38
262.407	88.38
262.64	93.38
262.872	93.38
263.105	72.38
263.337	102.38
263.57	90.38
263.802	70.38
264.035	79.38
264.267	74.38
264.499	87.38
264.732	90.38
264.964	78.38
265.197	88.38
265.429	90.38
265.661	82.38
265.894	88.38
266.126	80.38
266.358	93.38
266.591	90.38
266.823	89.38
267.055	83.38
267.287	73.38
267.52	89.38
267.752	96.38
267.984	66.38
268.216	72.38
268.448	80.38
268.681	80.38
268.913	93.38
269.145	73.38
269.377	75.38
269.609	89.38
269.841	81.38
270.073	107.38
270.306	86.38
270.538	84.38
270.77	85.38
271.002	75.38
271.234	91.38
271.466	81.38
271.698	86.38
271.93	75.38
272.162	82.38
272.394	99.38
272.626	86.38
272.858	80.38
273.09	86.38
273.322	79.38
273.553	81.38
273.785	99.38
274.017	90.38
274.249	94.38
274.481	95.38
274.713	94.38
274.945	80.38
275.176	83.38
275.408	106.38
275.64	93.38
275.872	106.38
276.104	89.38
276.335	103.38
276.567	106.38
276.799	109.38
277.031	122.38
277.262	131.38
277.494	105.38
277.726	95.38
277.957	96.38
278.189	93.38
278.421	106.38
278.652	73.38
278.884	91.38
279.115	90.38
279.347	91.38
279.579	92.38
279.81	105.38
280.042	133.38
280.273	150.38
280.505	133.38
280.736	91.38
280.968	86.38
281.199	89.38
281.431	94.38
281.662	97.38
281.894	91.38
282.125	93.38
282.356	129.38
282.588	146.38
282.819	117.38
283.051	90.38
283.282	84.38
283.513	76.38
283.745	82.38
283.976	93.38
284.207	91.38
284.439	94.38
284.67	90.38
284.901	85.38
285.132	85.38
285.364	83.38
285.595	98.38
285.826	83.38
286.057	96.38
286.288	91.38
286.52	101.38
286.751	94.38
286.982	90.38
287.213	98.38
287.444	93.38
287.675	98.38
287.906	100.38
288.138	100.38
288.369	85.38
288.6	107.38
288.831	94.38
289.062	79.38
289.293	101.38
289.524	95.38
289.755	100.38
289.986	90.38
290.217	95.38
290.448	80.38
290.679	80.38
290.91	84.38
291.141	87.38
291.371	97.38
291.602	86.38
291.833	92.38
292.064	90.38
292.295	100.38
292.526	88.38
292.757	72.38
292.987	93.38
293.218	72.38
293.449	93.38
293.68	80.38
293.91	96.38
294.141	87.38
294.372	89.38
294.603	91.38
294.833	99.38
295.064	77.38
295.295	92.38
295.525	92.38
295.756	115.38
295.987	123.38
296.217	127.38
296.448	138.38
296.679	92.38
296.909	93.38
297.14	81.38
297.37	91.38
297.601	79.38
297.831	96.38
298.062	103.38
298.292	102.38
298.523	102.38
298.753	84.38
298.984	82.38
299.214	92.38
299.445	98.38
299.675	91.38
299.905	91.38
300.136	90.38
300.366	85.38
300.597	106.38
300.827	93.38
301.057	101.38
301.288	102.38
301.518	106.38
301.748	77.38
301.979	109.38
302.209	105.38
302.439	101.38
302.669	90.38
302.9	95.38
303.13	100.38
303.36	108.38
303.59	112.38
303.82	107.38
304.051	107.38
304.281	101.38
304.511	106.38
304.741	94.38
304.971	85.38
305.201	98.38
305.431	91.38
305.661	92.38
305.891	94.38
306.121	84.38
306.352	112.38
306.582	115.38
306.812	96.38
307.042	104.38
307.272	97.38
307.502	135.38
307.731	124.38
307.961	108.38
308.191	92.38
308.421	101.38
308.651	101.38
308.881	86.38
309.111	100.38
309.341	96.38
309.571	95.38
309.8	102.38
310.03	99.38
310.26	96.38
310.49	106.38
310.72	105.38
310.949	119.38
311.179	102.38
311.409	94.38
311.639	87.38
311.868	96.38
312.098	101.38
312.328	86.38
312.557	103.38
312.787	100.38
313.017	112.38
313.246	94.38
313.476	92.38
313.706	87.38
313.935	84.38
314.165	112.38
314.394	87.38
314.624	94.38
314.853	101.38
315.083	105.38
315.312	89.38
315.542	90.38
315.771	84.38
316.001	99.38
316.23	99.38
316.46	100.38
316.689	97.38
316.919	89.38
317.148	103.38
317.377	92.38
317.607	116.38
317.836	87.38
318.065	94.38
318.295	108.38
318.524	92.38
318.753	99.38
318.983	94.38
319.212	103.38
319.441	100.38
319.67	114.38
319.9	83.38
320.129	111.38
320.358	90.38
320.587	95.38
320.816	96.38
321.046	86.38
321.275	103.38
321.504	101.38
321.733	95.38
321.962	92.38
322.191	97.38
322.42	112.38
322.649	112.38
322.878	126.38
323.108	102.38
323.337	122.38
323.566	128.38
323.795	157.38
324.024	200.38
324.253	390.38
324.482	793.38
324.71	1558.38
324.939	2101.38
325.168	796.38
325.397	238.38
325.626	159.38
325.855	117.38
326.084	127.38
326.313	120.38
326.542	151.38
326.77	242.38
326.999	458.38
327.228	910.38
327.457	1592.38
327.686	1290.38
327.914	425.38
328.143	292.38
328.372	357.38
328.6	208.38
328.829	150.38
329.058	134.38
329.287	142.38
329.515	136.38
329.744	157.38
329.972	259.38
330.201	488.38
330.43	648.38
330.658	333.38
330.887	172.38
331.115	126.38
331.344	110.38
331.572	97.38
331.801	102.38
332.03	122.38
332.258	109.38
332.486	94.38
332.715	93.38
332.943	108.38
333.172	103.38
333.4	99.38
333.629	133.38
333.857	158.38
334.085	261.38
334.314	435.38
334.542	800.38
334.771	762.38
334.999	242.38
335.227	122.38
335.455	104.38
335.684	101.38
335.912	117.38
336.14	99.38
336.369	113.38
336.597	102.38
336.825	91.38
337.053	93.38
337.281	80.38
337.51	93.38
337.738	92.38
337.966	88.38
338.194	103.38
338.422	109.38
338.65	92.38
338.878	100.38
339.106	79.38
339.334	88.38
339.562	91.38
339.79	106.38
340.018	112.38
340.246	97.38
340.474	91.38
340.702	102.38
340.93	97.38
341.158	81.38
341.386	100.38
341.614	99.38
341.842	106.38
342.07	91.38
342.298	86.38
342.526	87.38
342.754	84.38
342.981	82.38
343.209	94.38
343.437	91.38
343.665	80.38
343.893	101.38
344.12	86.38
344.348	90.38
344.576	91.38
344.804	110.38
345.031	101.38
345.259	98.38
345.487	96.38
345.714	100.38
345.942	93.38
346.17	86.38
346.397	101.38
346.625	100.38
346.853	84.38
347.08	97.38
347.308	94.38
347.535	84.38
347.763	108.38
347.99	107.38
348.218	101.38
348.445	110.38
348.673	103.38
348.9	101.38
349.128	98.38
349.355	85.38
349.583	94.38
349.81	94.38
350.037	91.38
350.265	101.38
350.492	100.38
350.72	109.38
350.947	95.38
351.174	108.38
351.402	111.38
351.629	112.38
351.856	115.38
352.083	104.38
352.311	108.38
352.538	112.38
352.765	122.38
352.992	118.38
353.22	119.38
353.447	118.38
353.674	99.38
353.901	94.38
354.128	85.38
354.355	109.38
354.583	101.38
354.81	110.38
355.037	96.38
355.264	87.38
355.491	89.38
355.718	92.38
355.945	95.38
356.172	99.38
356.399	108.38
356.626	97.38
356.853	109.38
357.08	92.38
357.307	82.38
357.534	102.38
357.761	106.38
357.988	103.38
358.215	99.38
358.441	100.38
358.668	104.38
358.895	81.38
359.122	95.38
359.349	93.38
359.576	84.38
359.802	100.38
360.029	115.38
360.256	106.38
360.483	94.38
360.709	97.38
360.936	106.38
361.163	101.38
361.39	111.38
361.616	101.38
361.843	101.38
362.07	89.38
362.296	94.38
362.523	89.38
362.749	90.38
362.976	99.38
363.203	101.38
363.429	101.38
363.656	95.38
363.882	90.38
364.109	102.38
364.335	99.38
364.562	90.38
364.788	90.38
365.015	98.38
365.241	105.38
365.468	115.38
365.694	109.38
365.92	90.38
366.147	98.38
366.373	95.38
366.599	86.38
366.826	94.38
367.052	84.38
367.278	84.38
367.505	95.38
367.731	111.38
367.957	94.38
368.184	90.38
368.41	102.38
368.636	106.38
368.862	115.38
369.089	95.38
369.315	106.38
369.541	90.38
369.767	103.38
369.993	92.38
370.219	91.38
370.445	93.38
370.672	105.38
370.898	89.38
371.124	93.38
371.35	92.38
371.576	89.38
371.802	87.38
372.028	99.38
372.254	83.38
372.48	85.38
372.706	94.38
372.932	87.38
373.158	88.38
373.384	99.38
373.61	94.38
373.835	93.38
374.061	87.38
374.287	99.38
374.513	103.38
374.739	96.38
374.965	89.38
375.191	103.38
375.416	88.38
375.642	83.38
375.868	103.38
376.094	81.38
376.319	84.38
376.545	98.38
376.771	93.38
376.997	102.38
377.222	110.38
377.448	95.38
377.674	95.38
377.899	93.38
378.125	99.38
378.35	96.38
378.576	112.38
378.802	88.38
379.027	83.38
379.253	95.38
379.478	91.38
379.704	94.38
379.929	94.38
380.155	103.38
380.38	97.38
380.606	107.38
380.831	95.38
381.057	113.38
381.282	107.38
381.507	100.38
381.733	94.38
381.958	90.38
382.184	112.38
382.409	96.38
382.634	101.38
382.86	103.38
383.085	94.38
383.31	129.38
383.535	105.38
383.761	110.38
383.986	119.38
384.211	119.38
384.436	107.38
384.662	104.38
384.887	126.38
385.112	118.38
385.337	114.38
385.562	104.38
385.787	118.38
386.013	115.38
386.238	110.38
386.463	106.38
386.688	130.38
386.913	122.38
387.138	108.38
387.363	123.38
387.588	104.38
387.813	106.38
388.038	113.38
388.263	125.38
388.488	111.38
388.713	104.38
388.938	100.38
389.163	95.38
389.387	88.38
389.612	106.38
389.837	90.38
390.062	108.38
390.287	106.38
390.512	94.38
390.736	81.38
390.961	102.38
391.186	94.38
391.411	89.38
391.636	95.38
391.86	91.38
392.085	78.38
392.31	83.38
392.534	95.38
392.759	104.38
392.984	81.38
393.208	100.38
393.433	114.38
393.658	83.38
393.882	107.38
394.107	89.38
394.331	88.38
394.556	89.38
394.78	95.38
395.005	80.38
395.229	89.38
395.454	102.38
395.678	91.38
395.903	88.38
396.127	74.38
396.352	78.38
396.576	86.38
396.801	88.38
397.025	104.38
397.249	87.38
397.474	91.38
397.698	104.38
397.922	81.38
398.147	84.38
398.371	106.38
398.595	98.38
398.82	93.38
399.044	92.38
399.268	86.38
399.492	91.38
399.717	85.38
399.941	92.38
400.165	107.38
400.389	92.38
400.613	84.38
400.837	84.38
401.062	83.38
401.286	86.38
401.51	89.38
401.734	86.38
401.958	93.38
402.182	126.38
402.406	153.38
402.63	122.38
402.854	83.38
403.078	103.38
403.302	101.38
403.526	78.38
403.75	87.38
403.974	96.38
404.198	103.38
404.422	94.38
404.645	87.38
404.869	95.38
405.093	97.38
405.317	109.38
405.541	116.38
405.765	100.38
405.988	131.38
406.212	170.38
406.436	237.38
406.66	160.38
406.883	105.38
407.107	102.38
407.331	92.38
407.555	105.38
407.778	86.38
408.002	105.38
408.226	91.38
408.449	109.38
408.673	87.38
408.896	93.38
409.12	101.38
409.344	84.38
409.567	91.38
409.791	88.38
410.014	86.38
410.238	97.38
410.461	82.38
410.685	109.38
410.908	91.38
411.132	107.38
411.355	102.38
411.578	94.38
411.802	87.38
412.025	79.38
412.249	90.38
412.472	102.38
412.695	114.38
412.919	104.38
413.142	87.38
413.365	94.38
413.589	97.38
413.812	85.38
414.035	97.38
414.258	108.38
414.482	96.38
414.705	97.38
414.928	106.38
415.151	102.38
415.374	101.38
415.597	96.38
415.821	96.38
416.044	102.38
416.267	104.38
416.49	92.38
416.713	102.38
416.936	90.38
417.159	104.38
417.382	91.38
417.605	90.38
417.828	108.38
418.051	106.38
418.274	86.38
418.497	91.38
418.72	88.38
418.943	88.38
419.166	82.38
419.389	81.38
419.611	86.38
419.834	90.38
420.057	85.38
420.28	116.38
420.503	92.38
420.726	89.38
420.948	93.38
421.171	103.38
421.394	88.38
421.617	105.38
421.839	100.38
422.062	89.38
422.285	102.38
422.507	96.38
422.73	110.38
422.953	90.38
423.175	91.38
423.398	94.38
423.621	80.38
423.843	105.38
424.066	89.38
424.288	102.38
424.511	85.38
424.733	108.38
424.956	104.38
425.178	104.38
425.401	109.38
425.623	101.38
425.846	98.38
426.068	96.38
426.291	93.38
426.513	98.38
426.735	107.38
426.958	96.38
427.18	96.38
427.402	147.38
427.625	170.38
427.847	178.38
428.069	178.38
428.292	110.38
428.514	103.38
428.736	89.38
428.958	74.38
429.181	85.38
429.403	91.38
429.625	74.38
429.847	86.38
430.069	105.38
430.292	89.38
430.514	88.38
430.736	93.38
430.958	83.38
431.18	101.38
431.402	95.38
431.624	80.38
431.846	85.38
432.068	98.38
432.29	88.38
432.512	89.38
432.734	87.38
432.956	99.38
433.178	104.38
433.4	90.38
433.622	103.38
433.844	95.38
434.066	109.38
434.287	102.38
434.509	94.38
434.731	100.38
434.953	100.38
435.175	76.38
435.397	101.38
435.618	102.38
435.84	101.38
436.062	123.38
436.284	117.38
436.505	96.38
436.727	112.38
436.949	112.38
437.17	85.38
437.392	82.38
437.614	98.38
437.835	108.38
438.057	116.38
438.278	106.38
438.5	114.38
438.721	124.38
438.943	118.38
439.165	89.38
439.386	91.38
439.608	84.38
439.829	104.38
440.05	122.38
440.272	154.38
440.493	101.38
440.715	88.38
440.936	98.38
441.158	93.38
441.379	105.38
441.6	99.38
441.822	93.38
442.043	105.38
442.264	111.38
442.486	97.38
442.707	95.38
442.928	107.38
443.149	124.38
443.371	131.38
443.592	110.38
443.813	102.38
444.034	108.38
444.255	101.38
444.476	89.38
444.698	92.38
444.919	99.38
445.14	132.38
445.361	132.38
445.582	112.38
445.803	149.38
446.024	137.38
446.245	140.38
446.466	109.38
446.687	104.38
446.908	90.38
447.129	94.38
447.35	100.38
447.571	108.38
447.792	96.38
448.013	98.38
448.234	114.38
448.455	93.38
448.675	118.38
448.896	117.38
449.117	103.38
449.338	110.38
449.559	115.38
449.779	120.38
450	95.38
450.221	90.38
450.442	89.38
450.662	95.38
450.883	102.38
451.104	105.38
451.324	110.38
451.545	103.38
451.766	96.38
451.986	84.38
452.207	100.38
452.428	102.38
452.648	100.38
452.869	116.38
453.089	128.38
453.31	118.38
453.53	104.38
453.751	89.38
453.971	99.38
454.192	117.38
454.412	95.38
454.633	102.38
454.853	101.38
455.073	78.38
455.294	89.38
455.514	105.38
455.734	102.38
455.955	92.38
456.175	87.38
456.395	76.38
456.616	88.38
456.836	90.38
457.056	93.38
457.276	82.38
457.497	95.38
457.717	93.38
457.937	90.38
458.157	95.38
458.377	102.38
458.598	103.38
458.818	131.38
459.038	168.38
459.258	125.38
459.478	90.38
459.698	88.38
459.918	87.38
460.138	98.38
460.358	82.38
460.578	101.38
460.798	93.38
461.018	100.38
461.238	88.38
461.458	80.38
461.678	98.38
461.898	82.38
462.118	78.38
462.338	87.38
462.558	90.38
462.777	86.38
462.997	88.38
463.217	105.38
463.437	87.38
463.657	90.38
463.876	88.38
464.096	83.38
464.316	100.38
464.536	95.38
464.755	91.38
464.975	100.38
465.195	168.38
465.414	149.38
465.634	91.38
465.854	80.38
466.073	80.38
466.293	82.38
466.512	95.38
466.732	79.38
466.951	99.38
467.171	106.38
467.391	104.38
467.61	121.38
467.829	140.38
468.049	307.38
468.268	406.38
468.488	160.38
468.707	99.38
468.927	90.38
469.146	89.38
469.365	93.38
469.585	88.38
469.804	111.38
470.023	91.38
470.243	108.38
470.462	102.38
470.681	115.38
470.901	98.38
471.12	100.38
471.339	92.38
471.558	114.38
471.777	111.38
471.997	198.38
472.216	541.38
472.435	1122.38
472.654	316.38
472.873	144.38
473.092	111.38
473.311	103.38
473.53	89.38
473.749	106.38
473.968	82.38
474.187	122.38
474.406	104.38
474.625	92.38
474.844	93.38
475.063	100.38
475.282	88.38
475.501	88.38
475.72	90.38
475.939	103.38
476.158	90.38
476.377	91.38
476.596	87.38
476.814	92.38
477.033	121.38
477.252	85.38
477.471	102.38
477.69	95.38
477.908	93.38
478.127	99.38
478.346	87.38
478.564	93.38
478.783	84.38
479.002	96.38
479.22	110.38
479.439	115.38
479.658	114.38
479.876	105.38
480.095	90.38
480.313	117.38
480.532	140.38
480.751	174.38
480.969	542.38
481.188	1946.38
481.406	1164.38
481.624	209.38
481.843	126.38
482.061	111.38
482.28	88.38
482.498	111.38
482.717	88.38
482.935	94.38
483.153	104.38
483.372	86.38
483.59	109.38
483.808	104.38
484.027	90.38
484.245	100.38
484.463	88.38
484.681	96.38
484.9	107.38
485.118	110.38
485.336	98.38
485.554	99.38
485.772	108.38
485.99	101.38
486.209	114.38
486.427	105.38
486.645	107.38
486.863	95.38
487.081	106.38
487.299	101.38
487.517	102.38
487.735	106.38
487.953	80.38
488.171	88.38
488.389	90.38
488.607	97.38
488.825	94.38
489.043	88.38
489.261	92.38
489.479	90.38
489.696	74.38
489.914	83.38
490.132	98.38
490.35	96.38
490.568	79.38
490.786	82.38
491.003	98.38
491.221	91.38
491.439	95.38
491.657	95.38
491.874	96.38
492.092	78.38
492.31	92.38
492.527	95.38
492.745	104.38
492.963	103.38
493.18	91.38
493.398	95.38
493.615	104.38
493.833	84.38
494.05	83.38
494.268	96.38
494.485	92.38
494.703	85.38
494.92	92.38
495.138	98.38
495.355	104.38
495.573	88.38
495.79	96.38
496.008	92.38
496.225	87.38
496.442	94.38
496.66	96.38
496.877	95.38
497.094	80.38
497.312	99.38
497.529	89.38
497.746	83.38
497.963	96.38
498.181	96.38
498.398	111.38
498.615	102.38
498.832	99.38
499.049	93.38
499.267	99.38
499.484	79.38
499.701	95.38
499.918	84.38
500.135	91.38
500.352	91.38
500.569	93.38
500.786	103.38
501.003	109.38
501.22	85.38
501.437	92.38
501.654	102.38
501.871	114.38
502.088	96.38
502.305	92.38
502.522	91.38
502.739	100.38
502.956	80.38
503.172	101.38
503.389	101.38
503.606	117.38
503.823	90.38
504.04	90.38
504.256	81.38
504.473	92.38
504.69	88.38
504.907	95.38
505.123	94.38
505.34	70.38
505.557	86.38
505.773	91.38
505.99	71.38
506.207	96.38
506.423	80.38
506.64	99.38
506.856	84.38
507.073	78.38
507.289	75.38
507.506	87.38
507.722	104.38
507.939	109.38
508.155	96.38
508.372	101.38
508.588	96.38
508.805	86.38
509.021	93.38
509.238	107.38
509.454	94.38
509.67	109.38
509.887	104.38
510.103	128.38
510.319	212.38
510.536	710.38
510.752	2234.38
510.968	607.38
511.184	148.38
511.401	108.38
511.617	97.38
511.833	91.38
512.049	96.38
512.265	96.38
512.481	83.38
512.698	95.38
512.914	104.38
513.13	98.38
