Data from Circ_2001_H10_HRD10591_00082.txt Node
Date: Wed Jan 03 10:45:55 EST 2024
User: Yrep
Spectrometer: HR+D1059
Trigger mode: 1
Integration Time (sec): 1.000000E-1
Scans to average: 1
Electric dark correction enabled: true
Nonlinearity correction enabled: false
Boxcar width: 0
XAxis mode: Wavelengths
Number of Pixels in Spectrum: 2048
>>>>>Begin Spectral Data<<<<<
223.165	-13.25
223.4	-13.25
223.635	-13.25
223.869	-24.25
224.104	-22.25
224.338	-20.25
224.573	0.75
224.808	-21.25
225.042	-7.25
225.277	-7.25
225.511	-16.25
225.746	4.75
225.98	2.75
226.215	20.75
226.449	19.75
226.683	22.75
226.918	22.75
227.152	37.75
227.387	29.75
227.621	39.75
227.856	52.75
228.09	41.75
228.324	48.75
228.559	62.75
228.793	56.75
229.027	63.75
229.262	63.75
229.496	72.75
229.73	85.75
229.964	83.75
230.199	81.75
230.433	65.75
230.667	70.75
230.901	78.75
231.136	77.75
231.37	89.75
231.604	75.75
231.838	85.75
232.072	77.75
232.306	75.75
232.541	83.75
232.775	78.75
233.009	74.75
233.243	75.75
233.477	72.75
233.711	59.75
233.945	70.75
234.179	75.75
234.413	77.75
234.647	86.75
234.881	73.75
235.115	75.75
235.349	82.75
235.583	78.75
235.817	88.75
236.051	78.75
236.285	74.75
236.519	71.75
236.753	72.75
236.987	74.75
237.221	94.75
237.455	79.75
237.689	77.75
237.922	78.75
238.156	63.75
238.39	82.75
238.624	73.75
238.858	75.75
239.091	77.75
239.325	71.75
239.559	85.75
239.793	82.75
240.027	88.75
240.26	78.75
240.494	76.75
240.728	72.75
240.961	70.75
241.195	81.75
241.429	77.75
241.662	71.75
241.896	65.75
242.13	73.75
242.363	71.75
242.597	62.75
242.83	84.75
243.064	78.75
243.298	49.75
243.531	79.75
243.765	73.75
243.998	71.75
244.232	67.75
244.465	84.75
244.699	84.75
244.932	63.75
245.166	63.75
245.399	78.75
245.633	84.75
245.866	88.75
246.099	76.75
246.333	83.75
246.566	95.75
246.8	80.75
247.033	79.75
247.266	81.75
247.5	81.75
247.733	83.75
247.966	98.75
248.2	74.75
248.433	86.75
248.666	86.75
248.899	94.75
249.133	87.75
249.366	96.75
249.599	87.75
249.832	92.75
250.066	79.75
250.299	82.75
250.532	76.75
250.765	63.75
250.998	71.75
251.231	87.75
251.465	80.75
251.698	81.75
251.931	89.75
252.164	64.75
252.397	92.75
252.63	81.75
252.863	80.75
253.096	73.75
253.329	73.75
253.562	76.75
253.795	73.75
254.028	81.75
254.261	79.75
254.494	86.75
254.727	73.75
254.96	80.75
255.193	73.75
255.426	71.75
255.659	80.75
255.892	81.75
256.124	75.75
256.357	66.75
256.59	78.75
256.823	110.75
257.056	99.75
257.289	76.75
257.521	85.75
257.754	71.75
257.987	80.75
258.22	77.75
258.452	99.75
258.685	101.75
258.918	81.75
259.151	93.75
259.383	71.75
259.616	86.75
259.849	85.75
260.081	66.75
260.314	83.75
260.547	82.75
260.779	89.75
261.012	87.75
261.244	83.75
261.477	94.75
261.71	107.75
261.942	107.75
262.175	117.75
262.407	98.75
262.64	78.75
262.872	73.75
263.105	79.75
263.337	69.75
263.57	66.75
263.802	75.75
264.035	78.75
264.267	85.75
264.499	68.75
264.732	68.75
264.964	77.75
265.197	74.75
265.429	84.75
265.661	89.75
265.894	77.75
266.126	82.75
266.358	87.75
266.591	78.75
266.823	85.75
267.055	77.75
267.287	103.75
267.52	57.75
267.752	77.75
267.984	85.75
268.216	77.75
268.448	91.75
268.681	89.75
268.913	83.75
269.145	89.75
269.377	88.75
269.609	79.75
269.841	85.75
270.073	89.75
270.306	77.75
270.538	83.75
270.77	82.75
271.002	76.75
271.234	98.75
271.466	96.75
271.698	82.75
271.93	73.75
272.162	82.75
272.394	91.75
272.626	81.75
272.858	80.75
273.09	89.75
273.322	77.75
273.553	86.75
273.785	86.75
274.017	68.75
274.249	69.75
274.481	73.75
274.713	86.75
274.945	75.75
275.176	81.75
275.408	77.75
275.64	92.75
275.872	111.75
276.104	94.75
276.335	95.75
276.567	108.75
276.799	126.75
277.031	133.75
277.262	147.75
277.494	119.75
277.726	89.75
277.957	74.75
278.189	77.75
278.421	83.75
278.652	82.75
278.884	86.75
279.115	70.75
279.347	82.75
279.579	93.75
279.81	110.75
280.042	136.75
280.273	179.75
280.505	139.75
280.736	100.75
280.968	89.75
281.199	89.75
281.431	93.75
281.662	85.75
281.894	100.75
282.125	105.75
282.356	121.75
282.588	146.75
282.819	136.75
283.051	104.75
283.282	68.75
283.513	99.75
283.745	89.75
283.976	100.75
284.207	102.75
284.439	73.75
284.67	96.75
284.901	72.75
285.132	77.75
285.364	83.75
285.595	73.75
285.826	85.75
286.057	80.75
286.288	75.75
286.52	77.75
286.751	84.75
286.982	87.75
287.213	83.75
287.444	77.75
287.675	92.75
287.906	82.75
288.138	86.75
288.369	92.75
288.6	82.75
288.831	68.75
289.062	96.75
289.293	83.75
289.524	79.75
289.755	78.75
289.986	80.75
290.217	85.75
290.448	74.75
290.679	92.75
290.91	87.75
291.141	73.75
291.371	100.75
291.602	78.75
291.833	90.75
292.064	79.75
292.295	89.75
292.526	89.75
292.757	72.75
292.987	82.75
293.218	74.75
293.449	85.75
293.68	94.75
293.91	94.75
294.141	89.75
294.372	75.75
294.603	64.75
294.833	84.75
295.064	80.75
295.295	84.75
295.525	84.75
295.756	88.75
295.987	103.75
296.217	140.75
296.448	130.75
296.679	107.75
296.909	102.75
297.14	81.75
297.37	82.75
297.601	85.75
297.831	101.75
298.062	92.75
298.292	85.75
298.523	81.75
298.753	80.75
298.984	88.75
299.214	82.75
299.445	95.75
299.675	87.75
299.905	96.75
300.136	80.75
300.366	69.75
300.597	80.75
300.827	99.75
301.057	115.75
301.288	113.75
301.518	96.75
301.748	102.75
301.979	119.75
302.209	99.75
302.439	80.75
302.669	76.75
302.9	90.75
303.13	74.75
303.36	103.75
303.59	127.75
303.82	119.75
304.051	104.75
304.281	89.75
304.511	87.75
304.741	108.75
304.971	86.75
305.201	89.75
305.431	80.75
305.661	65.75
305.891	83.75
306.121	86.75
306.352	110.75
306.582	107.75
306.812	95.75
307.042	97.75
307.272	127.75
307.502	149.75
307.731	132.75
307.961	111.75
308.191	90.75
308.421	88.75
308.651	98.75
308.881	96.75
309.111	92.75
309.341	95.75
309.571	94.75
309.8	96.75
310.03	95.75
310.26	108.75
310.49	94.75
310.72	96.75
310.949	104.75
311.179	93.75
311.409	88.75
311.639	99.75
311.868	78.75
312.098	87.75
312.328	102.75
312.557	94.75
312.787	107.75
313.017	99.75
313.246	84.75
313.476	79.75
313.706	83.75
313.935	79.75
314.165	96.75
314.394	91.75
314.624	96.75
314.853	94.75
315.083	87.75
315.312	91.75
315.542	91.75
315.771	91.75
316.001	83.75
316.23	82.75
316.46	99.75
316.689	95.75
316.919	101.75
317.148	86.75
317.377	85.75
317.607	72.75
317.836	89.75
318.065	81.75
318.295	81.75
318.524	97.75
318.753	91.75
318.983	88.75
319.212	104.75
319.441	109.75
319.67	90.75
319.9	100.75
320.129	95.75
320.358	86.75
320.587	101.75
320.816	85.75
321.046	82.75
321.275	97.75
321.504	89.75
321.733	89.75
321.962	84.75
322.191	103.75
322.42	105.75
322.649	112.75
322.878	118.75
323.108	128.75
323.337	129.75
323.566	141.75
323.795	161.75
324.024	212.75
324.253	390.75
324.482	829.75
324.71	1703.75
324.939	2148.75
325.168	802.75
325.397	244.75
325.626	163.75
325.855	122.75
326.084	120.75
326.313	129.75
326.542	145.75
326.77	223.75
326.999	458.75
327.228	928.75
327.457	1620.75
327.686	1297.75
327.914	451.75
328.143	381.75
328.372	456.75
328.6	260.75
328.829	139.75
329.058	143.75
329.287	155.75
329.515	145.75
329.744	184.75
329.972	334.75
330.201	668.75
330.43	914.75
330.658	427.75
330.887	208.75
331.115	150.75
331.344	112.75
331.572	97.75
331.801	107.75
332.03	109.75
332.258	91.75
332.486	85.75
332.715	111.75
332.943	106.75
333.172	116.75
333.4	127.75
333.629	130.75
333.857	175.75
334.085	333.75
334.314	620.75
334.542	1145.75
334.771	1063.75
334.999	309.75
335.227	138.75
335.455	110.75
335.684	111.75
335.912	93.75
336.14	107.75
336.369	102.75
336.597	104.75
336.825	94.75
337.053	93.75
337.281	104.75
337.51	84.75
337.738	85.75
337.966	92.75
338.194	92.75
338.422	85.75
338.65	88.75
338.878	97.75
339.106	93.75
339.334	86.75
339.562	88.75
339.79	88.75
340.018	77.75
340.246	82.75
340.474	85.75
340.702	96.75
340.93	86.75
341.158	83.75
341.386	87.75
341.614	97.75
341.842	104.75
342.07	90.75
342.298	103.75
342.526	80.75
342.754	87.75
342.981	96.75
343.209	86.75
343.437	104.75
343.665	79.75
343.893	93.75
344.12	93.75
344.348	85.75
344.576	85.75
344.804	88.75
345.031	97.75
345.259	103.75
345.487	84.75
345.714	89.75
345.942	83.75
346.17	95.75
346.397	100.75
346.625	82.75
346.853	83.75
347.08	87.75
347.308	93.75
347.535	106.75
347.763	101.75
347.99	96.75
348.218	100.75
348.445	108.75
348.673	107.75
348.9	77.75
349.128	89.75
349.355	86.75
349.583	84.75
349.81	95.75
350.037	83.75
350.265	92.75
350.492	78.75
350.72	104.75
350.947	109.75
351.174	111.75
351.402	94.75
351.629	101.75
351.856	109.75
352.083	98.75
352.311	123.75
352.538	115.75
352.765	104.75
352.992	111.75
353.22	103.75
353.447	110.75
353.674	103.75
353.901	88.75
354.128	88.75
354.355	95.75
354.583	98.75
354.81	108.75
355.037	100.75
355.264	84.75
355.491	97.75
355.718	91.75
355.945	80.75
356.172	99.75
356.399	97.75
356.626	85.75
356.853	95.75
357.08	88.75
357.307	88.75
357.534	81.75
357.761	79.75
357.988	91.75
358.215	78.75
358.441	93.75
358.668	70.75
358.895	83.75
359.122	94.75
359.349	89.75
359.576	102.75
359.802	93.75
360.029	116.75
360.256	125.75
360.483	107.75
360.709	88.75
360.936	90.75
361.163	87.75
361.39	88.75
361.616	87.75
361.843	83.75
362.07	92.75
362.296	92.75
362.523	90.75
362.749	87.75
362.976	82.75
363.203	87.75
363.429	95.75
363.656	89.75
363.882	88.75
364.109	79.75
364.335	73.75
364.562	88.75
364.788	90.75
365.015	90.75
365.241	92.75
365.468	120.75
365.694	98.75
365.92	86.75
366.147	99.75
366.373	97.75
366.599	87.75
366.826	84.75
367.052	86.75
367.278	92.75
367.505	94.75
367.731	91.75
367.957	94.75
368.184	100.75
368.41	99.75
368.636	105.75
368.862	121.75
369.089	105.75
369.315	100.75
369.541	87.75
369.767	80.75
369.993	91.75
370.219	83.75
370.445	80.75
370.672	81.75
370.898	83.75
371.124	83.75
371.35	84.75
371.576	90.75
371.802	86.75
372.028	88.75
372.254	88.75
372.48	80.75
372.706	80.75
372.932	86.75
373.158	79.75
373.384	76.75
373.61	82.75
373.835	87.75
374.061	75.75
374.287	77.75
374.513	88.75
374.739	74.75
374.965	64.75
375.191	89.75
375.416	72.75
375.642	86.75
375.868	88.75
376.094	83.75
376.319	80.75
376.545	94.75
376.771	80.75
376.997	95.75
377.222	85.75
377.448	78.75
377.674	85.75
377.899	89.75
378.125	95.75
378.35	92.75
378.576	98.75
378.802	79.75
379.027	91.75
379.253	93.75
379.478	76.75
379.704	81.75
379.929	71.75
380.155	71.75
380.38	85.75
380.606	84.75
380.831	86.75
381.057	86.75
381.282	95.75
381.507	83.75
381.733	93.75
381.958	89.75
382.184	115.75
382.409	100.75
382.634	88.75
382.86	91.75
383.085	87.75
383.31	80.75
383.535	107.75
383.761	88.75
383.986	93.75
384.211	78.75
384.436	109.75
384.662	91.75
384.887	74.75
385.112	95.75
385.337	97.75
385.562	104.75
385.787	91.75
386.013	113.75
386.238	102.75
386.463	97.75
386.688	93.75
386.913	97.75
387.138	84.75
387.363	87.75
387.588	96.75
387.813	91.75
388.038	94.75
388.263	95.75
388.488	98.75
388.713	103.75
388.938	88.75
389.163	88.75
389.387	83.75
389.612	89.75
389.837	89.75
390.062	83.75
390.287	84.75
390.512	82.75
390.736	81.75
390.961	77.75
391.186	77.75
391.411	88.75
391.636	92.75
391.86	80.75
392.085	87.75
392.31	77.75
392.534	81.75
392.759	85.75
392.984	84.75
393.208	88.75
393.433	90.75
393.658	89.75
393.882	87.75
394.107	83.75
394.331	69.75
394.556	61.75
394.78	74.75
395.005	98.75
395.229	76.75
395.454	86.75
395.678	77.75
395.903	92.75
396.127	95.75
396.352	85.75
396.576	90.75
396.801	81.75
397.025	78.75
397.249	84.75
397.474	84.75
397.698	80.75
397.922	80.75
398.147	90.75
398.371	76.75
398.595	84.75
398.82	88.75
399.044	75.75
399.268	76.75
399.492	88.75
399.717	89.75
399.941	92.75
400.165	76.75
400.389	90.75
400.613	83.75
400.837	77.75
401.062	85.75
401.286	82.75
401.51	87.75
401.734	86.75
401.958	109.75
402.182	135.75
402.406	168.75
402.63	117.75
402.854	102.75
403.078	97.75
403.302	75.75
403.526	88.75
403.75	90.75
403.974	75.75
404.198	81.75
404.422	90.75
404.645	89.75
404.869	89.75
405.093	93.75
405.317	125.75
405.541	109.75
405.765	113.75
405.988	126.75
406.212	189.75
406.436	258.75
406.66	177.75
406.883	91.75
407.107	97.75
407.331	99.75
407.555	87.75
407.778	79.75
408.002	89.75
408.226	89.75
408.449	89.75
408.673	83.75
408.896	86.75
409.12	98.75
409.344	77.75
409.567	83.75
409.791	103.75
410.014	89.75
410.238	86.75
410.461	84.75
410.685	95.75
410.908	96.75
411.132	94.75
411.355	104.75
411.578	75.75
411.802	91.75
412.025	96.75
412.249	86.75
412.472	111.75
412.695	120.75
412.919	88.75
413.142	94.75
413.365	96.75
413.589	87.75
413.812	85.75
414.035	91.75
414.258	77.75
414.482	79.75
414.705	80.75
414.928	103.75
415.151	86.75
415.374	91.75
415.597	89.75
415.821	86.75
416.044	87.75
416.267	97.75
416.49	95.75
416.713	83.75
416.936	75.75
417.159	86.75
417.382	83.75
417.605	86.75
417.828	96.75
418.051	87.75
418.274	86.75
418.497	92.75
418.72	83.75
418.943	82.75
419.166	87.75
419.389	93.75
419.611	85.75
419.834	89.75
420.057	88.75
420.28	76.75
420.503	72.75
420.726	104.75
420.948	97.75
421.171	102.75
421.394	93.75
421.617	89.75
421.839	88.75
422.062	90.75
422.285	92.75
422.507	85.75
422.73	116.75
422.953	97.75
423.175	97.75
423.398	92.75
423.621	67.75
423.843	90.75
424.066	72.75
424.288	85.75
424.511	89.75
424.733	95.75
424.956	111.75
425.178	95.75
425.401	107.75
425.623	112.75
425.846	80.75
426.068	101.75
426.291	75.75
426.513	80.75
426.735	88.75
426.958	94.75
427.18	99.75
427.402	151.75
427.625	205.75
427.847	183.75
428.069	167.75
428.292	106.75
428.514	88.75
428.736	80.75
428.958	91.75
429.181	88.75
429.403	86.75
429.625	88.75
429.847	94.75
430.069	92.75
430.292	84.75
430.514	92.75
430.736	82.75
430.958	83.75
431.18	79.75
431.402	70.75
431.624	76.75
431.846	66.75
432.068	78.75
432.29	86.75
432.512	71.75
432.734	76.75
432.956	86.75
433.178	86.75
433.4	99.75
433.622	87.75
433.844	88.75
434.066	97.75
434.287	89.75
434.509	88.75
434.731	97.75
434.953	84.75
435.175	89.75
435.397	85.75
435.618	82.75
435.84	101.75
436.062	111.75
436.284	112.75
436.505	89.75
436.727	92.75
436.949	84.75
437.17	72.75
437.392	78.75
437.614	88.75
437.835	107.75
438.057	109.75
438.278	105.75
438.5	101.75
438.721	113.75
438.943	97.75
439.165	78.75
439.386	88.75
439.608	82.75
439.829	105.75
440.05	119.75
440.272	143.75
440.493	108.75
440.715	85.75
440.936	92.75
441.158	88.75
441.379	95.75
441.6	80.75
441.822	78.75
442.043	94.75
442.264	88.75
442.486	107.75
442.707	93.75
442.928	97.75
443.149	164.75
443.371	135.75
443.592	99.75
443.813	122.75
444.034	92.75
444.255	98.75
444.476	94.75
444.698	79.75
444.919	82.75
445.14	135.75
445.361	111.75
445.582	120.75
445.803	137.75
446.024	141.75
446.245	139.75
446.466	99.75
446.687	93.75
446.908	93.75
447.129	98.75
447.35	82.75
447.571	98.75
447.792	78.75
448.013	99.75
448.234	108.75
448.455	96.75
448.675	111.75
448.896	98.75
449.117	95.75
449.338	100.75
449.559	131.75
449.779	134.75
450	89.75
450.221	74.75
450.442	81.75
450.662	104.75
450.883	119.75
451.104	111.75
451.324	86.75
451.545	84.75
451.766	83.75
451.986	95.75
452.207	98.75
452.428	104.75
452.648	87.75
452.869	104.75
453.089	119.75
453.31	124.75
453.53	95.75
453.751	83.75
453.971	110.75
454.192	109.75
454.412	93.75
454.633	74.75
454.853	96.75
455.073	101.75
455.294	86.75
455.514	102.75
455.734	81.75
455.955	93.75
456.175	88.75
456.395	79.75
456.616	77.75
456.836	76.75
457.056	79.75
457.276	79.75
457.497	89.75
457.717	83.75
457.937	73.75
458.157	72.75
458.377	80.75
458.598	119.75
458.818	160.75
459.038	182.75
459.258	133.75
459.478	95.75
459.698	86.75
459.918	95.75
460.138	93.75
460.358	83.75
460.578	84.75
460.798	95.75
461.018	89.75
461.238	83.75
461.458	82.75
461.678	74.75
461.898	61.75
462.118	85.75
462.338	65.75
462.558	85.75
462.777	78.75
462.997	95.75
463.217	103.75
463.437	85.75
463.657	89.75
463.876	94.75
464.096	92.75
464.316	100.75
464.536	81.75
464.755	87.75
464.975	112.75
465.195	194.75
465.414	177.75
465.634	109.75
465.854	94.75
466.073	83.75
466.293	95.75
466.512	81.75
466.732	97.75
466.951	89.75
467.171	92.75
467.391	100.75
467.61	123.75
467.829	154.75
468.049	412.75
468.268	571.75
468.488	167.75
468.707	99.75
468.927	81.75
469.146	83.75
469.365	89.75
469.585	91.75
469.804	95.75
470.023	83.75
470.243	108.75
470.462	110.75
470.681	134.75
470.901	105.75
471.12	86.75
471.339	92.75
471.558	95.75
471.777	120.75
471.997	240.75
472.216	778.75
472.435	1660.75
472.654	404.75
472.873	137.75
473.092	101.75
473.311	96.75
473.53	92.75
473.749	89.75
473.968	101.75
474.187	107.75
474.406	96.75
474.625	95.75
474.844	89.75
475.063	97.75
475.282	80.75
475.501	77.75
475.72	80.75
475.939	84.75
476.158	89.75
476.377	68.75
476.596	87.75
476.814	93.75
477.033	89.75
477.252	73.75
477.471	88.75
477.69	88.75
477.908	82.75
478.127	99.75
478.346	97.75
478.564	91.75
478.783	101.75
479.002	96.75
479.22	100.75
479.439	105.75
479.658	131.75
479.876	102.75
480.095	110.75
480.313	118.75
480.532	130.75
480.751	221.75
480.969	723.75
481.188	2927.75
481.406	1637.75
481.624	263.75
481.843	123.75
482.061	110.75
482.28	107.75
482.498	95.75
482.717	96.75
482.935	90.75
483.153	83.75
483.372	89.75
483.59	84.75
483.808	77.75
484.027	92.75
484.245	95.75
484.463	93.75
484.681	105.75
484.9	88.75
485.118	81.75
485.336	88.75
485.554	84.75
485.772	96.75
485.99	106.75
486.209	104.75
486.427	90.75
486.645	91.75
486.863	99.75
487.081	91.75
487.299	86.75
487.517	96.75
487.735	85.75
487.953	86.75
488.171	76.75
488.389	92.75
488.607	92.75
488.825	95.75
489.043	99.75
489.261	83.75
489.479	84.75
489.696	91.75
489.914	89.75
490.132	80.75
490.35	75.75
490.568	81.75
490.786	94.75
491.003	90.75
491.221	93.75
491.439	101.75
491.657	78.75
491.874	83.75
492.092	109.75
492.31	85.75
492.527	103.75
492.745	97.75
492.963	87.75
493.18	81.75
493.398	99.75
493.615	81.75
493.833	79.75
494.05	80.75
494.268	100.75
494.485	78.75
494.703	81.75
494.92	90.75
495.138	82.75
495.355	89.75
495.573	97.75
495.79	86.75
496.008	93.75
496.225	91.75
496.442	97.75
496.66	99.75
496.877	81.75
497.094	93.75
497.312	97.75
497.529	88.75
497.746	92.75
497.963	102.75
498.181	84.75
498.398	89.75
498.615	101.75
498.832	90.75
499.049	88.75
499.267	99.75
499.484	87.75
499.701	77.75
499.918	89.75
500.135	93.75
500.352	93.75
500.569	94.75
500.786	103.75
501.003	85.75
501.22	83.75
501.437	93.75
501.654	99.75
501.871	113.75
502.088	87.75
502.305	93.75
502.522	86.75
502.739	94.75
502.956	86.75
503.172	88.75
503.389	97.75
503.606	105.75
503.823	99.75
504.04	73.75
504.256	81.75
504.473	84.75
504.69	103.75
504.907	101.75
505.123	92.75
505.34	89.75
505.557	82.75
505.773	82.75
505.99	90.75
506.207	94.75
506.423	81.75
506.64	89.75
506.856	94.75
507.073	95.75
507.289	98.75
507.506	81.75
507.722	98.75
507.939	105.75
508.155	96.75
508.372	112.75
508.588	80.75
508.805	95.75
509.021	99.75
509.238	92.75
509.454	105.75
509.67	107.75
509.887	112.75
510.103	130.75
510.319	234.75
510.536	784.75
510.752	2563.75
510.968	726.75
511.184	163.75
511.401	118.75
511.617	90.75
511.833	98.75
512.049	103.75
512.265	90.75
512.481	95.75
512.698	100.75
512.914	89.75
513.13	82.75
513.346	82.75
513.562	94.75
513.778	81.75
513.994	106.75
514.21	104.75
514.426	128.75
514.642	133.75
514.858	129.75
515.074	206.75
515.29	550.75
515.506	1917.75
515.721	683.75
