Data from Circ_2001_H10_HRD10591_00046.txt Node
Date: Wed Jan 03 10:45:48 EST 2024
User: Yrep
Spectrometer: HR+D1059
Trigger mode: 1
Integration Time (sec): 1.000000E-1
Scans to average: 1
Electric dark correction enabled: true
Nonlinearity correction enabled: false
Boxcar width: 0
XAxis mode: Wavelengths
Number of Pixels in Spectrum: 2048
>>>>>Begin Spectral Data<<<<<
223.165	-4.38
223.4	-4.38
223.635	-4.38
223.869	-25.38
224.104	-4.38
224.338	-26.38
224.573	-22.38
224.808	-15.38
225.042	-0.38
225.277	-5.38
225.511	7.62
225.746	0.62
225.98	6.62
226.215	12.62
226.449	6.62
226.683	22.62
226.918	22.62
227.152	24.62
227.387	42.62
227.621	45.62
227.856	42.62
228.09	46.62
228.324	51.62
228.559	75.62
228.793	61.62
229.027	68.62
229.262	68.62
229.496	70.62
229.73	82.62
229.964	84.62
230.199	64.62
230.433	85.62
230.667	77.62
230.901	79.62
231.136	74.62
231.37	83.62
231.604	73.62
231.838	83.62
232.072	82.62
232.306	78.62
232.541	83.62
232.775	83.62
233.009	77.62
233.243	88.62
233.477	82.62
233.711	75.62
233.945	86.62
234.179	73.62
234.413	81.62
234.647	80.62
234.881	79.62
235.115	86.62
235.349	78.62
235.583	85.62
235.817	85.62
236.051	89.62
236.285	80.62
236.519	75.62
236.753	81.62
236.987	87.62
237.221	92.62
237.455	77.62
237.689	75.62
237.922	71.62
238.156	78.62
238.39	83.62
238.624	63.62
238.858	77.62
239.091	68.62
239.325	76.62
239.559	85.62
239.793	93.62
240.027	74.62
240.26	79.62
240.494	76.62
240.728	81.62
240.961	76.62
241.195	72.62
241.429	90.62
241.662	82.62
241.896	88.62
242.13	71.62
242.363	68.62
242.597	60.62
242.83	76.62
243.064	86.62
243.298	78.62
243.531	64.62
243.765	77.62
243.998	76.62
244.232	77.62
244.465	88.62
244.699	64.62
244.932	82.62
245.166	73.62
245.399	82.62
245.633	65.62
245.866	74.62
246.099	72.62
246.333	86.62
246.566	83.62
246.8	79.62
247.033	93.62
247.266	87.62
247.5	74.62
247.733	85.62
247.966	80.62
248.2	80.62
248.433	71.62
248.666	85.62
248.899	86.62
249.133	98.62
249.366	88.62
249.599	92.62
249.832	82.62
250.066	75.62
250.299	83.62
250.532	87.62
250.765	70.62
250.998	87.62
251.231	78.62
251.465	76.62
251.698	83.62
251.931	83.62
252.164	80.62
252.397	79.62
252.63	87.62
252.863	85.62
253.096	91.62
253.329	69.62
253.562	81.62
253.795	89.62
254.028	72.62
254.261	75.62
254.494	76.62
254.727	79.62
254.96	85.62
255.193	67.62
255.426	89.62
255.659	66.62
255.892	87.62
256.124	95.62
256.357	82.62
256.59	82.62
256.823	82.62
257.056	82.62
257.289	82.62
257.521	62.62
257.754	69.62
257.987	76.62
258.22	79.62
258.452	81.62
258.685	83.62
258.918	83.62
259.151	80.62
259.383	86.62
259.616	79.62
259.849	79.62
260.081	88.62
260.314	92.62
260.547	85.62
260.779	84.62
261.012	83.62
261.244	104.62
261.477	86.62
261.71	80.62
261.942	111.62
262.175	128.62
262.407	100.62
262.64	78.62
262.872	88.62
263.105	92.62
263.337	90.62
263.57	84.62
263.802	75.62
264.035	84.62
264.267	81.62
264.499	89.62
264.732	85.62
264.964	91.62
265.197	84.62
265.429	90.62
265.661	70.62
265.894	83.62
266.126	84.62
266.358	81.62
266.591	83.62
266.823	80.62
267.055	65.62
267.287	81.62
267.52	90.62
267.752	91.62
267.984	83.62
268.216	76.62
268.448	76.62
268.681	88.62
268.913	95.62
269.145	86.62
269.377	72.62
269.609	72.62
269.841	84.62
270.073	96.62
270.306	81.62
270.538	84.62
270.77	89.62
271.002	93.62
271.234	88.62
271.466	103.62
271.698	91.62
271.93	86.62
272.162	89.62
272.394	92.62
272.626	79.62
272.858	77.62
273.09	92.62
273.322	71.62
273.553	81.62
273.785	92.62
274.017	86.62
274.249	89.62
274.481	91.62
274.713	77.62
274.945	84.62
275.176	101.62
275.408	96.62
275.64	120.62
275.872	102.62
276.104	112.62
276.335	95.62
276.567	112.62
276.799	122.62
277.031	141.62
277.262	149.62
277.494	109.62
277.726	93.62
277.957	83.62
278.189	89.62
278.421	80.62
278.652	85.62
278.884	86.62
279.115	95.62
279.347	89.62
279.579	90.62
279.81	97.62
280.042	149.62
280.273	173.62
280.505	125.62
280.736	107.62
280.968	84.62
281.199	84.62
281.431	98.62
281.662	92.62
281.894	93.62
282.125	99.62
282.356	105.62
282.588	149.62
282.819	112.62
283.051	106.62
283.282	84.62
283.513	97.62
283.745	86.62
283.976	91.62
284.207	85.62
284.439	82.62
284.67	73.62
284.901	81.62
285.132	79.62
285.364	98.62
285.595	101.62
285.826	90.62
286.057	82.62
286.288	87.62
286.52	83.62
286.751	84.62
286.982	96.62
287.213	82.62
287.444	87.62
287.675	100.62
287.906	96.62
288.138	91.62
288.369	92.62
288.6	86.62
288.831	89.62
289.062	86.62
289.293	92.62
289.524	90.62
289.755	91.62
289.986	92.62
290.217	68.62
290.448	86.62
290.679	102.62
290.91	103.62
291.141	93.62
291.371	83.62
291.602	89.62
291.833	95.62
292.064	95.62
292.295	92.62
292.526	85.62
292.757	92.62
292.987	98.62
293.218	81.62
293.449	96.62
293.68	74.62
293.91	93.62
294.141	97.62
294.372	82.62
294.603	94.62
294.833	70.62
295.064	95.62
295.295	88.62
295.525	99.62
295.756	103.62
295.987	114.62
296.217	152.62
296.448	141.62
296.679	80.62
296.909	87.62
297.14	87.62
297.37	94.62
297.601	92.62
297.831	91.62
298.062	79.62
298.292	100.62
298.523	111.62
298.753	98.62
298.984	81.62
299.214	90.62
299.445	91.62
299.675	77.62
299.905	97.62
300.136	83.62
300.366	90.62
300.597	80.62
300.827	88.62
301.057	102.62
301.288	103.62
301.518	93.62
301.748	88.62
301.979	122.62
302.209	87.62
302.439	92.62
302.669	89.62
302.9	92.62
303.13	96.62
303.36	103.62
303.59	110.62
303.82	121.62
304.051	105.62
304.281	90.62
304.511	83.62
304.741	92.62
304.971	73.62
305.201	87.62
305.431	88.62
305.661	92.62
305.891	89.62
306.121	106.62
306.352	91.62
306.582	98.62
306.812	90.62
307.042	110.62
307.272	147.62
307.502	159.62
307.731	139.62
307.961	116.62
308.191	95.62
308.421	91.62
308.651	91.62
308.881	95.62
309.111	91.62
309.341	88.62
309.571	103.62
309.8	95.62
310.03	98.62
310.26	115.62
310.49	102.62
310.72	110.62
310.949	105.62
311.179	107.62
311.409	102.62
311.639	113.62
311.868	112.62
312.098	102.62
312.328	100.62
312.557	100.62
312.787	91.62
313.017	110.62
313.246	86.62
313.476	101.62
313.706	85.62
313.935	102.62
314.165	106.62
314.394	93.62
314.624	93.62
314.853	92.62
315.083	89.62
315.312	87.62
315.542	85.62
315.771	93.62
316.001	105.62
316.23	86.62
316.46	96.62
316.689	105.62
316.919	93.62
317.148	100.62
317.377	102.62
317.607	100.62
317.836	93.62
318.065	101.62
318.295	100.62
318.524	104.62
318.753	91.62
318.983	97.62
319.212	100.62
319.441	125.62
319.67	109.62
319.9	107.62
320.129	84.62
320.358	92.62
320.587	83.62
320.816	96.62
321.046	111.62
321.275	112.62
321.504	81.62
321.733	113.62
321.962	105.62
322.191	104.62
322.42	105.62
322.649	116.62
322.878	125.62
323.108	131.62
323.337	127.62
323.566	148.62
323.795	167.62
324.024	221.62
324.253	436.62
324.482	953.62
324.71	1873.62
324.939	2469.62
325.168	899.62
325.397	267.62
325.626	153.62
325.855	134.62
326.084	129.62
326.313	136.62
326.542	151.62
326.77	248.62
326.999	475.62
327.228	1047.62
327.457	1844.62
327.686	1500.62
327.914	467.62
328.143	399.62
328.372	460.62
328.6	284.62
328.829	167.62
329.058	169.62
329.287	165.62
329.515	174.62
329.744	180.62
329.972	331.62
330.201	628.62
330.43	892.62
330.658	410.62
330.887	217.62
331.115	168.62
331.344	120.62
331.572	108.62
331.801	119.62
332.03	107.62
332.258	101.62
332.486	96.62
332.715	97.62
332.943	113.62
333.172	118.62
333.4	117.62
333.629	140.62
333.857	178.62
334.085	301.62
334.314	606.62
334.542	1109.62
334.771	1029.62
334.999	295.62
335.227	137.62
335.455	116.62
335.684	113.62
335.912	102.62
336.14	91.62
336.369	108.62
336.597	111.62
336.825	100.62
337.053	108.62
337.281	93.62
337.51	90.62
337.738	84.62
337.966	107.62
338.194	101.62
338.422	85.62
338.65	87.62
338.878	112.62
339.106	99.62
339.334	95.62
339.562	80.62
339.79	90.62
340.018	89.62
340.246	95.62
340.474	107.62
340.702	96.62
340.93	90.62
341.158	109.62
341.386	100.62
341.614	112.62
341.842	115.62
342.07	86.62
342.298	106.62
342.526	84.62
342.754	99.62
342.981	93.62
343.209	91.62
343.437	101.62
343.665	84.62
343.893	88.62
344.12	90.62
344.348	89.62
344.576	93.62
344.804	71.62
345.031	102.62
345.259	93.62
345.487	99.62
345.714	94.62
345.942	94.62
346.17	106.62
346.397	84.62
346.625	97.62
346.853	89.62
347.08	87.62
347.308	103.62
347.535	89.62
347.763	94.62
347.99	95.62
348.218	98.62
348.445	95.62
348.673	89.62
348.9	97.62
349.128	97.62
349.355	100.62
349.583	109.62
349.81	93.62
350.037	95.62
350.265	95.62
350.492	80.62
350.72	100.62
350.947	110.62
351.174	100.62
351.402	106.62
351.629	104.62
351.856	107.62
352.083	104.62
352.311	93.62
352.538	93.62
352.765	111.62
352.992	106.62
353.22	110.62
353.447	106.62
353.674	119.62
353.901	102.62
354.128	98.62
354.355	93.62
354.583	96.62
354.81	94.62
355.037	99.62
355.264	85.62
355.491	82.62
355.718	87.62
355.945	99.62
356.172	95.62
356.399	110.62
356.626	100.62
356.853	90.62
357.08	96.62
357.307	91.62
357.534	92.62
357.761	108.62
357.988	97.62
358.215	104.62
358.441	98.62
358.668	89.62
358.895	87.62
359.122	96.62
359.349	83.62
359.576	88.62
359.802	115.62
360.029	123.62
360.256	125.62
360.483	100.62
360.709	76.62
360.936	92.62
361.163	91.62
361.39	96.62
361.616	105.62
361.843	85.62
362.07	96.62
362.296	87.62
362.523	95.62
362.749	98.62
362.976	111.62
363.203	112.62
363.429	95.62
363.656	91.62
363.882	88.62
364.109	106.62
364.335	93.62
364.562	81.62
364.788	93.62
365.015	85.62
365.241	99.62
365.468	119.62
365.694	105.62
365.92	87.62
366.147	92.62
366.373	89.62
366.599	82.62
366.826	91.62
367.052	93.62
367.278	91.62
367.505	80.62
367.731	85.62
367.957	89.62
368.184	102.62
368.41	100.62
368.636	128.62
368.862	129.62
369.089	121.62
369.315	105.62
369.541	97.62
369.767	84.62
369.993	94.62
370.219	107.62
370.445	76.62
370.672	86.62
370.898	77.62
371.124	92.62
371.35	92.62
371.576	80.62
371.802	91.62
372.028	88.62
372.254	86.62
372.48	90.62
372.706	89.62
372.932	92.62
373.158	98.62
373.384	93.62
373.61	94.62
373.835	80.62
374.061	100.62
374.287	99.62
374.513	98.62
374.739	91.62
374.965	89.62
375.191	95.62
375.416	85.62
375.642	77.62
375.868	81.62
376.094	88.62
376.319	79.62
376.545	87.62
376.771	81.62
376.997	96.62
377.222	84.62
377.448	78.62
377.674	87.62
377.899	95.62
378.125	85.62
378.35	94.62
378.576	90.62
378.802	94.62
379.027	83.62
379.253	90.62
379.478	105.62
379.704	90.62
379.929	95.62
380.155	87.62
380.38	105.62
380.606	98.62
380.831	93.62
381.057	108.62
381.282	114.62
381.507	99.62
381.733	84.62
381.958	95.62
382.184	105.62
382.409	90.62
382.634	112.62
382.86	82.62
383.085	97.62
383.31	99.62
383.535	93.62
383.761	105.62
383.986	99.62
384.211	88.62
384.436	77.62
384.662	101.62
384.887	100.62
385.112	106.62
385.337	103.62
385.562	116.62
385.787	117.62
386.013	110.62
386.238	103.62
386.463	111.62
386.688	101.62
386.913	109.62
387.138	113.62
387.363	107.62
387.588	103.62
387.813	87.62
388.038	101.62
388.263	114.62
388.488	103.62
388.713	87.62
388.938	98.62
389.163	112.62
389.387	93.62
389.612	85.62
389.837	87.62
390.062	85.62
390.287	81.62
390.512	95.62
390.736	93.62
390.961	95.62
391.186	90.62
391.411	67.62
391.636	90.62
391.86	73.62
392.085	84.62
392.31	94.62
392.534	102.62
392.759	87.62
392.984	90.62
393.208	92.62
393.433	89.62
393.658	91.62
393.882	95.62
394.107	92.62
394.331	83.62
394.556	91.62
394.78	109.62
395.005	90.62
395.229	90.62
395.454	84.62
395.678	90.62
395.903	92.62
396.127	93.62
396.352	104.62
396.576	83.62
396.801	95.62
397.025	86.62
397.249	84.62
397.474	82.62
397.698	79.62
397.922	84.62
398.147	91.62
398.371	99.62
398.595	95.62
398.82	99.62
399.044	72.62
399.268	86.62
399.492	61.62
399.717	86.62
399.941	71.62
400.165	104.62
400.389	97.62
400.613	81.62
400.837	104.62
401.062	102.62
401.286	91.62
401.51	87.62
401.734	82.62
401.958	113.62
402.182	122.62
402.406	167.62
402.63	129.62
402.854	99.62
403.078	93.62
403.302	80.62
403.526	84.62
403.75	91.62
403.974	90.62
404.198	75.62
404.422	89.62
404.645	92.62
404.869	97.62
405.093	105.62
405.317	129.62
405.541	131.62
405.765	108.62
405.988	134.62
406.212	181.62
406.436	258.62
406.66	171.62
406.883	110.62
407.107	100.62
407.331	104.62
407.555	96.62
407.778	92.62
408.002	113.62
408.226	90.62
408.449	83.62
408.673	101.62
408.896	92.62
409.12	106.62
409.344	84.62
409.567	99.62
409.791	109.62
410.014	91.62
410.238	98.62
410.461	89.62
410.685	93.62
410.908	91.62
411.132	88.62
411.355	108.62
411.578	88.62
411.802	102.62
412.025	85.62
412.249	99.62
412.472	99.62
412.695	117.62
412.919	104.62
413.142	91.62
413.365	86.62
413.589	96.62
413.812	96.62
414.035	93.62
414.258	91.62
414.482	79.62
414.705	83.62
414.928	100.62
415.151	104.62
415.374	82.62
415.597	89.62
415.821	76.62
416.044	91.62
416.267	85.62
416.49	82.62
416.713	94.62
416.936	88.62
417.159	100.62
417.382	110.62
417.605	96.62
417.828	102.62
418.051	87.62
418.274	87.62
418.497	96.62
418.72	90.62
418.943	95.62
419.166	78.62
419.389	105.62
419.611	86.62
419.834	98.62
420.057	86.62
420.28	99.62
420.503	100.62
420.726	95.62
420.948	99.62
421.171	93.62
421.394	79.62
421.617	104.62
421.839	97.62
422.062	91.62
422.285	97.62
422.507	93.62
422.73	98.62
422.953	109.62
423.175	98.62
423.398	102.62
423.621	92.62
423.843	95.62
424.066	96.62
424.288	92.62
424.511	90.62
424.733	92.62
424.956	111.62
425.178	94.62
425.401	104.62
425.623	108.62
425.846	103.62
426.068	99.62
426.291	93.62
426.513	100.62
426.735	77.62
426.958	107.62
427.18	109.62
427.402	152.62
427.625	221.62
427.847	201.62
428.069	180.62
428.292	115.62
428.514	93.62
428.736	92.62
428.958	102.62
429.181	88.62
429.403	83.62
429.625	86.62
429.847	90.62
430.069	104.62
430.292	102.62
430.514	92.62
430.736	72.62
430.958	82.62
431.18	93.62
431.402	87.62
431.624	82.62
431.846	87.62
432.068	82.62
432.29	77.62
432.512	67.62
432.734	94.62
432.956	98.62
433.178	96.62
433.4	103.62
433.622	68.62
433.844	94.62
434.066	102.62
434.287	87.62
434.509	93.62
434.731	93.62
434.953	85.62
435.175	88.62
435.397	90.62
435.618	90.62
435.84	117.62
436.062	130.62
436.284	114.62
436.505	105.62
436.727	99.62
436.949	88.62
437.17	93.62
437.392	103.62
437.614	89.62
437.835	107.62
438.057	131.62
438.278	114.62
438.5	105.62
438.721	139.62
438.943	95.62
439.165	105.62
439.386	92.62
439.608	93.62
439.829	92.62
440.05	139.62
440.272	153.62
440.493	104.62
440.715	90.62
440.936	87.62
441.158	99.62
441.379	87.62
441.6	89.62
441.822	114.62
442.043	116.62
442.264	100.62
442.486	95.62
442.707	92.62
442.928	127.62
443.149	157.62
443.371	149.62
443.592	114.62
443.813	121.62
444.034	130.62
444.255	93.62
444.476	82.62
444.698	94.62
444.919	81.62
445.14	149.62
445.361	143.62
445.582	124.62
445.803	145.62
446.024	137.62
446.245	141.62
446.466	120.62
446.687	99.62
446.908	82.62
447.129	90.62
447.35	96.62
447.571	85.62
447.792	112.62
448.013	107.62
448.234	119.62
448.455	107.62
448.675	130.62
448.896	118.62
449.117	110.62
449.338	117.62
449.559	135.62
449.779	118.62
450	90.62
450.221	100.62
450.442	76.62
450.662	109.62
450.883	119.62
451.104	124.62
451.324	94.62
451.545	84.62
451.766	88.62
451.986	86.62
452.207	96.62
452.428	89.62
452.648	103.62
452.869	117.62
453.089	118.62
453.31	130.62
453.53	96.62
453.751	88.62
453.971	114.62
454.192	118.62
454.412	93.62
454.633	83.62
454.853	79.62
455.073	91.62
455.294	82.62
455.514	97.62
455.734	99.62
455.955	88.62
456.175	91.62
456.395	84.62
456.616	82.62
456.836	104.62
457.056	80.62
457.276	99.62
457.497	79.62
457.717	76.62
457.937	94.62
458.157	104.62
458.377	85.62
458.598	123.62
458.818	173.62
459.038	183.62
459.258	135.62
459.478	92.62
459.698	79.62
459.918	80.62
460.138	85.62
460.358	87.62
460.578	86.62
460.798	95.62
461.018	89.62
461.238	83.62
461.458	78.62
461.678	104.62
461.898	82.62
462.118	74.62
462.338	75.62
462.558	93.62
462.777	93.62
462.997	89.62
463.217	94.62
463.437	76.62
463.657	88.62
463.876	94.62
464.096	67.62
464.316	87.62
464.536	101.62
464.755	98.62
464.975	117.62
465.195	193.62
465.414	202.62
465.634	93.62
465.854	84.62
466.073	90.62
466.293	83.62
466.512	91.62
466.732	85.62
466.951	94.62
467.171	90.62
467.391	108.62
467.61	108.62
467.829	154.62
468.049	405.62
468.268	537.62
468.488	155.62
468.707	105.62
468.927	86.62
469.146	86.62
469.365	81.62
469.585	97.62
469.804	103.62
470.023	97.62
470.243	99.62
470.462	106.62
470.681	136.62
470.901	91.62
471.12	87.62
471.339	98.62
471.558	127.62
471.777	147.62
471.997	233.62
472.216	719.62
472.435	1577.62
472.654	415.62
472.873	139.62
473.092	110.62
473.311	113.62
473.53	85.62
473.749	93.62
473.968	100.62
474.187	121.62
474.406	114.62
474.625	89.62
474.844	88.62
475.063	99.62
475.282	79.62
475.501	77.62
475.72	99.62
475.939	99.62
476.158	91.62
476.377	80.62
476.596	97.62
476.814	92.62
477.033	85.62
477.252	101.62
477.471	81.62
477.69	93.62
477.908	99.62
478.127	94.62
478.346	91.62
478.564	94.62
478.783	90.62
479.002	87.62
479.22	102.62
479.439	95.62
479.658	116.62
479.876	112.62
480.095	98.62
480.313	111.62
480.532	138.62
480.751	221.62
480.969	692.62
481.188	2748.62
481.406	1561.62
481.624	272.62
481.843	109.62
482.061	90.62
482.28	88.62
482.498	88.62
482.717	100.62
482.935	100.62
483.153	104.62
483.372	89.62
483.59	85.62
483.808	99.62
484.027	95.62
484.245	99.62
484.463	79.62
484.681	91.62
484.9	89.62
485.118	90.62
485.336	86.62
485.554	98.62
485.772	90.62
485.99	123.62
486.209	102.62
486.427	100.62
486.645	127.62
486.863	106.62
487.081	93.62
487.299	80.62
487.517	90.62
487.735	84.62
487.953	102.62
488.171	93.62
488.389	97.62
488.607	106.62
488.825	87.62
489.043	90.62
489.261	100.62
489.479	77.62
489.696	89.62
489.914	76.62
490.132	92.62
490.35	82.62
490.568	100.62
490.786	97.62
491.003	107.62
491.221	99.62
491.439	88.62
491.657	86.62
491.874	82.62
492.092	97.62
492.31	99.62
492.527	103.62
492.745	85.62
492.963	96.62
493.18	99.62
493.398	101.62
493.615	103.62
493.833	83.62
494.05	89.62
494.268	93.62
494.485	101.62
494.703	83.62
494.92	98.62
495.138	93.62
495.355	85.62
495.573	103.62
495.79	92.62
496.008	80.62
496.225	99.62
496.442	95.62
496.66	111.62
496.877	86.62
497.094	82.62
497.312	79.62
497.529	79.62
497.746	92.62
497.963	74.62
498.181	99.62
498.398	105.62
498.615	103.62
498.832	101.62
499.049	83.62
499.267	91.62
499.484	87.62
499.701	81.62
499.918	104.62
500.135	95.62
500.352	93.62
500.569	75.62
500.786	114.62
501.003	83.62
501.22	74.62
501.437	83.62
501.654	88.62
501.871	113.62
502.088	89.62
502.305	92.62
502.522	99.62
502.739	80.62
502.956	93.62
503.172	98.62
503.389	98.62
503.606	100.62
503.823	88.62
504.04	90.62
504.256	93.62
504.473	100.62
504.69	91.62
504.907	82.62
505.123	82.62
505.34	97.62
505.557	113.62
505.773	101.62
505.99	96.62
506.207	89.62
506.423	93.62
506.64	99.62
506.856	84.62
507.073	104.62
507.289	86.62
507.506	102.62
507.722	110.62
507.939	123.62
508.155	91.62
508.372	87.62
508.588	90.62
508.805	104.62
509.021	105.62
509.238	101.62
509.454	96.62
509.67	99.62
509.887	120.62
510.103	137.62
510.319	215.62
510.536	768.62
510.752	2497.62
510.968	704.62
511.184	165.62
511.401	113.62
511.617	105.62
511.833	95.62
512.049	95.62
512.265	98.62
512.481	89.62
512.698	105.62
512.914	98.62
513.13	100.62
513.346	91.62
513.562	94.62
513.778	102.62
513.994	118.62
514.21	107.62
