Data from Circ_2001_H10_HRD10591_00095.txt Node
Date: Wed Jan 03 10:45:57 EST 2024
User: Yrep
Spectrometer: HR+D1059
Trigger mode: 1
Integration Time (sec): 1.000000E-1
Scans to average: 1
Electric dark correction enabled: true
Nonlinearity correction enabled: false
Boxcar width: 0
XAxis mode: Wavelengths
Number of Pixels in Spectrum: 2048
>>>>>Begin Spectral Data<<<<<
223.165	-12.12
223.4	-12.12
223.635	-12.12
223.869	-19.12
224.104	-22.12
224.338	-21.12
224.573	-17.12
224.808	-8.12
225.042	2.88
225.277	1.88
225.511	6.88
225.746	9.88
225.98	10.88
226.215	31.88
226.449	-6.12
226.683	8.88
226.918	18.88
227.152	13.88
227.387	23.88
227.621	44.88
227.856	44.88
228.09	48.88
228.324	45.88
228.559	71.88
228.793	59.88
229.027	82.88
229.262	52.88
229.496	75.88
229.73	87.88
229.964	98.88
230.199	74.88
230.433	77.88
230.667	66.88
230.901	83.88
231.136	78.88
231.37	76.88
231.604	78.88
231.838	65.88
232.072	71.88
232.306	80.88
232.541	67.88
232.775	89.88
233.009	85.88
233.243	86.88
233.477	89.88
233.711	73.88
233.945	70.88
234.179	77.88
234.413	73.88
234.647	90.88
234.881	77.88
235.115	74.88
235.349	74.88
235.583	89.88
235.817	80.88
236.051	80.88
236.285	78.88
236.519	72.88
236.753	82.88
236.987	84.88
237.221	86.88
237.455	98.88
237.689	82.88
237.922	81.88
238.156	86.88
238.39	83.88
238.624	62.88
238.858	82.88
239.091	68.88
239.325	70.88
239.559	90.88
239.793	82.88
240.027	83.88
240.26	78.88
240.494	70.88
240.728	87.88
240.961	67.88
241.195	75.88
241.429	69.88
241.662	74.88
241.896	79.88
242.13	66.88
242.363	82.88
242.597	76.88
242.83	82.88
243.064	79.88
243.298	78.88
243.531	54.88
243.765	89.88
243.998	86.88
244.232	67.88
244.465	76.88
244.699	83.88
244.932	63.88
245.166	63.88
245.399	78.88
245.633	85.88
245.866	92.88
246.099	67.88
246.333	84.88
246.566	80.88
246.8	91.88
247.033	89.88
247.266	98.88
247.5	82.88
247.733	83.88
247.966	75.88
248.2	80.88
248.433	81.88
248.666	89.88
248.899	81.88
249.133	88.88
249.366	109.88
249.599	99.88
249.832	82.88
250.066	78.88
250.299	78.88
250.532	83.88
250.765	82.88
250.998	96.88
251.231	87.88
251.465	71.88
251.698	92.88
251.931	90.88
252.164	74.88
252.397	80.88
252.63	82.88
252.863	71.88
253.096	80.88
253.329	79.88
253.562	75.88
253.795	83.88
254.028	79.88
254.261	89.88
254.494	97.88
254.727	91.88
254.96	78.88
255.193	82.88
255.426	80.88
255.659	75.88
255.892	85.88
256.124	80.88
256.357	71.88
256.59	90.88
256.823	84.88
257.056	96.88
257.289	80.88
257.521	83.88
257.754	80.88
257.987	83.88
258.22	84.88
258.452	84.88
258.685	82.88
258.918	74.88
259.151	73.88
259.383	84.88
259.616	79.88
259.849	74.88
260.081	88.88
260.314	81.88
260.547	89.88
260.779	103.88
261.012	96.88
261.244	84.88
261.477	93.88
261.71	92.88
261.942	108.88
262.175	124.88
262.407	94.88
262.64	81.88
262.872	90.88
263.105	69.88
263.337	84.88
263.57	70.88
263.802	90.88
264.035	90.88
264.267	85.88
264.499	82.88
264.732	78.88
264.964	88.88
265.197	80.88
265.429	76.88
265.661	96.88
265.894	87.88
266.126	65.88
266.358	78.88
266.591	89.88
266.823	72.88
267.055	81.88
267.287	90.88
267.52	79.88
267.752	83.88
267.984	84.88
268.216	89.88
268.448	98.88
268.681	94.88
268.913	92.88
269.145	88.88
269.377	75.88
269.609	81.88
269.841	86.88
270.073	76.88
270.306	85.88
270.538	87.88
270.77	77.88
271.002	87.88
271.234	95.88
271.466	86.88
271.698	75.88
271.93	78.88
272.162	97.88
272.394	70.88
272.626	77.88
272.858	76.88
273.09	93.88
273.322	88.88
273.553	96.88
273.785	92.88
274.017	91.88
274.249	97.88
274.481	85.88
274.713	74.88
274.945	81.88
275.176	86.88
275.408	87.88
275.64	88.88
275.872	111.88
276.104	96.88
276.335	98.88
276.567	103.88
276.799	130.88
277.031	153.88
277.262	153.88
277.494	127.88
277.726	77.88
277.957	78.88
278.189	81.88
278.421	78.88
278.652	87.88
278.884	89.88
279.115	82.88
279.347	98.88
279.579	100.88
279.81	112.88
280.042	137.88
280.273	179.88
280.505	139.88
280.736	91.88
280.968	95.88
281.199	91.88
281.431	76.88
281.662	98.88
281.894	96.88
282.125	117.88
282.356	115.88
282.588	147.88
282.819	117.88
283.051	74.88
283.282	84.88
283.513	95.88
283.745	80.88
283.976	83.88
284.207	75.88
284.439	87.88
284.67	91.88
284.901	89.88
285.132	84.88
285.364	80.88
285.595	84.88
285.826	74.88
286.057	94.88
286.288	90.88
286.52	87.88
286.751	80.88
286.982	86.88
287.213	81.88
287.444	82.88
287.675	93.88
287.906	82.88
288.138	87.88
288.369	84.88
288.6	79.88
288.831	94.88
289.062	77.88
289.293	89.88
289.524	86.88
289.755	81.88
289.986	82.88
290.217	88.88
290.448	74.88
290.679	86.88
290.91	76.88
291.141	74.88
291.371	85.88
291.602	76.88
291.833	86.88
292.064	82.88
292.295	98.88
292.526	95.88
292.757	88.88
292.987	82.88
293.218	87.88
293.449	78.88
293.68	96.88
293.91	87.88
294.141	88.88
294.372	91.88
294.603	69.88
294.833	87.88
295.064	92.88
295.295	104.88
295.525	80.88
295.756	95.88
295.987	112.88
296.217	149.88
296.448	123.88
296.679	97.88
296.909	88.88
297.14	88.88
297.37	91.88
297.601	98.88
297.831	85.88
298.062	93.88
298.292	94.88
298.523	87.88
298.753	79.88
298.984	82.88
299.214	81.88
299.445	101.88
299.675	91.88
299.905	93.88
300.136	84.88
300.366	74.88
300.597	88.88
300.827	99.88
301.057	77.88
301.288	106.88
301.518	103.88
301.748	88.88
301.979	106.88
302.209	92.88
302.439	98.88
302.669	89.88
302.9	87.88
303.13	89.88
303.36	92.88
303.59	113.88
303.82	113.88
304.051	95.88
304.281	89.88
304.511	98.88
304.741	91.88
304.971	106.88
305.201	92.88
305.431	88.88
305.661	90.88
305.891	102.88
306.121	91.88
306.352	102.88
306.582	115.88
306.812	106.88
307.042	98.88
307.272	111.88
307.502	151.88
307.731	152.88
307.961	123.88
308.191	96.88
308.421	84.88
308.651	89.88
308.881	88.88
309.111	76.88
309.341	103.88
309.571	89.88
309.8	96.88
310.03	84.88
310.26	92.88
310.49	97.88
310.72	91.88
310.949	95.88
311.179	100.88
311.409	94.88
311.639	100.88
311.868	89.88
312.098	102.88
312.328	84.88
312.557	96.88
312.787	103.88
313.017	94.88
313.246	103.88
313.476	94.88
313.706	95.88
313.935	114.88
314.165	106.88
314.394	103.88
314.624	111.88
314.853	99.88
315.083	75.88
315.312	85.88
315.542	84.88
315.771	95.88
316.001	107.88
316.23	96.88
316.46	84.88
316.689	91.88
316.919	97.88
317.148	90.88
317.377	109.88
317.607	104.88
317.836	111.88
318.065	105.88
318.295	82.88
318.524	92.88
318.753	87.88
318.983	100.88
319.212	97.88
319.441	110.88
319.67	114.88
319.9	92.88
320.129	89.88
320.358	91.88
320.587	111.88
320.816	101.88
321.046	99.88
321.275	106.88
321.504	93.88
321.733	103.88
321.962	103.88
322.191	94.88
322.42	109.88
322.649	114.88
322.878	106.88
323.108	118.88
323.337	130.88
323.566	140.88
323.795	166.88
324.024	215.88
324.253	405.88
324.482	847.88
324.71	1710.88
324.939	2272.88
325.168	844.88
325.397	255.88
325.626	160.88
325.855	138.88
326.084	129.88
326.313	124.88
326.542	144.88
326.77	233.88
326.999	439.88
327.228	914.88
327.457	1662.88
327.686	1358.88
327.914	454.88
328.143	382.88
328.372	473.88
328.6	272.88
328.829	161.88
329.058	154.88
329.287	156.88
329.515	154.88
329.744	203.88
329.972	367.88
330.201	674.88
330.43	950.88
330.658	452.88
330.887	228.88
331.115	169.88
331.344	112.88
331.572	111.88
331.801	118.88
332.03	123.88
332.258	102.88
332.486	86.88
332.715	94.88
332.943	102.88
333.172	112.88
333.4	107.88
333.629	132.88
333.857	182.88
334.085	343.88
334.314	622.88
334.542	1204.88
334.771	1112.88
334.999	291.88
335.227	135.88
335.455	116.88
335.684	111.88
335.912	110.88
336.14	104.88
336.369	112.88
336.597	115.88
336.825	105.88
337.053	76.88
337.281	90.88
337.51	85.88
337.738	76.88
337.966	106.88
338.194	120.88
338.422	92.88
338.65	104.88
338.878	105.88
339.106	90.88
339.334	100.88
339.562	95.88
339.79	102.88
340.018	82.88
340.246	92.88
340.474	103.88
340.702	91.88
340.93	106.88
341.158	104.88
341.386	92.88
341.614	99.88
341.842	100.88
342.07	90.88
342.298	96.88
342.526	98.88
342.754	86.88
342.981	84.88
343.209	96.88
343.437	105.88
343.665	88.88
343.893	91.88
344.12	77.88
344.348	91.88
344.576	87.88
344.804	99.88
345.031	92.88
345.259	100.88
345.487	96.88
345.714	88.88
345.942	98.88
346.17	82.88
346.397	84.88
346.625	100.88
346.853	99.88
347.08	89.88
347.308	91.88
347.535	87.88
347.763	84.88
347.99	106.88
348.218	87.88
348.445	105.88
348.673	107.88
348.9	100.88
349.128	96.88
349.355	88.88
349.583	92.88
349.81	83.88
350.037	99.88
350.265	100.88
350.492	97.88
350.72	105.88
350.947	108.88
351.174	112.88
351.402	106.88
351.629	104.88
351.856	83.88
352.083	87.88
352.311	97.88
352.538	107.88
352.765	97.88
352.992	120.88
353.22	103.88
353.447	92.88
353.674	99.88
353.901	92.88
354.128	98.88
354.355	98.88
354.583	88.88
354.81	98.88
355.037	94.88
355.264	100.88
355.491	90.88
355.718	90.88
355.945	78.88
356.172	91.88
356.399	99.88
356.626	89.88
356.853	90.88
357.08	90.88
357.307	98.88
357.534	78.88
357.761	92.88
357.988	98.88
358.215	92.88
358.441	91.88
358.668	106.88
358.895	80.88
359.122	101.88
359.349	82.88
359.576	91.88
359.802	91.88
360.029	122.88
360.256	117.88
360.483	109.88
360.709	88.88
360.936	93.88
361.163	104.88
361.39	95.88
361.616	86.88
361.843	83.88
362.07	94.88
362.296	99.88
362.523	103.88
362.749	87.88
362.976	115.88
363.203	98.88
363.429	84.88
363.656	90.88
363.882	71.88
364.109	88.88
364.335	83.88
364.562	89.88
364.788	85.88
365.015	94.88
365.241	107.88
365.468	111.88
365.694	106.88
365.92	99.88
366.147	86.88
366.373	95.88
366.599	92.88
366.826	101.88
367.052	91.88
367.278	86.88
367.505	96.88
367.731	99.88
367.957	83.88
368.184	103.88
368.41	104.88
368.636	112.88
368.862	135.88
369.089	106.88
369.315	96.88
369.541	90.88
369.767	88.88
369.993	100.88
370.219	82.88
370.445	81.88
370.672	89.88
370.898	90.88
371.124	94.88
371.35	90.88
371.576	73.88
371.802	98.88
372.028	77.88
372.254	82.88
372.48	100.88
372.706	91.88
372.932	68.88
373.158	82.88
373.384	77.88
373.61	82.88
373.835	73.88
374.061	82.88
374.287	98.88
374.513	88.88
374.739	102.88
374.965	82.88
375.191	82.88
375.416	88.88
375.642	82.88
375.868	91.88
376.094	83.88
376.319	88.88
376.545	98.88
376.771	91.88
376.997	96.88
377.222	94.88
377.448	85.88
377.674	76.88
377.899	96.88
378.125	82.88
378.35	81.88
378.576	90.88
378.802	88.88
379.027	84.88
379.253	84.88
379.478	81.88
379.704	85.88
379.929	91.88
380.155	92.88
380.38	98.88
380.606	94.88
380.831	89.88
381.057	94.88
381.282	88.88
381.507	90.88
381.733	88.88
381.958	100.88
382.184	105.88
382.409	100.88
382.634	92.88
382.86	88.88
383.085	97.88
383.31	92.88
383.535	90.88
383.761	79.88
383.986	80.88
384.211	91.88
384.436	79.88
384.662	99.88
384.887	96.88
385.112	101.88
385.337	105.88
385.562	98.88
385.787	80.88
386.013	99.88
386.238	109.88
386.463	86.88
386.688	94.88
386.913	96.88
387.138	108.88
387.363	99.88
387.588	112.88
387.813	87.88
388.038	89.88
388.263	96.88
388.488	102.88
388.713	84.88
388.938	89.88
389.163	89.88
389.387	99.88
389.612	80.88
389.837	91.88
390.062	94.88
390.287	90.88
390.512	80.88
390.736	99.88
390.961	92.88
391.186	98.88
391.411	96.88
391.636	90.88
391.86	78.88
392.085	79.88
392.31	105.88
392.534	74.88
392.759	91.88
392.984	96.88
393.208	88.88
393.433	90.88
393.658	78.88
393.882	88.88
394.107	97.88
394.331	100.88
394.556	100.88
394.78	93.88
395.005	93.88
395.229	82.88
395.454	86.88
395.678	70.88
395.903	81.88
396.127	98.88
396.352	92.88
396.576	85.88
396.801	86.88
397.025	89.88
397.249	97.88
397.474	70.88
397.698	105.88
397.922	75.88
398.147	92.88
398.371	86.88
398.595	87.88
398.82	78.88
399.044	82.88
399.268	73.88
399.492	91.88
399.717	85.88
399.941	89.88
400.165	89.88
400.389	82.88
400.613	72.88
400.837	95.88
401.062	96.88
401.286	88.88
401.51	95.88
401.734	86.88
401.958	95.88
402.182	142.88
402.406	173.88
402.63	140.88
402.854	91.88
403.078	83.88
403.302	85.88
403.526	86.88
403.75	81.88
403.974	94.88
404.198	89.88
404.422	99.88
404.645	104.88
404.869	96.88
405.093	105.88
405.317	117.88
405.541	118.88
405.765	112.88
405.988	129.88
406.212	194.88
406.436	248.88
406.66	178.88
406.883	114.88
407.107	97.88
407.331	96.88
407.555	90.88
407.778	95.88
408.002	94.88
408.226	89.88
408.449	95.88
408.673	96.88
408.896	95.88
409.12	84.88
409.344	93.88
409.567	91.88
409.791	84.88
410.014	91.88
410.238	89.88
410.461	83.88
410.685	89.88
410.908	85.88
411.132	87.88
411.355	100.88
411.578	91.88
411.802	89.88
412.025	91.88
412.249	100.88
412.472	104.88
412.695	120.88
412.919	89.88
413.142	90.88
413.365	95.88
413.589	80.88
413.812	79.88
414.035	87.88
414.258	90.88
414.482	81.88
414.705	88.88
414.928	87.88
415.151	87.88
415.374	79.88
415.597	75.88
415.821	103.88
416.044	101.88
416.267	92.88
416.49	87.88
416.713	82.88
416.936	94.88
417.159	78.88
417.382	98.88
417.605	105.88
417.828	96.88
418.051	89.88
418.274	90.88
418.497	80.88
418.72	91.88
418.943	104.88
419.166	91.88
419.389	85.88
419.611	94.88
419.834	89.88
420.057	96.88
420.28	100.88
420.503	96.88
420.726	96.88
420.948	80.88
421.171	87.88
421.394	86.88
421.617	95.88
421.839	87.88
422.062	84.88
422.285	87.88
422.507	104.88
422.73	91.88
422.953	95.88
423.175	84.88
423.398	91.88
423.621	84.88
423.843	86.88
424.066	83.88
424.288	85.88
424.511	97.88
424.733	98.88
424.956	98.88
425.178	93.88
425.401	95.88
425.623	89.88
425.846	91.88
426.068	81.88
426.291	84.88
426.513	108.88
426.735	91.88
426.958	86.88
427.18	98.88
427.402	154.88
427.625	214.88
427.847	181.88
428.069	173.88
428.292	112.88
428.514	89.88
428.736	83.88
428.958	90.88
429.181	96.88
429.403	90.88
429.625	98.88
429.847	90.88
430.069	96.88
430.292	92.88
430.514	78.88
430.736	92.88
430.958	83.88
431.18	79.88
431.402	94.88
431.624	82.88
431.846	87.88
432.068	84.88
432.29	100.88
432.512	93.88
432.734	77.88
432.956	74.88
433.178	89.88
433.4	97.88
433.622	82.88
433.844	98.88
434.066	91.88
434.287	80.88
434.509	101.88
434.731	87.88
434.953	91.88
435.175	76.88
435.397	70.88
435.618	96.88
435.84	110.88
436.062	123.88
436.284	111.88
436.505	99.88
436.727	91.88
436.949	83.88
437.17	82.88
437.392	90.88
437.614	85.88
437.835	96.88
438.057	138.88
438.278	106.88
438.5	100.88
438.721	134.88
438.943	120.88
439.165	90.88
439.386	81.88
439.608	90.88
439.829	105.88
440.05	127.88
440.272	143.88
440.493	100.88
440.715	95.88
440.936	96.88
441.158	81.88
441.379	93.88
441.6	115.88
441.822	101.88
442.043	94.88
442.264	99.88
442.486	112.88
442.707	83.88
442.928	112.88
443.149	133.88
443.371	157.88
443.592	122.88
443.813	104.88
444.034	113.88
444.255	94.88
444.476	76.88
444.698	80.88
444.919	75.88
445.14	120.88
445.361	123.88
445.582	109.88
445.803	144.88
446.024	148.88
446.245	145.88
446.466	118.88
446.687	93.88
446.908	92.88
447.129	87.88
447.35	92.88
447.571	87.88
447.792	85.88
448.013	99.88
448.234	100.88
448.455	111.88
448.675	120.88
448.896	139.88
449.117	90.88
449.338	114.88
449.559	128.88
449.779	130.88
450	98.88
450.221	83.88
450.442	78.88
450.662	108.88
450.883	126.88
451.104	116.88
451.324	84.88
451.545	80.88
451.766	72.88
451.986	83.88
452.207	93.88
452.428	105.88
452.648	92.88
452.869	118.88
453.089	109.88
453.31	126.88
453.53	99.88
453.751	96.88
453.971	95.88
454.192	119.88
454.412	105.88
454.633	92.88
454.853	102.88
455.073	90.88
455.294	87.88
455.514	90.88
455.734	87.88
455.955	85.88
456.175	82.88
456.395	105.88
456.616	74.88
456.836	79.88
457.056	79.88
457.276	73.88
457.497	75.88
457.717	89.88
457.937	92.88
458.157	89.88
458.377	84.88
458.598	110.88
458.818	179.88
459.038	182.88
459.258	118.88
459.478	90.88
459.698	108.88
459.918	83.88
460.138	93.88
460.358	87.88
460.578	95.88
460.798	93.88
461.018	93.88
461.238	82.88
461.458	87.88
461.678	92.88
461.898	88.88
462.118	83.88
462.338	81.88
462.558	70.88
462.777	95.88
462.997	108.88
463.217	101.88
463.437	97.88
463.657	76.88
463.876	91.88
464.096	83.88
464.316	112.88
464.536	105.88
464.755	98.88
464.975	120.88
465.195	183.88
465.414	183.88
465.634	97.88
465.854	90.88
466.073	98.88
466.293	102.88
466.512	92.88
466.732	79.88
466.951	84.88
467.171	86.88
467.391	122.88
467.61	136.88
467.829	156.88
468.049	392.88
468.268	564.88
468.488	168.88
468.707	90.88
468.927	89.88
469.146	90.88
469.365	85.88
469.585	90.88
469.804	90.88
470.023	108.88
470.243	109.88
470.462	102.88
470.681	131.88
470.901	112.88
471.12	92.88
471.339	96.88
471.558	121.88
471.777	130.88
471.997	231.88
472.216	802.88
472.435	1699.88
472.654	422.88
472.873	113.88
473.092	105.88
473.311	100.88
473.53	89.88
473.749	87.88
473.968	94.88
474.187	88.88
474.406	95.88
474.625	87.88
474.844	83.88
475.063	83.88
475.282	84.88
475.501	84.88
475.72	91.88
475.939	81.88
476.158	81.88
476.377	98.88
476.596	92.88
476.814	96.88
477.033	88.88
477.252	89.88
477.471	83.88
477.69	92.88
477.908	86.88
478.127	100.88
478.346	96.88
478.564	92.88
478.783	98.88
479.002	92.88
479.22	111.88
479.439	108.88
479.658	128.88
479.876	119.88
480.095	110.88
480.313	122.88
480.532	152.88
480.751	224.88
480.969	737.88
481.188	2958.88
481.406	1721.88
481.624	270.88
481.843	115.88
482.061	103.88
482.28	91.88
482.498	88.88
482.717	91.88
482.935	100.88
483.153	81.88
483.372	95.88
483.59	95.88
483.808	84.88
484.027	80.88
484.245	109.88
484.463	99.88
484.681	100.88
484.9	118.88
485.118	99.88
485.336	90.88
485.554	98.88
485.772	97.88
485.99	115.88
486.209	104.88
486.427	107.88
486.645	113.88
486.863	111.88
487.081	102.88
487.299	96.88
487.517	91.88
487.735	94.88
487.953	85.88
488.171	89.88
488.389	87.88
488.607	98.88
488.825	96.88
489.043	88.88
489.261	84.88
489.479	81.88
489.696	93.88
489.914	92.88
490.132	86.88
490.35	89.88
490.568	88.88
490.786	87.88
491.003	99.88
491.221	105.88
491.439	81.88
491.657	105.88
491.874	98.88
492.092	93.88
492.31	89.88
492.527	100.88
492.745	101.88
492.963	100.88
493.18	89.88
493.398	89.88
493.615	87.88
493.833	85.88
494.05	95.88
494.268	92.88
494.485	80.88
494.703	79.88
494.92	96.88
495.138	72.88
495.355	90.88
495.573	96.88
495.79	88.88
496.008	93.88
496.225	90.88
496.442	80.88
496.66	98.88
496.877	80.88
497.094	85.88
497.312	86.88
497.529	88.88
497.746	81.88
497.963	99.88
498.181	90.88
498.398	89.88
498.615	99.88
498.832	96.88
499.049	87.88
499.267	96.88
499.484	88.88
499.701	89.88
499.918	90.88
500.135	77.88
500.352	78.88
500.569	84.88
500.786	87.88
501.003	93.88
501.22	96.88
501.437	101.88
501.654	90.88
501.871	111.88
502.088	100.88
502.305	92.88
502.522	103.88
502.739	79.88
502.956	80.88
503.172	105.88
503.389	106.88
503.606	110.88
503.823	108.88
504.04	92.88
504.256	87.88
504.473	86.88
504.69	89.88
504.907	74.88
505.123	69.88
505.34	69.88
505.557	89.88
505.773	95.88
505.99	84.88
506.207	86.88
506.423	81.88
506.64	80.88
506.856	84.88
507.073	92.88
507.289	91.88
507.506	102.88
507.722	134.88
507.939	117.88
508.155	95.88
508.372	101.88
508.588	86.88
508.805	100.88
509.021	98.88
509.238	90.88
509.454	114.88
509.67	92.88
509.887	98.88
510.103	128.88
510.319	222.88
510.536	735.88
510.752	2482.88
510.968	682.88
511.184	157.88
511.401	109.88
511.617	99.88
511.833	116.88
512.049	97.88
512.265	97.88
512.481	88.88
512.698	87.88
512.914	87.88
513.13	106.88
513.346	92.88
513.562	100.88
513.778	81.88
513.994	92.88
514.21	115.88
514.426	131.88
514.642	156.88
514.858	132.88
515.074	204.88
