Data from Circ_2001_H10_HRD10591_00065.txt Node
Date: Wed Jan 03 10:45:51 EST 2024
User: Yrep
Spectrometer: HR+D1059
Trigger mode: 1
Integration Time (sec): 1.000000E-1
Scans to average: 1
Electric dark correction enabled: true
Nonlinearity correction enabled: false
Boxcar width: 0
XAxis mode: Wavelengths
Number of Pixels in Spectrum: 2048
>>>>>Begin Spectral Data<<<<<
223.165	-13.69
223.4	-13.69
223.635	-13.69
223.869	-22.69
224.104	-21.69
224.338	-9.69
224.573	-17.69
224.808	-12.69
225.042	-7.69
225.277	-1.69
225.511	-5.69
225.746	-10.69
225.98	7.31
226.215	16.31
226.449	19.31
226.683	25.31
226.918	21.31
227.152	34.31
227.387	36.31
227.621	35.31
227.856	42.31
228.09	47.31
228.324	57.31
228.559	59.31
228.793	51.31
229.027	72.31
229.262	72.31
229.496	60.31
229.73	83.31
229.964	78.31
230.199	71.31
230.433	80.31
230.667	81.31
230.901	65.31
231.136	77.31
231.37	68.31
231.604	83.31
231.838	87.31
232.072	94.31
232.306	76.31
232.541	81.31
232.775	91.31
233.009	82.31
233.243	72.31
233.477	81.31
233.711	83.31
233.945	78.31
234.179	78.31
234.413	81.31
234.647	103.31
234.881	83.31
235.115	78.31
235.349	73.31
235.583	77.31
235.817	75.31
236.051	80.31
236.285	89.31
236.519	75.31
236.753	81.31
236.987	74.31
237.221	82.31
237.455	91.31
237.689	76.31
237.922	69.31
238.156	72.31
238.39	83.31
238.624	80.31
238.858	94.31
239.091	75.31
239.325	94.31
239.559	77.31
239.793	78.31
240.027	77.31
240.26	60.31
240.494	68.31
240.728	67.31
240.961	71.31
241.195	80.31
241.429	71.31
241.662	76.31
241.896	85.31
242.13	69.31
242.363	76.31
242.597	65.31
242.83	75.31
243.064	73.31
243.298	76.31
243.531	64.31
243.765	71.31
243.998	83.31
244.232	90.31
244.465	83.31
244.699	89.31
244.932	78.31
245.166	70.31
245.399	61.31
245.633	81.31
245.866	98.31
246.099	83.31
246.333	81.31
246.566	85.31
246.8	82.31
247.033	90.31
247.266	83.31
247.5	83.31
247.733	81.31
247.966	82.31
248.2	78.31
248.433	85.31
248.666	76.31
248.899	86.31
249.133	98.31
249.366	100.31
249.599	91.31
249.832	74.31
250.066	88.31
250.299	76.31
250.532	91.31
250.765	82.31
250.998	78.31
251.231	81.31
251.465	85.31
251.698	84.31
251.931	86.31
252.164	76.31
252.397	77.31
252.63	86.31
252.863	91.31
253.096	74.31
253.329	81.31
253.562	82.31
253.795	102.31
254.028	85.31
254.261	79.31
254.494	77.31
254.727	93.31
254.96	84.31
255.193	80.31
255.426	93.31
255.659	87.31
255.892	85.31
256.124	77.31
256.357	80.31
256.59	94.31
256.823	74.31
257.056	96.31
257.289	88.31
257.521	76.31
257.754	92.31
257.987	93.31
258.22	83.31
258.452	84.31
258.685	86.31
258.918	85.31
259.151	85.31
259.383	94.31
259.616	89.31
259.849	85.31
260.081	81.31
260.314	88.31
260.547	92.31
260.779	75.31
261.012	98.31
261.244	94.31
261.477	100.31
261.71	102.31
261.942	99.31
262.175	104.31
262.407	81.31
262.64	81.31
262.872	79.31
263.105	68.31
263.337	78.31
263.57	78.31
263.802	84.31
264.035	97.31
264.267	86.31
264.499	81.31
264.732	91.31
264.964	87.31
265.197	78.31
265.429	88.31
265.661	81.31
265.894	87.31
266.126	100.31
266.358	82.31
266.591	81.31
266.823	92.31
267.055	78.31
267.287	89.31
267.52	98.31
267.752	92.31
267.984	80.31
268.216	77.31
268.448	91.31
268.681	89.31
268.913	92.31
269.145	73.31
269.377	75.31
269.609	86.31
269.841	98.31
270.073	80.31
270.306	92.31
270.538	76.31
270.77	86.31
271.002	81.31
271.234	81.31
271.466	92.31
271.698	88.31
271.93	72.31
272.162	76.31
272.394	88.31
272.626	73.31
272.858	93.31
273.09	89.31
273.322	84.31
273.553	86.31
273.785	77.31
274.017	102.31
274.249	92.31
274.481	83.31
274.713	86.31
274.945	94.31
275.176	88.31
275.408	85.31
275.64	90.31
275.872	100.31
276.104	98.31
276.335	82.31
276.567	101.31
276.799	114.31
277.031	122.31
277.262	128.31
277.494	121.31
277.726	93.31
277.957	90.31
278.189	88.31
278.421	91.31
278.652	92.31
278.884	94.31
279.115	86.31
279.347	93.31
279.579	97.31
279.81	101.31
280.042	119.31
280.273	149.31
280.505	111.31
280.736	93.31
280.968	84.31
281.199	94.31
281.431	80.31
281.662	99.31
281.894	94.31
282.125	107.31
282.356	112.31
282.588	122.31
282.819	109.31
283.051	89.31
283.282	88.31
283.513	90.31
283.745	93.31
283.976	81.31
284.207	88.31
284.439	90.31
284.67	88.31
284.901	89.31
285.132	84.31
285.364	81.31
285.595	103.31
285.826	100.31
286.057	96.31
286.288	87.31
286.52	95.31
286.751	69.31
286.982	103.31
287.213	96.31
287.444	88.31
287.675	84.31
287.906	98.31
288.138	86.31
288.369	82.31
288.6	83.31
288.831	85.31
289.062	101.31
289.293	99.31
289.524	80.31
289.755	94.31
289.986	84.31
290.217	89.31
290.448	74.31
290.679	85.31
290.91	86.31
291.141	81.31
291.371	81.31
291.602	88.31
291.833	91.31
292.064	86.31
292.295	91.31
292.526	101.31
292.757	107.31
292.987	85.31
293.218	99.31
293.449	89.31
293.68	99.31
293.91	83.31
294.141	75.31
294.372	91.31
294.603	90.31
294.833	89.31
295.064	84.31
295.295	110.31
295.525	93.31
295.756	100.31
295.987	108.31
296.217	137.31
296.448	118.31
296.679	83.31
296.909	95.31
297.14	85.31
297.37	88.31
297.601	84.31
297.831	98.31
298.062	83.31
298.292	92.31
298.523	88.31
298.753	85.31
298.984	88.31
299.214	85.31
299.445	96.31
299.675	89.31
299.905	84.31
300.136	86.31
300.366	81.31
300.597	81.31
300.827	80.31
301.057	103.31
301.288	105.31
301.518	93.31
301.748	92.31
301.979	102.31
302.209	94.31
302.439	90.31
302.669	85.31
302.9	87.31
303.13	92.31
303.36	98.31
303.59	101.31
303.82	112.31
304.051	102.31
304.281	83.31
304.511	91.31
304.741	87.31
304.971	81.31
305.201	90.31
305.431	98.31
305.661	102.31
305.891	87.31
306.121	104.31
306.352	106.31
306.582	92.31
306.812	106.31
307.042	110.31
307.272	121.31
307.502	145.31
307.731	125.31
307.961	99.31
308.191	87.31
308.421	88.31
308.651	91.31
308.881	85.31
309.111	98.31
309.341	92.31
309.571	94.31
309.8	101.31
310.03	97.31
310.26	84.31
310.49	93.31
310.72	98.31
310.949	118.31
311.179	105.31
311.409	92.31
311.639	84.31
311.868	100.31
312.098	111.31
312.328	87.31
312.557	94.31
312.787	115.31
313.017	101.31
313.246	105.31
313.476	95.31
313.706	80.31
313.935	95.31
314.165	100.31
314.394	81.31
314.624	94.31
314.853	105.31
315.083	100.31
315.312	81.31
315.542	85.31
315.771	104.31
316.001	96.31
316.23	100.31
316.46	90.31
316.689	100.31
316.919	98.31
317.148	101.31
317.377	91.31
317.607	92.31
317.836	100.31
318.065	86.31
318.295	92.31
318.524	91.31
318.753	101.31
318.983	80.31
319.212	92.31
319.441	99.31
319.67	108.31
319.9	91.31
320.129	79.31
320.358	96.31
320.587	95.31
320.816	92.31
321.046	104.31
321.275	89.31
321.504	94.31
321.733	107.31
321.962	101.31
322.191	93.31
322.42	106.31
322.649	111.31
322.878	103.31
323.108	115.31
323.337	129.31
323.566	128.31
323.795	145.31
324.024	208.31
324.253	378.31
324.482	793.31
324.71	1658.31
324.939	2093.31
325.168	754.31
325.397	221.31
325.626	154.31
325.855	128.31
326.084	125.31
326.313	130.31
326.542	146.31
326.77	232.31
326.999	450.31
327.228	906.31
327.457	1659.31
327.686	1309.31
327.914	408.31
328.143	299.31
328.372	331.31
328.6	201.31
328.829	140.31
329.058	137.31
329.287	130.31
329.515	118.31
329.744	172.31
329.972	263.31
330.201	468.31
330.43	644.31
330.658	310.31
330.887	192.31
331.115	128.31
331.344	109.31
331.572	100.31
331.801	117.31
332.03	95.31
332.258	87.31
332.486	99.31
332.715	102.31
332.943	96.31
333.172	104.31
333.4	117.31
333.629	128.31
333.857	158.31
334.085	251.31
334.314	476.31
334.542	817.31
334.771	760.31
334.999	232.31
335.227	126.31
335.455	104.31
335.684	105.31
335.912	108.31
336.14	104.31
336.369	107.31
336.597	89.31
336.825	84.31
337.053	90.31
337.281	101.31
337.51	101.31
337.738	100.31
337.966	90.31
338.194	98.31
338.422	94.31
338.65	92.31
338.878	87.31
339.106	79.31
339.334	90.31
339.562	82.31
339.79	96.31
340.018	105.31
340.246	93.31
340.474	91.31
340.702	90.31
340.93	76.31
341.158	92.31
341.386	92.31
341.614	97.31
341.842	93.31
342.07	82.31
342.298	88.31
342.526	80.31
342.754	76.31
342.981	83.31
343.209	90.31
343.437	113.31
343.665	88.31
343.893	103.31
344.12	95.31
344.348	75.31
344.576	90.31
344.804	89.31
345.031	89.31
345.259	98.31
345.487	94.31
345.714	100.31
345.942	92.31
346.17	104.31
346.397	100.31
346.625	106.31
346.853	98.31
347.08	89.31
347.308	92.31
347.535	92.31
347.763	87.31
347.99	98.31
348.218	102.31
348.445	102.31
348.673	92.31
348.9	94.31
349.128	99.31
349.355	97.31
349.583	115.31
349.81	107.31
350.037	107.31
350.265	89.31
350.492	106.31
350.72	105.31
350.947	100.31
351.174	106.31
351.402	112.31
351.629	100.31
351.856	92.31
352.083	92.31
352.311	110.31
352.538	100.31
352.765	99.31
352.992	121.31
353.22	110.31
353.447	105.31
353.674	103.31
353.901	100.31
354.128	100.31
354.355	105.31
354.583	97.31
354.81	105.31
355.037	94.31
355.264	91.31
355.491	83.31
355.718	81.31
355.945	94.31
356.172	87.31
356.399	87.31
356.626	93.31
356.853	96.31
357.08	96.31
357.307	87.31
357.534	97.31
357.761	83.31
357.988	88.31
358.215	93.31
358.441	93.31
358.668	86.31
358.895	99.31
359.122	97.31
359.349	88.31
359.576	94.31
359.802	101.31
360.029	114.31
360.256	104.31
360.483	92.31
360.709	92.31
360.936	98.31
361.163	90.31
361.39	95.31
361.616	94.31
361.843	102.31
362.07	88.31
362.296	100.31
362.523	86.31
362.749	89.31
362.976	98.31
363.203	90.31
363.429	86.31
363.656	83.31
363.882	91.31
364.109	83.31
364.335	83.31
364.562	91.31
364.788	92.31
365.015	89.31
365.241	92.31
365.468	105.31
365.694	112.31
365.92	85.31
366.147	105.31
366.373	87.31
366.599	87.31
366.826	96.31
367.052	92.31
367.278	90.31
367.505	89.31
367.731	81.31
367.957	81.31
368.184	90.31
368.41	96.31
368.636	109.31
368.862	106.31
369.089	107.31
369.315	101.31
369.541	95.31
369.767	94.31
369.993	77.31
370.219	84.31
370.445	76.31
370.672	96.31
370.898	89.31
371.124	92.31
371.35	97.31
371.576	105.31
371.802	92.31
372.028	99.31
372.254	84.31
372.48	89.31
372.706	93.31
372.932	96.31
373.158	84.31
373.384	102.31
373.61	82.31
373.835	98.31
374.061	85.31
374.287	84.31
374.513	85.31
374.739	80.31
374.965	88.31
375.191	85.31
375.416	83.31
375.642	79.31
375.868	94.31
376.094	87.31
376.319	95.31
376.545	84.31
376.771	84.31
376.997	77.31
377.222	94.31
377.448	87.31
377.674	78.31
377.899	90.31
378.125	95.31
378.35	87.31
378.576	100.31
378.802	78.31
379.027	99.31
379.253	92.31
379.478	92.31
379.704	81.31
379.929	95.31
380.155	92.31
380.38	96.31
380.606	110.31
380.831	105.31
381.057	110.31
381.282	96.31
381.507	87.31
381.733	95.31
381.958	93.31
382.184	102.31
382.409	96.31
382.634	98.31
382.86	94.31
383.085	89.31
383.31	78.31
383.535	109.31
383.761	85.31
383.986	92.31
384.211	113.31
384.436	92.31
384.662	107.31
384.887	110.31
385.112	110.31
385.337	95.31
385.562	100.31
385.787	93.31
386.013	107.31
386.238	118.31
386.463	105.31
386.688	113.31
386.913	90.31
387.138	108.31
387.363	93.31
387.588	99.31
387.813	110.31
388.038	86.31
388.263	107.31
388.488	95.31
388.713	112.31
388.938	99.31
389.163	80.31
389.387	91.31
389.612	89.31
389.837	88.31
390.062	81.31
390.287	95.31
390.512	83.31
390.736	82.31
390.961	85.31
391.186	96.31
391.411	92.31
391.636	89.31
391.86	99.31
392.085	86.31
392.31	84.31
392.534	99.31
392.759	113.31
392.984	88.31
393.208	89.31
393.433	86.31
393.658	88.31
393.882	88.31
394.107	76.31
394.331	93.31
394.556	86.31
394.78	101.31
395.005	80.31
395.229	80.31
395.454	97.31
395.678	94.31
395.903	88.31
396.127	98.31
396.352	82.31
396.576	97.31
396.801	88.31
397.025	93.31
397.249	89.31
397.474	76.31
397.698	103.31
397.922	90.31
398.147	89.31
398.371	98.31
398.595	100.31
398.82	83.31
399.044	88.31
399.268	84.31
399.492	72.31
399.717	75.31
399.941	100.31
400.165	100.31
400.389	101.31
400.613	97.31
400.837	88.31
401.062	87.31
401.286	93.31
401.51	89.31
401.734	101.31
401.958	94.31
402.182	126.31
402.406	145.31
402.63	109.31
402.854	90.31
403.078	88.31
403.302	81.31
403.526	87.31
403.75	92.31
403.974	85.31
404.198	83.31
404.422	82.31
404.645	90.31
404.869	82.31
405.093	114.31
405.317	102.31
405.541	103.31
405.765	99.31
405.988	108.31
406.212	154.31
406.436	208.31
406.66	143.31
406.883	104.31
407.107	83.31
407.331	94.31
407.555	112.31
407.778	100.31
408.002	97.31
408.226	89.31
408.449	88.31
408.673	83.31
408.896	94.31
409.12	94.31
409.344	87.31
409.567	89.31
409.791	91.31
410.014	85.31
410.238	104.31
410.461	92.31
410.685	83.31
410.908	92.31
411.132	113.31
411.355	107.31
411.578	101.31
411.802	89.31
412.025	92.31
412.249	99.31
412.472	91.31
412.695	115.31
412.919	93.31
413.142	107.31
413.365	99.31
413.589	81.31
413.812	94.31
414.035	93.31
414.258	101.31
414.482	92.31
414.705	86.31
414.928	91.31
415.151	93.31
415.374	89.31
415.597	93.31
415.821	100.31
416.044	81.31
416.267	81.31
416.49	103.31
416.713	103.31
416.936	77.31
417.159	85.31
417.382	79.31
417.605	92.31
417.828	93.31
418.051	103.31
418.274	94.31
418.497	92.31
418.72	86.31
418.943	106.31
419.166	76.31
419.389	80.31
419.611	94.31
419.834	91.31
420.057	102.31
420.28	96.31
420.503	92.31
420.726	80.31
420.948	92.31
421.171	94.31
421.394	90.31
421.617	93.31
421.839	94.31
422.062	89.31
422.285	97.31
422.507	92.31
422.73	89.31
422.953	98.31
423.175	93.31
423.398	81.31
423.621	91.31
423.843	83.31
424.066	91.31
424.288	84.31
424.511	108.31
424.733	97.31
424.956	109.31
425.178	93.31
425.401	100.31
425.623	99.31
425.846	79.31
426.068	86.31
426.291	88.31
426.513	97.31
426.735	84.31
426.958	102.31
427.18	107.31
427.402	147.31
427.625	178.31
427.847	153.31
428.069	162.31
428.292	100.31
428.514	85.31
428.736	79.31
428.958	94.31
429.181	80.31
429.403	86.31
429.625	94.31
429.847	92.31
430.069	93.31
430.292	101.31
430.514	85.31
430.736	81.31
430.958	69.31
431.18	85.31
431.402	75.31
431.624	89.31
431.846	85.31
432.068	76.31
432.29	97.31
432.512	80.31
432.734	84.31
432.956	81.31
433.178	103.31
433.4	97.31
433.622	100.31
433.844	93.31
434.066	93.31
434.287	82.31
434.509	80.31
434.731	82.31
434.953	90.31
435.175	96.31
435.397	94.31
435.618	91.31
435.84	104.31
436.062	106.31
436.284	113.31
436.505	104.31
436.727	102.31
436.949	103.31
437.17	93.31
437.392	90.31
437.614	89.31
437.835	108.31
438.057	120.31
438.278	99.31
438.5	105.31
438.721	106.31
438.943	107.31
439.165	87.31
439.386	92.31
439.608	93.31
439.829	93.31
440.05	121.31
440.272	123.31
440.493	106.31
440.715	80.31
440.936	75.31
441.158	96.31
441.379	91.31
441.6	98.31
441.822	78.31
442.043	110.31
442.264	119.31
442.486	94.31
442.707	96.31
442.928	111.31
443.149	134.31
443.371	118.31
443.592	107.31
443.813	108.31
444.034	106.31
444.255	99.31
444.476	90.31
444.698	81.31
444.919	94.31
445.14	132.31
445.361	114.31
445.582	106.31
445.803	141.31
446.024	141.31
446.245	130.31
446.466	109.31
446.687	108.31
446.908	103.31
447.129	89.31
447.35	92.31
447.571	88.31
447.792	95.31
448.013	86.31
448.234	107.31
448.455	90.31
448.675	119.31
448.896	101.31
449.117	89.31
449.338	89.31
449.559	112.31
449.779	117.31
450	104.31
450.221	83.31
450.442	93.31
450.662	94.31
450.883	101.31
451.104	102.31
451.324	88.31
451.545	86.31
451.766	92.31
451.986	86.31
452.207	85.31
452.428	111.31
452.648	101.31
452.869	104.31
453.089	101.31
453.31	107.31
453.53	98.31
453.751	90.31
453.971	104.31
454.192	118.31
454.412	91.31
454.633	83.31
454.853	91.31
455.073	94.31
455.294	97.31
455.514	105.31
455.734	98.31
455.955	84.31
456.175	84.31
456.395	87.31
456.616	85.31
456.836	92.31
457.056	87.31
457.276	96.31
457.497	88.31
457.717	91.31
457.937	94.31
458.157	93.31
458.377	99.31
458.598	110.31
458.818	148.31
459.038	140.31
459.258	109.31
459.478	92.31
459.698	72.31
459.918	77.31
460.138	85.31
460.358	89.31
460.578	92.31
460.798	91.31
461.018	96.31
461.238	94.31
461.458	98.31
461.678	96.31
461.898	85.31
462.118	100.31
462.338	84.31
462.558	85.31
462.777	80.31
462.997	83.31
463.217	92.31
463.437	92.31
463.657	95.31
463.876	87.31
464.096	94.31
464.316	107.31
464.536	96.31
464.755	96.31
464.975	105.31
465.195	163.31
465.414	153.31
465.634	88.31
465.854	87.31
466.073	84.31
466.293	94.31
466.512	88.31
466.732	88.31
466.951	85.31
467.171	91.31
467.391	104.31
467.61	117.31
467.829	158.31
468.049	294.31
468.268	416.31
468.488	148.31
468.707	105.31
468.927	89.31
469.146	88.31
469.365	87.31
469.585	110.31
469.804	108.31
470.023	106.31
470.243	99.31
470.462	89.31
470.681	85.31
470.901	97.31
471.12	99.31
471.339	104.31
471.558	110.31
471.777	120.31
471.997	186.31
472.216	581.31
472.435	1135.31
472.654	309.31
472.873	108.31
473.092	98.31
473.311	91.31
473.53	83.31
473.749	92.31
473.968	91.31
474.187	109.31
474.406	101.31
474.625	86.31
474.844	78.31
475.063	95.31
475.282	76.31
475.501	74.31
475.72	88.31
475.939	91.31
476.158	103.31
476.377	82.31
476.596	82.31
476.814	115.31
477.033	91.31
477.252	104.31
477.471	85.31
477.69	85.31
477.908	105.31
478.127	83.31
478.346	98.31
478.564	95.31
478.783	91.31
479.002	101.31
479.22	91.31
479.439	98.31
479.658	119.31
479.876	99.31
480.095	100.31
480.313	104.31
480.532	123.31
480.751	179.31
480.969	541.31
481.188	1952.31
481.406	1156.31
481.624	207.31
481.843	119.31
482.061	95.31
482.28	85.31
482.498	97.31
482.717	99.31
482.935	89.31
483.153	102.31
483.372	88.31
483.59	84.31
483.808	79.31
484.027	73.31
484.245	93.31
484.463	89.31
484.681	106.31
484.9	98.31
485.118	87.31
485.336	85.31
485.554	103.31
485.772	94.31
485.99	97.31
486.209	93.31
486.427	104.31
486.645	120.31
486.863	113.31
487.081	102.31
487.299	97.31
487.517	83.31
487.735	106.31
487.953	96.31
488.171	93.31
488.389	98.31
488.607	109.31
488.825	94.31
489.043	101.31
489.261	83.31
489.479	82.31
489.696	99.31
489.914	82.31
490.132	94.31
490.35	85.31
490.568	85.31
490.786	85.31
491.003	82.31
491.221	97.31
491.439	88.31
491.657	88.31
491.874	100.31
492.092	84.31
492.31	90.31
492.527	93.31
492.745	80.31
492.963	102.31
493.18	86.31
493.398	90.31
493.615	93.31
493.833	102.31
494.05	101.31
494.268	107.31
494.485	100.31
494.703	97.31
494.92	92.31
495.138	83.31
495.355	96.31
495.573	86.31
495.79	88.31
496.008	88.31
496.225	100.31
496.442	84.31
496.66	97.31
496.877	106.31
497.094	93.31
497.312	89.31
497.529	93.31
497.746	93.31
497.963	94.31
498.181	91.31
498.398	93.31
498.615	117.31
498.832	99.31
499.049	94.31
499.267	82.31
499.484	99.31
499.701	90.31
499.918	94.31
500.135	73.31
500.352	78.31
500.569	98.31
500.786	92.31
501.003	87.31
501.22	96.31
501.437	97.31
501.654	100.31
501.871	102.31
502.088	106.31
502.305	90.31
502.522	84.31
502.739	81.31
502.956	103.31
503.172	87.31
503.389	86.31
503.606	112.31
503.823	106.31
504.04	104.31
504.256	91.31
504.473	96.31
504.69	99.31
504.907	93.31
505.123	86.31
505.34	90.31
505.557	99.31
505.773	93.31
505.99	85.31
506.207	106.31
506.423	89.31
506.64	82.31
506.856	84.31
507.073	88.31
507.289	105.31
507.506	103.31
507.722	96.31
507.939	104.31
508.155	80.31
508.372	90.31
508.588	105.31
508.805	100.31
509.021	114.31
509.238	101.31
509.454	94.31
509.67	114.31
509.887	124.31
510.103	130.31
510.319	202.31
510.536	616.31
510.752	1924.31
510.968	555.31
511.184	134.31
511.401	115.31
511.617	105.31
511.833	102.31
512.049	93.31
512.265	91.31
512.481	89.31
512.698	80.31
512.914	92.31
513.13	89.31
513.346	100.31
513.562	80.31
513.778	102.31
513.994	101.31
514.21	95.31
514.426	113.31
514.642	128.31
