Data from Circ_2001_H10_HRD10591_00004.txt Node
Date: Wed Jan 03 10:45:39 EST 2024
User: Yrep
Spectrometer: HR+D1059
Trigger mode: 1
Integration Time (sec): 1.000000E-1
Scans to average: 1
Electric dark correction enabled: true
Nonlinearity correction enabled: false
Boxcar width: 0
XAxis mode: Wavelengths
Number of Pixels in Spectrum: 2048
>>>>>Begin Spectral Data<<<<<
223.165	-17.31
223.4	-17.31
223.635	-17.31
223.869	-22.31
224.104	-15.31
224.338	-27.31
224.573	-12.31
224.808	-14.31
225.042	2.69
225.277	-17.31
225.511	-9.31
225.746	5.69
225.98	12.69
226.215	10.69
226.449	3.69
226.683	31.69
226.918	25.69
227.152	42.69
227.387	22.69
227.621	42.69
227.856	42.69
228.09	43.69
228.324	42.69
228.559	69.69
228.793	49.69
229.027	74.69
229.262	70.69
229.496	68.69
229.73	61.69
229.964	84.69
230.199	69.69
230.433	74.69
230.667	76.69
230.901	91.69
231.136	77.69
231.37	90.69
231.604	74.69
231.838	87.69
232.072	72.69
232.306	72.69
232.541	68.69
232.775	83.69
233.009	75.69
233.243	80.69
233.477	82.69
233.711	89.69
233.945	88.69
234.179	86.69
234.413	68.69
234.647	76.69
234.881	75.69
235.115	79.69
235.349	74.69
235.583	83.69
235.817	76.69
236.051	74.69
236.285	80.69
236.519	73.69
236.753	87.69
236.987	74.69
237.221	66.69
237.455	87.69
237.689	102.69
237.922	91.69
238.156	69.69
238.39	63.69
238.624	82.69
238.858	72.69
239.091	82.69
239.325	81.69
239.559	75.69
239.793	83.69
240.027	72.69
240.26	75.69
240.494	81.69
240.728	68.69
240.961	75.69
241.195	67.69
241.429	76.69
241.662	69.69
241.896	83.69
242.13	88.69
242.363	75.69
242.597	66.69
242.83	94.69
243.064	75.69
243.298	83.69
243.531	87.69
243.765	67.69
243.998	76.69
244.232	84.69
244.465	78.69
244.699	90.69
244.932	74.69
245.166	86.69
245.399	75.69
245.633	69.69
245.866	78.69
246.099	74.69
246.333	72.69
246.566	65.69
246.8	76.69
247.033	83.69
247.266	84.69
247.5	78.69
247.733	78.69
247.966	70.69
248.2	69.69
248.433	88.69
248.666	76.69
248.899	78.69
249.133	79.69
249.366	89.69
249.599	89.69
249.832	82.69
250.066	79.69
250.299	68.69
250.532	70.69
250.765	74.69
250.998	73.69
251.231	78.69
251.465	79.69
251.698	87.69
251.931	85.69
252.164	85.69
252.397	86.69
252.63	71.69
252.863	79.69
253.096	75.69
253.329	75.69
253.562	86.69
253.795	80.69
254.028	76.69
254.261	86.69
254.494	79.69
254.727	75.69
254.96	81.69
255.193	82.69
255.426	65.69
255.659	71.69
255.892	94.69
256.124	87.69
256.357	80.69
256.59	74.69
256.823	85.69
257.056	81.69
257.289	72.69
257.521	81.69
257.754	71.69
257.987	85.69
258.22	86.69
258.452	77.69
258.685	86.69
258.918	70.69
259.151	84.69
259.383	88.69
259.616	83.69
259.849	68.69
260.081	86.69
260.314	92.69
260.547	84.69
260.779	94.69
261.012	92.69
261.244	94.69
261.477	85.69
261.71	80.69
261.942	116.69
262.175	121.69
262.407	81.69
262.64	76.69
262.872	83.69
263.105	84.69
263.337	88.69
263.57	67.69
263.802	94.69
264.035	78.69
264.267	83.69
264.499	84.69
264.732	85.69
264.964	104.69
265.197	75.69
265.429	100.69
265.661	87.69
265.894	72.69
266.126	86.69
266.358	91.69
266.591	87.69
266.823	79.69
267.055	86.69
267.287	87.69
267.52	85.69
267.752	88.69
267.984	88.69
268.216	69.69
268.448	91.69
268.681	90.69
268.913	78.69
269.145	76.69
269.377	92.69
269.609	82.69
269.841	86.69
270.073	88.69
270.306	85.69
270.538	70.69
270.77	92.69
271.002	88.69
271.234	86.69
271.466	96.69
271.698	90.69
271.93	92.69
272.162	99.69
272.394	86.69
272.626	95.69
272.858	72.69
273.09	82.69
273.322	82.69
273.553	92.69
273.785	84.69
274.017	94.69
274.249	79.69
274.481	82.69
274.713	79.69
274.945	81.69
275.176	97.69
275.408	63.69
275.64	83.69
275.872	93.69
276.104	98.69
276.335	77.69
276.567	102.69
276.799	114.69
277.031	122.69
277.262	114.69
277.494	99.69
277.726	80.69
277.957	93.69
278.189	98.69
278.421	88.69
278.652	83.69
278.884	97.69
279.115	72.69
279.347	91.69
279.579	81.69
279.81	103.69
280.042	126.69
280.273	156.69
280.505	111.69
280.736	90.69
280.968	89.69
281.199	90.69
281.431	96.69
281.662	86.69
281.894	98.69
282.125	103.69
282.356	116.69
282.588	150.69
282.819	101.69
283.051	91.69
283.282	82.69
283.513	74.69
283.745	86.69
283.976	97.69
284.207	86.69
284.439	83.69
284.67	87.69
284.901	83.69
285.132	83.69
285.364	92.69
285.595	88.69
285.826	72.69
286.057	90.69
286.288	88.69
286.52	75.69
286.751	81.69
286.982	84.69
287.213	89.69
287.444	74.69
287.675	81.69
287.906	90.69
288.138	87.69
288.369	87.69
288.6	83.69
288.831	91.69
289.062	94.69
289.293	82.69
289.524	82.69
289.755	96.69
289.986	84.69
290.217	85.69
290.448	81.69
290.679	98.69
290.91	99.69
291.141	84.69
291.371	81.69
291.602	82.69
291.833	87.69
292.064	87.69
292.295	89.69
292.526	81.69
292.757	80.69
292.987	85.69
293.218	74.69
293.449	91.69
293.68	95.69
293.91	94.69
294.141	97.69
294.372	81.69
294.603	80.69
294.833	85.69
295.064	83.69
295.295	75.69
295.525	86.69
295.756	112.69
295.987	102.69
296.217	120.69
296.448	128.69
296.679	90.69
296.909	92.69
297.14	84.69
297.37	80.69
297.601	88.69
297.831	81.69
298.062	92.69
298.292	85.69
298.523	85.69
298.753	75.69
298.984	87.69
299.214	88.69
299.445	82.69
299.675	91.69
299.905	89.69
300.136	99.69
300.366	78.69
300.597	83.69
300.827	85.69
301.057	107.69
301.288	105.69
301.518	97.69
301.748	105.69
301.979	100.69
302.209	89.69
302.439	84.69
302.669	74.69
302.9	87.69
303.13	91.69
303.36	98.69
303.59	112.69
303.82	111.69
304.051	91.69
304.281	89.69
304.511	80.69
304.741	82.69
304.971	81.69
305.201	95.69
305.431	74.69
305.661	95.69
305.891	94.69
306.121	107.69
306.352	108.69
306.582	103.69
306.812	97.69
307.042	89.69
307.272	113.69
307.502	137.69
307.731	115.69
307.961	89.69
308.191	100.69
308.421	100.69
308.651	99.69
308.881	79.69
309.111	87.69
309.341	97.69
309.571	88.69
309.8	78.69
310.03	84.69
310.26	105.69
310.49	82.69
310.72	95.69
310.949	108.69
311.179	93.69
311.409	86.69
311.639	98.69
311.868	106.69
312.098	102.69
312.328	101.69
312.557	106.69
312.787	95.69
313.017	98.69
313.246	96.69
313.476	87.69
313.706	91.69
313.935	98.69
314.165	114.69
314.394	102.69
314.624	107.69
314.853	94.69
315.083	107.69
315.312	93.69
315.542	95.69
315.771	95.69
316.001	85.69
316.23	98.69
316.46	95.69
316.689	90.69
316.919	85.69
317.148	88.69
317.377	97.69
317.607	98.69
317.836	95.69
318.065	96.69
318.295	97.69
318.524	93.69
318.753	92.69
318.983	93.69
319.212	103.69
319.441	93.69
319.67	97.69
319.9	92.69
320.129	103.69
320.358	80.69
320.587	96.69
320.816	97.69
321.046	89.69
321.275	98.69
321.504	99.69
321.733	93.69
321.962	96.69
322.191	105.69
322.42	102.69
322.649	112.69
322.878	121.69
323.108	107.69
323.337	116.69
323.566	141.69
323.795	144.69
324.024	213.69
324.253	379.69
324.482	811.69
324.71	1669.69
324.939	2188.69
325.168	807.69
325.397	248.69
325.626	146.69
325.855	123.69
326.084	116.69
326.313	127.69
326.542	147.69
326.77	232.69
326.999	469.69
327.228	920.69
327.457	1704.69
327.686	1336.69
327.914	402.69
328.143	308.69
328.372	314.69
328.6	202.69
328.829	129.69
329.058	142.69
329.287	145.69
329.515	122.69
329.744	160.69
329.972	216.69
330.201	412.69
330.43	578.69
330.658	306.69
330.887	175.69
331.115	131.69
331.344	116.69
331.572	99.69
331.801	112.69
332.03	102.69
332.258	82.69
332.486	91.69
332.715	97.69
332.943	86.69
333.172	104.69
333.4	88.69
333.629	116.69
333.857	155.69
334.085	218.69
334.314	413.69
334.542	706.69
334.771	672.69
334.999	227.69
335.227	115.69
335.455	110.69
335.684	90.69
335.912	83.69
336.14	96.69
336.369	84.69
336.597	91.69
336.825	98.69
337.053	88.69
337.281	98.69
337.51	91.69
337.738	102.69
337.966	92.69
338.194	104.69
338.422	96.69
338.65	98.69
338.878	89.69
339.106	88.69
339.334	87.69
339.562	86.69
339.79	93.69
340.018	98.69
340.246	106.69
340.474	104.69
340.702	83.69
340.93	106.69
341.158	84.69
341.386	92.69
341.614	107.69
341.842	92.69
342.07	95.69
342.298	86.69
342.526	88.69
342.754	82.69
342.981	87.69
343.209	90.69
343.437	96.69
343.665	91.69
343.893	91.69
344.12	86.69
344.348	103.69
344.576	85.69
344.804	77.69
345.031	98.69
345.259	99.69
345.487	91.69
345.714	105.69
345.942	104.69
346.17	78.69
346.397	86.69
346.625	75.69
346.853	90.69
347.08	103.69
347.308	88.69
347.535	105.69
347.763	94.69
347.99	105.69
348.218	106.69
348.445	105.69
348.673	99.69
348.9	102.69
349.128	95.69
349.355	112.69
349.583	96.69
349.81	90.69
350.037	86.69
350.265	85.69
350.492	99.69
350.72	112.69
350.947	89.69
351.174	92.69
351.402	109.69
351.629	95.69
351.856	103.69
352.083	100.69
352.311	96.69
352.538	118.69
352.765	96.69
352.992	116.69
353.22	128.69
353.447	115.69
353.674	110.69
353.901	96.69
354.128	97.69
354.355	100.69
354.583	99.69
354.81	100.69
355.037	101.69
355.264	91.69
355.491	100.69
355.718	91.69
355.945	95.69
356.172	98.69
356.399	91.69
356.626	80.69
356.853	83.69
357.08	94.69
357.307	86.69
357.534	89.69
357.761	110.69
357.988	82.69
358.215	106.69
358.441	101.69
358.668	91.69
358.895	113.69
359.122	90.69
359.349	79.69
359.576	87.69
359.802	85.69
360.029	118.69
360.256	107.69
360.483	105.69
360.709	91.69
360.936	98.69
361.163	86.69
361.39	104.69
361.616	91.69
361.843	92.69
362.07	84.69
362.296	91.69
362.523	93.69
362.749	97.69
362.976	92.69
363.203	82.69
363.429	96.69
363.656	83.69
363.882	86.69
364.109	87.69
364.335	87.69
364.562	83.69
364.788	93.69
365.015	98.69
365.241	111.69
365.468	103.69
365.694	109.69
365.92	93.69
366.147	80.69
366.373	83.69
366.599	90.69
366.826	96.69
367.052	74.69
367.278	92.69
367.505	84.69
367.731	76.69
367.957	105.69
368.184	96.69
368.41	95.69
368.636	105.69
368.862	119.69
369.089	119.69
369.315	87.69
369.541	97.69
369.767	88.69
369.993	96.69
370.219	86.69
370.445	77.69
370.672	80.69
370.898	78.69
371.124	79.69
371.35	69.69
371.576	93.69
371.802	89.69
372.028	83.69
372.254	80.69
372.48	74.69
372.706	85.69
372.932	95.69
373.158	99.69
373.384	86.69
373.61	104.69
373.835	91.69
374.061	96.69
374.287	93.69
374.513	106.69
374.739	110.69
374.965	88.69
375.191	97.69
375.416	111.69
375.642	90.69
375.868	93.69
376.094	87.69
376.319	79.69
376.545	90.69
376.771	102.69
376.997	83.69
377.222	97.69
377.448	70.69
377.674	88.69
377.899	86.69
378.125	95.69
378.35	101.69
378.576	98.69
378.802	102.69
379.027	100.69
379.253	84.69
379.478	88.69
379.704	94.69
379.929	86.69
380.155	98.69
380.38	76.69
380.606	96.69
380.831	93.69
381.057	104.69
381.282	100.69
381.507	88.69
381.733	104.69
381.958	115.69
382.184	107.69
382.409	110.69
382.634	102.69
382.86	99.69
383.085	104.69
383.31	112.69
383.535	111.69
383.761	101.69
383.986	108.69
384.211	102.69
384.436	113.69
384.662	108.69
384.887	111.69
385.112	117.69
385.337	133.69
385.562	131.69
385.787	108.69
386.013	130.69
386.238	121.69
386.463	130.69
386.688	151.69
386.913	130.69
387.138	103.69
387.363	126.69
387.588	110.69
387.813	115.69
388.038	122.69
388.263	140.69
388.488	118.69
388.713	99.69
388.938	89.69
389.163	97.69
389.387	94.69
389.612	98.69
389.837	87.69
390.062	81.69
390.287	96.69
390.512	104.69
390.736	73.69
390.961	92.69
391.186	91.69
391.411	91.69
391.636	79.69
391.86	87.69
392.085	95.69
392.31	95.69
392.534	95.69
392.759	86.69
392.984	96.69
393.208	115.69
393.433	126.69
393.658	116.69
393.882	76.69
394.107	88.69
394.331	82.69
394.556	95.69
394.78	106.69
395.005	93.69
395.229	92.69
395.454	70.69
395.678	89.69
395.903	86.69
396.127	86.69
396.352	101.69
396.576	87.69
396.801	104.69
397.025	103.69
397.249	95.69
397.474	92.69
397.698	86.69
397.922	88.69
398.147	85.69
398.371	79.69
398.595	88.69
398.82	88.69
399.044	84.69
399.268	80.69
399.492	85.69
399.717	90.69
399.941	102.69
400.165	99.69
400.389	75.69
400.613	85.69
400.837	84.69
401.062	76.69
401.286	84.69
401.51	81.69
401.734	99.69
401.958	107.69
402.182	126.69
402.406	179.69
402.63	122.69
402.854	91.69
403.078	100.69
403.302	76.69
403.526	73.69
403.75	80.69
403.974	84.69
404.198	82.69
404.422	82.69
404.645	94.69
404.869	103.69
405.093	92.69
405.317	98.69
405.541	114.69
405.765	104.69
405.988	117.69
406.212	183.69
406.436	257.69
406.66	146.69
406.883	112.69
407.107	103.69
407.331	81.69
407.555	86.69
407.778	109.69
408.002	82.69
408.226	95.69
408.449	102.69
408.673	103.69
408.896	99.69
409.12	103.69
409.344	104.69
409.567	98.69
409.791	87.69
410.014	96.69
410.238	98.69
410.461	100.69
410.685	104.69
410.908	84.69
411.132	108.69
411.355	100.69
411.578	92.69
411.802	88.69
412.025	103.69
412.249	86.69
412.472	105.69
412.695	117.69
412.919	96.69
413.142	95.69
413.365	94.69
413.589	84.69
413.812	89.69
414.035	98.69
414.258	92.69
414.482	81.69
414.705	90.69
414.928	95.69
415.151	95.69
415.374	87.69
415.597	101.69
415.821	90.69
416.044	87.69
416.267	81.69
416.49	95.69
416.713	74.69
416.936	82.69
417.159	82.69
417.382	98.69
417.605	107.69
417.828	108.69
418.051	92.69
418.274	101.69
418.497	92.69
418.72	91.69
418.943	99.69
419.166	90.69
419.389	82.69
419.611	94.69
419.834	87.69
420.057	92.69
420.28	97.69
420.503	95.69
420.726	85.69
420.948	83.69
421.171	108.69
421.394	82.69
421.617	96.69
421.839	81.69
422.062	86.69
422.285	85.69
422.507	99.69
422.73	100.69
422.953	105.69
423.175	88.69
423.398	84.69
423.621	105.69
423.843	92.69
424.066	80.69
424.288	97.69
424.511	87.69
424.733	98.69
424.956	109.69
425.178	109.69
425.401	94.69
425.623	103.69
425.846	103.69
426.068	104.69
426.291	109.69
426.513	94.69
426.735	83.69
426.958	87.69
427.18	95.69
427.402	138.69
427.625	192.69
427.847	166.69
428.069	156.69
428.292	105.69
428.514	87.69
428.736	95.69
428.958	94.69
429.181	93.69
429.403	89.69
429.625	87.69
429.847	78.69
430.069	101.69
430.292	97.69
430.514	82.69
430.736	72.69
430.958	81.69
431.18	70.69
431.402	71.69
431.624	89.69
431.846	89.69
432.068	88.69
432.29	81.69
432.512	83.69
432.734	75.69
432.956	92.69
433.178	89.69
433.4	110.69
433.622	88.69
433.844	103.69
434.066	112.69
434.287	95.69
434.509	91.69
434.731	75.69
434.953	88.69
435.175	86.69
435.397	87.69
435.618	104.69
435.84	115.69
436.062	132.69
436.284	123.69
436.505	112.69
436.727	99.69
436.949	103.69
437.17	95.69
437.392	95.69
437.614	78.69
437.835	101.69
438.057	133.69
438.278	109.69
438.5	96.69
438.721	112.69
438.943	104.69
439.165	101.69
439.386	91.69
439.608	99.69
439.829	108.69
440.05	113.69
440.272	139.69
440.493	98.69
440.715	82.69
440.936	92.69
441.158	88.69
441.379	79.69
441.6	74.69
441.822	102.69
442.043	96.69
442.264	100.69
442.486	96.69
442.707	98.69
442.928	114.69
443.149	121.69
443.371	131.69
443.592	115.69
443.813	111.69
444.034	105.69
444.255	73.69
444.476	88.69
444.698	92.69
444.919	102.69
445.14	129.69
445.361	120.69
445.582	113.69
445.803	142.69
446.024	136.69
446.245	148.69
446.466	121.69
446.687	76.69
446.908	89.69
447.129	85.69
447.35	102.69
447.571	88.69
447.792	102.69
448.013	91.69
448.234	100.69
448.455	102.69
448.675	101.69
448.896	121.69
449.117	109.69
449.338	112.69
449.559	131.69
449.779	120.69
450	95.69
450.221	91.69
450.442	96.69
450.662	107.69
450.883	111.69
451.104	110.69
451.324	90.69
451.545	96.69
451.766	86.69
451.986	84.69
452.207	90.69
452.428	99.69
452.648	102.69
452.869	114.69
453.089	124.69
453.31	112.69
453.53	84.69
453.751	102.69
453.971	101.69
454.192	101.69
454.412	88.69
454.633	93.69
454.853	84.69
455.073	88.69
455.294	97.69
455.514	94.69
455.734	104.69
455.955	80.69
456.175	81.69
456.395	94.69
456.616	112.69
456.836	87.69
457.056	82.69
457.276	75.69
457.497	74.69
457.717	98.69
457.937	69.69
458.157	87.69
458.377	89.69
458.598	116.69
458.818	163.69
459.038	167.69
459.258	114.69
459.478	90.69
459.698	85.69
459.918	73.69
460.138	78.69
460.358	89.69
460.578	79.69
460.798	92.69
461.018	103.69
461.238	89.69
461.458	86.69
461.678	99.69
461.898	88.69
462.118	80.69
462.338	87.69
462.558	85.69
462.777	93.69
462.997	84.69
463.217	92.69
463.437	83.69
463.657	81.69
463.876	86.69
464.096	89.69
464.316	96.69
464.536	91.69
464.755	103.69
464.975	100.69
465.195	174.69
465.414	166.69
465.634	97.69
465.854	74.69
466.073	93.69
466.293	91.69
466.512	87.69
466.732	90.69
466.951	83.69
467.171	81.69
467.391	104.69
467.61	120.69
467.829	139.69
468.049	266.69
468.268	363.69
468.488	132.69
468.707	78.69
468.927	99.69
469.146	79.69
469.365	79.69
469.585	98.69
469.804	105.69
470.023	90.69
470.243	104.69
470.462	96.69
470.681	108.69
470.901	97.69
471.12	91.69
471.339	86.69
471.558	99.69
471.777	115.69
471.997	177.69
472.216	500.69
472.435	985.69
472.654	280.69
472.873	126.69
473.092	98.69
473.311	92.69
473.53	88.69
473.749	80.69
473.968	92.69
474.187	102.69
474.406	105.69
474.625	86.69
474.844	83.69
475.063	88.69
475.282	83.69
475.501	90.69
475.72	78.69
475.939	86.69
476.158	105.69
476.377	81.69
476.596	83.69
476.814	98.69
477.033	81.69
477.252	82.69
477.471	87.69
477.69	90.69
477.908	78.69
478.127	91.69
478.346	89.69
478.564	81.69
478.783	99.69
479.002	97.69
479.22	109.69
479.439	91.69
479.658	118.69
479.876	104.69
480.095	104.69
480.313	102.69
480.532	110.69
480.751	164.69
480.969	458.69
481.188	1663.69
481.406	999.69
481.624	209.69
481.843	106.69
482.061	92.69
482.28	94.69
482.498	88.69
482.717	97.69
482.935	87.69
483.153	84.69
483.372	86.69
483.59	76.69
483.808	97.69
484.027	94.69
484.245	94.69
484.463	90.69
484.681	94.69
484.9	98.69
485.118	95.69
485.336	98.69
485.554	97.69
485.772	99.69
485.99	96.69
486.209	104.69
486.427	104.69
486.645	126.69
486.863	118.69
487.081	104.69
487.299	93.69
487.517	101.69
487.735	100.69
487.953	90.69
488.171	92.69
488.389	89.69
488.607	85.69
488.825	92.69
489.043	94.69
489.261	92.69
489.479	81.69
489.696	91.69
489.914	84.69
490.132	83.69
490.35	104.69
490.568	87.69
490.786	94.69
491.003	88.69
491.221	80.69
491.439	81.69
491.657	91.69
491.874	80.69
492.092	85.69
492.31	100.69
492.527	90.69
492.745	91.69
492.963	93.69
493.18	92.69
493.398	91.69
493.615	97.69
493.833	85.69
494.05	99.69
494.268	97.69
494.485	84.69
494.703	88.69
494.92	80.69
495.138	90.69
495.355	91.69
495.573	84.69
495.79	84.69
496.008	97.69
496.225	88.69
496.442	74.69
496.66	92.69
496.877	91.69
497.094	98.69
497.312	87.69
497.529	91.69
497.746	89.69
497.963	83.69
498.181	93.69
498.398	90.69
498.615	104.69
498.832	96.69
499.049	86.69
499.267	99.69
499.484	96.69
499.701	98.69
499.918	93.69
500.135	76.69
500.352	92.69
500.569	88.69
500.786	113.69
501.003	105.69
501.22	92.69
501.437	92.69
501.654	100.69
501.871	108.69
502.088	92.69
502.305	80.69
502.522	79.69
502.739	80.69
502.956	84.69
503.172	79.69
503.389	108.69
503.606	121.69
503.823	108.69
504.04	97.69
504.256	105.69
504.473	91.69
504.69	87.69
504.907	106.69
505.123	80.69
505.34	95.69
505.557	110.69
505.773	90.69
505.99	80.69
506.207	82.69
506.423	81.69
506.64	74.69
506.856	97.69
507.073	89.69
507.289	97.69
507.506	97.69
507.722	122.69
507.939	116.69
508.155	91.69
508.372	95.69
508.588	92.69
508.805	98.69
509.021	92.69
509.238	103.69
509.454	95.69
509.67	100.69
509.887	100.69
510.103	120.69
510.319	214.69
510.536	742.69
510.752	2363.69
510.968	659.69
511.184	159.69
511.401	127.69
511.617	110.69
511.833	94.69
512.049	91.69
512.265	99.69
512.481	104.69
512.698	91.69
512.914	91.69
513.13	108.69
513.346	103.69
513.562	96.69
513.778	91.69
513.994	96.69
514.21	96.69
514.426	103.69
514.642	154.69
