Data from Circ_2001_H10_HRD10591_00041.txt Node
Date: Wed Jan 03 10:45:47 EST 2024
User: Yrep
Spectrometer: HR+D1059
Trigger mode: 1
Integration Time (sec): 1.000000E-1
Scans to average: 1
Electric dark correction enabled: true
Nonlinearity correction enabled: false
Boxcar width: 0
XAxis mode: Wavelengths
Number of Pixels in Spectrum: 2048
>>>>>Begin Spectral Data<<<<<
223.165	-17.62
223.4	-17.62
223.635	-17.62
223.869	-20.62
224.104	-22.62
224.338	-26.62
224.573	-22.62
224.808	-5.62
225.042	-7.62
225.277	-4.62
225.511	1.38
225.746	5.38
225.98	13.38
226.215	12.38
226.449	3.38
226.683	25.38
226.918	31.38
227.152	35.38
227.387	45.38
227.621	40.38
227.856	54.38
228.09	48.38
228.324	43.38
228.559	41.38
228.793	49.38
229.027	65.38
229.262	65.38
229.496	80.38
229.73	92.38
229.964	97.38
230.199	78.38
230.433	67.38
230.667	68.38
230.901	77.38
231.136	71.38
231.37	76.38
231.604	78.38
231.838	89.38
232.072	73.38
232.306	85.38
232.541	74.38
232.775	70.38
233.009	63.38
233.243	72.38
233.477	81.38
233.711	78.38
233.945	78.38
234.179	82.38
234.413	71.38
234.647	88.38
234.881	78.38
235.115	85.38
235.349	76.38
235.583	83.38
235.817	73.38
236.051	67.38
236.285	88.38
236.519	85.38
236.753	77.38
236.987	87.38
237.221	90.38
237.455	87.38
237.689	71.38
237.922	79.38
238.156	81.38
238.39	78.38
238.624	65.38
238.858	82.38
239.091	87.38
239.325	65.38
239.559	77.38
239.793	75.38
240.027	71.38
240.26	83.38
240.494	83.38
240.728	79.38
240.961	82.38
241.195	74.38
241.429	71.38
241.662	81.38
241.896	73.38
242.13	82.38
242.363	74.38
242.597	73.38
242.83	76.38
243.064	71.38
243.298	60.38
243.531	72.38
243.765	71.38
243.998	78.38
244.232	102.38
244.465	91.38
244.699	79.38
244.932	90.38
245.166	83.38
245.399	83.38
245.633	67.38
245.866	69.38
246.099	72.38
246.333	77.38
246.566	80.38
246.8	77.38
247.033	81.38
247.266	81.38
247.5	83.38
247.733	74.38
247.966	80.38
248.2	79.38
248.433	83.38
248.666	78.38
248.899	74.38
249.133	94.38
249.366	107.38
249.599	80.38
249.832	97.38
250.066	91.38
250.299	68.38
250.532	77.38
250.765	88.38
250.998	59.38
251.231	78.38
251.465	87.38
251.698	66.38
251.931	84.38
252.164	76.38
252.397	76.38
252.63	77.38
252.863	73.38
253.096	91.38
253.329	76.38
253.562	85.38
253.795	79.38
254.028	71.38
254.261	85.38
254.494	78.38
254.727	86.38
254.96	79.38
255.193	71.38
255.426	64.38
255.659	89.38
255.892	88.38
256.124	81.38
256.357	101.38
256.59	87.38
256.823	76.38
257.056	72.38
257.289	96.38
257.521	73.38
257.754	87.38
257.987	79.38
258.22	69.38
258.452	77.38
258.685	86.38
258.918	87.38
259.151	80.38
259.383	74.38
259.616	81.38
259.849	75.38
260.081	86.38
260.314	65.38
260.547	67.38
260.779	86.38
261.012	83.38
261.244	96.38
261.477	93.38
261.71	91.38
261.942	114.38
262.175	136.38
262.407	69.38
262.64	87.38
262.872	77.38
263.105	86.38
263.337	84.38
263.57	61.38
263.802	76.38
264.035	63.38
264.267	73.38
264.499	77.38
264.732	79.38
264.964	74.38
265.197	79.38
265.429	79.38
265.661	88.38
265.894	81.38
266.126	88.38
266.358	73.38
266.591	76.38
266.823	79.38
267.055	83.38
267.287	84.38
267.52	78.38
267.752	73.38
267.984	75.38
268.216	90.38
268.448	88.38
268.681	79.38
268.913	83.38
269.145	83.38
269.377	59.38
269.609	70.38
269.841	91.38
270.073	83.38
270.306	75.38
270.538	87.38
270.77	90.38
271.002	70.38
271.234	88.38
271.466	96.38
271.698	85.38
271.93	68.38
272.162	83.38
272.394	83.38
272.626	88.38
272.858	85.38
273.09	78.38
273.322	86.38
273.553	69.38
273.785	87.38
274.017	88.38
274.249	77.38
274.481	83.38
274.713	104.38
274.945	77.38
275.176	80.38
275.408	87.38
275.64	91.38
275.872	105.38
276.104	91.38
276.335	94.38
276.567	105.38
276.799	131.38
277.031	149.38
277.262	158.38
277.494	111.38
277.726	87.38
277.957	83.38
278.189	90.38
278.421	84.38
278.652	75.38
278.884	85.38
279.115	87.38
279.347	61.38
279.579	87.38
279.81	100.38
280.042	146.38
280.273	174.38
280.505	141.38
280.736	94.38
280.968	84.38
281.199	69.38
281.431	90.38
281.662	89.38
281.894	85.38
282.125	84.38
282.356	125.38
282.588	153.38
282.819	116.38
283.051	97.38
283.282	88.38
283.513	95.38
283.745	75.38
283.976	82.38
284.207	93.38
284.439	85.38
284.67	73.38
284.901	88.38
285.132	82.38
285.364	89.38
285.595	75.38
285.826	86.38
286.057	75.38
286.288	80.38
286.52	82.38
286.751	100.38
286.982	81.38
287.213	87.38
287.444	83.38
287.675	84.38
287.906	88.38
288.138	110.38
288.369	95.38
288.6	103.38
288.831	87.38
289.062	76.38
289.293	55.38
289.524	86.38
289.755	85.38
289.986	74.38
290.217	86.38
290.448	86.38
290.679	88.38
290.91	79.38
291.141	81.38
291.371	97.38
291.602	91.38
291.833	91.38
292.064	87.38
292.295	91.38
292.526	95.38
292.757	73.38
292.987	86.38
293.218	89.38
293.449	90.38
293.68	79.38
293.91	92.38
294.141	86.38
294.372	99.38
294.603	87.38
294.833	74.38
295.064	85.38
295.295	74.38
295.525	103.38
295.756	114.38
295.987	106.38
296.217	156.38
296.448	126.38
296.679	103.38
296.909	91.38
297.14	94.38
297.37	85.38
297.601	88.38
297.831	90.38
298.062	105.38
298.292	89.38
298.523	98.38
298.753	93.38
298.984	88.38
299.214	81.38
299.445	86.38
299.675	100.38
299.905	96.38
300.136	90.38
300.366	82.38
300.597	85.38
300.827	92.38
301.057	99.38
301.288	110.38
301.518	105.38
301.748	92.38
301.979	87.38
302.209	100.38
302.439	95.38
302.669	86.38
302.9	104.38
303.13	94.38
303.36	82.38
303.59	108.38
303.82	119.38
304.051	97.38
304.281	82.38
304.511	90.38
304.741	86.38
304.971	89.38
305.201	90.38
305.431	84.38
305.661	79.38
305.891	91.38
306.121	91.38
306.352	96.38
306.582	91.38
306.812	96.38
307.042	101.38
307.272	145.38
307.502	145.38
307.731	142.38
307.961	114.38
308.191	87.38
308.421	102.38
308.651	88.38
308.881	92.38
309.111	89.38
309.341	90.38
309.571	95.38
309.8	97.38
310.03	111.38
310.26	104.38
310.49	86.38
310.72	98.38
310.949	109.38
311.179	102.38
311.409	100.38
311.639	99.38
311.868	95.38
312.098	96.38
312.328	100.38
312.557	118.38
312.787	98.38
313.017	90.38
313.246	89.38
313.476	91.38
313.706	104.38
313.935	90.38
314.165	117.38
314.394	91.38
314.624	97.38
314.853	90.38
315.083	107.38
315.312	93.38
315.542	91.38
315.771	75.38
316.001	98.38
316.23	82.38
316.46	98.38
316.689	77.38
316.919	87.38
317.148	89.38
317.377	86.38
317.607	83.38
317.836	94.38
318.065	90.38
318.295	104.38
318.524	106.38
318.753	95.38
318.983	83.38
319.212	103.38
319.441	101.38
319.67	106.38
319.9	90.38
320.129	89.38
320.358	84.38
320.587	101.38
320.816	111.38
321.046	101.38
321.275	105.38
321.504	88.38
321.733	92.38
321.962	97.38
322.191	108.38
322.42	117.38
322.649	105.38
322.878	123.38
323.108	112.38
323.337	144.38
323.566	136.38
323.795	158.38
324.024	212.38
324.253	438.38
324.482	938.38
324.71	1863.38
324.939	2435.38
325.168	909.38
325.397	266.38
325.626	150.38
325.855	133.38
326.084	142.38
326.313	125.38
326.542	161.38
326.77	234.38
326.999	506.38
327.228	1015.38
327.457	1846.38
327.686	1481.38
327.914	484.38
328.143	390.38
328.372	453.38
328.6	261.38
328.829	164.38
329.058	157.38
329.287	171.38
329.515	147.38
329.744	189.38
329.972	324.38
330.201	647.38
330.43	918.38
330.658	425.38
330.887	199.38
331.115	145.38
331.344	113.38
331.572	122.38
331.801	112.38
332.03	99.38
332.258	113.38
332.486	113.38
332.715	96.38
332.943	93.38
333.172	114.38
333.4	121.38
333.629	141.38
333.857	196.38
334.085	301.38
334.314	591.38
334.542	1142.38
334.771	1058.38
334.999	301.38
335.227	137.38
335.455	108.38
335.684	113.38
335.912	102.38
336.14	97.38
336.369	101.38
336.597	110.38
336.825	114.38
337.053	88.38
337.281	87.38
337.51	88.38
337.738	90.38
337.966	98.38
338.194	101.38
338.422	103.38
338.65	102.38
338.878	81.38
339.106	85.38
339.334	93.38
339.562	95.38
339.79	80.38
340.018	89.38
340.246	90.38
340.474	98.38
340.702	103.38
340.93	90.38
341.158	88.38
341.386	101.38
341.614	101.38
341.842	96.38
342.07	87.38
342.298	85.38
342.526	83.38
342.754	95.38
342.981	104.38
343.209	81.38
343.437	100.38
343.665	93.38
343.893	87.38
344.12	93.38
344.348	103.38
344.576	98.38
344.804	79.38
345.031	90.38
345.259	96.38
345.487	95.38
345.714	79.38
345.942	93.38
346.17	99.38
346.397	93.38
346.625	80.38
346.853	107.38
347.08	89.38
347.308	96.38
347.535	105.38
347.763	95.38
347.99	106.38
348.218	105.38
348.445	115.38
348.673	94.38
348.9	105.38
349.128	93.38
349.355	98.38
349.583	103.38
349.81	86.38
350.037	91.38
350.265	87.38
350.492	92.38
350.72	89.38
350.947	96.38
351.174	119.38
351.402	117.38
351.629	103.38
351.856	105.38
352.083	110.38
352.311	113.38
352.538	105.38
352.765	110.38
352.992	112.38
353.22	101.38
353.447	115.38
353.674	97.38
353.901	94.38
354.128	92.38
354.355	92.38
354.583	99.38
354.81	91.38
355.037	77.38
355.264	95.38
355.491	98.38
355.718	99.38
355.945	95.38
356.172	99.38
356.399	91.38
356.626	74.38
356.853	97.38
357.08	91.38
357.307	89.38
357.534	100.38
357.761	90.38
357.988	95.38
358.215	103.38
358.441	103.38
358.668	88.38
358.895	90.38
359.122	104.38
359.349	87.38
359.576	93.38
359.802	102.38
360.029	110.38
360.256	128.38
360.483	99.38
360.709	88.38
360.936	93.38
361.163	89.38
361.39	91.38
361.616	104.38
361.843	95.38
362.07	82.38
362.296	85.38
362.523	96.38
362.749	89.38
362.976	81.38
363.203	90.38
363.429	83.38
363.656	99.38
363.882	72.38
364.109	74.38
364.335	94.38
364.562	82.38
364.788	84.38
365.015	102.38
365.241	101.38
365.468	98.38
365.694	104.38
365.92	100.38
366.147	77.38
366.373	86.38
366.599	82.38
366.826	86.38
367.052	70.38
367.278	85.38
367.505	92.38
367.731	84.38
367.957	83.38
368.184	96.38
368.41	101.38
368.636	110.38
368.862	101.38
369.089	105.38
369.315	94.38
369.541	97.38
369.767	105.38
369.993	82.38
370.219	90.38
370.445	89.38
370.672	87.38
370.898	82.38
371.124	88.38
371.35	85.38
371.576	87.38
371.802	71.38
372.028	85.38
372.254	80.38
372.48	72.38
372.706	102.38
372.932	85.38
373.158	92.38
373.384	96.38
373.61	89.38
373.835	88.38
374.061	87.38
374.287	94.38
374.513	95.38
374.739	89.38
374.965	79.38
375.191	105.38
375.416	87.38
375.642	71.38
375.868	85.38
376.094	94.38
376.319	70.38
376.545	72.38
376.771	97.38
376.997	89.38
377.222	85.38
377.448	93.38
377.674	89.38
377.899	95.38
378.125	95.38
378.35	93.38
378.576	85.38
378.802	74.38
379.027	79.38
379.253	98.38
379.478	87.38
379.704	85.38
379.929	93.38
380.155	95.38
380.38	105.38
380.606	103.38
380.831	83.38
381.057	91.38
381.282	82.38
381.507	95.38
381.733	89.38
381.958	90.38
382.184	85.38
382.409	103.38
382.634	90.38
382.86	101.38
383.085	95.38
383.31	93.38
383.535	99.38
383.761	87.38
383.986	105.38
384.211	101.38
384.436	105.38
384.662	92.38
384.887	101.38
385.112	97.38
385.337	100.38
385.562	95.38
385.787	115.38
386.013	108.38
386.238	123.38
386.463	109.38
386.688	102.38
386.913	84.38
387.138	80.38
387.363	104.38
387.588	85.38
387.813	101.38
388.038	92.38
388.263	109.38
388.488	124.38
388.713	99.38
388.938	90.38
389.163	98.38
389.387	106.38
389.612	101.38
389.837	88.38
390.062	94.38
390.287	85.38
390.512	89.38
390.736	79.38
390.961	87.38
391.186	95.38
391.411	92.38
391.636	99.38
391.86	87.38
392.085	88.38
392.31	78.38
392.534	81.38
392.759	85.38
392.984	89.38
393.208	94.38
393.433	96.38
393.658	84.38
393.882	85.38
394.107	74.38
394.331	79.38
394.556	86.38
394.78	99.38
395.005	99.38
395.229	79.38
395.454	77.38
395.678	86.38
395.903	86.38
396.127	79.38
396.352	78.38
396.576	69.38
396.801	80.38
397.025	91.38
397.249	98.38
397.474	91.38
397.698	75.38
397.922	82.38
398.147	93.38
398.371	81.38
398.595	77.38
398.82	70.38
399.044	86.38
399.268	79.38
399.492	97.38
399.717	82.38
399.941	87.38
400.165	88.38
400.389	82.38
400.613	96.38
400.837	83.38
401.062	101.38
401.286	97.38
401.51	107.38
401.734	92.38
401.958	107.38
402.182	124.38
402.406	164.38
402.63	139.38
402.854	100.38
403.078	91.38
403.302	84.38
403.526	92.38
403.75	86.38
403.974	88.38
404.198	96.38
404.422	96.38
404.645	89.38
404.869	97.38
405.093	114.38
405.317	128.38
405.541	108.38
405.765	106.38
405.988	120.38
406.212	193.38
406.436	265.38
406.66	182.38
406.883	104.38
407.107	98.38
407.331	91.38
407.555	105.38
407.778	99.38
408.002	88.38
408.226	86.38
408.449	85.38
408.673	88.38
408.896	87.38
409.12	100.38
409.344	90.38
409.567	83.38
409.791	83.38
410.014	91.38
410.238	83.38
410.461	88.38
410.685	107.38
410.908	86.38
411.132	97.38
411.355	99.38
411.578	91.38
411.802	98.38
412.025	89.38
412.249	95.38
412.472	112.38
412.695	101.38
412.919	101.38
413.142	100.38
413.365	91.38
413.589	93.38
413.812	96.38
414.035	93.38
414.258	88.38
414.482	81.38
414.705	86.38
414.928	106.38
415.151	88.38
415.374	91.38
415.597	86.38
415.821	79.38
416.044	85.38
416.267	90.38
416.49	89.38
416.713	90.38
416.936	90.38
417.159	90.38
417.382	88.38
417.605	102.38
417.828	97.38
418.051	96.38
418.274	82.38
418.497	83.38
418.72	92.38
418.943	94.38
419.166	74.38
419.389	81.38
419.611	70.38
419.834	79.38
420.057	77.38
420.28	77.38
420.503	86.38
420.726	91.38
420.948	90.38
421.171	95.38
421.394	94.38
421.617	88.38
421.839	86.38
422.062	76.38
422.285	79.38
422.507	87.38
422.73	105.38
422.953	91.38
423.175	74.38
423.398	85.38
423.621	89.38
423.843	83.38
424.066	85.38
424.288	79.38
424.511	84.38
424.733	105.38
424.956	101.38
425.178	104.38
425.401	90.38
425.623	111.38
425.846	84.38
426.068	93.38
426.291	91.38
426.513	82.38
426.735	88.38
426.958	105.38
427.18	116.38
427.402	138.38
427.625	199.38
427.847	189.38
428.069	173.38
428.292	105.38
428.514	88.38
428.736	94.38
428.958	90.38
429.181	86.38
429.403	85.38
429.625	91.38
429.847	95.38
430.069	106.38
430.292	93.38
430.514	77.38
430.736	96.38
430.958	98.38
431.18	83.38
431.402	89.38
431.624	74.38
431.846	86.38
432.068	93.38
432.29	71.38
432.512	79.38
432.734	89.38
432.956	99.38
433.178	83.38
433.4	94.38
433.622	85.38
433.844	95.38
434.066	91.38
434.287	106.38
434.509	95.38
434.731	88.38
434.953	91.38
435.175	75.38
435.397	86.38
435.618	90.38
435.84	104.38
436.062	126.38
436.284	118.38
436.505	104.38
436.727	103.38
436.949	90.38
437.17	95.38
437.392	80.38
437.614	86.38
437.835	119.38
438.057	126.38
438.278	115.38
438.5	103.38
438.721	123.38
438.943	118.38
439.165	90.38
439.386	79.38
439.608	87.38
439.829	107.38
440.05	142.38
440.272	164.38
440.493	104.38
440.715	82.38
440.936	81.38
441.158	88.38
441.379	74.38
441.6	91.38
441.822	110.38
442.043	89.38
442.264	103.38
442.486	103.38
442.707	94.38
442.928	105.38
443.149	163.38
443.371	153.38
443.592	123.38
443.813	129.38
444.034	109.38
444.255	96.38
444.476	83.38
444.698	74.38
444.919	90.38
445.14	148.38
445.361	128.38
445.582	119.38
445.803	165.38
446.024	160.38
446.245	141.38
446.466	127.38
446.687	83.38
446.908	103.38
447.129	106.38
447.35	90.38
447.571	89.38
447.792	101.38
448.013	92.38
448.234	109.38
448.455	102.38
448.675	102.38
448.896	127.38
449.117	105.38
449.338	114.38
449.559	134.38
449.779	148.38
450	85.38
450.221	83.38
450.442	88.38
450.662	101.38
450.883	112.38
451.104	119.38
451.324	91.38
451.545	73.38
451.766	85.38
451.986	103.38
452.207	82.38
452.428	91.38
452.648	111.38
452.869	111.38
453.089	120.38
453.31	130.38
453.53	88.38
453.751	94.38
453.971	120.38
454.192	108.38
454.412	104.38
454.633	102.38
454.853	97.38
455.073	87.38
455.294	101.38
455.514	95.38
455.734	92.38
455.955	80.38
456.175	73.38
456.395	96.38
456.616	97.38
456.836	90.38
457.056	100.38
457.276	97.38
457.497	86.38
457.717	82.38
457.937	97.38
458.157	96.38
458.377	102.38
458.598	115.38
458.818	189.38
459.038	208.38
459.258	142.38
459.478	99.38
459.698	92.38
459.918	97.38
460.138	82.38
460.358	88.38
460.578	76.38
460.798	94.38
461.018	90.38
461.238	89.38
461.458	88.38
461.678	81.38
461.898	86.38
462.118	82.38
462.338	96.38
462.558	95.38
462.777	93.38
462.997	77.38
463.217	91.38
463.437	89.38
463.657	94.38
463.876	90.38
464.096	95.38
464.316	101.38
464.536	93.38
464.755	99.38
464.975	113.38
465.195	197.38
465.414	195.38
465.634	105.38
465.854	91.38
466.073	88.38
466.293	102.38
466.512	95.38
466.732	90.38
466.951	86.38
467.171	104.38
467.391	110.38
467.61	135.38
467.829	173.38
468.049	385.38
468.268	553.38
468.488	168.38
468.707	105.38
468.927	87.38
469.146	81.38
469.365	90.38
469.585	89.38
469.804	88.38
470.023	101.38
470.243	102.38
470.462	119.38
470.681	136.38
470.901	98.38
471.12	93.38
471.339	93.38
471.558	100.38
471.777	148.38
471.997	227.38
472.216	737.38
472.435	1553.38
472.654	401.38
472.873	131.38
473.092	94.38
473.311	98.38
473.53	82.38
473.749	87.38
473.968	95.38
474.187	108.38
474.406	97.38
474.625	97.38
474.844	90.38
475.063	84.38
475.282	98.38
475.501	95.38
475.72	89.38
475.939	87.38
476.158	90.38
476.377	94.38
476.596	84.38
476.814	94.38
477.033	92.38
477.252	93.38
477.471	91.38
477.69	80.38
477.908	91.38
478.127	91.38
478.346	92.38
478.564	95.38
478.783	89.38
479.002	94.38
479.22	93.38
479.439	93.38
479.658	128.38
479.876	107.38
480.095	111.38
480.313	111.38
480.532	129.38
480.751	224.38
480.969	702.38
481.188	2725.38
481.406	1617.38
481.624	266.38
481.843	115.38
482.061	95.38
482.28	93.38
482.498	107.38
482.717	97.38
482.935	96.38
483.153	83.38
483.372	95.38
483.59	86.38
483.808	85.38
484.027	104.38
484.245	95.38
484.463	96.38
484.681	94.38
484.9	92.38
485.118	80.38
485.336	101.38
485.554	97.38
485.772	106.38
485.99	110.38
486.209	105.38
486.427	100.38
486.645	134.38
486.863	114.38
487.081	100.38
487.299	88.38
487.517	89.38
487.735	90.38
487.953	95.38
488.171	77.38
488.389	96.38
488.607	115.38
488.825	88.38
489.043	87.38
489.261	85.38
489.479	84.38
489.696	88.38
489.914	71.38
490.132	84.38
490.35	84.38
490.568	85.38
490.786	82.38
491.003	93.38
491.221	94.38
491.439	88.38
491.657	85.38
491.874	101.38
492.092	86.38
492.31	87.38
492.527	90.38
492.745	83.38
492.963	90.38
493.18	77.38
493.398	105.38
493.615	98.38
493.833	101.38
494.05	91.38
494.268	96.38
494.485	95.38
494.703	102.38
494.92	90.38
495.138	74.38
495.355	93.38
495.573	83.38
495.79	85.38
496.008	86.38
496.225	78.38
496.442	86.38
496.66	78.38
496.877	99.38
497.094	97.38
497.312	79.38
497.529	84.38
497.746	101.38
497.963	96.38
498.181	77.38
498.398	100.38
498.615	118.38
498.832	97.38
499.049	88.38
499.267	100.38
499.484	93.38
499.701	103.38
499.918	103.38
500.135	94.38
500.352	94.38
500.569	102.38
500.786	102.38
501.003	92.38
501.22	95.38
501.437	85.38
501.654	89.38
501.871	105.38
502.088	98.38
502.305	87.38
502.522	82.38
502.739	82.38
502.956	89.38
503.172	91.38
503.389	87.38
503.606	114.38
503.823	100.38
504.04	97.38
504.256	91.38
504.473	90.38
504.69	78.38
504.907	81.38
505.123	99.38
505.34	97.38
505.557	76.38
505.773	81.38
505.99	85.38
506.207	94.38
506.423	101.38
506.64	95.38
506.856	92.38
507.073	96.38
507.289	107.38
507.506	89.38
507.722	117.38
507.939	121.38
508.155	105.38
508.372	86.38
508.588	97.38
508.805	103.38
509.021	94.38
509.238	94.38
509.454	99.38
509.67	105.38
509.887	104.38
510.103	125.38
510.319	229.38
510.536	824.38
510.752	2751.38
510.968	760.38
511.184	152.38
511.401	107.38
511.617	102.38
511.833	100.38
512.049	94.38
512.265	87.38
512.481	82.38
512.698	95.38
512.914	77.38
513.13	86.38
513.346	94.38
513.562	89.38
513.778	103.38
513.994	101.38
514.21	107.38
514.426	135.38
514.642	141.38
