Data from Circ_2001_H10_HRD10591_00048.txt Node
Date: Wed Jan 03 10:45:48 EST 2024
User: Yrep
Spectrometer: HR+D1059
Trigger mode: 1
Integration Time (sec): 1.000000E-1
Scans to average: 1
Electric dark correction enabled: true
Nonlinearity correction enabled: false
Boxcar width: 0
XAxis mode: Wavelengths
Number of Pixels in Spectrum: 2048
>>>>>Begin Spectral Data<<<<<
223.165	-18
223.4	-18
223.635	-18
223.869	-15
224.104	-27
224.338	-12
224.573	-28
224.808	-26
225.042	-2
225.277	-5
225.511	8
225.746	15
225.98	5
226.215	3
226.449	21
226.683	28
226.918	28
227.152	25
227.387	26
227.621	52
227.856	45
228.09	50
228.324	65
228.559	73
228.793	163
229.027	432
229.262	509
229.496	568
229.73	759
229.964	770
230.199	536
230.433	475
230.667	480
230.901	442
231.136	445
231.37	456
231.604	461
231.838	482
232.072	435
232.306	477
232.541	472
232.775	451
233.009	466
233.243	491
233.477	480
233.711	487
233.945	480
234.179	515
234.413	511
234.647	500
234.881	521
235.115	544
235.349	544
235.583	567
235.817	608
236.051	626
236.285	609
236.519	607
236.753	685
236.987	898
237.221	1336
237.455	1417
237.689	807
237.922	697
238.156	680
238.39	669
238.624	654
238.858	669
239.091	648
239.325	677
239.559	721
239.793	721
240.027	778
240.26	903
240.494	933
240.728	935
240.961	877
241.195	817
241.429	774
241.662	808
241.896	821
242.13	811
242.363	806
242.597	856
242.83	883
243.064	854
243.298	858
243.531	869
243.765	864
243.998	887
244.232	940
244.465	933
244.699	966
244.932	960
245.166	936
245.399	944
245.633	948
245.866	958
246.099	972
246.333	1004
246.566	1030
246.8	1029
247.033	1074
247.266	1088
247.5	1142
247.733	1182
247.966	1218
248.2	1206
248.433	1228
248.666	1282
248.899	1373
249.133	1502
249.366	1542
249.599	1484
249.832	1449
250.066	1635
250.299	2085
250.532	2756
250.765	2597
250.998	2235
251.231	1871
251.465	1668
251.698	1590
251.931	1514
252.164	1499
252.397	1532
252.63	1547
252.863	1618
253.096	1700
253.329	1751
253.562	1677
253.795	1625
254.028	1635
254.261	1732
254.494	1904
254.727	2171
254.96	2229
255.193	2139
255.426	2240
255.659	2593
255.892	3752
256.124	4793
256.357	3956
256.59	2921
256.823	2356
257.056	2079
257.289	1963
257.521	1887
257.754	1823
257.987	1756
258.22	1764
258.452	1749
258.685	1728
258.918	1744
259.151	1743
259.383	1799
259.616	1802
259.849	1843
260.081	1999
260.314	2110
260.547	1968
260.779	1929
261.012	1906
261.244	1857
261.477	1788
261.71	1833
261.942	1846
262.175	1912
262.407	1811
262.64	1728
262.872	1746
263.105	1748
263.337	1730
263.57	1743
263.802	1750
264.035	1756
264.267	1795
264.499	1788
264.732	1756
264.964	1827
265.197	1827
265.429	1819
265.661	1782
265.894	1847
266.126	1888
266.358	1871
266.591	1853
266.823	1957
267.055	1949
267.287	1957
267.52	1951
267.752	1975
267.984	1956
268.216	1970
268.448	2028
268.681	2127
268.913	2133
269.145	2334
269.377	2409
269.609	2293
269.841	2259
270.073	2391
270.306	2596
270.538	2737
270.77	2530
271.002	2485
271.234	2468
271.466	2612
271.698	2701
271.93	2666
272.162	2704
272.394	2641
272.626	2494
272.858	2402
273.09	2326
273.322	2378
273.553	2368
273.785	2357
274.017	2352
274.249	2366
274.481	2432
274.713	2427
274.945	2455
275.176	2517
275.408	2499
275.64	2520
275.872	2537
276.104	2628
276.335	2621
276.567	2747
276.799	2967
277.031	3216
277.262	3379
277.494	3218
277.726	2934
277.957	2807
278.189	2745
278.421	2687
278.652	2653
278.884	2646
279.115	2690
279.347	2689
279.579	2765
279.81	2900
280.042	3026
280.273	3267
280.505	3138
280.736	2922
280.968	2841
281.199	2756
281.431	2766
281.662	2772
281.894	2741
282.125	2743
282.356	2962
282.588	3056
282.819	2893
283.051	2742
283.282	2740
283.513	2728
283.745	2753
283.976	2796
284.207	2804
284.439	2747
284.67	2827
284.901	2803
285.132	2824
285.364	2808
285.595	2835
285.826	2790
286.057	2789
286.288	2847
286.52	2889
286.751	2925
286.982	2904
287.213	2878
287.444	2932
287.675	2974
287.906	3038
288.138	3137
288.369	3011
288.6	3016
288.831	3008
289.062	3045
289.293	3009
289.524	3016
289.755	2974
289.986	2997
290.217	2955
290.448	2980
290.679	2994
290.91	2975
291.141	3006
291.371	2954
291.602	3009
291.833	2941
292.064	3017
292.295	2946
292.526	2966
292.757	2942
292.987	2907
293.218	2945
293.449	2964
293.68	2984
293.91	2943
294.141	2968
294.372	3000
294.603	2958
294.833	3020
295.064	2995
295.295	3042
295.525	3031
295.756	3112
295.987	3164
296.217	3374
296.448	3244
296.679	3071
296.909	3081
297.14	3109
297.37	3140
297.601	3151
297.831	3215
298.062	3148
298.292	3199
298.523	3243
298.753	3204
298.984	3200
299.214	3181
299.445	3228
299.675	3263
299.905	3310
300.136	3271
300.366	3296
300.597	3312
300.827	3366
301.057	3508
301.288	3554
301.518	3468
301.748	3497
301.979	3591
302.209	3564
302.439	3576
302.669	3484
302.9	3423
303.13	3436
303.36	3522
303.59	3628
303.82	3698
304.051	3647
304.281	3512
304.511	3440
304.741	3412
304.971	3425
305.201	3370
305.431	3363
305.661	3447
305.891	3411
306.121	3398
306.352	3510
306.582	3507
306.812	3488
307.042	3564
307.272	3638
307.502	3724
307.731	3708
307.961	3630
308.191	3444
308.421	3443
308.651	3479
308.881	3542
309.111	3549
309.341	3577
309.571	3640
309.8	3700
310.03	3804
310.26	3722
310.49	3728
310.72	3935
310.949	4029
311.179	3891
311.409	3805
311.639	3839
311.868	3851
312.098	3857
312.328	4011
312.557	4101
312.787	4158
313.017	4083
313.246	3932
313.476	3914
313.706	3917
313.935	4059
314.165	4161
314.394	4193
314.624	4025
314.853	3987
315.083	3926
315.312	3859
315.542	3880
315.771	3861
316.001	3845
316.23	3848
316.46	3842
316.689	3876
316.919	3995
317.148	4006
317.377	4024
317.607	3946
317.836	3928
318.065	3893
318.295	3920
318.524	3942
318.753	3914
318.983	3913
319.212	3901
319.441	4044
319.67	4031
319.9	3914
320.129	3928
320.358	3981
320.587	4024
320.816	4030
321.046	4089
321.275	4084
321.504	4079
321.733	4111
321.962	4190
322.191	4355
322.42	4417
322.649	4545
322.878	4616
323.108	4662
323.337	4957
323.566	5150
323.795	5496
324.024	6078
324.253	8036
324.482	11974
324.71	15609
324.939	15609
325.168	13455
325.397	6929
325.626	5727
325.855	5326
326.084	5307
326.313	5374
326.542	5551
326.77	6379
326.999	8030
327.228	11738
327.457	15200
327.686	14556
327.914	9520
328.143	9318
328.372	9821
328.6	8005
328.829	7053
329.058	7158
329.287	7248
329.515	7258
329.744	8195
329.972	10497
330.201	13413
330.43	14296
330.658	10819
330.887	8502
331.115	7221
331.344	6428
331.572	6095
331.801	6200
332.03	6174
332.258	6017
332.486	6152
332.715	6302
332.943	6633
333.172	6923
333.4	7501
333.629	8151
333.857	9493
334.085	11792
334.314	14501
334.542	15609
334.771	15609
334.999	10475
335.227	7992
335.455	7020
335.684	6544
335.912	6179
336.14	5926
336.369	5695
336.597	5821
336.825	5585
337.053	5399
337.281	5364
337.51	5259
337.738	5166
337.966	5206
338.194	5123
338.422	5044
338.65	4934
338.878	4890
339.106	4823
339.334	4879
339.562	4751
339.79	4745
340.018	4671
340.246	4677
340.474	4709
340.702	4716
340.93	4706
341.158	4691
341.386	4653
341.614	4717
341.842	4585
342.07	4567
342.298	4540
342.526	4493
342.754	4527
342.981	4487
343.209	4663
343.437	4843
343.665	5124
343.893	5249
344.12	5342
344.348	5106
344.576	4951
344.804	4959
345.031	4823
345.259	4875
345.487	4694
345.714	4541
345.942	4475
346.17	4383
346.397	4375
346.625	4335
346.853	4333
347.08	4371
347.308	4438
347.535	4563
347.763	4605
347.99	4482
348.218	4554
348.445	4600
348.673	4407
348.9	4365
349.128	4270
349.355	4226
349.583	4250
349.81	4244
350.037	4224
350.265	4232
350.492	4240
350.72	4265
350.947	4287
351.174	4412
351.402	4420
351.629	4355
351.856	4414
352.083	4466
352.311	4464
352.538	4515
352.765	4462
352.992	4320
353.22	4344
353.447	4295
353.674	4216
353.901	4128
354.128	4173
354.355	4115
354.583	4110
354.81	4142
355.037	4129
355.264	4109
355.491	4071
355.718	4089
355.945	4085
356.172	4115
356.399	4083
356.626	4088
356.853	4140
357.08	4065
357.307	4129
357.534	4087
357.761	4123
357.988	4153
358.215	4075
358.441	4089
358.668	4139
358.895	4170
359.122	4239
359.349	4327
359.576	4414
359.802	4677
360.029	4833
360.256	4862
360.483	4616
360.709	4338
360.936	4334
361.163	4403
361.39	4373
361.616	4446
361.843	4337
362.07	4350
362.296	4427
362.523	4303
362.749	4348
362.976	4278
363.203	4177
363.429	4224
363.656	4287
363.882	4272
364.109	4228
364.335	4197
364.562	4226
364.788	4204
365.015	4207
365.241	4191
365.468	4296
365.694	4272
365.92	4299
366.147	4219
366.373	4221
366.599	4156
366.826	4216
367.052	4120
367.278	4261
367.505	4201
367.731	4219
367.957	4235
368.184	4275
368.41	4332
368.636	4446
368.862	4431
369.089	4291
369.315	4277
369.541	4256
369.767	4333
369.993	4359
370.219	4348
370.445	4357
370.672	4377
370.898	4392
371.124	4446
371.35	4463
371.576	4445
371.802	4443
372.028	4417
372.254	4460
372.48	4479
372.706	4573
372.932	4614
373.158	4533
373.384	4491
373.61	4460
373.835	4456
374.061	4451
374.287	4557
374.513	4519
374.739	4706
374.965	4811
375.191	4748
375.416	4740
375.642	4664
375.868	4624
376.094	4578
376.319	4534
376.545	4487
376.771	4480
376.997	4449
377.222	4448
377.448	4372
377.674	4395
377.899	4388
378.125	4338
378.35	4369
378.576	4360
378.802	4352
379.027	4332
379.253	4393
379.478	4309
379.704	4323
379.929	4422
380.155	4442
380.38	4408
380.606	4460
380.831	4431
381.057	4480
381.282	4423
381.507	4479
381.733	4515
381.958	4492
382.184	4561
382.409	4579
382.634	4681
382.86	4735
383.085	4777
383.31	4804
383.535	4839
383.761	4839
383.986	4945
384.211	5055
384.436	5123
384.662	5216
384.887	5333
385.112	5147
385.337	5264
385.562	5305
385.787	5388
386.013	5391
386.238	5442
386.463	5389
386.688	5360
386.913	5250
387.138	5279
387.363	5227
387.588	5157
387.813	5223
388.038	5173
388.263	5211
388.488	5232
388.713	5277
388.938	5247
389.163	5130
389.387	5216
389.612	5110
389.837	5139
390.062	5174
390.287	5132
390.512	5177
390.736	5213
390.961	5341
391.186	5455
391.411	5523
391.636	5612
391.86	5810
392.085	5885
392.31	5713
392.534	5632
392.759	5491
392.984	5434
393.208	5436
393.433	5472
393.658	5419
393.882	5427
394.107	5505
394.331	5515
394.556	5504
394.78	5604
395.005	5622
395.229	5588
395.454	5783
395.678	5909
395.903	5808
396.127	5902
396.352	5780
396.576	5663
396.801	5567
397.025	5645
397.249	5834
397.474	5923
397.698	5929
397.922	6012
398.147	6210
398.371	6168
398.595	6383
398.82	6704
399.044	7259
399.268	8001
399.492	8995
399.717	9566
399.941	9362
400.165	8792
400.389	8049
400.613	7245
400.837	6912
401.062	6843
401.286	6709
401.51	6654
401.734	6565
401.958	6782
402.182	6883
402.406	6973
402.63	7059
402.854	7144
403.078	7249
403.302	7287
403.526	7479
403.75	7457
403.974	7600
404.198	7678
404.422	7863
404.645	7923
404.869	8130
405.093	8845
405.317	9229
405.541	9145
405.765	8291
405.988	7835
406.212	7903
406.436	7976
406.66	8054
406.883	7870
407.107	8482
407.331	8929
407.555	9407
407.778	9033
408.002	8404
408.226	8012
408.449	7896
408.673	7766
408.896	7922
409.12	8005
409.344	7567
409.567	7265
409.791	7353
410.014	7161
410.238	7114
410.461	7196
410.685	7249
410.908	7309
411.132	7505
411.355	7487
411.578	7209
411.802	7099
412.025	7334
412.249	7897
412.472	8587
412.695	9061
412.919	8407
413.142	7874
413.365	7499
413.589	7190
413.812	6986
414.035	6795
414.258	6755
414.482	6778
414.705	6826
414.928	6692
415.151	6696
415.374	6741
415.597	6607
415.821	6476
416.044	6589
416.267	6518
416.49	6360
416.713	6439
416.936	6597
417.159	6519
417.382	6745
417.605	6856
417.828	6961
418.051	6898
418.274	6674
418.497	6535
418.72	6703
418.943	6640
419.166	7133
419.389	7585
419.611	7573
419.834	7630
420.057	7653
420.28	7906
420.503	7805
420.726	7428
420.948	7321
421.171	7520
421.394	7313
421.617	6848
421.839	6810
422.062	6830
422.285	6942
422.507	7469
422.73	8061
422.953	7480
423.175	7096
423.398	7185
423.621	7126
423.843	7368
424.066	7186
424.288	7127
424.511	7332
424.733	7809
424.956	8216
425.178	7726
425.401	7932
425.623	7720
425.846	6779
426.068	6656
426.291	6591
426.513	6682
426.735	6735
426.958	7221
427.18	8112
427.402	9211
427.625	9671
427.847	9001
428.069	8720
428.292	7332
428.514	6505
428.736	6249
428.958	6190
429.181	5968
429.403	6010
429.625	6090
429.847	6369
430.069	6881
430.292	6359
430.514	5909
430.736	5964
430.958	5776
431.18	5734
431.402	5810
431.624	5720
431.846	5825
432.068	5827
432.29	5984
432.512	5771
432.734	5856
432.956	5803
433.178	5906
433.4	5933
433.622	5779
433.844	5837
434.066	5819
434.287	5938
434.509	6145
434.731	6394
434.953	6466
435.175	6566
435.397	6672
435.618	6619
435.84	6992
436.062	7779
436.284	7701
436.505	6503
436.727	6190
436.949	5989
437.17	5877
437.392	5855
437.614	6091
437.835	6383
438.057	7340
438.278	7935
438.5	7815
438.721	8629
438.943	7480
439.165	6321
439.386	6221
439.608	6283
439.829	6399
440.05	6798
440.272	7165
440.493	6443
440.715	6150
440.936	6085
441.158	6148
441.379	6337
441.6	6612
441.822	6890
442.043	7260
442.264	7949
442.486	7559
442.707	6881
442.928	6765
443.149	7000
443.371	7191
443.592	7644
443.813	8589
444.034	8487
444.255	7443
444.476	7303
444.698	7471
444.919	7598
445.14	7432
445.361	7331
445.582	7469
445.803	8093
446.024	8613
446.245	8240
446.466	7467
446.687	6392
446.908	6059
447.129	5815
447.35	5699
447.571	5723
447.792	5486
448.013	5684
448.234	5879
448.455	6479
448.675	7683
448.896	8090
449.117	6640
449.338	6864
449.559	8181
449.779	8339
450	6372
450.221	5685
450.442	5527
450.662	5515
450.883	5644
451.104	5732
451.324	5561
451.545	5423
451.766	5256
451.986	5155
452.207	5112
452.428	5081
452.648	5148
452.869	5172
453.089	5213
453.31	5323
453.53	5117
453.751	5093
453.971	5123
454.192	5345
454.412	5118
454.633	5001
454.853	4983
455.073	5019
455.294	5350
455.514	5830
455.734	5350
455.955	4901
456.175	4790
456.395	4714
456.616	4744
456.836	4781
457.056	4735
457.276	4717
457.497	4899
457.717	4812
457.937	4929
458.157	4991
458.377	5076
458.598	5497
458.818	6245
459.038	6990
459.258	6772
459.478	5974
459.698	5874
459.918	5938
460.138	6168
460.358	6384
460.578	6361
460.798	6464
461.018	6425
461.238	6312
461.458	6353
461.678	6242
461.898	6484
462.118	6505
462.338	6813
462.558	7000
462.777	7211
462.997	7787
463.217	8263
463.437	7933
463.657	7419
463.876	7321
464.096	7350
464.316	7255
464.536	7438
464.755	7132
464.975	7091
465.195	7473
465.414	7488
465.634	6440
465.854	6083
466.073	5833
466.293	5624
466.512	5510
466.732	5477
466.951	5427
467.171	5435
467.391	5693
467.61	5766
467.829	5905
468.049	7101
468.268	8334
468.488	6593
468.707	5830
468.927	5523
469.146	5374
469.365	5453
469.585	5508
469.804	5614
470.023	5798
470.243	5727
470.462	5869
470.681	5966
470.901	5855
471.12	5721
471.339	5719
471.558	5790
471.777	5980
471.997	6542
472.216	9415
472.435	13919
472.654	10276
472.873	7451
473.092	6560
473.311	6190
473.53	5965
473.749	5916
473.968	6358
474.187	7199
474.406	6645
474.625	5741
474.844	5482
475.063	5406
475.282	5420
475.501	5483
475.72	5515
475.939	5469
476.158	5485
476.377	5529
476.596	5491
476.814	5707
477.033	5698
477.252	5859
477.471	5847
477.69	6041
477.908	6045
478.127	6285
478.346	6250
478.564	6509
478.783	6523
479.002	6740
479.22	6699
479.439	6873
479.658	7101
479.876	7147
480.095	7364
480.313	7989
480.532	8116
480.751	8619
480.969	11454
481.188	15609
481.406	15609
481.624	13098
481.843	9712
482.061	8428
482.28	7893
482.498	7380
482.717	7224
482.935	7066
483.153	6864
483.372	6743
483.59	6704
483.808	6653
484.027	6586
484.245	6595
484.463	6636
484.681	6650
484.9	6684
485.118	6717
485.336	6693
485.554	6774
485.772	6859
485.99	6796
486.209	6803
486.427	6928
486.645	6988
486.863	7019
487.081	6998
487.299	6961
487.517	6965
487.735	6914
487.953	6921
488.171	6855
488.389	6920
488.607	6991
488.825	6963
489.043	7079
489.261	7201
489.479	7199
489.696	7300
489.914	7457
490.132	7635
490.35	7669
490.568	7922
490.786	8149
491.003	8437
491.221	8865
491.439	9208
491.657	9351
491.874	9453
492.092	9591
492.31	9755
492.527	9922
492.745	10273
492.963	10156
493.18	10026
493.398	9797
493.615	9719
493.833	9539
494.05	9368
494.268	9172
494.485	9011
494.703	8908
494.92	8823
495.138	8669
495.355	8657
495.573	8560
495.79	8565
496.008	8505
496.225	8411
496.442	8402
496.66	8377
496.877	8372
497.094	8448
497.312	8549
497.529	8665
497.746	8790
497.963	9071
498.181	9400
498.398	9611
498.615	9887
498.832	10518
499.049	10851
499.267	11401
499.484	12249
499.701	12968
499.918	13701
500.135	14409
500.352	15071
500.569	15277
500.786	15263
501.003	14831
501.22	14163
501.437	13348
501.654	12545
501.871	11945
502.088	11026
502.305	10391
502.522	10009
502.739	9635
502.956	9217
503.172	8872
503.389	8561
503.606	8465
503.823	8409
504.04	8384
504.256	8382
504.473	8581
504.69	8447
504.907	8239
505.123	7901
505.34	7679
505.557	7480
505.773	7292
505.99	7307
506.207	7184
506.423	7100
506.64	7035
506.856	6898
507.073	6862
507.289	6801
507.506	6792
507.722	6886
507.939	6923
508.155	6669
508.372	6597
508.588	6454
508.805	6443
509.021	6492
509.238	6674
509.454	6652
509.67	6528
509.887	6341
510.103	6347
510.319	6424
510.536	7904
510.752	11959
510.968	7820
511.184	6422
511.401	6601
511.617	6886
511.833	7560
512.049	7577
512.265	7084
512.481	6727
512.698	6464
512.914	6391
513.13	6228
513.346	6268
513.562	6207
513.778	6177
513.994	6287
514.21	6359
514.426	6525
514.642	6925
514.858	7096
515.074	7476
515.29	9117
515.506	12296
515.721	8717
515.937	7183
516.153	6979
516.369	6736
516.585	6917
516.801	7022
517.016	7103
517.232	7412
517.448	7603
517.664	7814
517.879	7665
518.095	7659
518.311	7559
518.527	7323
518.742	7022
518.958	6806
519.173	6553
519.389	6493
519.605	6402
519.82	6293
520.036	6396
520.251	6571
520.467	6638
520.682	6496
520.898	6490
521.113	6674
521.329	7083
521.544	7966
521.76	10267
521.975	14792
522.19	12132
522.406	7480
522.621	6372
522.836	5982
523.052	5707
523.267	5580
523.482	5514
523.698	5461
523.913	5441
524.128	5483
524.343	5233
524.559	5263
524.774	5132
524.989	5163
525.204	5249
525.419	5219
525.634	5101
525.849	5130
526.064	5011
526.28	4995
526.495	4974
526.71	4957
526.925	4911
527.14	4921
527.355	4876
527.57	4871
527.785	4883
527.999	4932
528.214	4860
528.429	4919
528.644	4923
528.859	4999
529.074	4877
529.289	5143
529.503	5933
529.718	5486
529.933	5100
530.148	4989
530.363	4870
530.577	4864
530.792	4843
531.007	4872
531.221	4871
531.436	4839
531.651	4874
531.865	4759
532.08	4849
532.295	4811
532.509	4792
532.724	4787
532.938	4837
533.153	4803
533.367	4813
533.582	4788
533.796	4786
534.011	4736
534.225	4691
534.44	4662
534.654	4649
534.868	4625
535.083	4609
535.297	4655
535.511	4718
535.726	4771
535.94	4696
536.154	4629
536.369	4619
536.583	4516
536.797	4582
537.011	4522
537.225	4466
537.44	4505
537.654	4456
537.868	4453
538.082	4422
538.296	4478
538.51	4455
538.724	4429
538.938	4393
539.153	4367
539.367	4489
539.581	4451
539.795	4370
540.009	4355
540.222	4383
540.436	4391
540.65	4378
540.864	4479
541.078	4381
541.292	4352
541.506	4288
541.72	4239
