Data from Circ_2001_H10_HRD10591_00034.txt Node
Date: Wed Jan 03 10:45:45 EST 2024
User: Yrep
Spectrometer: HR+D1059
Trigger mode: 1
Integration Time (sec): 1.000000E-1
Scans to average: 1
Electric dark correction enabled: true
Nonlinearity correction enabled: false
Boxcar width: 0
XAxis mode: Wavelengths
Number of Pixels in Spectrum: 2048
>>>>>Begin Spectral Data<<<<<
223.165	-2.88
223.4	-2.88
223.635	-2.88
223.869	-9.88
224.104	-24.88
224.338	-14.88
224.573	-17.88
224.808	-13.88
225.042	-9.88
225.277	-14.88
225.511	0.12
225.746	11.12
225.98	17.12
226.215	6.12
226.449	2.12
226.683	20.12
226.918	19.12
227.152	33.12
227.387	32.12
227.621	37.12
227.856	36.12
228.09	54.12
228.324	49.12
228.559	61.12
228.793	66.12
229.027	69.12
229.262	74.12
229.496	80.12
229.73	89.12
229.964	86.12
230.199	68.12
230.433	84.12
230.667	95.12
230.901	73.12
231.136	80.12
231.37	83.12
231.604	78.12
231.838	94.12
232.072	86.12
232.306	84.12
232.541	92.12
232.775	87.12
233.009	70.12
233.243	85.12
233.477	71.12
233.711	82.12
233.945	90.12
234.179	82.12
234.413	88.12
234.647	88.12
234.881	97.12
235.115	90.12
235.349	69.12
235.583	82.12
235.817	80.12
236.051	82.12
236.285	88.12
236.519	90.12
236.753	84.12
236.987	82.12
237.221	83.12
237.455	85.12
237.689	77.12
237.922	87.12
238.156	88.12
238.39	75.12
238.624	64.12
238.858	69.12
239.091	74.12
239.325	89.12
239.559	91.12
239.793	82.12
240.027	71.12
240.26	85.12
240.494	67.12
240.728	67.12
240.961	81.12
241.195	73.12
241.429	86.12
241.662	69.12
241.896	84.12
242.13	76.12
242.363	82.12
242.597	78.12
242.83	71.12
243.064	80.12
243.298	67.12
243.531	57.12
243.765	73.12
243.998	77.12
244.232	79.12
244.465	84.12
244.699	76.12
244.932	79.12
245.166	75.12
245.399	79.12
245.633	74.12
245.866	82.12
246.099	87.12
246.333	87.12
246.566	85.12
246.8	82.12
247.033	81.12
247.266	90.12
247.5	74.12
247.733	72.12
247.966	96.12
248.2	88.12
248.433	69.12
248.666	88.12
248.899	83.12
249.133	87.12
249.366	102.12
249.599	103.12
249.832	71.12
250.066	73.12
250.299	71.12
250.532	74.12
250.765	81.12
250.998	83.12
251.231	92.12
251.465	88.12
251.698	75.12
251.931	85.12
252.164	96.12
252.397	81.12
252.63	82.12
252.863	91.12
253.096	101.12
253.329	87.12
253.562	77.12
253.795	93.12
254.028	96.12
254.261	87.12
254.494	79.12
254.727	90.12
254.96	83.12
255.193	88.12
255.426	77.12
255.659	95.12
255.892	70.12
256.124	79.12
256.357	82.12
256.59	75.12
256.823	68.12
257.056	76.12
257.289	84.12
257.521	82.12
257.754	89.12
257.987	85.12
258.22	95.12
258.452	87.12
258.685	101.12
258.918	93.12
259.151	77.12
259.383	82.12
259.616	77.12
259.849	83.12
260.081	80.12
260.314	90.12
260.547	83.12
260.779	101.12
261.012	83.12
261.244	95.12
261.477	84.12
261.71	91.12
261.942	100.12
262.175	113.12
262.407	90.12
262.64	83.12
262.872	87.12
263.105	73.12
263.337	79.12
263.57	85.12
263.802	83.12
264.035	75.12
264.267	83.12
264.499	60.12
264.732	71.12
264.964	64.12
265.197	81.12
265.429	86.12
265.661	84.12
265.894	105.12
266.126	82.12
266.358	79.12
266.591	87.12
266.823	95.12
267.055	92.12
267.287	88.12
267.52	93.12
267.752	95.12
267.984	88.12
268.216	96.12
268.448	99.12
268.681	83.12
268.913	82.12
269.145	87.12
269.377	97.12
269.609	91.12
269.841	88.12
270.073	85.12
270.306	86.12
270.538	89.12
270.77	90.12
271.002	78.12
271.234	90.12
271.466	91.12
271.698	81.12
271.93	77.12
272.162	84.12
272.394	85.12
272.626	89.12
272.858	81.12
273.09	85.12
273.322	81.12
273.553	88.12
273.785	90.12
274.017	76.12
274.249	96.12
274.481	75.12
274.713	82.12
274.945	92.12
275.176	81.12
275.408	96.12
275.64	87.12
275.872	101.12
276.104	104.12
276.335	90.12
276.567	111.12
276.799	110.12
277.031	140.12
277.262	119.12
277.494	108.12
277.726	90.12
277.957	86.12
278.189	88.12
278.421	95.12
278.652	94.12
278.884	76.12
279.115	83.12
279.347	85.12
279.579	82.12
279.81	108.12
280.042	123.12
280.273	146.12
280.505	119.12
280.736	91.12
280.968	85.12
281.199	86.12
281.431	92.12
281.662	95.12
281.894	100.12
282.125	84.12
282.356	121.12
282.588	118.12
282.819	119.12
283.051	90.12
283.282	74.12
283.513	99.12
283.745	94.12
283.976	82.12
284.207	81.12
284.439	76.12
284.67	90.12
284.901	82.12
285.132	81.12
285.364	88.12
285.595	85.12
285.826	95.12
286.057	105.12
286.288	84.12
286.52	88.12
286.751	90.12
286.982	88.12
287.213	90.12
287.444	92.12
287.675	101.12
287.906	95.12
288.138	97.12
288.369	100.12
288.6	101.12
288.831	81.12
289.062	73.12
289.293	83.12
289.524	79.12
289.755	77.12
289.986	91.12
290.217	89.12
290.448	87.12
290.679	81.12
290.91	92.12
291.141	74.12
291.371	92.12
291.602	88.12
291.833	80.12
292.064	92.12
292.295	78.12
292.526	80.12
292.757	76.12
292.987	78.12
293.218	84.12
293.449	99.12
293.68	76.12
293.91	90.12
294.141	88.12
294.372	82.12
294.603	99.12
294.833	99.12
295.064	86.12
295.295	84.12
295.525	109.12
295.756	84.12
295.987	111.12
296.217	137.12
296.448	113.12
296.679	90.12
296.909	95.12
297.14	93.12
297.37	91.12
297.601	89.12
297.831	85.12
298.062	90.12
298.292	80.12
298.523	91.12
298.753	77.12
298.984	72.12
299.214	93.12
299.445	109.12
299.675	101.12
299.905	102.12
300.136	99.12
300.366	97.12
300.597	103.12
300.827	95.12
301.057	96.12
301.288	106.12
301.518	110.12
301.748	102.12
301.979	111.12
302.209	93.12
302.439	93.12
302.669	85.12
302.9	79.12
303.13	104.12
303.36	93.12
303.59	110.12
303.82	116.12
304.051	103.12
304.281	91.12
304.511	91.12
304.741	95.12
304.971	87.12
305.201	85.12
305.431	83.12
305.661	93.12
305.891	97.12
306.121	99.12
306.352	116.12
306.582	103.12
306.812	88.12
307.042	102.12
307.272	123.12
307.502	122.12
307.731	120.12
307.961	105.12
308.191	101.12
308.421	86.12
308.651	85.12
308.881	102.12
309.111	92.12
309.341	92.12
309.571	102.12
309.8	97.12
310.03	92.12
310.26	101.12
310.49	93.12
310.72	99.12
310.949	98.12
311.179	103.12
311.409	92.12
311.639	101.12
311.868	91.12
312.098	99.12
312.328	89.12
312.557	106.12
312.787	112.12
313.017	106.12
313.246	88.12
313.476	92.12
313.706	83.12
313.935	100.12
314.165	117.12
314.394	102.12
314.624	95.12
314.853	94.12
315.083	95.12
315.312	97.12
315.542	85.12
315.771	97.12
316.001	94.12
316.23	94.12
316.46	95.12
316.689	99.12
316.919	87.12
317.148	87.12
317.377	87.12
317.607	93.12
317.836	101.12
318.065	89.12
318.295	87.12
318.524	79.12
318.753	100.12
318.983	97.12
319.212	98.12
319.441	101.12
319.67	102.12
319.9	103.12
320.129	88.12
320.358	91.12
320.587	99.12
320.816	101.12
321.046	108.12
321.275	84.12
321.504	85.12
321.733	99.12
321.962	93.12
322.191	104.12
322.42	100.12
322.649	127.12
322.878	111.12
323.108	114.12
323.337	121.12
323.566	132.12
323.795	152.12
324.024	201.12
324.253	433.12
324.482	870.12
324.71	1839.12
324.939	2390.12
325.168	863.12
325.397	251.12
325.626	169.12
325.855	127.12
326.084	140.12
326.313	129.12
326.542	159.12
326.77	234.12
326.999	486.12
327.228	992.12
327.457	1844.12
327.686	1483.12
327.914	458.12
328.143	331.12
328.372	372.12
328.6	237.12
328.829	149.12
329.058	147.12
329.287	141.12
329.515	143.12
329.744	171.12
329.972	254.12
330.201	506.12
330.43	688.12
330.658	332.12
330.887	184.12
331.115	138.12
331.344	114.12
331.572	93.12
331.801	109.12
332.03	112.12
332.258	98.12
332.486	104.12
332.715	104.12
332.943	99.12
333.172	106.12
333.4	115.12
333.629	128.12
333.857	154.12
334.085	252.12
334.314	460.12
334.542	850.12
334.771	770.12
334.999	231.12
335.227	122.12
335.455	104.12
335.684	103.12
335.912	92.12
336.14	106.12
336.369	111.12
336.597	97.12
336.825	113.12
337.053	88.12
337.281	96.12
337.51	88.12
337.738	95.12
337.966	91.12
338.194	95.12
338.422	89.12
338.65	86.12
338.878	102.12
339.106	86.12
339.334	80.12
339.562	95.12
339.79	103.12
340.018	89.12
340.246	90.12
340.474	92.12
340.702	83.12
340.93	78.12
341.158	83.12
341.386	109.12
341.614	88.12
341.842	103.12
342.07	84.12
342.298	99.12
342.526	80.12
342.754	82.12
342.981	79.12
343.209	89.12
343.437	93.12
343.665	88.12
343.893	97.12
344.12	93.12
344.348	98.12
344.576	87.12
344.804	99.12
345.031	92.12
345.259	92.12
345.487	97.12
345.714	100.12
345.942	96.12
346.17	88.12
346.397	80.12
346.625	98.12
346.853	97.12
347.08	103.12
347.308	88.12
347.535	89.12
347.763	95.12
347.99	101.12
348.218	97.12
348.445	105.12
348.673	106.12
348.9	83.12
349.128	94.12
349.355	93.12
349.583	86.12
349.81	93.12
350.037	97.12
350.265	79.12
350.492	86.12
350.72	84.12
350.947	95.12
351.174	95.12
351.402	100.12
351.629	87.12
351.856	91.12
352.083	104.12
352.311	112.12
352.538	112.12
352.765	107.12
352.992	108.12
353.22	94.12
353.447	103.12
353.674	102.12
353.901	81.12
354.128	97.12
354.355	76.12
354.583	93.12
354.81	112.12
355.037	89.12
355.264	103.12
355.491	82.12
355.718	88.12
355.945	84.12
356.172	97.12
356.399	98.12
356.626	92.12
356.853	82.12
357.08	84.12
357.307	84.12
357.534	82.12
357.761	96.12
357.988	102.12
358.215	92.12
358.441	93.12
358.668	95.12
358.895	95.12
359.122	75.12
359.349	98.12
359.576	91.12
359.802	103.12
360.029	121.12
360.256	118.12
360.483	115.12
360.709	97.12
360.936	83.12
361.163	92.12
361.39	97.12
361.616	96.12
361.843	93.12
362.07	98.12
362.296	106.12
362.523	86.12
362.749	95.12
362.976	95.12
363.203	108.12
363.429	86.12
363.656	85.12
363.882	90.12
364.109	93.12
364.335	84.12
364.562	95.12
364.788	87.12
365.015	101.12
365.241	97.12
365.468	101.12
365.694	107.12
365.92	107.12
366.147	85.12
366.373	82.12
366.599	97.12
366.826	84.12
367.052	96.12
367.278	95.12
367.505	105.12
367.731	100.12
367.957	89.12
368.184	101.12
368.41	101.12
368.636	106.12
368.862	116.12
369.089	108.12
369.315	108.12
369.541	92.12
369.767	91.12
369.993	98.12
370.219	87.12
370.445	73.12
370.672	90.12
370.898	93.12
371.124	74.12
371.35	87.12
371.576	82.12
371.802	85.12
372.028	78.12
372.254	106.12
372.48	95.12
372.706	89.12
372.932	78.12
373.158	84.12
373.384	78.12
373.61	89.12
373.835	96.12
374.061	81.12
374.287	76.12
374.513	90.12
374.739	89.12
374.965	79.12
375.191	90.12
375.416	92.12
375.642	92.12
375.868	101.12
376.094	83.12
376.319	74.12
376.545	101.12
376.771	84.12
376.997	107.12
377.222	96.12
377.448	93.12
377.674	84.12
377.899	100.12
378.125	84.12
378.35	90.12
378.576	71.12
378.802	89.12
379.027	92.12
379.253	91.12
379.478	89.12
379.704	106.12
379.929	100.12
380.155	96.12
380.38	101.12
380.606	86.12
380.831	84.12
381.057	96.12
381.282	98.12
381.507	88.12
381.733	107.12
381.958	98.12
382.184	87.12
382.409	99.12
382.634	100.12
382.86	104.12
383.085	98.12
383.31	109.12
383.535	96.12
383.761	104.12
383.986	102.12
384.211	107.12
384.436	103.12
384.662	110.12
384.887	97.12
385.112	103.12
385.337	102.12
385.562	103.12
385.787	96.12
386.013	116.12
386.238	111.12
386.463	99.12
386.688	107.12
386.913	95.12
387.138	109.12
387.363	114.12
387.588	91.12
387.813	92.12
388.038	89.12
388.263	111.12
388.488	105.12
388.713	106.12
388.938	99.12
389.163	80.12
389.387	92.12
389.612	92.12
389.837	82.12
390.062	100.12
390.287	85.12
390.512	102.12
390.736	86.12
390.961	99.12
391.186	84.12
391.411	87.12
391.636	88.12
391.86	89.12
392.085	93.12
392.31	79.12
392.534	88.12
392.759	90.12
392.984	91.12
393.208	92.12
393.433	105.12
393.658	89.12
393.882	88.12
394.107	83.12
394.331	87.12
394.556	87.12
394.78	101.12
395.005	92.12
395.229	83.12
395.454	73.12
395.678	83.12
395.903	76.12
396.127	104.12
396.352	101.12
396.576	82.12
396.801	84.12
397.025	93.12
397.249	84.12
397.474	87.12
397.698	83.12
397.922	79.12
398.147	85.12
398.371	97.12
398.595	91.12
398.82	101.12
399.044	93.12
399.268	79.12
399.492	92.12
399.717	81.12
399.941	82.12
400.165	87.12
400.389	92.12
400.613	79.12
400.837	82.12
401.062	82.12
401.286	90.12
401.51	96.12
401.734	111.12
401.958	99.12
402.182	144.12
402.406	167.12
402.63	120.12
402.854	91.12
403.078	101.12
403.302	88.12
403.526	82.12
403.75	90.12
403.974	105.12
404.198	93.12
404.422	82.12
404.645	90.12
404.869	89.12
405.093	100.12
405.317	103.12
405.541	114.12
405.765	107.12
405.988	120.12
406.212	177.12
406.436	228.12
406.66	163.12
406.883	106.12
407.107	88.12
407.331	88.12
407.555	97.12
407.778	103.12
408.002	90.12
408.226	88.12
408.449	89.12
408.673	79.12
408.896	98.12
409.12	91.12
409.344	84.12
409.567	76.12
409.791	86.12
410.014	86.12
410.238	85.12
410.461	89.12
410.685	101.12
410.908	83.12
411.132	103.12
411.355	101.12
411.578	77.12
411.802	95.12
412.025	93.12
412.249	101.12
412.472	90.12
412.695	104.12
412.919	91.12
413.142	100.12
413.365	96.12
413.589	95.12
413.812	88.12
414.035	76.12
414.258	97.12
414.482	90.12
414.705	91.12
414.928	86.12
415.151	95.12
415.374	88.12
415.597	94.12
415.821	88.12
416.044	83.12
416.267	79.12
416.49	89.12
416.713	95.12
416.936	91.12
417.159	82.12
417.382	82.12
417.605	88.12
417.828	97.12
418.051	106.12
418.274	85.12
418.497	87.12
418.72	87.12
418.943	89.12
419.166	86.12
419.389	88.12
419.611	83.12
419.834	85.12
420.057	96.12
420.28	82.12
420.503	83.12
420.726	98.12
420.948	93.12
421.171	91.12
421.394	83.12
421.617	94.12
421.839	93.12
422.062	86.12
422.285	92.12
422.507	96.12
422.73	95.12
422.953	86.12
423.175	77.12
423.398	80.12
423.621	95.12
423.843	77.12
424.066	90.12
424.288	73.12
424.511	96.12
424.733	82.12
424.956	93.12
425.178	87.12
425.401	113.12
425.623	90.12
425.846	85.12
426.068	92.12
426.291	87.12
426.513	96.12
426.735	77.12
426.958	98.12
427.18	112.12
427.402	143.12
427.625	188.12
427.847	183.12
428.069	180.12
428.292	97.12
428.514	87.12
428.736	93.12
428.958	90.12
429.181	86.12
429.403	98.12
429.625	77.12
429.847	97.12
430.069	93.12
430.292	93.12
430.514	76.12
430.736	80.12
430.958	82.12
431.18	101.12
431.402	80.12
431.624	75.12
431.846	93.12
432.068	93.12
432.29	84.12
432.512	96.12
432.734	82.12
432.956	91.12
433.178	102.12
433.4	104.12
433.622	86.12
433.844	83.12
434.066	82.12
434.287	93.12
434.509	79.12
434.731	90.12
434.953	100.12
435.175	99.12
435.397	97.12
435.618	103.12
435.84	103.12
436.062	125.12
436.284	111.12
436.505	100.12
436.727	103.12
436.949	91.12
437.17	88.12
437.392	81.12
437.614	89.12
437.835	104.12
438.057	121.12
438.278	105.12
438.5	102.12
438.721	113.12
438.943	109.12
439.165	88.12
439.386	90.12
439.608	78.12
439.829	95.12
440.05	123.12
440.272	153.12
440.493	104.12
440.715	84.12
440.936	80.12
441.158	101.12
441.379	98.12
441.6	90.12
441.822	100.12
442.043	79.12
442.264	100.12
442.486	108.12
442.707	101.12
442.928	103.12
443.149	151.12
443.371	129.12
443.592	106.12
443.813	106.12
444.034	109.12
444.255	86.12
444.476	101.12
444.698	95.12
444.919	77.12
445.14	116.12
445.361	119.12
445.582	108.12
445.803	120.12
446.024	139.12
446.245	118.12
446.466	102.12
446.687	84.12
446.908	82.12
447.129	72.12
447.35	87.12
447.571	87.12
447.792	90.12
448.013	103.12
448.234	105.12
448.455	107.12
448.675	106.12
448.896	118.12
449.117	90.12
449.338	89.12
449.559	119.12
449.779	123.12
450	104.12
450.221	85.12
450.442	101.12
450.662	94.12
450.883	100.12
451.104	110.12
451.324	97.12
451.545	83.12
451.766	89.12
451.986	92.12
452.207	92.12
452.428	95.12
452.648	101.12
452.869	108.12
453.089	128.12
453.31	124.12
453.53	87.12
453.751	90.12
453.971	99.12
454.192	120.12
454.412	92.12
454.633	85.12
454.853	98.12
455.073	85.12
455.294	82.12
455.514	95.12
455.734	94.12
455.955	98.12
456.175	80.12
456.395	88.12
456.616	98.12
456.836	86.12
457.056	97.12
457.276	97.12
457.497	84.12
457.717	81.12
457.937	75.12
458.157	79.12
458.377	90.12
458.598	120.12
458.818	158.12
459.038	169.12
459.258	121.12
459.478	91.12
459.698	79.12
459.918	88.12
460.138	97.12
460.358	91.12
460.578	92.12
460.798	78.12
461.018	87.12
461.238	86.12
461.458	86.12
461.678	90.12
461.898	85.12
462.118	87.12
462.338	85.12
462.558	73.12
462.777	83.12
462.997	107.12
463.217	102.12
463.437	88.12
463.657	76.12
463.876	94.12
464.096	92.12
464.316	96.12
464.536	102.12
464.755	92.12
464.975	107.12
465.195	196.12
465.414	180.12
465.634	97.12
465.854	100.12
466.073	85.12
466.293	90.12
466.512	87.12
466.732	93.12
466.951	92.12
467.171	97.12
467.391	92.12
467.61	123.12
467.829	161.12
468.049	314.12
468.268	433.12
468.488	132.12
468.707	83.12
468.927	101.12
469.146	92.12
469.365	93.12
469.585	104.12
469.804	98.12
470.023	94.12
470.243	87.12
470.462	106.12
470.681	113.12
470.901	107.12
471.12	87.12
471.339	97.12
471.558	103.12
471.777	128.12
471.997	197.12
472.216	596.12
472.435	1211.12
472.654	330.12
472.873	108.12
473.092	101.12
473.311	87.12
473.53	87.12
473.749	87.12
473.968	99.12
474.187	103.12
474.406	95.12
474.625	89.12
474.844	97.12
475.063	85.12
475.282	92.12
475.501	88.12
475.72	91.12
475.939	93.12
476.158	98.12
476.377	79.12
476.596	90.12
476.814	92.12
477.033	92.12
477.252	105.12
477.471	108.12
477.69	91.12
477.908	93.12
478.127	91.12
478.346	89.12
478.564	96.12
478.783	96.12
479.002	93.12
479.22	101.12
479.439	117.12
479.658	108.12
479.876	96.12
480.095	109.12
480.313	100.12
480.532	120.12
480.751	192.12
480.969	553.12
481.188	2105.12
481.406	1239.12
481.624	215.12
481.843	116.12
482.061	112.12
482.28	104.12
482.498	80.12
482.717	90.12
482.935	92.12
483.153	102.12
483.372	87.12
483.59	83.12
483.808	86.12
484.027	82.12
484.245	90.12
484.463	92.12
484.681	90.12
484.9	96.12
485.118	99.12
485.336	90.12
485.554	81.12
485.772	71.12
485.99	107.12
486.209	112.12
486.427	110.12
486.645	109.12
486.863	119.12
487.081	106.12
487.299	103.12
487.517	96.12
487.735	91.12
487.953	89.12
488.171	88.12
488.389	108.12
488.607	89.12
488.825	94.12
489.043	80.12
489.261	90.12
489.479	102.12
489.696	92.12
489.914	87.12
490.132	84.12
490.35	91.12
490.568	93.12
490.786	90.12
491.003	106.12
491.221	92.12
491.439	89.12
491.657	87.12
491.874	102.12
492.092	91.12
492.31	93.12
492.527	91.12
492.745	89.12
492.963	101.12
493.18	91.12
493.398	101.12
493.615	105.12
493.833	103.12
494.05	99.12
494.268	87.12
494.485	89.12
494.703	99.12
494.92	96.12
495.138	87.12
495.355	83.12
495.573	78.12
495.79	92.12
496.008	101.12
496.225	95.12
496.442	100.12
496.66	88.12
496.877	95.12
497.094	89.12
497.312	89.12
497.529	75.12
497.746	89.12
497.963	83.12
498.181	101.12
498.398	106.12
498.615	99.12
498.832	119.12
499.049	93.12
499.267	77.12
499.484	83.12
499.701	92.12
499.918	93.12
500.135	91.12
500.352	84.12
500.569	94.12
500.786	80.12
501.003	99.12
501.22	88.12
501.437	85.12
501.654	97.12
501.871	117.12
502.088	119.12
502.305	103.12
502.522	80.12
502.739	94.12
502.956	83.12
503.172	85.12
503.389	96.12
503.606	123.12
503.823	83.12
504.04	104.12
504.256	87.12
504.473	87.12
504.69	106.12
504.907	94.12
505.123	82.12
505.34	92.12
505.557	90.12
505.773	101.12
505.99	91.12
506.207	100.12
506.423	97.12
506.64	89.12
506.856	95.12
507.073	93.12
507.289	90.12
507.506	111.12
507.722	112.12
507.939	112.12
508.155	98.12
508.372	98.12
508.588	104.12
508.805	102.12
509.021	98.12
509.238	85.12
509.454	111.12
509.67	95.12
509.887	115.12
510.103	136.12
510.319	216.12
510.536	780.12
510.752	2423.12
510.968	691.12
511.184	170.12
511.401	123.12
511.617	99.12
511.833	83.12
512.049	86.12
512.265	93.12
512.481	87.12
512.698	101.12
512.914	111.12
513.13	93.12
513.346	104.12
513.562	93.12
513.778	112.12
513.994	99.12
514.21	93.12
514.426	123.12
514.642	144.12
