Data from Circ_2001_H10_HRD10591_00014.txt Node
Date: Wed Jan 03 10:45:41 EST 2024
User: Yrep
Spectrometer: HR+D1059
Trigger mode: 1
Integration Time (sec): 1.000000E-1
Scans to average: 1
Electric dark correction enabled: true
Nonlinearity correction enabled: false
Boxcar width: 0
XAxis mode: Wavelengths
Number of Pixels in Spectrum: 2048
>>>>>Begin Spectral Data<<<<<
223.165	-20.12
223.4	-20.12
223.635	-20.12
223.869	-22.12
224.104	-28.12
224.338	-4.12
224.573	-15.12
224.808	-14.12
225.042	-12.12
225.277	-12.12
225.511	2.88
225.746	6.88
225.98	13.88
226.215	13.88
226.449	5.88
226.683	18.88
226.918	45.88
227.152	19.88
227.387	39.88
227.621	42.88
227.856	46.88
228.09	41.88
228.324	59.88
228.559	60.88
228.793	49.88
229.027	57.88
229.262	71.88
229.496	72.88
229.73	90.88
229.964	91.88
230.199	75.88
230.433	77.88
230.667	87.88
230.901	72.88
231.136	85.88
231.37	64.88
231.604	73.88
231.838	82.88
232.072	57.88
232.306	74.88
232.541	67.88
232.775	68.88
233.009	73.88
233.243	98.88
233.477	80.88
233.711	82.88
233.945	82.88
234.179	87.88
234.413	84.88
234.647	84.88
234.881	88.88
235.115	82.88
235.349	76.88
235.583	73.88
235.817	83.88
236.051	90.88
236.285	77.88
236.519	87.88
236.753	87.88
236.987	69.88
237.221	90.88
237.455	85.88
237.689	79.88
237.922	78.88
238.156	72.88
238.39	83.88
238.624	73.88
238.858	50.88
239.091	85.88
239.325	85.88
239.559	77.88
239.793	81.88
240.027	70.88
240.26	83.88
240.494	88.88
240.728	61.88
240.961	72.88
241.195	85.88
241.429	81.88
241.662	79.88
241.896	75.88
242.13	73.88
242.363	70.88
242.597	85.88
242.83	69.88
243.064	84.88
243.298	75.88
243.531	77.88
243.765	85.88
243.998	74.88
244.232	82.88
244.465	89.88
244.699	78.88
244.932	97.88
245.166	84.88
245.399	74.88
245.633	82.88
245.866	85.88
246.099	88.88
246.333	83.88
246.566	82.88
246.8	81.88
247.033	80.88
247.266	76.88
247.5	85.88
247.733	81.88
247.966	83.88
248.2	85.88
248.433	83.88
248.666	73.88
248.899	80.88
249.133	78.88
249.366	109.88
249.599	90.88
249.832	92.88
250.066	61.88
250.299	81.88
250.532	89.88
250.765	74.88
250.998	77.88
251.231	81.88
251.465	85.88
251.698	76.88
251.931	74.88
252.164	78.88
252.397	75.88
252.63	77.88
252.863	65.88
253.096	77.88
253.329	82.88
253.562	82.88
253.795	79.88
254.028	80.88
254.261	96.88
254.494	84.88
254.727	68.88
254.96	92.88
255.193	93.88
255.426	78.88
255.659	74.88
255.892	104.88
256.124	67.88
256.357	84.88
256.59	74.88
256.823	77.88
257.056	81.88
257.289	90.88
257.521	76.88
257.754	77.88
257.987	92.88
258.22	87.88
258.452	99.88
258.685	96.88
258.918	76.88
259.151	89.88
259.383	78.88
259.616	81.88
259.849	87.88
260.081	88.88
260.314	74.88
260.547	85.88
260.779	88.88
261.012	91.88
261.244	92.88
261.477	98.88
261.71	103.88
261.942	109.88
262.175	136.88
262.407	99.88
262.64	86.88
262.872	71.88
263.105	101.88
263.337	76.88
263.57	78.88
263.802	109.88
264.035	79.88
264.267	83.88
264.499	77.88
264.732	78.88
264.964	83.88
265.197	81.88
265.429	81.88
265.661	80.88
265.894	84.88
266.126	76.88
266.358	76.88
266.591	87.88
266.823	80.88
267.055	85.88
267.287	90.88
267.52	74.88
267.752	101.88
267.984	88.88
268.216	84.88
268.448	88.88
268.681	90.88
268.913	92.88
269.145	89.88
269.377	85.88
269.609	77.88
269.841	85.88
270.073	99.88
270.306	85.88
270.538	98.88
270.77	99.88
271.002	84.88
271.234	94.88
271.466	89.88
271.698	90.88
271.93	71.88
272.162	90.88
272.394	94.88
272.626	88.88
272.858	93.88
273.09	72.88
273.322	88.88
273.553	88.88
273.785	84.88
274.017	83.88
274.249	97.88
274.481	77.88
274.713	90.88
274.945	91.88
275.176	96.88
275.408	84.88
275.64	94.88
275.872	96.88
276.104	107.88
276.335	93.88
276.567	97.88
276.799	113.88
277.031	121.88
277.262	129.88
277.494	107.88
277.726	77.88
277.957	98.88
278.189	89.88
278.421	94.88
278.652	85.88
278.884	96.88
279.115	90.88
279.347	82.88
279.579	104.88
279.81	114.88
280.042	140.88
280.273	138.88
280.505	110.88
280.736	86.88
280.968	81.88
281.199	88.88
281.431	91.88
281.662	90.88
281.894	94.88
282.125	105.88
282.356	113.88
282.588	134.88
282.819	134.88
283.051	76.88
283.282	82.88
283.513	91.88
283.745	75.88
283.976	87.88
284.207	88.88
284.439	84.88
284.67	90.88
284.901	94.88
285.132	66.88
285.364	85.88
285.595	94.88
285.826	92.88
286.057	74.88
286.288	97.88
286.52	84.88
286.751	93.88
286.982	83.88
287.213	73.88
287.444	82.88
287.675	85.88
287.906	86.88
288.138	96.88
288.369	93.88
288.6	75.88
288.831	98.88
289.062	84.88
289.293	73.88
289.524	81.88
289.755	102.88
289.986	89.88
290.217	77.88
290.448	89.88
290.679	82.88
290.91	85.88
291.141	93.88
291.371	81.88
291.602	75.88
291.833	80.88
292.064	92.88
292.295	75.88
292.526	94.88
292.757	84.88
292.987	87.88
293.218	91.88
293.449	84.88
293.68	93.88
293.91	84.88
294.141	94.88
294.372	92.88
294.603	68.88
294.833	89.88
295.064	96.88
295.295	85.88
295.525	86.88
295.756	105.88
295.987	115.88
296.217	128.88
296.448	139.88
296.679	93.88
296.909	92.88
297.14	89.88
297.37	94.88
297.601	83.88
297.831	95.88
298.062	104.88
298.292	87.88
298.523	80.88
298.753	91.88
298.984	83.88
299.214	97.88
299.445	95.88
299.675	101.88
299.905	94.88
300.136	100.88
300.366	80.88
300.597	96.88
300.827	109.88
301.057	89.88
301.288	99.88
301.518	88.88
301.748	97.88
301.979	107.88
302.209	94.88
302.439	98.88
302.669	95.88
302.9	96.88
303.13	91.88
303.36	108.88
303.59	106.88
303.82	116.88
304.051	102.88
304.281	89.88
304.511	89.88
304.741	90.88
304.971	87.88
305.201	102.88
305.431	104.88
305.661	93.88
305.891	93.88
306.121	113.88
306.352	112.88
306.582	109.88
306.812	103.88
307.042	99.88
307.272	116.88
307.502	132.88
307.731	129.88
307.961	107.88
308.191	93.88
308.421	96.88
308.651	107.88
308.881	81.88
309.111	93.88
309.341	84.88
309.571	99.88
309.8	108.88
310.03	84.88
310.26	108.88
310.49	102.88
310.72	97.88
310.949	106.88
311.179	93.88
311.409	106.88
311.639	101.88
311.868	104.88
312.098	98.88
312.328	99.88
312.557	107.88
312.787	119.88
313.017	110.88
313.246	109.88
313.476	92.88
313.706	97.88
313.935	108.88
314.165	116.88
314.394	112.88
314.624	102.88
314.853	98.88
315.083	96.88
315.312	105.88
315.542	101.88
315.771	94.88
316.001	93.88
316.23	97.88
316.46	102.88
316.689	88.88
316.919	96.88
317.148	107.88
317.377	99.88
317.607	88.88
317.836	97.88
318.065	104.88
318.295	81.88
318.524	90.88
318.753	94.88
318.983	94.88
319.212	98.88
319.441	109.88
319.67	121.88
319.9	97.88
320.129	90.88
320.358	94.88
320.587	105.88
320.816	102.88
321.046	109.88
321.275	104.88
321.504	98.88
321.733	107.88
321.962	92.88
322.191	109.88
322.42	103.88
322.649	117.88
322.878	118.88
323.108	113.88
323.337	128.88
323.566	127.88
323.795	166.88
324.024	231.88
324.253	437.88
324.482	885.88
324.71	1847.88
324.939	2446.88
325.168	912.88
325.397	262.88
325.626	158.88
325.855	141.88
326.084	146.88
326.313	136.88
326.542	145.88
326.77	250.88
326.999	499.88
327.228	1038.88
327.457	1835.88
327.686	1499.88
327.914	449.88
328.143	320.88
328.372	342.88
328.6	221.88
328.829	152.88
329.058	130.88
329.287	141.88
329.515	140.88
329.744	162.88
329.972	278.88
330.201	462.88
330.43	666.88
330.658	320.88
330.887	186.88
331.115	134.88
331.344	109.88
331.572	115.88
331.801	107.88
332.03	110.88
332.258	102.88
332.486	99.88
332.715	94.88
332.943	92.88
333.172	108.88
333.4	99.88
333.629	115.88
333.857	176.88
334.085	242.88
334.314	458.88
334.542	830.88
334.771	730.88
334.999	238.88
335.227	125.88
335.455	123.88
335.684	100.88
335.912	99.88
336.14	95.88
336.369	108.88
336.597	104.88
336.825	84.88
337.053	95.88
337.281	85.88
337.51	90.88
337.738	92.88
337.966	94.88
338.194	95.88
338.422	105.88
338.65	93.88
338.878	88.88
339.106	90.88
339.334	92.88
339.562	106.88
339.79	72.88
340.018	90.88
340.246	103.88
340.474	109.88
340.702	87.88
340.93	77.88
341.158	90.88
341.386	107.88
341.614	106.88
341.842	94.88
342.07	95.88
342.298	97.88
342.526	105.88
342.754	82.88
342.981	90.88
343.209	74.88
343.437	97.88
343.665	86.88
343.893	94.88
344.12	95.88
344.348	97.88
344.576	94.88
344.804	85.88
345.031	89.88
345.259	106.88
345.487	104.88
345.714	114.88
345.942	72.88
346.17	83.88
346.397	83.88
346.625	100.88
346.853	84.88
347.08	72.88
347.308	104.88
347.535	94.88
347.763	92.88
347.99	94.88
348.218	104.88
348.445	108.88
348.673	109.88
348.9	87.88
349.128	109.88
349.355	88.88
349.583	76.88
349.81	94.88
350.037	85.88
350.265	88.88
350.492	97.88
350.72	105.88
350.947	92.88
351.174	105.88
351.402	107.88
351.629	104.88
351.856	102.88
352.083	98.88
352.311	106.88
352.538	109.88
352.765	106.88
352.992	106.88
353.22	114.88
353.447	116.88
353.674	102.88
353.901	93.88
354.128	103.88
354.355	95.88
354.583	92.88
354.81	91.88
355.037	105.88
355.264	100.88
355.491	77.88
355.718	84.88
355.945	96.88
356.172	90.88
356.399	99.88
356.626	97.88
356.853	101.88
357.08	103.88
357.307	88.88
357.534	93.88
357.761	113.88
357.988	103.88
358.215	108.88
358.441	99.88
358.668	87.88
358.895	97.88
359.122	92.88
359.349	90.88
359.576	96.88
359.802	108.88
360.029	111.88
360.256	114.88
360.483	86.88
360.709	88.88
360.936	92.88
361.163	90.88
361.39	93.88
361.616	105.88
361.843	98.88
362.07	88.88
362.296	100.88
362.523	95.88
362.749	82.88
362.976	101.88
363.203	77.88
363.429	93.88
363.656	82.88
363.882	95.88
364.109	91.88
364.335	102.88
364.562	90.88
364.788	96.88
365.015	96.88
365.241	101.88
365.468	103.88
365.694	108.88
365.92	96.88
366.147	102.88
366.373	76.88
366.599	93.88
366.826	83.88
367.052	92.88
367.278	89.88
367.505	90.88
367.731	104.88
367.957	97.88
368.184	104.88
368.41	100.88
368.636	103.88
368.862	121.88
369.089	111.88
369.315	91.88
369.541	90.88
369.767	98.88
369.993	103.88
370.219	94.88
370.445	89.88
370.672	97.88
370.898	102.88
371.124	103.88
371.35	94.88
371.576	88.88
371.802	98.88
372.028	100.88
372.254	86.88
372.48	90.88
372.706	81.88
372.932	101.88
373.158	87.88
373.384	86.88
373.61	97.88
373.835	86.88
374.061	84.88
374.287	78.88
374.513	82.88
374.739	81.88
374.965	93.88
375.191	101.88
375.416	86.88
375.642	94.88
375.868	96.88
376.094	88.88
376.319	97.88
376.545	93.88
376.771	97.88
376.997	91.88
377.222	88.88
377.448	100.88
377.674	95.88
377.899	90.88
378.125	102.88
378.35	94.88
378.576	101.88
378.802	96.88
379.027	94.88
379.253	103.88
379.478	99.88
379.704	94.88
379.929	102.88
380.155	93.88
380.38	95.88
380.606	98.88
380.831	89.88
381.057	94.88
381.282	113.88
381.507	123.88
381.733	103.88
381.958	102.88
382.184	101.88
382.409	114.88
382.634	97.88
382.86	100.88
383.085	112.88
383.31	99.88
383.535	114.88
383.761	114.88
383.986	111.88
384.211	102.88
384.436	99.88
384.662	104.88
384.887	101.88
385.112	115.88
385.337	111.88
385.562	117.88
385.787	122.88
386.013	115.88
386.238	118.88
386.463	125.88
386.688	119.88
386.913	118.88
387.138	126.88
387.363	93.88
387.588	105.88
387.813	105.88
388.038	109.88
388.263	124.88
388.488	124.88
388.713	93.88
388.938	88.88
389.163	105.88
389.387	90.88
389.612	91.88
389.837	97.88
390.062	84.88
390.287	101.88
390.512	105.88
390.736	105.88
390.961	99.88
391.186	96.88
391.411	98.88
391.636	97.88
391.86	83.88
392.085	103.88
392.31	101.88
392.534	93.88
392.759	87.88
392.984	97.88
393.208	89.88
393.433	105.88
393.658	99.88
393.882	91.88
394.107	91.88
394.331	85.88
394.556	85.88
394.78	85.88
395.005	91.88
395.229	88.88
395.454	90.88
395.678	85.88
395.903	76.88
396.127	86.88
396.352	76.88
396.576	90.88
396.801	109.88
397.025	113.88
397.249	97.88
397.474	106.88
397.698	88.88
397.922	85.88
398.147	83.88
398.371	85.88
398.595	90.88
398.82	80.88
399.044	98.88
399.268	87.88
399.492	93.88
399.717	96.88
399.941	76.88
400.165	89.88
400.389	100.88
400.613	82.88
400.837	93.88
401.062	105.88
401.286	83.88
401.51	94.88
401.734	100.88
401.958	109.88
402.182	137.88
402.406	168.88
402.63	122.88
402.854	93.88
403.078	97.88
403.302	99.88
403.526	78.88
403.75	89.88
403.974	84.88
404.198	89.88
404.422	88.88
404.645	87.88
404.869	107.88
405.093	110.88
405.317	120.88
405.541	119.88
405.765	108.88
405.988	119.88
406.212	193.88
406.436	264.88
406.66	168.88
406.883	113.88
407.107	110.88
407.331	88.88
407.555	100.88
407.778	87.88
408.002	88.88
408.226	87.88
408.449	107.88
408.673	81.88
408.896	85.88
409.12	101.88
409.344	97.88
409.567	88.88
409.791	83.88
410.014	88.88
410.238	84.88
410.461	86.88
410.685	88.88
410.908	99.88
411.132	105.88
411.355	98.88
411.578	93.88
411.802	92.88
412.025	101.88
412.249	102.88
412.472	91.88
412.695	110.88
412.919	110.88
413.142	94.88
413.365	100.88
413.589	84.88
413.812	90.88
414.035	96.88
414.258	90.88
414.482	96.88
414.705	101.88
414.928	88.88
415.151	90.88
415.374	106.88
415.597	90.88
415.821	89.88
416.044	108.88
416.267	89.88
416.49	80.88
416.713	109.88
416.936	103.88
417.159	81.88
417.382	94.88
417.605	104.88
417.828	98.88
418.051	86.88
418.274	96.88
418.497	85.88
418.72	88.88
418.943	101.88
419.166	88.88
419.389	93.88
419.611	88.88
419.834	110.88
420.057	89.88
420.28	97.88
420.503	80.88
420.726	87.88
420.948	94.88
421.171	98.88
421.394	104.88
421.617	94.88
421.839	77.88
422.062	100.88
422.285	98.88
422.507	100.88
422.73	101.88
422.953	90.88
423.175	88.88
423.398	102.88
423.621	92.88
423.843	83.88
424.066	87.88
424.288	96.88
424.511	93.88
424.733	98.88
424.956	112.88
425.178	103.88
425.401	97.88
425.623	113.88
425.846	81.88
426.068	93.88
426.291	100.88
426.513	92.88
426.735	101.88
426.958	106.88
427.18	113.88
427.402	136.88
427.625	197.88
427.847	168.88
428.069	159.88
428.292	108.88
428.514	94.88
428.736	90.88
428.958	94.88
429.181	82.88
429.403	93.88
429.625	85.88
429.847	91.88
430.069	103.88
430.292	88.88
430.514	82.88
430.736	91.88
430.958	107.88
431.18	84.88
431.402	85.88
431.624	89.88
431.846	91.88
432.068	85.88
432.29	93.88
432.512	85.88
432.734	81.88
432.956	100.88
433.178	104.88
433.4	97.88
433.622	104.88
433.844	84.88
434.066	91.88
434.287	102.88
434.509	93.88
434.731	89.88
434.953	99.88
435.175	94.88
435.397	81.88
435.618	88.88
435.84	106.88
436.062	136.88
436.284	115.88
436.505	93.88
436.727	107.88
436.949	88.88
437.17	96.88
437.392	98.88
437.614	95.88
437.835	114.88
438.057	129.88
438.278	120.88
438.5	103.88
438.721	114.88
438.943	106.88
439.165	90.88
439.386	102.88
439.608	93.88
439.829	105.88
440.05	138.88
440.272	165.88
440.493	104.88
440.715	92.88
440.936	90.88
441.158	75.88
441.379	90.88
441.6	119.88
441.822	100.88
442.043	94.88
442.264	120.88
442.486	111.88
442.707	101.88
442.928	94.88
443.149	141.88
443.371	128.88
443.592	130.88
443.813	118.88
444.034	112.88
444.255	88.88
444.476	82.88
444.698	89.88
444.919	86.88
445.14	150.88
445.361	148.88
445.582	110.88
445.803	144.88
446.024	142.88
446.245	147.88
446.466	109.88
446.687	110.88
446.908	94.88
447.129	91.88
447.35	104.88
447.571	94.88
447.792	85.88
448.013	104.88
448.234	106.88
448.455	101.88
448.675	113.88
448.896	130.88
449.117	116.88
449.338	116.88
449.559	141.88
449.779	146.88
450	96.88
450.221	100.88
450.442	99.88
450.662	96.88
450.883	125.88
451.104	121.88
451.324	107.88
451.545	91.88
451.766	94.88
451.986	90.88
452.207	81.88
452.428	87.88
452.648	103.88
452.869	115.88
453.089	120.88
453.31	136.88
453.53	98.88
453.751	107.88
453.971	110.88
454.192	121.88
454.412	82.88
454.633	98.88
454.853	100.88
455.073	98.88
455.294	101.88
455.514	113.88
455.734	75.88
455.955	95.88
456.175	92.88
456.395	93.88
456.616	96.88
456.836	90.88
457.056	87.88
457.276	82.88
457.497	80.88
457.717	91.88
457.937	84.88
458.157	88.88
458.377	91.88
458.598	113.88
458.818	181.88
459.038	184.88
459.258	134.88
459.478	88.88
459.698	94.88
459.918	78.88
460.138	97.88
460.358	74.88
460.578	93.88
460.798	96.88
461.018	90.88
461.238	68.88
461.458	97.88
461.678	93.88
461.898	84.88
462.118	85.88
462.338	93.88
462.558	94.88
462.777	87.88
462.997	104.88
463.217	90.88
463.437	101.88
463.657	77.88
463.876	76.88
464.096	76.88
464.316	107.88
464.536	94.88
464.755	94.88
464.975	107.88
465.195	184.88
465.414	174.88
465.634	108.88
465.854	83.88
466.073	85.88
466.293	84.88
466.512	89.88
466.732	108.88
466.951	83.88
467.171	89.88
467.391	112.88
467.61	113.88
467.829	154.88
468.049	272.88
468.268	410.88
468.488	137.88
468.707	107.88
468.927	82.88
469.146	80.88
469.365	99.88
469.585	108.88
469.804	100.88
470.023	108.88
470.243	99.88
470.462	110.88
470.681	125.88
470.901	102.88
471.12	92.88
471.339	101.88
471.558	95.88
471.777	133.88
471.997	195.88
472.216	546.88
472.435	1096.88
472.654	308.88
472.873	111.88
473.092	85.88
473.311	105.88
473.53	83.88
473.749	92.88
473.968	102.88
474.187	106.88
474.406	96.88
474.625	95.88
474.844	88.88
475.063	76.88
475.282	89.88
475.501	83.88
475.72	80.88
475.939	80.88
476.158	94.88
476.377	80.88
476.596	87.88
476.814	103.88
477.033	94.88
477.252	90.88
477.471	80.88
477.69	98.88
477.908	82.88
478.127	85.88
478.346	101.88
478.564	97.88
478.783	100.88
479.002	112.88
479.22	108.88
479.439	103.88
479.658	131.88
479.876	112.88
480.095	106.88
480.313	108.88
480.532	130.88
480.751	179.88
480.969	495.88
481.188	1880.88
481.406	1134.88
481.624	212.88
481.843	98.88
482.061	97.88
482.28	104.88
482.498	78.88
482.717	92.88
482.935	85.88
483.153	91.88
483.372	92.88
483.59	105.88
483.808	95.88
484.027	112.88
484.245	102.88
484.463	99.88
484.681	99.88
484.9	99.88
485.118	80.88
485.336	99.88
485.554	114.88
485.772	113.88
485.99	108.88
486.209	120.88
486.427	119.88
486.645	111.88
486.863	123.88
487.081	105.88
487.299	107.88
487.517	93.88
487.735	106.88
487.953	86.88
488.171	102.88
488.389	95.88
488.607	107.88
488.825	97.88
489.043	98.88
489.261	107.88
489.479	92.88
489.696	92.88
489.914	89.88
490.132	89.88
490.35	92.88
490.568	89.88
490.786	76.88
491.003	103.88
491.221	117.88
491.439	99.88
491.657	91.88
491.874	87.88
492.092	94.88
492.31	95.88
492.527	92.88
492.745	109.88
492.963	94.88
493.18	90.88
493.398	105.88
493.615	112.88
493.833	89.88
494.05	83.88
494.268	86.88
494.485	107.88
494.703	93.88
494.92	85.88
495.138	99.88
495.355	99.88
495.573	87.88
495.79	81.88
496.008	96.88
496.225	103.88
496.442	98.88
496.66	99.88
496.877	98.88
497.094	88.88
497.312	100.88
497.529	98.88
497.746	81.88
497.963	91.88
498.181	96.88
498.398	91.88
498.615	123.88
498.832	103.88
499.049	98.88
499.267	82.88
499.484	76.88
499.701	81.88
499.918	94.88
500.135	90.88
500.352	83.88
500.569	110.88
500.786	107.88
501.003	94.88
501.22	81.88
501.437	81.88
501.654	100.88
501.871	101.88
502.088	87.88
502.305	86.88
502.522	97.88
502.739	92.88
502.956	92.88
503.172	89.88
503.389	94.88
503.606	116.88
503.823	89.88
504.04	84.88
504.256	102.88
504.473	90.88
504.69	96.88
504.907	80.88
505.123	97.88
505.34	92.88
505.557	94.88
505.773	91.88
505.99	92.88
506.207	88.88
506.423	84.88
506.64	92.88
506.856	76.88
507.073	92.88
507.289	88.88
507.506	115.88
507.722	120.88
507.939	122.88
508.155	116.88
508.372	104.88
508.588	100.88
508.805	96.88
509.021	90.88
509.238	113.88
509.454	96.88
509.67	92.88
509.887	103.88
510.103	144.88
510.319	213.88
510.536	775.88
510.752	2390.88
510.968	647.88
511.184	150.88
511.401	118.88
511.617	110.88
511.833	98.88
512.049	102.88
512.265	95.88
512.481	96.88
512.698	97.88
512.914	86.88
513.13	112.88
513.346	92.88
513.562	89.88
