Data from Circ_2001_H10_HRD10591_00054.txt Node
Date: Wed Jan 03 10:45:49 EST 2024
User: Yrep
Spectrometer: HR+D1059
Trigger mode: 1
Integration Time (sec): 1.000000E-1
Scans to average: 1
Electric dark correction enabled: true
Nonlinearity correction enabled: false
Boxcar width: 0
XAxis mode: Wavelengths
Number of Pixels in Spectrum: 2048
>>>>>Begin Spectral Data<<<<<
223.165	-31.5
223.4	-31.5
223.635	-31.5
223.869	-27.5
224.104	-15.5
224.338	-12.5
224.573	-16.5
224.808	-19.5
225.042	-4.5
225.277	-4.5
225.511	7.5
225.746	3.5
225.98	8.5
226.215	19.5
226.449	17.5
226.683	2.5
226.918	39.5
227.152	33.5
227.387	20.5
227.621	51.5
227.856	41.5
228.09	50.5
228.324	31.5
228.559	69.5
228.793	56.5
229.027	51.5
229.262	75.5
229.496	81.5
229.73	77.5
229.964	86.5
230.199	79.5
230.433	77.5
230.667	74.5
230.901	73.5
231.136	75.5
231.37	74.5
231.604	56.5
231.838	66.5
232.072	77.5
232.306	75.5
232.541	85.5
232.775	87.5
233.009	79.5
233.243	74.5
233.477	82.5
233.711	75.5
233.945	82.5
234.179	72.5
234.413	83.5
234.647	73.5
234.881	80.5
235.115	81.5
235.349	73.5
235.583	65.5
235.817	72.5
236.051	66.5
236.285	75.5
236.519	76.5
236.753	93.5
236.987	81.5
237.221	79.5
237.455	69.5
237.689	87.5
237.922	88.5
238.156	71.5
238.39	80.5
238.624	74.5
238.858	84.5
239.091	78.5
239.325	75.5
239.559	73.5
239.793	69.5
240.027	76.5
240.26	84.5
240.494	92.5
240.728	77.5
240.961	100.5
241.195	81.5
241.429	81.5
241.662	68.5
241.896	77.5
242.13	73.5
242.363	82.5
242.597	77.5
242.83	81.5
243.064	79.5
243.298	82.5
243.531	83.5
243.765	85.5
243.998	87.5
244.232	87.5
244.465	70.5
244.699	73.5
244.932	74.5
245.166	71.5
245.399	72.5
245.633	61.5
245.866	74.5
246.099	75.5
246.333	76.5
246.566	83.5
246.8	66.5
247.033	90.5
247.266	77.5
247.5	80.5
247.733	82.5
247.966	81.5
248.2	85.5
248.433	87.5
248.666	81.5
248.899	82.5
249.133	94.5
249.366	90.5
249.599	95.5
249.832	81.5
250.066	74.5
250.299	79.5
250.532	65.5
250.765	81.5
250.998	80.5
251.231	74.5
251.465	77.5
251.698	75.5
251.931	64.5
252.164	75.5
252.397	84.5
252.63	85.5
252.863	79.5
253.096	93.5
253.329	79.5
253.562	75.5
253.795	84.5
254.028	81.5
254.261	86.5
254.494	86.5
254.727	84.5
254.96	76.5
255.193	88.5
255.426	74.5
255.659	81.5
255.892	74.5
256.124	92.5
256.357	88.5
256.59	76.5
256.823	75.5
257.056	79.5
257.289	80.5
257.521	72.5
257.754	83.5
257.987	95.5
258.22	92.5
258.452	82.5
258.685	87.5
258.918	74.5
259.151	82.5
259.383	86.5
259.616	83.5
259.849	86.5
260.081	83.5
260.314	74.5
260.547	98.5
260.779	88.5
261.012	79.5
261.244	88.5
261.477	85.5
261.71	83.5
261.942	111.5
262.175	99.5
262.407	77.5
262.64	86.5
262.872	69.5
263.105	83.5
263.337	90.5
263.57	84.5
263.802	81.5
264.035	85.5
264.267	102.5
264.499	69.5
264.732	74.5
264.964	82.5
265.197	83.5
265.429	82.5
265.661	70.5
265.894	73.5
266.126	85.5
266.358	89.5
266.591	73.5
266.823	83.5
267.055	86.5
267.287	77.5
267.52	84.5
267.752	68.5
267.984	70.5
268.216	75.5
268.448	88.5
268.681	90.5
268.913	89.5
269.145	86.5
269.377	75.5
269.609	70.5
269.841	74.5
270.073	72.5
270.306	96.5
270.538	86.5
270.77	78.5
271.002	88.5
271.234	78.5
271.466	94.5
271.698	85.5
271.93	89.5
272.162	80.5
272.394	88.5
272.626	84.5
272.858	91.5
273.09	87.5
273.322	89.5
273.553	92.5
273.785	81.5
274.017	97.5
274.249	72.5
274.481	86.5
274.713	88.5
274.945	84.5
275.176	89.5
275.408	103.5
275.64	96.5
275.872	116.5
276.104	81.5
276.335	93.5
276.567	89.5
276.799	122.5
277.031	133.5
277.262	143.5
277.494	100.5
277.726	99.5
277.957	86.5
278.189	98.5
278.421	82.5
278.652	68.5
278.884	95.5
279.115	91.5
279.347	91.5
279.579	99.5
279.81	104.5
280.042	113.5
280.273	161.5
280.505	112.5
280.736	83.5
280.968	88.5
281.199	85.5
281.431	81.5
281.662	72.5
281.894	84.5
282.125	97.5
282.356	114.5
282.588	132.5
282.819	109.5
283.051	93.5
283.282	87.5
283.513	91.5
283.745	102.5
283.976	93.5
284.207	75.5
284.439	86.5
284.67	86.5
284.901	78.5
285.132	94.5
285.364	90.5
285.595	94.5
285.826	80.5
286.057	89.5
286.288	84.5
286.52	88.5
286.751	87.5
286.982	82.5
287.213	98.5
287.444	89.5
287.675	98.5
287.906	82.5
288.138	79.5
288.369	83.5
288.6	76.5
288.831	73.5
289.062	84.5
289.293	103.5
289.524	105.5
289.755	83.5
289.986	82.5
290.217	87.5
290.448	88.5
290.679	84.5
290.91	83.5
291.141	77.5
291.371	85.5
291.602	88.5
291.833	55.5
292.064	88.5
292.295	89.5
292.526	86.5
292.757	89.5
292.987	74.5
293.218	84.5
293.449	91.5
293.68	96.5
293.91	88.5
294.141	101.5
294.372	88.5
294.603	94.5
294.833	78.5
295.064	86.5
295.295	78.5
295.525	79.5
295.756	99.5
295.987	96.5
296.217	135.5
296.448	122.5
296.679	75.5
296.909	86.5
297.14	83.5
297.37	79.5
297.601	85.5
297.831	77.5
298.062	86.5
298.292	87.5
298.523	86.5
298.753	82.5
298.984	80.5
299.214	78.5
299.445	85.5
299.675	85.5
299.905	96.5
300.136	102.5
300.366	96.5
300.597	86.5
300.827	88.5
301.057	101.5
301.288	91.5
301.518	79.5
301.748	80.5
301.979	104.5
302.209	88.5
302.439	98.5
302.669	97.5
302.9	92.5
303.13	100.5
303.36	113.5
303.59	101.5
303.82	89.5
304.051	97.5
304.281	97.5
304.511	85.5
304.741	80.5
304.971	77.5
305.201	90.5
305.431	80.5
305.661	91.5
305.891	88.5
306.121	96.5
306.352	87.5
306.582	101.5
306.812	95.5
307.042	98.5
307.272	120.5
307.502	125.5
307.731	137.5
307.961	100.5
308.191	97.5
308.421	83.5
308.651	88.5
308.881	80.5
309.111	96.5
309.341	94.5
309.571	99.5
309.8	99.5
310.03	100.5
310.26	95.5
310.49	79.5
310.72	98.5
310.949	88.5
311.179	104.5
311.409	88.5
311.639	95.5
311.868	98.5
312.098	91.5
312.328	95.5
312.557	98.5
312.787	103.5
313.017	107.5
313.246	99.5
313.476	93.5
313.706	93.5
313.935	98.5
314.165	81.5
314.394	101.5
314.624	110.5
314.853	91.5
315.083	98.5
315.312	95.5
315.542	85.5
315.771	88.5
316.001	96.5
316.23	90.5
316.46	79.5
316.689	98.5
316.919	81.5
317.148	88.5
317.377	94.5
317.607	89.5
317.836	86.5
318.065	88.5
318.295	82.5
318.524	94.5
318.753	77.5
318.983	88.5
319.212	114.5
319.441	99.5
319.67	96.5
319.9	89.5
320.129	92.5
320.358	88.5
320.587	114.5
320.816	100.5
321.046	88.5
321.275	89.5
321.504	103.5
321.733	89.5
321.962	99.5
322.191	86.5
322.42	97.5
322.649	111.5
322.878	110.5
323.108	109.5
323.337	125.5
323.566	125.5
323.795	164.5
324.024	225.5
324.253	411.5
324.482	877.5
324.71	1809.5
324.939	2381.5
325.168	874.5
325.397	249.5
325.626	136.5
325.855	134.5
326.084	133.5
326.313	145.5
326.542	173.5
326.77	260.5
326.999	484.5
327.228	1001.5
327.457	1799.5
327.686	1447.5
327.914	430.5
328.143	355.5
328.372	383.5
328.6	226.5
328.829	137.5
329.058	145.5
329.287	153.5
329.515	149.5
329.744	186.5
329.972	311.5
330.201	550.5
330.43	767.5
330.658	357.5
330.887	207.5
331.115	146.5
331.344	102.5
331.572	101.5
331.801	114.5
332.03	115.5
332.258	102.5
332.486	102.5
332.715	96.5
332.943	105.5
333.172	103.5
333.4	106.5
333.629	139.5
333.857	159.5
334.085	289.5
334.314	543.5
334.542	973.5
334.771	865.5
334.999	256.5
335.227	144.5
335.455	107.5
335.684	103.5
335.912	96.5
336.14	89.5
336.369	97.5
336.597	97.5
336.825	99.5
337.053	98.5
337.281	98.5
337.51	88.5
337.738	82.5
337.966	99.5
338.194	90.5
338.422	94.5
338.65	97.5
338.878	86.5
339.106	84.5
339.334	99.5
339.562	85.5
339.79	88.5
340.018	94.5
340.246	84.5
340.474	84.5
340.702	82.5
340.93	89.5
341.158	99.5
341.386	98.5
341.614	89.5
341.842	91.5
342.07	80.5
342.298	89.5
342.526	93.5
342.754	91.5
342.981	104.5
343.209	88.5
343.437	111.5
343.665	91.5
343.893	90.5
344.12	99.5
344.348	88.5
344.576	90.5
344.804	102.5
345.031	91.5
345.259	95.5
345.487	103.5
345.714	93.5
345.942	71.5
346.17	76.5
346.397	83.5
346.625	93.5
346.853	90.5
347.08	92.5
347.308	80.5
347.535	86.5
347.763	102.5
347.99	95.5
348.218	107.5
348.445	111.5
348.673	103.5
348.9	91.5
349.128	89.5
349.355	96.5
349.583	107.5
349.81	95.5
350.037	92.5
350.265	93.5
350.492	81.5
350.72	97.5
350.947	102.5
351.174	103.5
351.402	106.5
351.629	98.5
351.856	104.5
352.083	108.5
352.311	102.5
352.538	98.5
352.765	104.5
352.992	114.5
353.22	101.5
353.447	89.5
353.674	104.5
353.901	97.5
354.128	94.5
354.355	96.5
354.583	93.5
354.81	89.5
355.037	100.5
355.264	97.5
355.491	91.5
355.718	85.5
355.945	86.5
356.172	93.5
356.399	102.5
356.626	100.5
356.853	97.5
357.08	84.5
357.307	87.5
357.534	88.5
357.761	97.5
357.988	105.5
358.215	101.5
358.441	89.5
358.668	81.5
358.895	102.5
359.122	93.5
359.349	99.5
359.576	86.5
359.802	93.5
360.029	116.5
360.256	114.5
360.483	98.5
360.709	85.5
360.936	90.5
361.163	90.5
361.39	100.5
361.616	98.5
361.843	92.5
362.07	91.5
362.296	94.5
362.523	95.5
362.749	101.5
362.976	95.5
363.203	98.5
363.429	86.5
363.656	87.5
363.882	83.5
364.109	85.5
364.335	102.5
364.562	87.5
364.788	74.5
365.015	93.5
365.241	104.5
365.468	98.5
365.694	106.5
365.92	82.5
366.147	76.5
366.373	70.5
366.599	71.5
366.826	95.5
367.052	99.5
367.278	78.5
367.505	98.5
367.731	100.5
367.957	94.5
368.184	79.5
368.41	108.5
368.636	103.5
368.862	110.5
369.089	109.5
369.315	90.5
369.541	77.5
369.767	91.5
369.993	85.5
370.219	86.5
370.445	73.5
370.672	86.5
370.898	90.5
371.124	83.5
371.35	86.5
371.576	90.5
371.802	77.5
372.028	87.5
372.254	72.5
372.48	83.5
372.706	84.5
372.932	91.5
373.158	90.5
373.384	87.5
373.61	82.5
373.835	87.5
374.061	85.5
374.287	90.5
374.513	97.5
374.739	91.5
374.965	78.5
375.191	90.5
375.416	100.5
375.642	79.5
375.868	79.5
376.094	90.5
376.319	95.5
376.545	69.5
376.771	68.5
376.997	78.5
377.222	93.5
377.448	93.5
377.674	92.5
377.899	86.5
378.125	99.5
378.35	111.5
378.576	94.5
378.802	74.5
379.027	86.5
379.253	89.5
379.478	102.5
379.704	89.5
379.929	81.5
380.155	89.5
380.38	96.5
380.606	97.5
380.831	106.5
381.057	99.5
381.282	89.5
381.507	92.5
381.733	97.5
381.958	74.5
382.184	92.5
382.409	100.5
382.634	96.5
382.86	107.5
383.085	97.5
383.31	79.5
383.535	94.5
383.761	89.5
383.986	98.5
384.211	90.5
384.436	103.5
384.662	89.5
384.887	78.5
385.112	87.5
385.337	97.5
385.562	99.5
385.787	100.5
386.013	104.5
386.238	97.5
386.463	107.5
386.688	100.5
386.913	111.5
387.138	107.5
387.363	102.5
387.588	106.5
387.813	109.5
388.038	103.5
388.263	114.5
388.488	117.5
388.713	91.5
388.938	93.5
389.163	95.5
389.387	78.5
389.612	91.5
389.837	81.5
390.062	76.5
390.287	89.5
390.512	76.5
390.736	81.5
390.961	82.5
391.186	77.5
391.411	84.5
391.636	84.5
391.86	88.5
392.085	84.5
392.31	94.5
392.534	91.5
392.759	77.5
392.984	73.5
393.208	103.5
393.433	86.5
393.658	83.5
393.882	78.5
394.107	86.5
394.331	88.5
394.556	87.5
394.78	86.5
395.005	85.5
395.229	86.5
395.454	83.5
395.678	69.5
395.903	77.5
396.127	88.5
396.352	94.5
396.576	95.5
396.801	80.5
397.025	72.5
397.249	89.5
397.474	63.5
397.698	83.5
397.922	77.5
398.147	75.5
398.371	85.5
398.595	82.5
398.82	86.5
399.044	89.5
399.268	73.5
399.492	82.5
399.717	92.5
399.941	89.5
400.165	89.5
400.389	90.5
400.613	88.5
400.837	85.5
401.062	74.5
401.286	86.5
401.51	86.5
401.734	85.5
401.958	74.5
402.182	106.5
402.406	151.5
402.63	106.5
402.854	98.5
403.078	97.5
403.302	85.5
403.526	85.5
403.75	95.5
403.974	85.5
404.198	93.5
404.422	88.5
404.645	82.5
404.869	94.5
405.093	103.5
405.317	120.5
405.541	109.5
405.765	105.5
405.988	104.5
406.212	174.5
406.436	233.5
406.66	161.5
406.883	101.5
407.107	94.5
407.331	97.5
407.555	89.5
407.778	91.5
408.002	74.5
408.226	95.5
408.449	77.5
408.673	90.5
408.896	85.5
409.12	85.5
409.344	99.5
409.567	80.5
409.791	90.5
410.014	79.5
410.238	98.5
410.461	86.5
410.685	80.5
410.908	85.5
411.132	104.5
411.355	95.5
411.578	90.5
411.802	88.5
412.025	86.5
412.249	103.5
412.472	108.5
412.695	117.5
412.919	85.5
413.142	96.5
413.365	90.5
413.589	90.5
413.812	85.5
414.035	94.5
414.258	93.5
414.482	87.5
414.705	81.5
414.928	79.5
415.151	94.5
415.374	103.5
415.597	77.5
415.821	83.5
416.044	102.5
416.267	96.5
416.49	87.5
416.713	73.5
416.936	101.5
417.159	97.5
417.382	92.5
417.605	100.5
417.828	88.5
418.051	97.5
418.274	79.5
418.497	86.5
418.72	89.5
418.943	69.5
419.166	84.5
419.389	99.5
419.611	91.5
419.834	86.5
420.057	87.5
420.28	83.5
420.503	85.5
420.726	86.5
420.948	100.5
421.171	94.5
421.394	90.5
421.617	85.5
421.839	98.5
422.062	98.5
422.285	92.5
422.507	89.5
422.73	106.5
422.953	90.5
423.175	74.5
423.398	99.5
423.621	86.5
423.843	86.5
424.066	88.5
424.288	78.5
424.511	104.5
424.733	100.5
424.956	98.5
425.178	96.5
425.401	91.5
425.623	87.5
425.846	88.5
426.068	82.5
426.291	82.5
426.513	81.5
426.735	89.5
426.958	90.5
427.18	122.5
427.402	146.5
427.625	188.5
427.847	180.5
428.069	177.5
428.292	111.5
428.514	82.5
428.736	99.5
428.958	81.5
429.181	88.5
429.403	96.5
429.625	82.5
429.847	85.5
430.069	86.5
430.292	102.5
430.514	97.5
430.736	88.5
430.958	67.5
431.18	76.5
431.402	90.5
431.624	85.5
431.846	76.5
432.068	93.5
432.29	86.5
432.512	79.5
432.734	89.5
432.956	104.5
433.178	82.5
433.4	93.5
433.622	78.5
433.844	83.5
434.066	85.5
434.287	92.5
434.509	84.5
434.731	80.5
434.953	88.5
435.175	100.5
435.397	81.5
435.618	91.5
435.84	104.5
436.062	122.5
436.284	125.5
436.505	101.5
436.727	96.5
436.949	83.5
437.17	80.5
437.392	89.5
437.614	99.5
437.835	97.5
438.057	118.5
438.278	105.5
438.5	105.5
438.721	115.5
438.943	92.5
439.165	98.5
439.386	79.5
439.608	75.5
439.829	95.5
440.05	125.5
440.272	154.5
440.493	91.5
440.715	91.5
440.936	84.5
441.158	89.5
441.379	83.5
441.6	98.5
441.822	101.5
442.043	92.5
442.264	110.5
442.486	101.5
442.707	98.5
442.928	116.5
443.149	150.5
443.371	132.5
443.592	104.5
443.813	130.5
444.034	95.5
444.255	100.5
444.476	87.5
444.698	86.5
444.919	100.5
445.14	120.5
445.361	116.5
445.582	109.5
445.803	139.5
446.024	142.5
446.245	132.5
446.466	109.5
446.687	89.5
446.908	87.5
447.129	103.5
447.35	71.5
447.571	83.5
447.792	100.5
448.013	104.5
448.234	102.5
448.455	112.5
448.675	103.5
448.896	103.5
449.117	100.5
449.338	107.5
449.559	132.5
449.779	152.5
450	97.5
450.221	85.5
450.442	86.5
450.662	103.5
450.883	87.5
451.104	109.5
451.324	107.5
451.545	69.5
451.766	94.5
451.986	78.5
452.207	78.5
452.428	91.5
452.648	88.5
452.869	103.5
453.089	115.5
453.31	118.5
453.53	106.5
453.751	92.5
453.971	90.5
454.192	109.5
454.412	88.5
454.633	85.5
454.853	101.5
455.073	81.5
455.294	90.5
455.514	92.5
455.734	107.5
455.955	101.5
456.175	85.5
456.395	80.5
456.616	79.5
456.836	97.5
457.056	72.5
457.276	84.5
457.497	87.5
457.717	77.5
457.937	86.5
458.157	81.5
458.377	87.5
458.598	108.5
458.818	134.5
459.038	178.5
459.258	113.5
459.478	83.5
459.698	89.5
459.918	89.5
460.138	82.5
460.358	90.5
460.578	81.5
460.798	80.5
461.018	86.5
461.238	93.5
461.458	73.5
461.678	91.5
461.898	84.5
462.118	83.5
462.338	98.5
462.558	80.5
462.777	74.5
462.997	84.5
463.217	109.5
463.437	77.5
463.657	78.5
463.876	84.5
464.096	92.5
464.316	83.5
464.536	86.5
464.755	86.5
464.975	90.5
465.195	155.5
465.414	166.5
465.634	98.5
465.854	98.5
466.073	88.5
466.293	90.5
466.512	77.5
466.732	86.5
466.951	97.5
467.171	82.5
467.391	97.5
467.61	107.5
467.829	156.5
468.049	337.5
468.268	491.5
468.488	158.5
468.707	93.5
468.927	81.5
469.146	97.5
469.365	87.5
469.585	68.5
469.804	89.5
470.023	101.5
470.243	101.5
470.462	99.5
470.681	109.5
470.901	103.5
471.12	99.5
471.339	103.5
471.558	95.5
471.777	112.5
471.997	204.5
472.216	653.5
472.435	1394.5
472.654	346.5
472.873	134.5
473.092	97.5
473.311	97.5
473.53	94.5
473.749	82.5
473.968	96.5
474.187	125.5
474.406	98.5
474.625	76.5
474.844	74.5
475.063	81.5
475.282	81.5
475.501	81.5
475.72	96.5
475.939	83.5
476.158	83.5
476.377	85.5
476.596	85.5
476.814	86.5
477.033	97.5
477.252	98.5
477.471	86.5
477.69	90.5
477.908	106.5
478.127	95.5
478.346	92.5
478.564	99.5
478.783	92.5
479.002	85.5
479.22	101.5
479.439	111.5
479.658	113.5
479.876	106.5
480.095	93.5
480.313	123.5
480.532	113.5
480.751	207.5
480.969	634.5
481.188	2393.5
481.406	1382.5
481.624	237.5
481.843	119.5
482.061	95.5
482.28	80.5
482.498	93.5
482.717	91.5
482.935	95.5
483.153	86.5
483.372	94.5
483.59	95.5
483.808	80.5
484.027	82.5
484.245	88.5
484.463	98.5
484.681	80.5
484.9	90.5
485.118	83.5
485.336	90.5
485.554	99.5
485.772	88.5
485.99	109.5
486.209	100.5
486.427	108.5
486.645	106.5
486.863	115.5
487.081	104.5
487.299	108.5
487.517	95.5
487.735	88.5
487.953	88.5
488.171	95.5
488.389	93.5
488.607	91.5
488.825	90.5
489.043	90.5
489.261	96.5
489.479	91.5
489.696	95.5
489.914	95.5
490.132	88.5
490.35	86.5
490.568	86.5
490.786	82.5
491.003	92.5
491.221	103.5
491.439	100.5
491.657	75.5
491.874	87.5
492.092	96.5
492.31	101.5
492.527	102.5
492.745	97.5
492.963	88.5
493.18	84.5
493.398	85.5
493.615	106.5
493.833	96.5
494.05	90.5
494.268	105.5
494.485	98.5
494.703	87.5
494.92	88.5
495.138	77.5
495.355	99.5
495.573	83.5
495.79	72.5
496.008	89.5
496.225	92.5
496.442	84.5
496.66	86.5
496.877	77.5
497.094	75.5
497.312	98.5
497.529	88.5
497.746	89.5
497.963	109.5
498.181	82.5
498.398	106.5
498.615	123.5
498.832	97.5
499.049	90.5
499.267	86.5
499.484	91.5
499.701	89.5
499.918	72.5
500.135	98.5
500.352	82.5
500.569	90.5
500.786	80.5
501.003	96.5
501.22	96.5
501.437	100.5
501.654	92.5
501.871	102.5
502.088	83.5
502.305	79.5
502.522	82.5
502.739	82.5
502.956	90.5
503.172	68.5
503.389	91.5
503.606	98.5
503.823	99.5
504.04	82.5
504.256	93.5
504.473	79.5
504.69	103.5
504.907	84.5
505.123	89.5
505.34	96.5
505.557	82.5
505.773	98.5
505.99	100.5
506.207	87.5
506.423	74.5
506.64	88.5
506.856	98.5
507.073	83.5
507.289	93.5
507.506	95.5
507.722	105.5
507.939	102.5
508.155	106.5
508.372	97.5
508.588	84.5
508.805	94.5
509.021	79.5
509.238	91.5
509.454	97.5
509.67	107.5
509.887	101.5
510.103	120.5
510.319	206.5
510.536	693.5
510.752	2251.5
510.968	653.5
511.184	155.5
511.401	115.5
511.617	98.5
511.833	97.5
512.049	95.5
512.265	108.5
512.481	90.5
512.698	79.5
512.914	101.5
513.13	96.5
513.346	88.5
513.562	87.5
513.778	92.5
513.994	101.5
514.21	115.5
514.426	127.5
514.642	144.5
514.858	143.5
515.074	165.5
515.29	473.5
515.506	1615.5
515.721	600.5
515.937	178.5
516.153	98.5
516.369	82.5
516.585	103.5
516.801	95.5
517.016	99.5
517.232	93.5
517.448	91.5
517.664	93.5
517.879	96.5
518.095	95.5
518.311	105.5
518.527	89.5
518.742	91.5
518.958	70.5
519.173	90.5
519.389	96.5
519.605	93.5
519.82	98.5
520.036	102.5
520.251	125.5
520.467	106.5
520.682	102.5
520.898	101.5
521.113	132.5
521.329	147.5
521.544	212.5
521.76	604.5
521.975	2609.5
522.19	1573.5
522.406	335.5
522.621	123.5
522.836	103.5
523.052	97.5
523.267	96.5
523.482	87.5
523.698	93.5
523.913	117.5
524.128	109.5
524.343	99.5
524.559	88.5
524.774	88.5
524.989	94.5
525.204	114.5
525.419	105.5
525.634	95.5
525.849	91.5
526.064	91.5
526.28	97.5
526.495	90.5
526.71	90.5
526.925	76.5
527.14	85.5
527.355	87.5
527.57	109.5
527.785	89.5
527.999	85.5
528.214	78.5
528.429	89.5
528.644	84.5
528.859	81.5
529.074	91.5
529.289	125.5
529.503	170.5
529.718	95.5
529.933	105.5
530.148	99.5
530.363	101.5
530.577	91.5
530.792	92.5
531.007	95.5
531.221	88.5
531.436	73.5
531.651	82.5
531.865	88.5
532.08	96.5
532.295	83.5
532.509	86.5
532.724	106.5
532.938	94.5
533.153	85.5
533.367	94.5
533.582	91.5
533.796	77.5
534.011	88.5
534.225	87.5
534.44	85.5
534.654	103.5
534.868	86.5
535.083	96.5
