Data from Circ_2001_H10_HRD10591_00053.txt Node
Date: Wed Jan 03 10:45:49 EST 2024
User: Yrep
Spectrometer: HR+D1059
Trigger mode: 1
Integration Time (sec): 1.000000E-1
Scans to average: 1
Electric dark correction enabled: true
Nonlinearity correction enabled: false
Boxcar width: 0
XAxis mode: Wavelengths
Number of Pixels in Spectrum: 2048
>>>>>Begin Spectral Data<<<<<
223.165	-4.5
223.4	-4.5
223.635	-4.5
223.869	-19.5
224.104	-18.5
224.338	-11.5
224.573	-24.5
224.808	-25.5
225.042	-13.5
225.277	0.5
225.511	4.5
225.746	3.5
225.98	5.5
226.215	8.5
226.449	23.5
226.683	22.5
226.918	26.5
227.152	22.5
227.387	38.5
227.621	34.5
227.856	39.5
228.09	35.5
228.324	54.5
228.559	50.5
228.793	59.5
229.027	62.5
229.262	71.5
229.496	70.5
229.73	87.5
229.964	88.5
230.199	79.5
230.433	63.5
230.667	86.5
230.901	80.5
231.136	82.5
231.37	74.5
231.604	80.5
231.838	81.5
232.072	90.5
232.306	82.5
232.541	86.5
232.775	88.5
233.009	74.5
233.243	67.5
233.477	72.5
233.711	78.5
233.945	92.5
234.179	87.5
234.413	67.5
234.647	73.5
234.881	82.5
235.115	80.5
235.349	71.5
235.583	78.5
235.817	66.5
236.051	76.5
236.285	70.5
236.519	75.5
236.753	83.5
236.987	69.5
237.221	86.5
237.455	87.5
237.689	78.5
237.922	70.5
238.156	87.5
238.39	87.5
238.624	80.5
238.858	72.5
239.091	72.5
239.325	72.5
239.559	67.5
239.793	74.5
240.027	67.5
240.26	64.5
240.494	80.5
240.728	78.5
240.961	81.5
241.195	82.5
241.429	63.5
241.662	70.5
241.896	58.5
242.13	67.5
242.363	86.5
242.597	69.5
242.83	78.5
243.064	67.5
243.298	74.5
243.531	73.5
243.765	67.5
243.998	67.5
244.232	84.5
244.465	76.5
244.699	89.5
244.932	88.5
245.166	87.5
245.399	71.5
245.633	73.5
245.866	82.5
246.099	76.5
246.333	77.5
246.566	62.5
246.8	76.5
247.033	82.5
247.266	57.5
247.5	77.5
247.733	73.5
247.966	87.5
248.2	75.5
248.433	86.5
248.666	75.5
248.899	81.5
249.133	76.5
249.366	101.5
249.599	106.5
249.832	87.5
250.066	83.5
250.299	90.5
250.532	74.5
250.765	79.5
250.998	86.5
251.231	76.5
251.465	85.5
251.698	76.5
251.931	92.5
252.164	93.5
252.397	92.5
252.63	80.5
252.863	71.5
253.096	66.5
253.329	67.5
253.562	65.5
253.795	68.5
254.028	94.5
254.261	64.5
254.494	79.5
254.727	93.5
254.96	68.5
255.193	67.5
255.426	66.5
255.659	91.5
255.892	87.5
256.124	74.5
256.357	80.5
256.59	80.5
256.823	84.5
257.056	89.5
257.289	81.5
257.521	80.5
257.754	70.5
257.987	79.5
258.22	75.5
258.452	81.5
258.685	63.5
258.918	71.5
259.151	81.5
259.383	74.5
259.616	83.5
259.849	80.5
260.081	81.5
260.314	80.5
260.547	82.5
260.779	86.5
261.012	82.5
261.244	85.5
261.477	78.5
261.71	103.5
261.942	99.5
262.175	132.5
262.407	96.5
262.64	78.5
262.872	84.5
263.105	51.5
263.337	88.5
263.57	86.5
263.802	65.5
264.035	79.5
264.267	62.5
264.499	68.5
264.732	84.5
264.964	71.5
265.197	83.5
265.429	80.5
265.661	100.5
265.894	80.5
266.126	82.5
266.358	87.5
266.591	81.5
266.823	81.5
267.055	99.5
267.287	81.5
267.52	83.5
267.752	82.5
267.984	83.5
268.216	84.5
268.448	87.5
268.681	85.5
268.913	80.5
269.145	83.5
269.377	81.5
269.609	73.5
269.841	84.5
270.073	82.5
270.306	78.5
270.538	83.5
270.77	86.5
271.002	87.5
271.234	80.5
271.466	73.5
271.698	96.5
271.93	79.5
272.162	67.5
272.394	85.5
272.626	97.5
272.858	94.5
273.09	87.5
273.322	86.5
273.553	70.5
273.785	88.5
274.017	95.5
274.249	82.5
274.481	80.5
274.713	85.5
274.945	95.5
275.176	82.5
275.408	90.5
275.64	77.5
275.872	96.5
276.104	95.5
276.335	83.5
276.567	105.5
276.799	123.5
277.031	117.5
277.262	123.5
277.494	112.5
277.726	69.5
277.957	90.5
278.189	77.5
278.421	101.5
278.652	82.5
278.884	81.5
279.115	87.5
279.347	76.5
279.579	86.5
279.81	111.5
280.042	123.5
280.273	160.5
280.505	120.5
280.736	90.5
280.968	98.5
281.199	93.5
281.431	82.5
281.662	85.5
281.894	78.5
282.125	96.5
282.356	112.5
282.588	132.5
282.819	116.5
283.051	97.5
283.282	89.5
283.513	90.5
283.745	86.5
283.976	75.5
284.207	89.5
284.439	99.5
284.67	102.5
284.901	85.5
285.132	86.5
285.364	85.5
285.595	85.5
285.826	70.5
286.057	96.5
286.288	88.5
286.52	98.5
286.751	90.5
286.982	81.5
287.213	92.5
287.444	73.5
287.675	83.5
287.906	89.5
288.138	72.5
288.369	80.5
288.6	99.5
288.831	88.5
289.062	72.5
289.293	82.5
289.524	88.5
289.755	78.5
289.986	82.5
290.217	87.5
290.448	82.5
290.679	89.5
290.91	94.5
291.141	78.5
291.371	93.5
291.602	82.5
291.833	83.5
292.064	79.5
292.295	95.5
292.526	91.5
292.757	80.5
292.987	71.5
293.218	87.5
293.449	71.5
293.68	80.5
293.91	94.5
294.141	92.5
294.372	92.5
294.603	98.5
294.833	93.5
295.064	95.5
295.295	88.5
295.525	95.5
295.756	89.5
295.987	102.5
296.217	135.5
296.448	113.5
296.679	76.5
296.909	92.5
297.14	86.5
297.37	84.5
297.601	96.5
297.831	100.5
298.062	95.5
298.292	88.5
298.523	100.5
298.753	98.5
298.984	91.5
299.214	83.5
299.445	82.5
299.675	92.5
299.905	96.5
300.136	89.5
300.366	98.5
300.597	86.5
300.827	98.5
301.057	97.5
301.288	112.5
301.518	88.5
301.748	96.5
301.979	91.5
302.209	90.5
302.439	89.5
302.669	97.5
302.9	93.5
303.13	87.5
303.36	102.5
303.59	108.5
303.82	118.5
304.051	93.5
304.281	92.5
304.511	91.5
304.741	97.5
304.971	93.5
305.201	75.5
305.431	82.5
305.661	99.5
305.891	96.5
306.121	89.5
306.352	104.5
306.582	95.5
306.812	94.5
307.042	98.5
307.272	118.5
307.502	127.5
307.731	108.5
307.961	103.5
308.191	101.5
308.421	98.5
308.651	82.5
308.881	89.5
309.111	102.5
309.341	91.5
309.571	101.5
309.8	112.5
310.03	105.5
310.26	91.5
310.49	88.5
310.72	98.5
310.949	99.5
311.179	90.5
311.409	102.5
311.639	88.5
311.868	99.5
312.098	94.5
312.328	89.5
312.557	97.5
312.787	104.5
313.017	95.5
313.246	99.5
313.476	97.5
313.706	86.5
313.935	97.5
314.165	98.5
314.394	91.5
314.624	103.5
314.853	91.5
315.083	88.5
315.312	99.5
315.542	96.5
315.771	93.5
316.001	98.5
316.23	74.5
316.46	77.5
316.689	99.5
316.919	86.5
317.148	93.5
317.377	90.5
317.607	102.5
317.836	95.5
318.065	94.5
318.295	86.5
318.524	87.5
318.753	97.5
318.983	92.5
319.212	108.5
319.441	111.5
319.67	90.5
319.9	79.5
320.129	87.5
320.358	94.5
320.587	89.5
320.816	87.5
321.046	100.5
321.275	93.5
321.504	90.5
321.733	102.5
321.962	84.5
322.191	115.5
322.42	104.5
322.649	120.5
322.878	111.5
323.108	103.5
323.337	131.5
323.566	118.5
323.795	145.5
324.024	194.5
324.253	376.5
324.482	851.5
324.71	1688.5
324.939	2279.5
325.168	838.5
325.397	245.5
325.626	137.5
325.855	129.5
326.084	127.5
326.313	127.5
326.542	140.5
326.77	231.5
326.999	427.5
327.228	963.5
327.457	1698.5
327.686	1336.5
327.914	403.5
328.143	323.5
328.372	360.5
328.6	209.5
328.829	122.5
329.058	145.5
329.287	124.5
329.515	138.5
329.744	168.5
329.972	276.5
330.201	510.5
330.43	702.5
330.658	338.5
330.887	190.5
331.115	132.5
331.344	113.5
331.572	102.5
331.801	105.5
332.03	103.5
332.258	99.5
332.486	96.5
332.715	107.5
332.943	101.5
333.172	103.5
333.4	101.5
333.629	123.5
333.857	167.5
334.085	264.5
334.314	487.5
334.542	857.5
334.771	798.5
334.999	248.5
335.227	138.5
335.455	98.5
335.684	106.5
335.912	96.5
336.14	107.5
336.369	90.5
336.597	87.5
336.825	101.5
337.053	90.5
337.281	88.5
337.51	86.5
337.738	96.5
337.966	89.5
338.194	94.5
338.422	106.5
338.65	90.5
338.878	95.5
339.106	90.5
339.334	95.5
339.562	84.5
339.79	86.5
340.018	82.5
340.246	95.5
340.474	91.5
340.702	83.5
340.93	89.5
341.158	96.5
341.386	99.5
341.614	103.5
341.842	67.5
342.07	95.5
342.298	87.5
342.526	95.5
342.754	74.5
342.981	92.5
343.209	74.5
343.437	87.5
343.665	91.5
343.893	94.5
344.12	106.5
344.348	98.5
344.576	89.5
344.804	106.5
345.031	101.5
345.259	102.5
345.487	91.5
345.714	98.5
345.942	81.5
346.17	84.5
346.397	81.5
346.625	86.5
346.853	78.5
347.08	88.5
347.308	104.5
347.535	99.5
347.763	84.5
347.99	96.5
348.218	92.5
348.445	110.5
348.673	99.5
348.9	108.5
349.128	98.5
349.355	84.5
349.583	76.5
349.81	92.5
350.037	100.5
350.265	100.5
350.492	95.5
350.72	100.5
350.947	95.5
351.174	103.5
351.402	108.5
351.629	105.5
351.856	102.5
352.083	100.5
352.311	112.5
352.538	108.5
352.765	102.5
352.992	114.5
353.22	94.5
353.447	91.5
353.674	99.5
353.901	88.5
354.128	100.5
354.355	95.5
354.583	91.5
354.81	103.5
355.037	110.5
355.264	87.5
355.491	91.5
355.718	88.5
355.945	91.5
356.172	99.5
356.399	108.5
356.626	84.5
356.853	89.5
357.08	84.5
357.307	79.5
357.534	87.5
357.761	92.5
357.988	91.5
358.215	92.5
358.441	91.5
358.668	89.5
358.895	88.5
359.122	79.5
359.349	99.5
359.576	99.5
359.802	95.5
360.029	94.5
360.256	111.5
360.483	89.5
360.709	98.5
360.936	94.5
361.163	88.5
361.39	95.5
361.616	96.5
361.843	98.5
362.07	92.5
362.296	98.5
362.523	86.5
362.749	89.5
362.976	87.5
363.203	92.5
363.429	103.5
363.656	96.5
363.882	92.5
364.109	84.5
364.335	88.5
364.562	98.5
364.788	95.5
365.015	76.5
365.241	106.5
365.468	102.5
365.694	105.5
365.92	100.5
366.147	84.5
366.373	83.5
366.599	81.5
366.826	84.5
367.052	80.5
367.278	91.5
367.505	91.5
367.731	104.5
367.957	85.5
368.184	86.5
368.41	86.5
368.636	103.5
368.862	107.5
369.089	100.5
369.315	79.5
369.541	101.5
369.767	99.5
369.993	91.5
370.219	97.5
370.445	102.5
370.672	85.5
370.898	76.5
371.124	89.5
371.35	80.5
371.576	88.5
371.802	90.5
372.028	98.5
372.254	81.5
372.48	73.5
372.706	86.5
372.932	90.5
373.158	88.5
373.384	87.5
373.61	94.5
373.835	88.5
374.061	85.5
374.287	88.5
374.513	85.5
374.739	89.5
374.965	80.5
375.191	90.5
375.416	83.5
375.642	84.5
375.868	77.5
376.094	90.5
376.319	83.5
376.545	92.5
376.771	76.5
376.997	91.5
377.222	86.5
377.448	92.5
377.674	77.5
377.899	89.5
378.125	88.5
378.35	81.5
378.576	84.5
378.802	80.5
379.027	97.5
379.253	93.5
379.478	105.5
379.704	87.5
379.929	86.5
380.155	94.5
380.38	87.5
380.606	86.5
380.831	86.5
381.057	87.5
381.282	98.5
381.507	104.5
381.733	94.5
381.958	99.5
382.184	90.5
382.409	84.5
382.634	89.5
382.86	84.5
383.085	105.5
383.31	104.5
383.535	99.5
383.761	106.5
383.986	103.5
384.211	94.5
384.436	109.5
384.662	97.5
384.887	99.5
385.112	104.5
385.337	107.5
385.562	110.5
385.787	107.5
386.013	97.5
386.238	113.5
386.463	104.5
386.688	104.5
386.913	108.5
387.138	103.5
387.363	103.5
387.588	89.5
387.813	96.5
388.038	99.5
388.263	103.5
388.488	108.5
388.713	97.5
388.938	87.5
389.163	98.5
389.387	100.5
389.612	87.5
389.837	90.5
390.062	77.5
390.287	90.5
390.512	80.5
390.736	84.5
390.961	88.5
391.186	87.5
391.411	90.5
391.636	82.5
391.86	72.5
392.085	91.5
392.31	82.5
392.534	80.5
392.759	77.5
392.984	78.5
393.208	93.5
393.433	87.5
393.658	97.5
393.882	89.5
394.107	84.5
394.331	76.5
394.556	81.5
394.78	86.5
395.005	85.5
395.229	105.5
395.454	85.5
395.678	88.5
395.903	82.5
396.127	82.5
396.352	86.5
396.576	74.5
396.801	91.5
397.025	95.5
397.249	83.5
397.474	98.5
397.698	84.5
397.922	84.5
398.147	78.5
398.371	95.5
398.595	74.5
398.82	90.5
399.044	66.5
399.268	88.5
399.492	85.5
399.717	88.5
399.941	81.5
400.165	88.5
400.389	85.5
400.613	82.5
400.837	95.5
401.062	87.5
401.286	82.5
401.51	81.5
401.734	91.5
401.958	90.5
402.182	126.5
402.406	154.5
402.63	108.5
402.854	100.5
403.078	97.5
403.302	77.5
403.526	99.5
403.75	84.5
403.974	80.5
404.198	91.5
404.422	75.5
404.645	89.5
404.869	87.5
405.093	101.5
405.317	103.5
405.541	119.5
405.765	116.5
405.988	111.5
406.212	170.5
406.436	232.5
406.66	168.5
406.883	105.5
407.107	84.5
407.331	97.5
407.555	95.5
407.778	89.5
408.002	88.5
408.226	100.5
408.449	99.5
408.673	92.5
408.896	93.5
409.12	95.5
409.344	75.5
409.567	84.5
409.791	78.5
410.014	96.5
410.238	94.5
410.461	89.5
410.685	83.5
410.908	91.5
411.132	98.5
411.355	92.5
411.578	85.5
411.802	76.5
412.025	96.5
412.249	103.5
412.472	110.5
412.695	116.5
412.919	108.5
413.142	99.5
413.365	96.5
413.589	87.5
413.812	79.5
414.035	77.5
414.258	82.5
414.482	86.5
414.705	87.5
414.928	87.5
415.151	100.5
415.374	79.5
415.597	94.5
415.821	83.5
416.044	83.5
416.267	91.5
416.49	92.5
416.713	91.5
416.936	91.5
417.159	103.5
417.382	83.5
417.605	87.5
417.828	102.5
418.051	100.5
418.274	102.5
418.497	91.5
418.72	95.5
418.943	94.5
419.166	93.5
419.389	104.5
419.611	94.5
419.834	82.5
420.057	91.5
420.28	82.5
420.503	75.5
420.726	90.5
420.948	88.5
421.171	75.5
421.394	95.5
421.617	69.5
421.839	86.5
422.062	73.5
422.285	84.5
422.507	92.5
422.73	97.5
422.953	84.5
423.175	77.5
423.398	88.5
423.621	80.5
423.843	83.5
424.066	72.5
424.288	89.5
424.511	92.5
424.733	92.5
424.956	84.5
425.178	96.5
425.401	101.5
425.623	94.5
425.846	95.5
426.068	100.5
426.291	95.5
426.513	100.5
426.735	90.5
426.958	91.5
427.18	92.5
427.402	135.5
427.625	187.5
427.847	173.5
428.069	165.5
428.292	90.5
428.514	85.5
428.736	91.5
428.958	88.5
429.181	84.5
429.403	91.5
429.625	97.5
429.847	98.5
430.069	83.5
430.292	102.5
430.514	98.5
430.736	82.5
430.958	89.5
431.18	75.5
431.402	83.5
431.624	90.5
431.846	73.5
432.068	87.5
432.29	100.5
432.512	91.5
432.734	96.5
432.956	86.5
433.178	98.5
433.4	91.5
433.622	91.5
433.844	75.5
434.066	93.5
434.287	92.5
434.509	88.5
434.731	75.5
434.953	87.5
435.175	81.5
435.397	95.5
435.618	96.5
435.84	106.5
436.062	100.5
436.284	107.5
436.505	111.5
436.727	110.5
436.949	94.5
437.17	86.5
437.392	95.5
437.614	100.5
437.835	114.5
438.057	120.5
438.278	104.5
438.5	96.5
438.721	108.5
438.943	91.5
439.165	92.5
439.386	83.5
439.608	91.5
439.829	101.5
440.05	108.5
440.272	142.5
440.493	95.5
440.715	83.5
440.936	88.5
441.158	99.5
441.379	78.5
441.6	96.5
441.822	100.5
442.043	92.5
442.264	109.5
442.486	89.5
442.707	83.5
442.928	98.5
443.149	130.5
443.371	115.5
443.592	114.5
443.813	108.5
444.034	100.5
444.255	99.5
444.476	82.5
444.698	83.5
444.919	86.5
445.14	117.5
445.361	123.5
445.582	110.5
445.803	144.5
446.024	143.5
446.245	153.5
446.466	96.5
446.687	88.5
446.908	71.5
447.129	88.5
447.35	99.5
447.571	91.5
447.792	104.5
448.013	98.5
448.234	101.5
448.455	86.5
448.675	107.5
448.896	102.5
449.117	89.5
449.338	103.5
449.559	113.5
449.779	122.5
450	98.5
450.221	83.5
450.442	91.5
450.662	96.5
450.883	88.5
451.104	111.5
451.324	102.5
451.545	83.5
451.766	90.5
451.986	81.5
452.207	86.5
452.428	97.5
452.648	91.5
452.869	100.5
453.089	117.5
453.31	105.5
453.53	93.5
453.751	93.5
453.971	100.5
454.192	103.5
454.412	95.5
454.633	83.5
454.853	95.5
455.073	93.5
455.294	93.5
455.514	83.5
455.734	79.5
455.955	85.5
456.175	95.5
456.395	78.5
456.616	81.5
456.836	73.5
457.056	77.5
457.276	84.5
457.497	79.5
457.717	80.5
457.937	94.5
458.157	87.5
458.377	92.5
458.598	113.5
458.818	163.5
459.038	165.5
459.258	119.5
459.478	88.5
459.698	80.5
459.918	66.5
460.138	83.5
460.358	78.5
460.578	81.5
460.798	87.5
461.018	89.5
461.238	85.5
461.458	88.5
461.678	78.5
461.898	85.5
462.118	81.5
462.338	81.5
462.558	96.5
462.777	75.5
462.997	86.5
463.217	102.5
463.437	84.5
463.657	86.5
463.876	99.5
464.096	98.5
464.316	93.5
464.536	79.5
464.755	90.5
464.975	102.5
465.195	164.5
465.414	174.5
465.634	113.5
465.854	80.5
466.073	82.5
466.293	89.5
466.512	95.5
466.732	106.5
466.951	99.5
467.171	95.5
467.391	95.5
467.61	112.5
467.829	156.5
468.049	306.5
468.268	456.5
468.488	147.5
468.707	112.5
468.927	68.5
469.146	87.5
469.365	90.5
469.585	91.5
469.804	100.5
470.023	85.5
470.243	91.5
470.462	88.5
470.681	115.5
470.901	89.5
471.12	102.5
471.339	91.5
471.558	89.5
471.777	115.5
471.997	202.5
472.216	612.5
472.435	1247.5
472.654	318.5
472.873	135.5
473.092	94.5
473.311	82.5
473.53	76.5
473.749	90.5
473.968	96.5
474.187	110.5
474.406	90.5
474.625	86.5
474.844	96.5
475.063	78.5
475.282	82.5
475.501	98.5
475.72	89.5
475.939	100.5
476.158	75.5
476.377	100.5
476.596	91.5
476.814	92.5
477.033	89.5
477.252	87.5
477.471	86.5
477.69	78.5
477.908	97.5
478.127	97.5
478.346	82.5
478.564	89.5
478.783	100.5
479.002	97.5
479.22	86.5
479.439	96.5
479.658	134.5
479.876	99.5
480.095	89.5
480.313	111.5
480.532	115.5
480.751	193.5
480.969	569.5
481.188	2159.5
481.406	1262.5
481.624	223.5
481.843	107.5
482.061	92.5
482.28	95.5
482.498	80.5
482.717	74.5
482.935	99.5
483.153	84.5
483.372	94.5
483.59	95.5
483.808	74.5
484.027	93.5
484.245	89.5
484.463	93.5
484.681	90.5
484.9	90.5
485.118	95.5
485.336	86.5
485.554	98.5
485.772	91.5
485.99	98.5
486.209	105.5
486.427	107.5
486.645	104.5
486.863	107.5
487.081	92.5
487.299	99.5
487.517	92.5
487.735	87.5
487.953	92.5
488.171	97.5
488.389	99.5
488.607	101.5
488.825	86.5
489.043	84.5
489.261	101.5
489.479	91.5
489.696	82.5
489.914	91.5
490.132	95.5
490.35	87.5
490.568	82.5
490.786	90.5
491.003	83.5
491.221	90.5
491.439	82.5
491.657	96.5
491.874	89.5
492.092	80.5
492.31	88.5
492.527	94.5
492.745	81.5
492.963	99.5
493.18	87.5
493.398	100.5
493.615	103.5
493.833	98.5
494.05	76.5
494.268	75.5
494.485	91.5
494.703	78.5
494.92	85.5
495.138	73.5
495.355	83.5
495.573	90.5
495.79	82.5
496.008	90.5
496.225	98.5
496.442	87.5
496.66	102.5
496.877	86.5
497.094	95.5
497.312	70.5
497.529	84.5
497.746	92.5
497.963	90.5
498.181	83.5
498.398	96.5
498.615	105.5
498.832	109.5
499.049	89.5
499.267	81.5
499.484	85.5
499.701	91.5
499.918	103.5
500.135	72.5
500.352	91.5
500.569	90.5
500.786	83.5
501.003	83.5
501.22	94.5
501.437	88.5
501.654	100.5
501.871	102.5
502.088	96.5
502.305	90.5
502.522	96.5
502.739	96.5
502.956	86.5
503.172	96.5
503.389	86.5
503.606	90.5
503.823	84.5
504.04	88.5
504.256	96.5
504.473	88.5
504.69	77.5
504.907	88.5
505.123	85.5
505.34	100.5
505.557	79.5
505.773	91.5
505.99	98.5
506.207	93.5
506.423	108.5
506.64	88.5
506.856	98.5
507.073	87.5
507.289	82.5
507.506	90.5
507.722	96.5
507.939	117.5
508.155	86.5
508.372	82.5
508.588	87.5
508.805	92.5
509.021	102.5
509.238	96.5
509.454	105.5
509.67	92.5
509.887	95.5
510.103	122.5
510.319	195.5
510.536	720.5
510.752	2279.5
510.968	643.5
511.184	155.5
511.401	113.5
511.617	93.5
511.833	97.5
512.049	102.5
512.265	83.5
512.481	83.5
512.698	97.5
512.914	88.5
513.13	81.5
513.346	98.5
513.562	97.5
513.778	109.5
513.994	122.5
514.21	108.5
514.426	120.5
514.642	152.5
514.858	123.5
515.074	171.5
515.29	463.5
515.506	1590.5
515.721	571.5
515.937	168.5
516.153	121.5
516.369	105.5
516.585	95.5
516.801	88.5
517.016	94.5
517.232	91.5
517.448	81.5
517.664	94.5
517.879	120.5
518.095	85.5
518.311	87.5
518.527	85.5
518.742	96.5
518.958	87.5
519.173	91.5
519.389	82.5
519.605	74.5
519.82	97.5
520.036	104.5
520.251	134.5
520.467	119.5
520.682	116.5
520.898	95.5
521.113	110.5
521.329	147.5
521.544	221.5
521.76	615.5
521.975	2635.5
522.19	1585.5
522.406	339.5
522.621	138.5
522.836	98.5
523.052	91.5
523.267	107.5
523.482	92.5
523.698	90.5
523.913	117.5
524.128	99.5
524.343	84.5
524.559	87.5
524.774	96.5
524.989	93.5
525.204	103.5
525.419	98.5
525.634	98.5
525.849	89.5
526.064	91.5
526.28	89.5
526.495	92.5
526.71	100.5
526.925	97.5
527.14	76.5
527.355	86.5
527.57	95.5
527.785	86.5
527.999	88.5
528.214	94.5
528.429	100.5
528.644	91.5
528.859	83.5
529.074	93.5
529.289	114.5
529.503	188.5
529.718	108.5
529.933	79.5
530.148	79.5
530.363	77.5
530.577	75.5
530.792	90.5
531.007	82.5
531.221	98.5
531.436	92.5
531.651	76.5
531.865	88.5
532.08	87.5
532.295	88.5
532.509	88.5
532.724	80.5
532.938	103.5
533.153	81.5
533.367	79.5
533.582	81.5
533.796	91.5
534.011	91.5
534.225	91.5
534.44	82.5
534.654	94.5
534.868	89.5
535.083	106.5
535.297	80.5
