Data from Circ_2001_H10_HRD10591_00052.txt Node
Date: Wed Jan 03 10:45:49 EST 2024
User: Yrep
Spectrometer: HR+D1059
Trigger mode: 1
Integration Time (sec): 1.000000E-1
Scans to average: 1
Electric dark correction enabled: true
Nonlinearity correction enabled: false
Boxcar width: 0
XAxis mode: Wavelengths
Number of Pixels in Spectrum: 2048
>>>>>Begin Spectral Data<<<<<
223.165	-8.31
223.4	-8.31
223.635	-8.31
223.869	-28.31
224.104	-28.31
224.338	1.69
224.573	-16.31
224.808	-22.31
225.042	-6.31
225.277	5.69
225.511	0.69
225.746	14.69
225.98	5.69
226.215	12.69
226.449	10.69
226.683	25.69
226.918	10.69
227.152	21.69
227.387	47.69
227.621	22.69
227.856	38.69
228.09	57.69
228.324	51.69
228.559	58.69
228.793	58.69
229.027	66.69
229.262	51.69
229.496	56.69
229.73	69.69
229.964	76.69
230.199	75.69
230.433	81.69
230.667	62.69
230.901	79.69
231.136	63.69
231.37	70.69
231.604	63.69
231.838	81.69
232.072	87.69
232.306	75.69
232.541	81.69
232.775	81.69
233.009	80.69
233.243	65.69
233.477	78.69
233.711	82.69
233.945	74.69
234.179	73.69
234.413	72.69
234.647	79.69
234.881	89.69
235.115	65.69
235.349	89.69
235.583	87.69
235.817	89.69
236.051	82.69
236.285	72.69
236.519	94.69
236.753	85.69
236.987	68.69
237.221	66.69
237.455	81.69
237.689	73.69
237.922	82.69
238.156	69.69
238.39	66.69
238.624	76.69
238.858	81.69
239.091	79.69
239.325	86.69
239.559	82.69
239.793	71.69
240.027	78.69
240.26	78.69
240.494	90.69
240.728	78.69
240.961	75.69
241.195	73.69
241.429	78.69
241.662	75.69
241.896	77.69
242.13	71.69
242.363	64.69
242.597	69.69
242.83	69.69
243.064	74.69
243.298	71.69
243.531	80.69
243.765	85.69
243.998	78.69
244.232	77.69
244.465	77.69
244.699	75.69
244.932	82.69
245.166	86.69
245.399	85.69
245.633	51.69
245.866	70.69
246.099	81.69
246.333	56.69
246.566	78.69
246.8	63.69
247.033	72.69
247.266	83.69
247.5	80.69
247.733	85.69
247.966	79.69
248.2	80.69
248.433	85.69
248.666	73.69
248.899	90.69
249.133	90.69
249.366	91.69
249.599	95.69
249.832	63.69
250.066	86.69
250.299	63.69
250.532	82.69
250.765	79.69
250.998	84.69
251.231	89.69
251.465	58.69
251.698	79.69
251.931	71.69
252.164	77.69
252.397	86.69
252.63	83.69
252.863	66.69
253.096	73.69
253.329	73.69
253.562	81.69
253.795	87.69
254.028	73.69
254.261	75.69
254.494	91.69
254.727	94.69
254.96	70.69
255.193	89.69
255.426	78.69
255.659	79.69
255.892	71.69
256.124	82.69
256.357	81.69
256.59	79.69
256.823	84.69
257.056	81.69
257.289	88.69
257.521	80.69
257.754	66.69
257.987	89.69
258.22	88.69
258.452	76.69
258.685	85.69
258.918	90.69
259.151	87.69
259.383	69.69
259.616	73.69
259.849	86.69
260.081	67.69
260.314	81.69
260.547	93.69
260.779	83.69
261.012	97.69
261.244	97.69
261.477	109.69
261.71	99.69
261.942	112.69
262.175	112.69
262.407	85.69
262.64	88.69
262.872	89.69
263.105	81.69
263.337	87.69
263.57	79.69
263.802	73.69
264.035	62.69
264.267	85.69
264.499	88.69
264.732	81.69
264.964	75.69
265.197	82.69
265.429	82.69
265.661	75.69
265.894	75.69
266.126	85.69
266.358	90.69
266.591	77.69
266.823	81.69
267.055	86.69
267.287	102.69
267.52	81.69
267.752	80.69
267.984	87.69
268.216	79.69
268.448	89.69
268.681	91.69
268.913	85.69
269.145	80.69
269.377	74.69
269.609	80.69
269.841	84.69
270.073	67.69
270.306	88.69
270.538	88.69
270.77	76.69
271.002	84.69
271.234	83.69
271.466	87.69
271.698	85.69
271.93	77.69
272.162	84.69
272.394	83.69
272.626	85.69
272.858	88.69
273.09	79.69
273.322	83.69
273.553	77.69
273.785	96.69
274.017	74.69
274.249	85.69
274.481	90.69
274.713	72.69
274.945	76.69
275.176	89.69
275.408	75.69
275.64	104.69
275.872	107.69
276.104	96.69
276.335	79.69
276.567	86.69
276.799	105.69
277.031	123.69
277.262	127.69
277.494	103.69
277.726	101.69
277.957	87.69
278.189	101.69
278.421	95.69
278.652	88.69
278.884	95.69
279.115	92.69
279.347	94.69
279.579	75.69
279.81	104.69
280.042	141.69
280.273	143.69
280.505	119.69
280.736	91.69
280.968	91.69
281.199	84.69
281.431	85.69
281.662	80.69
281.894	85.69
282.125	97.69
282.356	120.69
282.588	137.69
282.819	99.69
283.051	102.69
283.282	81.69
283.513	81.69
283.745	89.69
283.976	97.69
284.207	77.69
284.439	88.69
284.67	82.69
284.901	80.69
285.132	74.69
285.364	80.69
285.595	80.69
285.826	74.69
286.057	91.69
286.288	80.69
286.52	95.69
286.751	88.69
286.982	71.69
287.213	91.69
287.444	82.69
287.675	104.69
287.906	80.69
288.138	73.69
288.369	96.69
288.6	86.69
288.831	98.69
289.062	94.69
289.293	91.69
289.524	74.69
289.755	94.69
289.986	83.69
290.217	86.69
290.448	79.69
290.679	83.69
290.91	94.69
291.141	98.69
291.371	81.69
291.602	94.69
291.833	88.69
292.064	88.69
292.295	86.69
292.526	94.69
292.757	81.69
292.987	91.69
293.218	86.69
293.449	93.69
293.68	92.69
293.91	96.69
294.141	81.69
294.372	81.69
294.603	98.69
294.833	82.69
295.064	93.69
295.295	77.69
295.525	97.69
295.756	107.69
295.987	109.69
296.217	143.69
296.448	123.69
296.679	92.69
296.909	90.69
297.14	87.69
297.37	86.69
297.601	86.69
297.831	88.69
298.062	70.69
298.292	98.69
298.523	83.69
298.753	96.69
298.984	94.69
299.214	90.69
299.445	77.69
299.675	82.69
299.905	93.69
300.136	91.69
300.366	96.69
300.597	96.69
300.827	91.69
301.057	98.69
301.288	110.69
301.518	97.69
301.748	85.69
301.979	99.69
302.209	81.69
302.439	95.69
302.669	101.69
302.9	81.69
303.13	65.69
303.36	91.69
303.59	112.69
303.82	106.69
304.051	99.69
304.281	66.69
304.511	93.69
304.741	77.69
304.971	94.69
305.201	94.69
305.431	85.69
305.661	88.69
305.891	84.69
306.121	87.69
306.352	95.69
306.582	99.69
306.812	102.69
307.042	112.69
307.272	110.69
307.502	135.69
307.731	137.69
307.961	104.69
308.191	73.69
308.421	88.69
308.651	101.69
308.881	87.69
309.111	87.69
309.341	91.69
309.571	87.69
309.8	101.69
310.03	94.69
310.26	102.69
310.49	100.69
310.72	82.69
310.949	90.69
311.179	100.69
311.409	90.69
311.639	92.69
311.868	86.69
312.098	79.69
312.328	101.69
312.557	94.69
312.787	104.69
313.017	100.69
313.246	90.69
313.476	94.69
313.706	81.69
313.935	102.69
314.165	96.69
314.394	112.69
314.624	91.69
314.853	97.69
315.083	101.69
315.312	100.69
315.542	81.69
315.771	91.69
316.001	99.69
316.23	96.69
316.46	80.69
316.689	81.69
316.919	90.69
317.148	96.69
317.377	89.69
317.607	93.69
317.836	91.69
318.065	100.69
318.295	89.69
318.524	83.69
318.753	91.69
318.983	102.69
319.212	102.69
319.441	94.69
319.67	114.69
319.9	98.69
320.129	101.69
320.358	109.69
320.587	94.69
320.816	97.69
321.046	95.69
321.275	90.69
321.504	104.69
321.733	81.69
321.962	99.69
322.191	96.69
322.42	101.69
322.649	96.69
322.878	112.69
323.108	100.69
323.337	120.69
323.566	129.69
323.795	128.69
324.024	212.69
324.253	386.69
324.482	816.69
324.71	1680.69
324.939	2157.69
325.168	799.69
325.397	258.69
325.626	130.69
325.855	130.69
326.084	114.69
326.313	133.69
326.542	143.69
326.77	216.69
326.999	453.69
327.228	947.69
327.457	1674.69
327.686	1332.69
327.914	436.69
328.143	331.69
328.372	381.69
328.6	235.69
328.829	147.69
329.058	145.69
329.287	144.69
329.515	129.69
329.744	175.69
329.972	288.69
330.201	537.69
330.43	743.69
330.658	353.69
330.887	198.69
331.115	129.69
331.344	90.69
331.572	109.69
331.801	89.69
332.03	109.69
332.258	98.69
332.486	95.69
332.715	116.69
332.943	109.69
333.172	97.69
333.4	117.69
333.629	122.69
333.857	163.69
334.085	266.69
334.314	526.69
334.542	949.69
334.771	870.69
334.999	246.69
335.227	129.69
335.455	93.69
335.684	97.69
335.912	97.69
336.14	84.69
336.369	105.69
336.597	98.69
336.825	101.69
337.053	89.69
337.281	87.69
337.51	91.69
337.738	86.69
337.966	92.69
338.194	103.69
338.422	88.69
338.65	78.69
338.878	87.69
339.106	81.69
339.334	94.69
339.562	84.69
339.79	75.69
340.018	80.69
340.246	103.69
340.474	88.69
340.702	97.69
340.93	88.69
341.158	90.69
341.386	101.69
341.614	85.69
341.842	87.69
342.07	86.69
342.298	80.69
342.526	98.69
342.754	98.69
342.981	94.69
343.209	97.69
343.437	82.69
343.665	91.69
343.893	85.69
344.12	86.69
344.348	87.69
344.576	99.69
344.804	66.69
345.031	91.69
345.259	101.69
345.487	93.69
345.714	104.69
345.942	89.69
346.17	82.69
346.397	93.69
346.625	92.69
346.853	82.69
347.08	79.69
347.308	90.69
347.535	91.69
347.763	88.69
347.99	101.69
348.218	101.69
348.445	93.69
348.673	104.69
348.9	101.69
349.128	88.69
349.355	75.69
349.583	91.69
349.81	81.69
350.037	83.69
350.265	89.69
350.492	91.69
350.72	92.69
350.947	85.69
351.174	108.69
351.402	104.69
351.629	97.69
351.856	91.69
352.083	105.69
352.311	107.69
352.538	107.69
352.765	105.69
352.992	101.69
353.22	126.69
353.447	111.69
353.674	94.69
353.901	101.69
354.128	100.69
354.355	90.69
354.583	99.69
354.81	103.69
355.037	88.69
355.264	83.69
355.491	85.69
355.718	93.69
355.945	97.69
356.172	95.69
356.399	86.69
356.626	82.69
356.853	88.69
357.08	84.69
357.307	89.69
357.534	77.69
357.761	81.69
357.988	87.69
358.215	91.69
358.441	90.69
358.668	95.69
358.895	75.69
359.122	85.69
359.349	94.69
359.576	84.69
359.802	97.69
360.029	105.69
360.256	118.69
360.483	107.69
360.709	91.69
360.936	87.69
361.163	89.69
361.39	88.69
361.616	98.69
361.843	83.69
362.07	89.69
362.296	102.69
362.523	85.69
362.749	94.69
362.976	97.69
363.203	96.69
363.429	86.69
363.656	99.69
363.882	105.69
364.109	82.69
364.335	94.69
364.562	78.69
364.788	79.69
365.015	87.69
365.241	80.69
365.468	107.69
365.694	97.69
365.92	86.69
366.147	79.69
366.373	82.69
366.599	97.69
366.826	81.69
367.052	84.69
367.278	90.69
367.505	90.69
367.731	104.69
367.957	95.69
368.184	87.69
368.41	88.69
368.636	98.69
368.862	110.69
369.089	111.69
369.315	90.69
369.541	91.69
369.767	77.69
369.993	85.69
370.219	79.69
370.445	87.69
370.672	105.69
370.898	91.69
371.124	82.69
371.35	103.69
371.576	84.69
371.802	85.69
372.028	74.69
372.254	88.69
372.48	94.69
372.706	97.69
372.932	82.69
373.158	81.69
373.384	74.69
373.61	79.69
373.835	85.69
374.061	95.69
374.287	91.69
374.513	91.69
374.739	75.69
374.965	79.69
375.191	84.69
375.416	96.69
375.642	80.69
375.868	83.69
376.094	81.69
376.319	88.69
376.545	90.69
376.771	85.69
376.997	86.69
377.222	94.69
377.448	96.69
377.674	79.69
377.899	86.69
378.125	92.69
378.35	94.69
378.576	87.69
378.802	90.69
379.027	84.69
379.253	93.69
379.478	89.69
379.704	97.69
379.929	82.69
380.155	88.69
380.38	92.69
380.606	109.69
380.831	103.69
381.057	84.69
381.282	87.69
381.507	79.69
381.733	90.69
381.958	97.69
382.184	101.69
382.409	91.69
382.634	95.69
382.86	99.69
383.085	88.69
383.31	92.69
383.535	94.69
383.761	97.69
383.986	102.69
384.211	97.69
384.436	103.69
384.662	104.69
384.887	96.69
385.112	97.69
385.337	101.69
385.562	86.69
385.787	87.69
386.013	109.69
386.238	101.69
386.463	98.69
386.688	108.69
386.913	99.69
387.138	95.69
387.363	97.69
387.588	95.69
387.813	89.69
388.038	87.69
388.263	107.69
388.488	98.69
388.713	88.69
388.938	89.69
389.163	90.69
389.387	83.69
389.612	93.69
389.837	89.69
390.062	76.69
390.287	94.69
390.512	83.69
390.736	91.69
390.961	104.69
391.186	86.69
391.411	79.69
391.636	95.69
391.86	92.69
392.085	73.69
392.31	83.69
392.534	87.69
392.759	88.69
392.984	79.69
393.208	72.69
393.433	100.69
393.658	90.69
393.882	90.69
394.107	90.69
394.331	84.69
394.556	84.69
394.78	85.69
395.005	82.69
395.229	87.69
395.454	93.69
395.678	101.69
395.903	83.69
396.127	102.69
396.352	77.69
396.576	98.69
396.801	87.69
397.025	79.69
397.249	81.69
397.474	80.69
397.698	87.69
397.922	101.69
398.147	77.69
398.371	95.69
398.595	84.69
398.82	80.69
399.044	98.69
399.268	96.69
399.492	83.69
399.717	69.69
399.941	83.69
400.165	95.69
400.389	91.69
400.613	94.69
400.837	83.69
401.062	85.69
401.286	81.69
401.51	91.69
401.734	94.69
401.958	92.69
402.182	131.69
402.406	149.69
402.63	125.69
402.854	90.69
403.078	89.69
403.302	89.69
403.526	72.69
403.75	71.69
403.974	87.69
404.198	77.69
404.422	87.69
404.645	84.69
404.869	86.69
405.093	97.69
405.317	114.69
405.541	127.69
405.765	109.69
405.988	122.69
406.212	170.69
406.436	196.69
406.66	159.69
406.883	97.69
407.107	94.69
407.331	112.69
407.555	98.69
407.778	100.69
408.002	90.69
408.226	77.69
408.449	96.69
408.673	91.69
408.896	104.69
409.12	85.69
409.344	88.69
409.567	102.69
409.791	79.69
410.014	97.69
410.238	78.69
410.461	73.69
410.685	86.69
410.908	86.69
411.132	91.69
411.355	80.69
411.578	82.69
411.802	99.69
412.025	94.69
412.249	91.69
412.472	89.69
412.695	114.69
412.919	102.69
413.142	86.69
413.365	101.69
413.589	91.69
413.812	88.69
414.035	95.69
414.258	85.69
414.482	82.69
414.705	88.69
414.928	82.69
415.151	85.69
415.374	101.69
415.597	85.69
415.821	85.69
416.044	75.69
416.267	81.69
416.49	79.69
416.713	95.69
416.936	88.69
417.159	77.69
417.382	88.69
417.605	86.69
417.828	95.69
418.051	103.69
418.274	80.69
418.497	88.69
418.72	91.69
418.943	97.69
419.166	79.69
419.389	91.69
419.611	90.69
419.834	90.69
420.057	91.69
420.28	90.69
420.503	93.69
420.726	98.69
420.948	86.69
421.171	88.69
421.394	88.69
421.617	72.69
421.839	94.69
422.062	86.69
422.285	94.69
422.507	98.69
422.73	86.69
422.953	78.69
423.175	99.69
423.398	90.69
423.621	77.69
423.843	88.69
424.066	72.69
424.288	92.69
424.511	89.69
424.733	88.69
424.956	98.69
425.178	88.69
425.401	99.69
425.623	103.69
425.846	99.69
426.068	86.69
426.291	90.69
426.513	75.69
426.735	89.69
426.958	75.69
427.18	101.69
427.402	148.69
427.625	199.69
427.847	180.69
428.069	178.69
428.292	88.69
428.514	97.69
428.736	77.69
428.958	87.69
429.181	85.69
429.403	79.69
429.625	83.69
429.847	107.69
430.069	96.69
430.292	99.69
430.514	82.69
430.736	78.69
430.958	84.69
431.18	67.69
431.402	71.69
431.624	95.69
431.846	96.69
432.068	89.69
432.29	95.69
432.512	97.69
432.734	75.69
432.956	97.69
433.178	97.69
433.4	93.69
433.622	83.69
433.844	89.69
434.066	102.69
434.287	89.69
434.509	101.69
434.731	87.69
434.953	90.69
435.175	88.69
435.397	85.69
435.618	95.69
435.84	117.69
436.062	114.69
436.284	121.69
436.505	97.69
436.727	95.69
436.949	105.69
437.17	98.69
437.392	71.69
437.614	93.69
437.835	96.69
438.057	102.69
438.278	102.69
438.5	109.69
438.721	120.69
438.943	99.69
439.165	75.69
439.386	72.69
439.608	95.69
439.829	93.69
440.05	128.69
440.272	139.69
440.493	99.69
440.715	89.69
440.936	81.69
441.158	85.69
441.379	79.69
441.6	81.69
441.822	92.69
442.043	108.69
442.264	105.69
442.486	109.69
442.707	105.69
442.928	108.69
443.149	121.69
443.371	127.69
443.592	97.69
443.813	104.69
444.034	102.69
444.255	89.69
444.476	84.69
444.698	86.69
444.919	86.69
445.14	141.69
445.361	129.69
445.582	95.69
445.803	133.69
446.024	145.69
446.245	132.69
446.466	104.69
446.687	84.69
446.908	83.69
447.129	77.69
447.35	92.69
447.571	92.69
447.792	94.69
448.013	87.69
448.234	100.69
448.455	98.69
448.675	100.69
448.896	109.69
449.117	98.69
449.338	99.69
449.559	122.69
449.779	131.69
450	85.69
450.221	84.69
450.442	105.69
450.662	91.69
450.883	96.69
451.104	97.69
451.324	88.69
451.545	87.69
451.766	82.69
451.986	86.69
452.207	90.69
452.428	95.69
452.648	100.69
452.869	110.69
453.089	118.69
453.31	120.69
453.53	100.69
453.751	86.69
453.971	100.69
454.192	111.69
454.412	98.69
454.633	84.69
454.853	73.69
455.073	83.69
455.294	78.69
455.514	103.69
455.734	98.69
455.955	90.69
456.175	87.69
456.395	79.69
456.616	70.69
456.836	89.69
457.056	85.69
457.276	89.69
457.497	91.69
457.717	94.69
457.937	73.69
458.157	81.69
458.377	98.69
458.598	106.69
458.818	154.69
459.038	156.69
459.258	109.69
459.478	86.69
459.698	89.69
459.918	95.69
460.138	80.69
460.358	83.69
460.578	77.69
460.798	79.69
461.018	99.69
461.238	78.69
461.458	79.69
461.678	79.69
461.898	88.69
462.118	84.69
462.338	77.69
462.558	78.69
462.777	101.69
462.997	91.69
463.217	84.69
463.437	85.69
463.657	101.69
463.876	90.69
464.096	88.69
464.316	91.69
464.536	78.69
464.755	99.69
464.975	100.69
465.195	164.69
465.414	170.69
465.634	91.69
465.854	73.69
466.073	85.69
466.293	89.69
466.512	86.69
466.732	84.69
466.951	97.69
467.171	97.69
467.391	103.69
467.61	121.69
467.829	144.69
468.049	312.69
468.268	466.69
468.488	138.69
468.707	87.69
468.927	91.69
469.146	90.69
469.365	89.69
469.585	89.69
469.804	103.69
470.023	80.69
470.243	84.69
470.462	94.69
470.681	119.69
470.901	104.69
471.12	96.69
471.339	99.69
471.558	114.69
471.777	119.69
471.997	206.69
472.216	638.69
472.435	1284.69
472.654	329.69
472.873	124.69
473.092	105.69
473.311	100.69
473.53	97.69
473.749	85.69
473.968	86.69
474.187	103.69
474.406	93.69
474.625	89.69
474.844	91.69
475.063	83.69
475.282	95.69
475.501	88.69
475.72	88.69
475.939	69.69
476.158	97.69
476.377	87.69
476.596	75.69
476.814	98.69
477.033	97.69
477.252	92.69
477.471	77.69
477.69	80.69
477.908	100.69
478.127	88.69
478.346	84.69
478.564	90.69
478.783	104.69
479.002	111.69
479.22	90.69
479.439	102.69
479.658	115.69
479.876	96.69
480.095	116.69
480.313	107.69
480.532	121.69
480.751	201.69
480.969	596.69
481.188	2279.69
481.406	1312.69
481.624	234.69
481.843	116.69
482.061	94.69
482.28	94.69
482.498	84.69
482.717	97.69
482.935	97.69
483.153	84.69
483.372	90.69
483.59	98.69
483.808	78.69
484.027	82.69
484.245	102.69
484.463	85.69
484.681	89.69
484.9	88.69
485.118	87.69
485.336	88.69
485.554	112.69
485.772	98.69
485.99	111.69
486.209	116.69
486.427	119.69
486.645	124.69
486.863	111.69
487.081	101.69
487.299	79.69
487.517	100.69
487.735	96.69
487.953	87.69
488.171	89.69
488.389	85.69
488.607	95.69
488.825	94.69
489.043	91.69
489.261	91.69
489.479	99.69
489.696	81.69
489.914	83.69
490.132	82.69
490.35	87.69
490.568	90.69
490.786	91.69
491.003	98.69
491.221	103.69
491.439	79.69
491.657	96.69
491.874	87.69
492.092	91.69
492.31	88.69
492.527	90.69
492.745	87.69
492.963	81.69
493.18	80.69
493.398	94.69
493.615	89.69
493.833	88.69
494.05	78.69
494.268	72.69
494.485	97.69
494.703	73.69
494.92	100.69
495.138	81.69
495.355	103.69
495.573	99.69
495.79	83.69
496.008	82.69
496.225	99.69
496.442	82.69
496.66	91.69
496.877	92.69
497.094	98.69
497.312	87.69
497.529	96.69
497.746	80.69
497.963	81.69
498.181	86.69
498.398	96.69
498.615	106.69
498.832	97.69
499.049	92.69
499.267	100.69
499.484	93.69
499.701	99.69
499.918	102.69
500.135	83.69
500.352	85.69
500.569	110.69
500.786	94.69
501.003	83.69
501.22	87.69
501.437	77.69
501.654	80.69
501.871	88.69
502.088	97.69
502.305	88.69
502.522	78.69
502.739	91.69
502.956	90.69
503.172	92.69
503.389	86.69
503.606	114.69
503.823	97.69
504.04	84.69
504.256	85.69
504.473	100.69
504.69	80.69
504.907	93.69
505.123	81.69
505.34	65.69
505.557	83.69
505.773	94.69
505.99	80.69
506.207	85.69
506.423	90.69
506.64	97.69
506.856	98.69
507.073	98.69
507.289	94.69
507.506	95.69
507.722	106.69
507.939	106.69
508.155	92.69
508.372	87.69
508.588	90.69
508.805	91.69
509.021	87.69
509.238	98.69
509.454	95.69
509.67	104.69
509.887	98.69
510.103	119.69
510.319	195.69
510.536	643.69
510.752	2090.69
510.968	592.69
511.184	151.69
511.401	99.69
511.617	102.69
511.833	97.69
512.049	89.69
512.265	95.69
512.481	86.69
512.698	94.69
512.914	97.69
513.13	73.69
513.346	81.69
513.562	95.69
513.778	98.69
513.994	111.69
514.21	90.69
514.426	113.69
514.642	145.69
514.858	127.69
515.074	174.69
515.29	460.69
515.506	1490.69
515.721	564.69
515.937	165.69
