Data from Circ_2001_H10_HRD10591_00087.txt Node
Date: Wed Jan 03 10:45:56 EST 2024
User: Yrep
Spectrometer: HR+D1059
Trigger mode: 1
Integration Time (sec): 1.000000E-1
Scans to average: 1
Electric dark correction enabled: true
Nonlinearity correction enabled: false
Boxcar width: 0
XAxis mode: Wavelengths
Number of Pixels in Spectrum: 2048
>>>>>Begin Spectral Data<<<<<
223.165	-14.69
223.4	-14.69
223.635	-14.69
223.869	-27.69
224.104	-26.69
224.338	-15.69
224.573	-15.69
224.808	-13.69
225.042	2.31
225.277	-10.69
225.511	-6.69
225.746	-0.69
225.98	12.31
226.215	5.31
226.449	26.31
226.683	30.31
226.918	16.31
227.152	39.31
227.387	42.31
227.621	47.31
227.856	45.31
228.09	52.31
228.324	62.31
228.559	46.31
228.793	76.31
229.027	72.31
229.262	66.31
229.496	83.31
229.73	102.31
229.964	75.31
230.199	73.31
230.433	97.31
230.667	87.31
230.901	96.31
231.136	75.31
231.37	73.31
231.604	89.31
231.838	90.31
232.072	77.31
232.306	82.31
232.541	96.31
232.775	76.31
233.009	85.31
233.243	86.31
233.477	100.31
233.711	85.31
233.945	71.31
234.179	80.31
234.413	86.31
234.647	88.31
234.881	88.31
235.115	87.31
235.349	74.31
235.583	88.31
235.817	83.31
236.051	74.31
236.285	80.31
236.519	78.31
236.753	71.31
236.987	80.31
237.221	84.31
237.455	94.31
237.689	77.31
237.922	91.31
238.156	80.31
238.39	77.31
238.624	82.31
238.858	84.31
239.091	80.31
239.325	78.31
239.559	81.31
239.793	85.31
240.027	87.31
240.26	80.31
240.494	69.31
240.728	81.31
240.961	67.31
241.195	77.31
241.429	93.31
241.662	82.31
241.896	84.31
242.13	91.31
242.363	93.31
242.597	74.31
242.83	81.31
243.064	77.31
243.298	79.31
243.531	64.31
243.765	83.31
243.998	74.31
244.232	86.31
244.465	101.31
244.699	100.31
244.932	91.31
245.166	94.31
245.399	76.31
245.633	94.31
245.866	78.31
246.099	72.31
246.333	73.31
246.566	83.31
246.8	83.31
247.033	85.31
247.266	88.31
247.5	86.31
247.733	81.31
247.966	83.31
248.2	76.31
248.433	79.31
248.666	74.31
248.899	83.31
249.133	99.31
249.366	100.31
249.599	105.31
249.832	86.31
250.066	80.31
250.299	92.31
250.532	91.31
250.765	94.31
250.998	86.31
251.231	74.31
251.465	84.31
251.698	87.31
251.931	88.31
252.164	85.31
252.397	64.31
252.63	86.31
252.863	70.31
253.096	93.31
253.329	81.31
253.562	90.31
253.795	83.31
254.028	91.31
254.261	88.31
254.494	87.31
254.727	78.31
254.96	76.31
255.193	68.31
255.426	70.31
255.659	87.31
255.892	94.31
256.124	91.31
256.357	96.31
256.59	79.31
256.823	91.31
257.056	83.31
257.289	92.31
257.521	85.31
257.754	86.31
257.987	81.31
258.22	90.31
258.452	96.31
258.685	93.31
258.918	76.31
259.151	88.31
259.383	91.31
259.616	75.31
259.849	83.31
260.081	91.31
260.314	83.31
260.547	91.31
260.779	84.31
261.012	105.31
261.244	101.31
261.477	112.31
261.71	106.31
261.942	117.31
262.175	128.31
262.407	94.31
262.64	86.31
262.872	91.31
263.105	76.31
263.337	79.31
263.57	91.31
263.802	80.31
264.035	87.31
264.267	86.31
264.499	78.31
264.732	94.31
264.964	81.31
265.197	94.31
265.429	96.31
265.661	102.31
265.894	87.31
266.126	90.31
266.358	87.31
266.591	87.31
266.823	93.31
267.055	88.31
267.287	84.31
267.52	86.31
267.752	94.31
267.984	85.31
268.216	97.31
268.448	90.31
268.681	86.31
268.913	89.31
269.145	90.31
269.377	93.31
269.609	74.31
269.841	100.31
270.073	104.31
270.306	96.31
270.538	88.31
270.77	85.31
271.002	79.31
271.234	79.31
271.466	84.31
271.698	82.31
271.93	80.31
272.162	88.31
272.394	92.31
272.626	80.31
272.858	81.31
273.09	96.31
273.322	89.31
273.553	81.31
273.785	98.31
274.017	93.31
274.249	88.31
274.481	83.31
274.713	91.31
274.945	84.31
275.176	95.31
275.408	96.31
275.64	112.31
275.872	106.31
276.104	99.31
276.335	99.31
276.567	97.31
276.799	132.31
277.031	147.31
277.262	166.31
277.494	130.31
277.726	96.31
277.957	100.31
278.189	92.31
278.421	89.31
278.652	86.31
278.884	95.31
279.115	100.31
279.347	87.31
279.579	97.31
279.81	116.31
280.042	161.31
280.273	221.31
280.505	150.31
280.736	90.31
280.968	99.31
281.199	100.31
281.431	94.31
281.662	90.31
281.894	100.31
282.125	108.31
282.356	117.31
282.588	155.31
282.819	109.31
283.051	93.31
283.282	89.31
283.513	101.31
283.745	100.31
283.976	104.31
284.207	92.31
284.439	78.31
284.67	102.31
284.901	95.31
285.132	98.31
285.364	91.31
285.595	91.31
285.826	96.31
286.057	90.31
286.288	103.31
286.52	84.31
286.751	86.31
286.982	87.31
287.213	94.31
287.444	92.31
287.675	99.31
287.906	103.31
288.138	103.31
288.369	105.31
288.6	110.31
288.831	80.31
289.062	95.31
289.293	77.31
289.524	83.31
289.755	89.31
289.986	102.31
290.217	93.31
290.448	93.31
290.679	67.31
290.91	101.31
291.141	84.31
291.371	87.31
291.602	85.31
291.833	70.31
292.064	99.31
292.295	95.31
292.526	82.31
292.757	83.31
292.987	98.31
293.218	89.31
293.449	95.31
293.68	84.31
293.91	90.31
294.141	96.31
294.372	95.31
294.603	92.31
294.833	94.31
295.064	91.31
295.295	90.31
295.525	99.31
295.756	105.31
295.987	135.31
296.217	150.31
296.448	119.31
296.679	95.31
296.909	92.31
297.14	91.31
297.37	95.31
297.601	91.31
297.831	103.31
298.062	101.31
298.292	100.31
298.523	106.31
298.753	94.31
298.984	91.31
299.214	104.31
299.445	99.31
299.675	102.31
299.905	100.31
300.136	95.31
300.366	88.31
300.597	85.31
300.827	101.31
301.057	102.31
301.288	108.31
301.518	112.31
301.748	104.31
301.979	98.31
302.209	89.31
302.439	96.31
302.669	93.31
302.9	106.31
303.13	96.31
303.36	102.31
303.59	125.31
303.82	124.31
304.051	86.31
304.281	94.31
304.511	94.31
304.741	75.31
304.971	94.31
305.201	100.31
305.431	99.31
305.661	96.31
305.891	104.31
306.121	94.31
306.352	125.31
306.582	108.31
306.812	103.31
307.042	112.31
307.272	152.31
307.502	152.31
307.731	155.31
307.961	110.31
308.191	93.31
308.421	96.31
308.651	99.31
308.881	104.31
309.111	100.31
309.341	113.31
309.571	101.31
309.8	90.31
310.03	116.31
310.26	106.31
310.49	104.31
310.72	99.31
310.949	114.31
311.179	101.31
311.409	100.31
311.639	100.31
311.868	96.31
312.098	100.31
312.328	107.31
312.557	104.31
312.787	107.31
313.017	96.31
313.246	101.31
313.476	104.31
313.706	96.31
313.935	104.31
314.165	105.31
314.394	107.31
314.624	107.31
314.853	107.31
315.083	91.31
315.312	96.31
315.542	106.31
315.771	101.31
316.001	89.31
316.23	88.31
316.46	93.31
316.689	87.31
316.919	115.31
317.148	106.31
317.377	89.31
317.607	102.31
317.836	104.31
318.065	101.31
318.295	80.31
318.524	97.31
318.753	87.31
318.983	90.31
319.212	111.31
319.441	115.31
319.67	109.31
319.9	124.31
320.129	99.31
320.358	91.31
320.587	93.31
320.816	93.31
321.046	110.31
321.275	111.31
321.504	100.31
321.733	97.31
321.962	97.31
322.191	89.31
322.42	99.31
322.649	112.31
322.878	115.31
323.108	128.31
323.337	146.31
323.566	142.31
323.795	186.31
324.024	241.31
324.253	478.31
324.482	1000.31
324.71	2064.31
324.939	2667.31
325.168	998.31
325.397	280.31
325.626	168.31
325.855	139.31
326.084	147.31
326.313	152.31
326.542	161.31
326.77	266.31
326.999	536.31
327.228	1116.31
327.457	2028.31
327.686	1567.31
327.914	523.31
328.143	450.31
328.372	523.31
328.6	307.31
328.829	168.31
329.058	164.31
329.287	178.31
329.515	160.31
329.744	229.31
329.972	388.31
330.201	787.31
330.43	1068.31
330.658	516.31
330.887	228.31
331.115	173.31
331.344	127.31
331.572	132.31
331.801	126.31
332.03	122.31
332.258	108.31
332.486	104.31
332.715	112.31
332.943	118.31
333.172	126.31
333.4	121.31
333.629	150.31
333.857	219.31
334.085	359.31
334.314	746.31
334.542	1370.31
334.771	1269.31
334.999	345.31
335.227	157.31
335.455	115.31
335.684	109.31
335.912	121.31
336.14	93.31
336.369	110.31
336.597	110.31
336.825	95.31
337.053	91.31
337.281	95.31
337.51	105.31
337.738	88.31
337.966	102.31
338.194	106.31
338.422	114.31
338.65	107.31
338.878	99.31
339.106	105.31
339.334	108.31
339.562	88.31
339.79	92.31
340.018	100.31
340.246	94.31
340.474	103.31
340.702	105.31
340.93	103.31
341.158	92.31
341.386	101.31
341.614	94.31
341.842	102.31
342.07	103.31
342.298	101.31
342.526	98.31
342.754	88.31
342.981	93.31
343.209	93.31
343.437	100.31
343.665	93.31
343.893	94.31
344.12	96.31
344.348	104.31
344.576	98.31
344.804	87.31
345.031	94.31
345.259	95.31
345.487	89.31
345.714	106.31
345.942	96.31
346.17	89.31
346.397	83.31
346.625	87.31
346.853	102.31
347.08	88.31
347.308	95.31
347.535	111.31
347.763	115.31
347.99	115.31
348.218	105.31
348.445	122.31
348.673	108.31
348.9	94.31
349.128	82.31
349.355	96.31
349.583	95.31
349.81	105.31
350.037	92.31
350.265	101.31
350.492	104.31
350.72	104.31
350.947	104.31
351.174	109.31
351.402	122.31
351.629	111.31
351.856	103.31
352.083	103.31
352.311	111.31
352.538	99.31
352.765	120.31
352.992	118.31
353.22	125.31
353.447	106.31
353.674	95.31
353.901	110.31
354.128	93.31
354.355	90.31
354.583	101.31
354.81	90.31
355.037	94.31
355.264	92.31
355.491	101.31
355.718	88.31
355.945	87.31
356.172	106.31
356.399	111.31
356.626	106.31
356.853	89.31
357.08	99.31
357.307	104.31
357.534	87.31
357.761	93.31
357.988	86.31
358.215	88.31
358.441	98.31
358.668	92.31
358.895	86.31
359.122	105.31
359.349	93.31
359.576	94.31
359.802	107.31
360.029	121.31
360.256	115.31
360.483	113.31
360.709	99.31
360.936	91.31
361.163	97.31
361.39	90.31
361.616	107.31
361.843	87.31
362.07	112.31
362.296	101.31
362.523	90.31
362.749	83.31
362.976	109.31
363.203	91.31
363.429	91.31
363.656	106.31
363.882	101.31
364.109	90.31
364.335	98.31
364.562	95.31
364.788	98.31
365.015	103.31
365.241	99.31
365.468	117.31
365.694	136.31
365.92	107.31
366.147	90.31
366.373	95.31
366.599	107.31
366.826	98.31
367.052	101.31
367.278	101.31
367.505	105.31
367.731	98.31
367.957	97.31
368.184	86.31
368.41	102.31
368.636	121.31
368.862	125.31
369.089	110.31
369.315	103.31
369.541	98.31
369.767	86.31
369.993	97.31
370.219	89.31
370.445	91.31
370.672	93.31
370.898	84.31
371.124	101.31
371.35	85.31
371.576	94.31
371.802	89.31
372.028	79.31
372.254	82.31
372.48	83.31
372.706	98.31
372.932	91.31
373.158	85.31
373.384	92.31
373.61	93.31
373.835	86.31
374.061	82.31
374.287	93.31
374.513	106.31
374.739	99.31
374.965	98.31
375.191	98.31
375.416	86.31
375.642	87.31
375.868	88.31
376.094	94.31
376.319	105.31
376.545	91.31
376.771	81.31
376.997	90.31
377.222	115.31
377.448	93.31
377.674	90.31
377.899	87.31
378.125	95.31
378.35	96.31
378.576	96.31
378.802	90.31
379.027	88.31
379.253	98.31
379.478	88.31
379.704	101.31
379.929	90.31
380.155	80.31
380.38	89.31
380.606	97.31
380.831	90.31
381.057	100.31
381.282	93.31
381.507	84.31
381.733	92.31
381.958	104.31
382.184	88.31
382.409	104.31
382.634	109.31
382.86	109.31
383.085	96.31
383.31	93.31
383.535	94.31
383.761	98.31
383.986	91.31
384.211	96.31
384.436	96.31
384.662	96.31
384.887	93.31
385.112	107.31
385.337	103.31
385.562	96.31
385.787	94.31
386.013	122.31
386.238	119.31
386.463	109.31
386.688	102.31
386.913	108.31
387.138	101.31
387.363	109.31
387.588	80.31
387.813	105.31
388.038	94.31
388.263	101.31
388.488	95.31
388.713	96.31
388.938	96.31
389.163	93.31
389.387	88.31
389.612	95.31
389.837	92.31
390.062	103.31
390.287	96.31
390.512	91.31
390.736	88.31
390.961	89.31
391.186	92.31
391.411	91.31
391.636	87.31
391.86	99.31
392.085	95.31
392.31	94.31
392.534	101.31
392.759	93.31
392.984	77.31
393.208	87.31
393.433	100.31
393.658	83.31
393.882	79.31
394.107	94.31
394.331	101.31
394.556	77.31
394.78	85.31
395.005	86.31
395.229	88.31
395.454	90.31
395.678	80.31
395.903	87.31
396.127	85.31
396.352	70.31
396.576	93.31
396.801	86.31
397.025	90.31
397.249	93.31
397.474	94.31
397.698	88.31
397.922	92.31
398.147	88.31
398.371	101.31
398.595	90.31
398.82	99.31
399.044	84.31
399.268	95.31
399.492	90.31
399.717	76.31
399.941	106.31
400.165	89.31
400.389	104.31
400.613	90.31
400.837	102.31
401.062	90.31
401.286	91.31
401.51	94.31
401.734	96.31
401.958	109.31
402.182	152.31
402.406	188.31
402.63	132.31
402.854	95.31
403.078	95.31
403.302	88.31
403.526	97.31
403.75	99.31
403.974	95.31
404.198	95.31
404.422	100.31
404.645	78.31
404.869	105.31
405.093	119.31
405.317	144.31
405.541	132.31
405.765	107.31
405.988	122.31
406.212	198.31
406.436	257.31
406.66	180.31
406.883	117.31
407.107	100.31
407.331	114.31
407.555	105.31
407.778	108.31
408.002	100.31
408.226	99.31
408.449	113.31
408.673	100.31
408.896	99.31
409.12	108.31
409.344	89.31
409.567	88.31
409.791	88.31
410.014	85.31
410.238	93.31
410.461	89.31
410.685	96.31
410.908	96.31
411.132	103.31
411.355	84.31
411.578	93.31
411.802	82.31
412.025	87.31
412.249	102.31
412.472	107.31
412.695	125.31
412.919	112.31
413.142	108.31
413.365	96.31
413.589	89.31
413.812	88.31
414.035	103.31
414.258	99.31
414.482	88.31
414.705	97.31
414.928	79.31
415.151	93.31
415.374	95.31
415.597	87.31
415.821	98.31
416.044	103.31
416.267	104.31
416.49	99.31
416.713	87.31
416.936	101.31
417.159	88.31
417.382	105.31
417.605	98.31
417.828	118.31
418.051	103.31
418.274	94.31
418.497	114.31
418.72	99.31
418.943	87.31
419.166	105.31
419.389	90.31
419.611	92.31
419.834	94.31
420.057	90.31
420.28	87.31
420.503	91.31
420.726	102.31
420.948	87.31
421.171	92.31
421.394	101.31
421.617	98.31
421.839	100.31
422.062	86.31
422.285	102.31
422.507	102.31
422.73	106.31
422.953	97.31
423.175	89.31
423.398	92.31
423.621	86.31
423.843	84.31
424.066	82.31
424.288	104.31
424.511	93.31
424.733	103.31
424.956	111.31
425.178	96.31
425.401	106.31
425.623	104.31
425.846	104.31
426.068	100.31
426.291	100.31
426.513	92.31
426.735	104.31
426.958	101.31
427.18	105.31
427.402	170.31
427.625	224.31
427.847	208.31
428.069	213.31
428.292	126.31
428.514	101.31
428.736	108.31
428.958	73.31
429.181	79.31
429.403	82.31
429.625	89.31
429.847	97.31
430.069	111.31
430.292	105.31
430.514	96.31
430.736	77.31
430.958	74.31
431.18	91.31
431.402	94.31
431.624	89.31
431.846	85.31
432.068	100.31
432.29	91.31
432.512	90.31
432.734	89.31
432.956	108.31
433.178	113.31
433.4	101.31
433.622	120.31
433.844	106.31
434.066	110.31
434.287	87.31
434.509	94.31
434.731	96.31
434.953	85.31
435.175	94.31
435.397	95.31
435.618	96.31
435.84	102.31
436.062	153.31
436.284	124.31
436.505	111.31
436.727	101.31
436.949	96.31
437.17	91.31
437.392	97.31
437.614	112.31
437.835	120.31
438.057	126.31
438.278	130.31
438.5	100.31
438.721	139.31
438.943	110.31
439.165	77.31
439.386	83.31
439.608	94.31
439.829	104.31
440.05	139.31
440.272	172.31
440.493	109.31
440.715	93.31
440.936	86.31
441.158	96.31
441.379	94.31
441.6	97.31
441.822	112.31
442.043	95.31
442.264	124.31
442.486	102.31
442.707	91.31
442.928	102.31
443.149	158.31
443.371	156.31
443.592	123.31
443.813	135.31
444.034	108.31
444.255	111.31
444.476	100.31
444.698	91.31
444.919	102.31
445.14	139.31
445.361	127.31
445.582	125.31
445.803	155.31
446.024	153.31
446.245	164.31
446.466	127.31
446.687	103.31
446.908	86.31
447.129	89.31
447.35	86.31
447.571	86.31
447.792	96.31
448.013	105.31
448.234	107.31
448.455	101.31
448.675	117.31
448.896	142.31
449.117	101.31
449.338	111.31
449.559	141.31
449.779	151.31
450	114.31
450.221	114.31
450.442	89.31
450.662	106.31
450.883	126.31
451.104	117.31
451.324	105.31
451.545	96.31
451.766	100.31
451.986	104.31
452.207	105.31
452.428	106.31
452.648	117.31
452.869	111.31
453.089	106.31
453.31	147.31
453.53	91.31
453.751	94.31
453.971	110.31
454.192	125.31
454.412	108.31
454.633	85.31
454.853	95.31
455.073	95.31
455.294	96.31
455.514	107.31
455.734	97.31
455.955	102.31
456.175	91.31
456.395	91.31
456.616	97.31
456.836	96.31
457.056	106.31
457.276	82.31
457.497	85.31
457.717	80.31
457.937	93.31
458.157	100.31
458.377	108.31
458.598	117.31
458.818	178.31
459.038	203.31
459.258	121.31
459.478	91.31
459.698	91.31
459.918	94.31
460.138	88.31
460.358	95.31
460.578	99.31
460.798	90.31
461.018	110.31
461.238	100.31
461.458	88.31
461.678	95.31
461.898	75.31
462.118	89.31
462.338	106.31
462.558	80.31
462.777	93.31
462.997	100.31
463.217	111.31
463.437	86.31
463.657	92.31
463.876	89.31
464.096	87.31
464.316	101.31
464.536	110.31
464.755	107.31
464.975	134.31
465.195	204.31
465.414	206.31
465.634	105.31
465.854	105.31
466.073	99.31
466.293	100.31
466.512	103.31
466.732	93.31
466.951	85.31
467.171	111.31
467.391	130.31
467.61	137.31
467.829	190.31
468.049	474.31
468.268	661.31
468.488	189.31
468.707	116.31
468.927	95.31
469.146	99.31
469.365	103.31
469.585	80.31
469.804	114.31
470.023	102.31
470.243	104.31
470.462	103.31
470.681	135.31
470.901	88.31
471.12	106.31
471.339	103.31
471.558	125.31
471.777	118.31
471.997	263.31
472.216	926.31
472.435	1912.31
472.654	468.31
472.873	144.31
473.092	117.31
473.311	96.31
473.53	106.31
473.749	94.31
473.968	112.31
474.187	106.31
474.406	99.31
474.625	91.31
474.844	93.31
475.063	79.31
475.282	90.31
475.501	98.31
475.72	93.31
475.939	100.31
476.158	92.31
476.377	83.31
476.596	108.31
476.814	99.31
477.033	108.31
477.252	104.31
477.471	106.31
477.69	99.31
477.908	113.31
478.127	92.31
478.346	106.31
478.564	104.31
478.783	115.31
479.002	104.31
479.22	100.31
479.439	122.31
479.658	119.31
479.876	130.31
480.095	129.31
480.313	123.31
480.532	146.31
480.751	253.31
480.969	831.31
481.188	3422.31
481.406	1960.31
481.624	314.31
481.843	134.31
482.061	119.31
482.28	95.31
482.498	102.31
482.717	105.31
482.935	102.31
483.153	103.31
483.372	83.31
483.59	100.31
483.808	83.31
484.027	80.31
484.245	91.31
484.463	96.31
484.681	95.31
484.9	95.31
485.118	87.31
485.336	114.31
485.554	107.31
485.772	103.31
485.99	99.31
486.209	94.31
486.427	99.31
486.645	113.31
486.863	114.31
487.081	92.31
487.299	102.31
487.517	107.31
487.735	104.31
487.953	92.31
488.171	94.31
488.389	95.31
488.607	96.31
488.825	106.31
489.043	93.31
489.261	92.31
489.479	94.31
489.696	103.31
489.914	94.31
490.132	80.31
490.35	87.31
490.568	95.31
490.786	87.31
491.003	106.31
491.221	79.31
491.439	90.31
491.657	96.31
491.874	105.31
492.092	101.31
492.31	92.31
492.527	100.31
492.745	93.31
492.963	96.31
493.18	89.31
493.398	97.31
493.615	101.31
493.833	101.31
494.05	80.31
494.268	82.31
494.485	98.31
494.703	89.31
494.92	91.31
495.138	74.31
495.355	84.31
495.573	90.31
495.79	102.31
496.008	97.31
496.225	93.31
496.442	99.31
496.66	106.31
496.877	103.31
497.094	86.31
497.312	101.31
497.529	91.31
497.746	104.31
497.963	98.31
498.181	105.31
498.398	108.31
498.615	111.31
498.832	107.31
499.049	94.31
499.267	95.31
499.484	90.31
499.701	90.31
499.918	94.31
500.135	90.31
500.352	100.31
500.569	96.31
500.786	110.31
501.003	95.31
501.22	90.31
501.437	79.31
501.654	103.31
501.871	124.31
502.088	103.31
502.305	101.31
502.522	96.31
502.739	86.31
502.956	81.31
503.172	105.31
503.389	103.31
503.606	116.31
503.823	107.31
504.04	91.31
504.256	94.31
504.473	95.31
504.69	92.31
504.907	84.31
505.123	81.31
505.34	94.31
505.557	105.31
505.773	99.31
505.99	90.31
506.207	99.31
506.423	90.31
506.64	93.31
506.856	101.31
507.073	82.31
507.289	78.31
507.506	111.31
507.722	126.31
507.939	130.31
508.155	113.31
508.372	97.31
508.588	108.31
508.805	102.31
509.021	105.31
509.238	105.31
509.454	105.31
509.67	109.31
509.887	115.31
510.103	121.31
510.319	229.31
510.536	787.31
510.752	2478.31
510.968	700.31
511.184	190.31
511.401	130.31
511.617	100.31
511.833	102.31
512.049	91.31
512.265	96.31
