Data from Circ_2001_H10_HRD10591_00017.txt Node
Date: Wed Jan 03 10:45:42 EST 2024
User: Yrep
Spectrometer: HR+D1059
Trigger mode: 1
Integration Time (sec): 1.000000E-1
Scans to average: 1
Electric dark correction enabled: true
Nonlinearity correction enabled: false
Boxcar width: 0
XAxis mode: Wavelengths
Number of Pixels in Spectrum: 2048
>>>>>Begin Spectral Data<<<<<
223.165	-11.31
223.4	-11.31
223.635	-11.31
223.869	-35.31
224.104	-9.31
224.338	-7.31
224.573	-9.31
224.808	-6.31
225.042	-10.31
225.277	-12.31
225.511	0.69
225.746	0.69
225.98	3.69
226.215	17.69
226.449	11.69
226.683	14.69
226.918	22.69
227.152	29.69
227.387	49.69
227.621	42.69
227.856	37.69
228.09	38.69
228.324	45.69
228.559	55.69
228.793	75.69
229.027	76.69
229.262	72.69
229.496	79.69
229.73	86.69
229.964	74.69
230.199	87.69
230.433	86.69
230.667	79.69
230.901	86.69
231.136	89.69
231.37	77.69
231.604	78.69
231.838	79.69
232.072	71.69
232.306	82.69
232.541	63.69
232.775	77.69
233.009	84.69
233.243	73.69
233.477	88.69
233.711	77.69
233.945	77.69
234.179	86.69
234.413	83.69
234.647	79.69
234.881	82.69
235.115	78.69
235.349	96.69
235.583	83.69
235.817	60.69
236.051	71.69
236.285	69.69
236.519	83.69
236.753	72.69
236.987	70.69
237.221	91.69
237.455	90.69
237.689	75.69
237.922	73.69
238.156	75.69
238.39	69.69
238.624	72.69
238.858	69.69
239.091	73.69
239.325	71.69
239.559	69.69
239.793	65.69
240.027	64.69
240.26	79.69
240.494	66.69
240.728	69.69
240.961	70.69
241.195	75.69
241.429	71.69
241.662	65.69
241.896	83.69
242.13	81.69
242.363	75.69
242.597	69.69
242.83	75.69
243.064	84.69
243.298	80.69
243.531	110.69
243.765	75.69
243.998	75.69
244.232	96.69
244.465	100.69
244.699	87.69
244.932	90.69
245.166	86.69
245.399	74.69
245.633	89.69
245.866	84.69
246.099	80.69
246.333	69.69
246.566	77.69
246.8	72.69
247.033	84.69
247.266	82.69
247.5	77.69
247.733	65.69
247.966	79.69
248.2	84.69
248.433	75.69
248.666	80.69
248.899	84.69
249.133	89.69
249.366	89.69
249.599	99.69
249.832	73.69
250.066	88.69
250.299	88.69
250.532	89.69
250.765	74.69
250.998	73.69
251.231	63.69
251.465	86.69
251.698	89.69
251.931	76.69
252.164	90.69
252.397	74.69
252.63	74.69
252.863	92.69
253.096	89.69
253.329	75.69
253.562	85.69
253.795	67.69
254.028	88.69
254.261	81.69
254.494	77.69
254.727	67.69
254.96	88.69
255.193	76.69
255.426	82.69
255.659	66.69
255.892	88.69
256.124	93.69
256.357	81.69
256.59	74.69
256.823	71.69
257.056	84.69
257.289	73.69
257.521	79.69
257.754	82.69
257.987	79.69
258.22	90.69
258.452	96.69
258.685	91.69
258.918	81.69
259.151	75.69
259.383	84.69
259.616	73.69
259.849	85.69
260.081	88.69
260.314	81.69
260.547	90.69
260.779	79.69
261.012	97.69
261.244	95.69
261.477	88.69
261.71	94.69
261.942	101.69
262.175	122.69
262.407	98.69
262.64	87.69
262.872	69.69
263.105	106.69
263.337	93.69
263.57	83.69
263.802	74.69
264.035	72.69
264.267	86.69
264.499	91.69
264.732	85.69
264.964	90.69
265.197	88.69
265.429	82.69
265.661	90.69
265.894	83.69
266.126	76.69
266.358	87.69
266.591	79.69
266.823	86.69
267.055	77.69
267.287	85.69
267.52	87.69
267.752	84.69
267.984	83.69
268.216	88.69
268.448	97.69
268.681	78.69
268.913	79.69
269.145	97.69
269.377	88.69
269.609	74.69
269.841	85.69
270.073	79.69
270.306	97.69
270.538	89.69
270.77	81.69
271.002	83.69
271.234	88.69
271.466	91.69
271.698	85.69
271.93	72.69
272.162	74.69
272.394	76.69
272.626	86.69
272.858	86.69
273.09	80.69
273.322	95.69
273.553	72.69
273.785	87.69
274.017	85.69
274.249	88.69
274.481	83.69
274.713	93.69
274.945	81.69
275.176	81.69
275.408	100.69
275.64	105.69
275.872	98.69
276.104	97.69
276.335	91.69
276.567	100.69
276.799	117.69
277.031	125.69
277.262	142.69
277.494	129.69
277.726	93.69
277.957	87.69
278.189	94.69
278.421	87.69
278.652	97.69
278.884	92.69
279.115	79.69
279.347	81.69
279.579	97.69
279.81	116.69
280.042	142.69
280.273	183.69
280.505	123.69
280.736	98.69
280.968	85.69
281.199	95.69
281.431	106.69
281.662	88.69
281.894	80.69
282.125	93.69
282.356	131.69
282.588	163.69
282.819	112.69
283.051	87.69
283.282	95.69
283.513	74.69
283.745	75.69
283.976	81.69
284.207	82.69
284.439	84.69
284.67	85.69
284.901	77.69
285.132	79.69
285.364	83.69
285.595	82.69
285.826	103.69
286.057	93.69
286.288	74.69
286.52	83.69
286.751	74.69
286.982	93.69
287.213	87.69
287.444	89.69
287.675	101.69
287.906	98.69
288.138	99.69
288.369	95.69
288.6	80.69
288.831	100.69
289.062	90.69
289.293	91.69
289.524	101.69
289.755	96.69
289.986	73.69
290.217	91.69
290.448	102.69
290.679	97.69
290.91	84.69
291.141	82.69
291.371	79.69
291.602	89.69
291.833	85.69
292.064	88.69
292.295	79.69
292.526	88.69
292.757	97.69
292.987	89.69
293.218	83.69
293.449	75.69
293.68	77.69
293.91	74.69
294.141	80.69
294.372	90.69
294.603	99.69
294.833	93.69
295.064	95.69
295.295	88.69
295.525	87.69
295.756	110.69
295.987	118.69
296.217	141.69
296.448	130.69
296.679	98.69
296.909	83.69
297.14	95.69
297.37	93.69
297.601	82.69
297.831	94.69
298.062	108.69
298.292	88.69
298.523	84.69
298.753	85.69
298.984	83.69
299.214	85.69
299.445	83.69
299.675	99.69
299.905	83.69
300.136	88.69
300.366	71.69
300.597	85.69
300.827	87.69
301.057	85.69
301.288	101.69
301.518	109.69
301.748	105.69
301.979	109.69
302.209	103.69
302.439	102.69
302.669	77.69
302.9	93.69
303.13	90.69
303.36	107.69
303.59	119.69
303.82	110.69
304.051	109.69
304.281	90.69
304.511	100.69
304.741	89.69
304.971	69.69
305.201	104.69
305.431	84.69
305.661	83.69
305.891	84.69
306.121	107.69
306.352	89.69
306.582	97.69
306.812	103.69
307.042	103.69
307.272	125.69
307.502	131.69
307.731	135.69
307.961	109.69
308.191	90.69
308.421	84.69
308.651	91.69
308.881	83.69
309.111	77.69
309.341	98.69
309.571	106.69
309.8	93.69
310.03	104.69
310.26	99.69
310.49	111.69
310.72	108.69
310.949	115.69
311.179	91.69
311.409	90.69
311.639	91.69
311.868	99.69
312.098	105.69
312.328	91.69
312.557	89.69
312.787	105.69
313.017	110.69
313.246	96.69
313.476	84.69
313.706	95.69
313.935	102.69
314.165	99.69
314.394	107.69
314.624	109.69
314.853	101.69
315.083	99.69
315.312	91.69
315.542	77.69
315.771	89.69
316.001	85.69
316.23	98.69
316.46	95.69
316.689	93.69
316.919	92.69
317.148	107.69
317.377	90.69
317.607	92.69
317.836	93.69
318.065	96.69
318.295	94.69
318.524	89.69
318.753	91.69
318.983	94.69
319.212	110.69
319.441	116.69
319.67	94.69
319.9	94.69
320.129	91.69
320.358	104.69
320.587	103.69
320.816	104.69
321.046	110.69
321.275	99.69
321.504	89.69
321.733	103.69
321.962	91.69
322.191	108.69
322.42	112.69
322.649	114.69
322.878	114.69
323.108	111.69
323.337	129.69
323.566	129.69
323.795	164.69
324.024	210.69
324.253	395.69
324.482	883.69
324.71	1817.69
324.939	2367.69
325.168	887.69
325.397	265.69
325.626	157.69
325.855	139.69
326.084	127.69
326.313	143.69
326.542	167.69
326.77	237.69
326.999	467.69
327.228	982.69
327.457	1780.69
327.686	1412.69
327.914	443.69
328.143	383.69
328.372	407.69
328.6	245.69
328.829	158.69
329.058	154.69
329.287	158.69
329.515	131.69
329.744	175.69
329.972	312.69
330.201	579.69
330.43	816.69
330.658	394.69
330.887	218.69
331.115	136.69
331.344	107.69
331.572	115.69
331.801	114.69
332.03	102.69
332.258	117.69
332.486	102.69
332.715	107.69
332.943	103.69
333.172	121.69
333.4	99.69
333.629	116.69
333.857	187.69
334.085	283.69
334.314	562.69
334.542	1033.69
334.771	940.69
334.999	283.69
335.227	144.69
335.455	131.69
335.684	121.69
335.912	98.69
336.14	90.69
336.369	105.69
336.597	113.69
336.825	112.69
337.053	92.69
337.281	100.69
337.51	99.69
337.738	99.69
337.966	93.69
338.194	107.69
338.422	95.69
338.65	99.69
338.878	87.69
339.106	90.69
339.334	80.69
339.562	108.69
339.79	94.69
340.018	94.69
340.246	93.69
340.474	93.69
340.702	102.69
340.93	92.69
341.158	84.69
341.386	105.69
341.614	90.69
341.842	91.69
342.07	94.69
342.298	98.69
342.526	101.69
342.754	99.69
342.981	90.69
343.209	93.69
343.437	91.69
343.665	75.69
343.893	74.69
344.12	105.69
344.348	93.69
344.576	98.69
344.804	85.69
345.031	100.69
345.259	102.69
345.487	98.69
345.714	92.69
345.942	107.69
346.17	82.69
346.397	93.69
346.625	88.69
346.853	98.69
347.08	96.69
347.308	101.69
347.535	108.69
347.763	112.69
347.99	91.69
348.218	98.69
348.445	113.69
348.673	107.69
348.9	101.69
349.128	97.69
349.355	84.69
349.583	95.69
349.81	111.69
350.037	88.69
350.265	91.69
350.492	93.69
350.72	84.69
350.947	97.69
351.174	93.69
351.402	115.69
351.629	107.69
351.856	116.69
352.083	119.69
352.311	113.69
352.538	125.69
352.765	112.69
352.992	127.69
353.22	115.69
353.447	117.69
353.674	89.69
353.901	102.69
354.128	98.69
354.355	93.69
354.583	95.69
354.81	88.69
355.037	95.69
355.264	101.69
355.491	90.69
355.718	88.69
355.945	101.69
356.172	93.69
356.399	111.69
356.626	85.69
356.853	97.69
357.08	91.69
357.307	91.69
357.534	101.69
357.761	85.69
357.988	104.69
358.215	103.69
358.441	108.69
358.668	100.69
358.895	87.69
359.122	87.69
359.349	97.69
359.576	85.69
359.802	103.69
360.029	100.69
360.256	122.69
360.483	99.69
360.709	88.69
360.936	99.69
361.163	77.69
361.39	91.69
361.616	88.69
361.843	90.69
362.07	89.69
362.296	100.69
362.523	87.69
362.749	98.69
362.976	98.69
363.203	99.69
363.429	80.69
363.656	91.69
363.882	101.69
364.109	97.69
364.335	92.69
364.562	88.69
364.788	89.69
365.015	101.69
365.241	103.69
365.468	123.69
365.694	115.69
365.92	83.69
366.147	91.69
366.373	91.69
366.599	81.69
366.826	101.69
367.052	88.69
367.278	89.69
367.505	83.69
367.731	92.69
367.957	79.69
368.184	87.69
368.41	101.69
368.636	112.69
368.862	126.69
369.089	133.69
369.315	92.69
369.541	97.69
369.767	105.69
369.993	94.69
370.219	96.69
370.445	93.69
370.672	103.69
370.898	79.69
371.124	88.69
371.35	90.69
371.576	85.69
371.802	77.69
372.028	79.69
372.254	77.69
372.48	99.69
372.706	93.69
372.932	100.69
373.158	94.69
373.384	96.69
373.61	91.69
373.835	83.69
374.061	101.69
374.287	96.69
374.513	85.69
374.739	96.69
374.965	94.69
375.191	82.69
375.416	91.69
375.642	97.69
375.868	87.69
376.094	101.69
376.319	84.69
376.545	88.69
376.771	100.69
376.997	81.69
377.222	106.69
377.448	99.69
377.674	92.69
377.899	87.69
378.125	94.69
378.35	91.69
378.576	85.69
378.802	106.69
379.027	91.69
379.253	80.69
379.478	88.69
379.704	99.69
379.929	100.69
380.155	99.69
380.38	99.69
380.606	100.69
380.831	106.69
381.057	106.69
381.282	86.69
381.507	88.69
381.733	98.69
381.958	101.69
382.184	104.69
382.409	106.69
382.634	106.69
382.86	106.69
383.085	103.69
383.31	109.69
383.535	119.69
383.761	98.69
383.986	98.69
384.211	92.69
384.436	111.69
384.662	112.69
384.887	112.69
385.112	128.69
385.337	116.69
385.562	95.69
385.787	91.69
386.013	113.69
386.238	128.69
386.463	104.69
386.688	98.69
386.913	129.69
387.138	113.69
387.363	97.69
387.588	103.69
387.813	111.69
388.038	107.69
388.263	130.69
388.488	121.69
388.713	102.69
388.938	95.69
389.163	90.69
389.387	92.69
389.612	96.69
389.837	89.69
390.062	92.69
390.287	88.69
390.512	93.69
390.736	93.69
390.961	85.69
391.186	89.69
391.411	89.69
391.636	84.69
391.86	91.69
392.085	81.69
392.31	86.69
392.534	98.69
392.759	76.69
392.984	85.69
393.208	94.69
393.433	105.69
393.658	100.69
393.882	99.69
394.107	101.69
394.331	74.69
394.556	84.69
394.78	85.69
395.005	77.69
395.229	88.69
395.454	79.69
395.678	92.69
395.903	95.69
396.127	109.69
396.352	98.69
396.576	88.69
396.801	90.69
397.025	92.69
397.249	93.69
397.474	96.69
397.698	106.69
397.922	104.69
398.147	91.69
398.371	93.69
398.595	79.69
398.82	69.69
399.044	90.69
399.268	95.69
399.492	72.69
399.717	88.69
399.941	91.69
400.165	91.69
400.389	93.69
400.613	86.69
400.837	94.69
401.062	89.69
401.286	94.69
401.51	87.69
401.734	103.69
401.958	103.69
402.182	130.69
402.406	186.69
402.63	125.69
402.854	94.69
403.078	87.69
403.302	67.69
403.526	96.69
403.75	85.69
403.974	84.69
404.198	92.69
404.422	101.69
404.645	92.69
404.869	92.69
405.093	105.69
405.317	125.69
405.541	115.69
405.765	107.69
405.988	114.69
406.212	188.69
406.436	265.69
406.66	170.69
406.883	113.69
407.107	97.69
407.331	83.69
407.555	102.69
407.778	112.69
408.002	101.69
408.226	90.69
408.449	90.69
408.673	92.69
408.896	102.69
409.12	95.69
409.344	84.69
409.567	89.69
409.791	95.69
410.014	86.69
410.238	105.69
410.461	101.69
410.685	93.69
410.908	110.69
411.132	96.69
411.355	100.69
411.578	101.69
411.802	87.69
412.025	104.69
412.249	97.69
412.472	96.69
412.695	113.69
412.919	96.69
413.142	68.69
413.365	85.69
413.589	104.69
413.812	98.69
414.035	97.69
414.258	98.69
414.482	80.69
414.705	90.69
414.928	99.69
415.151	101.69
415.374	101.69
415.597	86.69
415.821	98.69
416.044	96.69
416.267	86.69
416.49	87.69
416.713	93.69
416.936	88.69
417.159	96.69
417.382	85.69
417.605	88.69
417.828	102.69
418.051	98.69
418.274	87.69
418.497	79.69
418.72	79.69
418.943	99.69
419.166	87.69
419.389	92.69
419.611	104.69
419.834	92.69
420.057	97.69
420.28	83.69
420.503	89.69
420.726	90.69
420.948	88.69
421.171	91.69
421.394	97.69
421.617	90.69
421.839	84.69
422.062	87.69
422.285	91.69
422.507	98.69
422.73	111.69
422.953	120.69
423.175	103.69
423.398	93.69
423.621	84.69
423.843	102.69
424.066	91.69
424.288	97.69
424.511	97.69
424.733	97.69
424.956	107.69
425.178	92.69
425.401	101.69
425.623	100.69
425.846	98.69
426.068	94.69
426.291	93.69
426.513	85.69
426.735	84.69
426.958	99.69
427.18	117.69
427.402	143.69
427.625	218.69
427.847	180.69
428.069	179.69
428.292	127.69
428.514	84.69
428.736	85.69
428.958	83.69
429.181	84.69
429.403	87.69
429.625	90.69
429.847	96.69
430.069	88.69
430.292	97.69
430.514	105.69
430.736	85.69
430.958	78.69
431.18	86.69
431.402	96.69
431.624	72.69
431.846	83.69
432.068	66.69
432.29	77.69
432.512	92.69
432.734	95.69
432.956	101.69
433.178	99.69
433.4	99.69
433.622	89.69
433.844	89.69
434.066	96.69
434.287	99.69
434.509	88.69
434.731	93.69
434.953	88.69
435.175	91.69
435.397	105.69
435.618	98.69
435.84	108.69
436.062	113.69
436.284	108.69
436.505	116.69
436.727	99.69
436.949	100.69
437.17	101.69
437.392	91.69
437.614	101.69
437.835	111.69
438.057	124.69
438.278	102.69
438.5	116.69
438.721	128.69
438.943	100.69
439.165	86.69
439.386	86.69
439.608	104.69
439.829	106.69
440.05	138.69
440.272	149.69
440.493	102.69
440.715	93.69
440.936	101.69
441.158	91.69
441.379	84.69
441.6	101.69
441.822	102.69
442.043	106.69
442.264	90.69
442.486	111.69
442.707	107.69
442.928	108.69
443.149	147.69
443.371	153.69
443.592	105.69
443.813	112.69
444.034	112.69
444.255	95.69
444.476	90.69
444.698	75.69
444.919	92.69
445.14	143.69
445.361	110.69
445.582	107.69
445.803	165.69
446.024	158.69
446.245	163.69
446.466	123.69
446.687	87.69
446.908	93.69
447.129	85.69
447.35	100.69
447.571	98.69
447.792	87.69
448.013	95.69
448.234	109.69
448.455	115.69
448.675	114.69
448.896	123.69
449.117	105.69
449.338	108.69
449.559	141.69
449.779	132.69
450	98.69
450.221	85.69
450.442	83.69
450.662	87.69
450.883	133.69
451.104	119.69
451.324	90.69
451.545	93.69
451.766	93.69
451.986	81.69
452.207	96.69
452.428	92.69
452.648	107.69
452.869	107.69
453.089	129.69
453.31	112.69
453.53	93.69
453.751	92.69
453.971	120.69
454.192	129.69
454.412	94.69
454.633	102.69
454.853	85.69
455.073	81.69
455.294	86.69
455.514	100.69
455.734	89.69
455.955	83.69
456.175	86.69
456.395	71.69
456.616	85.69
456.836	96.69
457.056	89.69
457.276	89.69
457.497	82.69
457.717	99.69
457.937	92.69
458.157	93.69
458.377	112.69
458.598	115.69
458.818	163.69
459.038	184.69
459.258	113.69
459.478	106.69
459.698	81.69
459.918	90.69
460.138	87.69
460.358	86.69
460.578	92.69
460.798	92.69
461.018	86.69
461.238	92.69
461.458	84.69
461.678	97.69
461.898	100.69
462.118	92.69
462.338	79.69
462.558	90.69
462.777	93.69
462.997	100.69
463.217	92.69
463.437	86.69
463.657	87.69
463.876	88.69
464.096	92.69
464.316	97.69
464.536	99.69
464.755	89.69
464.975	101.69
465.195	200.69
465.414	184.69
465.634	96.69
465.854	94.69
466.073	85.69
466.293	81.69
466.512	93.69
466.732	99.69
466.951	77.69
467.171	97.69
467.391	100.69
467.61	119.69
467.829	156.69
468.049	344.69
468.268	489.69
468.488	160.69
468.707	115.69
468.927	89.69
469.146	87.69
469.365	83.69
469.585	87.69
469.804	85.69
470.023	84.69
470.243	93.69
470.462	117.69
470.681	128.69
470.901	101.69
471.12	102.69
471.339	108.69
471.558	102.69
471.777	124.69
471.997	203.69
472.216	640.69
472.435	1393.69
472.654	372.69
472.873	143.69
473.092	102.69
473.311	95.69
473.53	79.69
473.749	84.69
473.968	89.69
474.187	111.69
474.406	88.69
474.625	97.69
474.844	95.69
475.063	94.69
475.282	81.69
475.501	90.69
475.72	95.69
475.939	95.69
476.158	96.69
476.377	97.69
476.596	99.69
476.814	102.69
477.033	100.69
477.252	106.69
477.471	87.69
477.69	97.69
477.908	94.69
478.127	98.69
478.346	93.69
478.564	96.69
478.783	110.69
479.002	102.69
479.22	85.69
479.439	121.69
479.658	114.69
479.876	115.69
480.095	108.69
480.313	116.69
480.532	133.69
480.751	215.69
480.969	625.69
481.188	2355.69
481.406	1364.69
481.624	236.69
481.843	119.69
482.061	87.69
482.28	98.69
482.498	99.69
482.717	98.69
482.935	94.69
483.153	91.69
483.372	90.69
483.59	88.69
483.808	83.69
484.027	95.69
484.245	105.69
484.463	93.69
484.681	90.69
484.9	101.69
485.118	104.69
485.336	100.69
485.554	88.69
485.772	113.69
485.99	105.69
486.209	106.69
486.427	108.69
486.645	104.69
486.863	104.69
487.081	106.69
487.299	105.69
487.517	97.69
487.735	81.69
487.953	107.69
488.171	114.69
488.389	103.69
488.607	100.69
488.825	97.69
489.043	85.69
489.261	83.69
489.479	93.69
489.696	106.69
489.914	88.69
490.132	86.69
490.35	99.69
490.568	87.69
490.786	79.69
491.003	104.69
491.221	97.69
491.439	93.69
491.657	90.69
491.874	89.69
492.092	89.69
492.31	92.69
492.527	100.69
492.745	84.69
492.963	91.69
493.18	96.69
493.398	92.69
493.615	90.69
493.833	116.69
494.05	97.69
494.268	90.69
494.485	86.69
494.703	79.69
494.92	84.69
495.138	80.69
495.355	76.69
495.573	102.69
495.79	90.69
496.008	74.69
496.225	97.69
496.442	88.69
496.66	107.69
496.877	97.69
497.094	100.69
497.312	76.69
497.529	85.69
497.746	104.69
497.963	95.69
498.181	98.69
498.398	95.69
498.615	109.69
498.832	97.69
499.049	93.69
499.267	90.69
499.484	91.69
499.701	93.69
499.918	90.69
500.135	103.69
500.352	81.69
500.569	88.69
500.786	102.69
501.003	93.69
501.22	94.69
501.437	102.69
501.654	97.69
501.871	114.69
502.088	105.69
502.305	85.69
502.522	96.69
502.739	73.69
502.956	89.69
503.172	79.69
503.389	103.69
503.606	115.69
503.823	107.69
504.04	106.69
504.256	92.69
504.473	97.69
504.69	87.69
504.907	93.69
505.123	101.69
505.34	83.69
505.557	97.69
505.773	98.69
505.99	99.69
506.207	77.69
506.423	98.69
506.64	106.69
506.856	89.69
507.073	87.69
507.289	92.69
507.506	105.69
507.722	127.69
507.939	101.69
508.155	83.69
508.372	90.69
508.588	97.69
508.805	99.69
509.021	97.69
509.238	83.69
509.454	96.69
509.67	96.69
509.887	117.69
510.103	121.69
510.319	232.69
510.536	775.69
510.752	2505.69
510.968	687.69
511.184	167.69
511.401	117.69
511.617	96.69
511.833	112.69
512.049	99.69
512.265	98.69
512.481	96.69
512.698	93.69
512.914	76.69
513.13	101.69
513.346	102.69
513.562	92.69
513.778	91.69
513.994	97.69
