Data from Circ_2001_H10_HRD10591_00033.txt Node
Date: Wed Jan 03 10:45:45 EST 2024
User: Yrep
Spectrometer: HR+D1059
Trigger mode: 1
Integration Time (sec): 1.000000E-1
Scans to average: 1
Electric dark correction enabled: true
Nonlinearity correction enabled: false
Boxcar width: 0
XAxis mode: Wavelengths
Number of Pixels in Spectrum: 2048
>>>>>Begin Spectral Data<<<<<
223.165	-7.38
223.4	-7.38
223.635	-7.38
223.869	-23.38
224.104	-20.38
224.338	-8.38
224.573	-5.38
224.808	-13.38
225.042	-13.38
225.277	-7.38
225.511	-7.38
225.746	4.62
225.98	16.62
226.215	6.62
226.449	24.62
226.683	24.62
226.918	11.62
227.152	17.62
227.387	30.62
227.621	34.62
227.856	50.62
228.09	38.62
228.324	46.62
228.559	56.62
228.793	58.62
229.027	78.62
229.262	69.62
229.496	64.62
229.73	98.62
229.964	87.62
230.199	73.62
230.433	73.62
230.667	78.62
230.901	75.62
231.136	74.62
231.37	88.62
231.604	84.62
231.838	80.62
232.072	79.62
232.306	78.62
232.541	78.62
232.775	83.62
233.009	69.62
233.243	93.62
233.477	91.62
233.711	75.62
233.945	74.62
234.179	87.62
234.413	89.62
234.647	82.62
234.881	90.62
235.115	85.62
235.349	84.62
235.583	75.62
235.817	77.62
236.051	80.62
236.285	68.62
236.519	72.62
236.753	90.62
236.987	65.62
237.221	90.62
237.455	89.62
237.689	86.62
237.922	75.62
238.156	84.62
238.39	74.62
238.624	71.62
238.858	94.62
239.091	82.62
239.325	71.62
239.559	83.62
239.793	77.62
240.027	70.62
240.26	83.62
240.494	77.62
240.728	80.62
240.961	85.62
241.195	88.62
241.429	73.62
241.662	71.62
241.896	75.62
242.13	58.62
242.363	78.62
242.597	74.62
242.83	83.62
243.064	70.62
243.298	84.62
243.531	81.62
243.765	82.62
243.998	89.62
244.232	81.62
244.465	79.62
244.699	90.62
244.932	64.62
245.166	78.62
245.399	84.62
245.633	71.62
245.866	79.62
246.099	72.62
246.333	78.62
246.566	83.62
246.8	81.62
247.033	82.62
247.266	72.62
247.5	58.62
247.733	85.62
247.966	75.62
248.2	80.62
248.433	88.62
248.666	66.62
248.899	89.62
249.133	68.62
249.366	86.62
249.599	93.62
249.832	90.62
250.066	78.62
250.299	80.62
250.532	78.62
250.765	69.62
250.998	92.62
251.231	69.62
251.465	76.62
251.698	78.62
251.931	94.62
252.164	82.62
252.397	65.62
252.63	92.62
252.863	77.62
253.096	95.62
253.329	74.62
253.562	74.62
253.795	67.62
254.028	93.62
254.261	74.62
254.494	88.62
254.727	81.62
254.96	76.62
255.193	76.62
255.426	81.62
255.659	82.62
255.892	106.62
256.124	86.62
256.357	86.62
256.59	80.62
256.823	75.62
257.056	70.62
257.289	85.62
257.521	78.62
257.754	78.62
257.987	75.62
258.22	75.62
258.452	88.62
258.685	79.62
258.918	85.62
259.151	87.62
259.383	86.62
259.616	74.62
259.849	79.62
260.081	80.62
260.314	82.62
260.547	75.62
260.779	79.62
261.012	85.62
261.244	92.62
261.477	94.62
261.71	84.62
261.942	102.62
262.175	115.62
262.407	76.62
262.64	64.62
262.872	72.62
263.105	81.62
263.337	83.62
263.57	73.62
263.802	81.62
264.035	75.62
264.267	83.62
264.499	68.62
264.732	79.62
264.964	88.62
265.197	84.62
265.429	76.62
265.661	90.62
265.894	72.62
266.126	84.62
266.358	85.62
266.591	79.62
266.823	78.62
267.055	68.62
267.287	71.62
267.52	94.62
267.752	82.62
267.984	78.62
268.216	79.62
268.448	89.62
268.681	89.62
268.913	82.62
269.145	90.62
269.377	93.62
269.609	75.62
269.841	80.62
270.073	66.62
270.306	88.62
270.538	73.62
270.77	80.62
271.002	81.62
271.234	80.62
271.466	78.62
271.698	100.62
271.93	85.62
272.162	88.62
272.394	84.62
272.626	75.62
272.858	80.62
273.09	92.62
273.322	75.62
273.553	86.62
273.785	87.62
274.017	74.62
274.249	84.62
274.481	75.62
274.713	83.62
274.945	79.62
275.176	83.62
275.408	87.62
275.64	96.62
275.872	80.62
276.104	97.62
276.335	86.62
276.567	100.62
276.799	114.62
277.031	131.62
277.262	134.62
277.494	113.62
277.726	80.62
277.957	68.62
278.189	79.62
278.421	82.62
278.652	94.62
278.884	85.62
279.115	86.62
279.347	87.62
279.579	68.62
279.81	111.62
280.042	121.62
280.273	161.62
280.505	116.62
280.736	81.62
280.968	90.62
281.199	81.62
281.431	74.62
281.662	91.62
281.894	94.62
282.125	99.62
282.356	119.62
282.588	146.62
282.819	116.62
283.051	96.62
283.282	79.62
283.513	70.62
283.745	86.62
283.976	86.62
284.207	89.62
284.439	87.62
284.67	89.62
284.901	84.62
285.132	96.62
285.364	79.62
285.595	67.62
285.826	94.62
286.057	101.62
286.288	78.62
286.52	86.62
286.751	87.62
286.982	85.62
287.213	88.62
287.444	90.62
287.675	73.62
287.906	89.62
288.138	94.62
288.369	91.62
288.6	91.62
288.831	71.62
289.062	89.62
289.293	92.62
289.524	74.62
289.755	72.62
289.986	82.62
290.217	98.62
290.448	81.62
290.679	86.62
290.91	87.62
291.141	89.62
291.371	73.62
291.602	88.62
291.833	82.62
292.064	91.62
292.295	84.62
292.526	90.62
292.757	84.62
292.987	80.62
293.218	81.62
293.449	92.62
293.68	80.62
293.91	87.62
294.141	94.62
294.372	87.62
294.603	98.62
294.833	83.62
295.064	79.62
295.295	90.62
295.525	86.62
295.756	104.62
295.987	111.62
296.217	132.62
296.448	149.62
296.679	97.62
296.909	63.62
297.14	86.62
297.37	86.62
297.601	95.62
297.831	86.62
298.062	92.62
298.292	95.62
298.523	92.62
298.753	84.62
298.984	80.62
299.214	87.62
299.445	79.62
299.675	88.62
299.905	100.62
300.136	91.62
300.366	73.62
300.597	93.62
300.827	107.62
301.057	101.62
301.288	106.62
301.518	103.62
301.748	96.62
301.979	99.62
302.209	92.62
302.439	87.62
302.669	95.62
302.9	80.62
303.13	91.62
303.36	101.62
303.59	118.62
303.82	110.62
304.051	103.62
304.281	92.62
304.511	100.62
304.741	96.62
304.971	93.62
305.201	82.62
305.431	98.62
305.661	87.62
305.891	86.62
306.121	99.62
306.352	116.62
306.582	105.62
306.812	101.62
307.042	128.62
307.272	122.62
307.502	120.62
307.731	139.62
307.961	105.62
308.191	96.62
308.421	91.62
308.651	100.62
308.881	88.62
309.111	87.62
309.341	97.62
309.571	102.62
309.8	102.62
310.03	96.62
310.26	94.62
310.49	87.62
310.72	114.62
310.949	108.62
311.179	97.62
311.409	94.62
311.639	100.62
311.868	98.62
312.098	105.62
312.328	103.62
312.557	98.62
312.787	94.62
313.017	110.62
313.246	98.62
313.476	86.62
313.706	87.62
313.935	86.62
314.165	105.62
314.394	101.62
314.624	78.62
314.853	98.62
315.083	97.62
315.312	78.62
315.542	88.62
315.771	95.62
316.001	90.62
316.23	96.62
316.46	91.62
316.689	95.62
316.919	95.62
317.148	87.62
317.377	87.62
317.607	94.62
317.836	90.62
318.065	103.62
318.295	97.62
318.524	90.62
318.753	80.62
318.983	96.62
319.212	112.62
319.441	108.62
319.67	115.62
319.9	92.62
320.129	84.62
320.358	80.62
320.587	110.62
320.816	86.62
321.046	114.62
321.275	96.62
321.504	85.62
321.733	104.62
321.962	87.62
322.191	102.62
322.42	107.62
322.649	105.62
322.878	123.62
323.108	107.62
323.337	114.62
323.566	131.62
323.795	168.62
324.024	214.62
324.253	405.62
324.482	832.62
324.71	1763.62
324.939	2230.62
325.168	814.62
325.397	246.62
325.626	158.62
325.855	123.62
326.084	128.62
326.313	132.62
326.542	156.62
326.77	232.62
326.999	440.62
327.228	960.62
327.457	1687.62
327.686	1378.62
327.914	429.62
328.143	343.62
328.372	358.62
328.6	219.62
328.829	134.62
329.058	135.62
329.287	144.62
329.515	138.62
329.744	165.62
329.972	275.62
330.201	532.62
330.43	721.62
330.658	358.62
330.887	194.62
331.115	148.62
331.344	106.62
331.572	112.62
331.801	111.62
332.03	99.62
332.258	97.62
332.486	96.62
332.715	93.62
332.943	103.62
333.172	109.62
333.4	114.62
333.629	128.62
333.857	173.62
334.085	259.62
334.314	503.62
334.542	884.62
334.771	823.62
334.999	243.62
335.227	138.62
335.455	103.62
335.684	99.62
335.912	110.62
336.14	106.62
336.369	92.62
336.597	103.62
336.825	84.62
337.053	94.62
337.281	99.62
337.51	91.62
337.738	114.62
337.966	92.62
338.194	87.62
338.422	100.62
338.65	101.62
338.878	100.62
339.106	103.62
339.334	86.62
339.562	94.62
339.79	89.62
340.018	93.62
340.246	102.62
340.474	86.62
340.702	106.62
340.93	88.62
341.158	92.62
341.386	96.62
341.614	98.62
341.842	93.62
342.07	97.62
342.298	94.62
342.526	94.62
342.754	97.62
342.981	91.62
343.209	88.62
343.437	109.62
343.665	89.62
343.893	90.62
344.12	82.62
344.348	93.62
344.576	87.62
344.804	91.62
345.031	93.62
345.259	97.62
345.487	83.62
345.714	86.62
345.942	84.62
346.17	85.62
346.397	78.62
346.625	78.62
346.853	74.62
347.08	74.62
347.308	96.62
347.535	99.62
347.763	103.62
347.99	100.62
348.218	97.62
348.445	95.62
348.673	95.62
348.9	101.62
349.128	102.62
349.355	102.62
349.583	89.62
349.81	100.62
350.037	97.62
350.265	84.62
350.492	99.62
350.72	93.62
350.947	84.62
351.174	107.62
351.402	104.62
351.629	100.62
351.856	90.62
352.083	100.62
352.311	91.62
352.538	105.62
352.765	101.62
352.992	123.62
353.22	122.62
353.447	101.62
353.674	108.62
353.901	107.62
354.128	86.62
354.355	87.62
354.583	100.62
354.81	94.62
355.037	91.62
355.264	89.62
355.491	111.62
355.718	102.62
355.945	99.62
356.172	98.62
356.399	108.62
356.626	100.62
356.853	105.62
357.08	95.62
357.307	83.62
357.534	94.62
357.761	100.62
357.988	78.62
358.215	95.62
358.441	85.62
358.668	96.62
358.895	90.62
359.122	85.62
359.349	94.62
359.576	101.62
359.802	102.62
360.029	122.62
360.256	120.62
360.483	89.62
360.709	74.62
360.936	98.62
361.163	101.62
361.39	86.62
361.616	94.62
361.843	83.62
362.07	107.62
362.296	102.62
362.523	91.62
362.749	96.62
362.976	94.62
363.203	81.62
363.429	86.62
363.656	77.62
363.882	84.62
364.109	91.62
364.335	98.62
364.562	87.62
364.788	92.62
365.015	89.62
365.241	87.62
365.468	107.62
365.694	111.62
365.92	98.62
366.147	93.62
366.373	78.62
366.599	87.62
366.826	92.62
367.052	100.62
367.278	100.62
367.505	88.62
367.731	103.62
367.957	98.62
368.184	95.62
368.41	111.62
368.636	114.62
368.862	112.62
369.089	104.62
369.315	98.62
369.541	91.62
369.767	93.62
369.993	78.62
370.219	90.62
370.445	96.62
370.672	86.62
370.898	87.62
371.124	92.62
371.35	84.62
371.576	86.62
371.802	91.62
372.028	85.62
372.254	86.62
372.48	89.62
372.706	94.62
372.932	91.62
373.158	88.62
373.384	91.62
373.61	105.62
373.835	91.62
374.061	94.62
374.287	78.62
374.513	75.62
374.739	78.62
374.965	84.62
375.191	88.62
375.416	77.62
375.642	75.62
375.868	98.62
376.094	91.62
376.319	75.62
376.545	87.62
376.771	88.62
376.997	83.62
377.222	92.62
377.448	99.62
377.674	94.62
377.899	89.62
378.125	102.62
378.35	79.62
378.576	89.62
378.802	90.62
379.027	90.62
379.253	85.62
379.478	91.62
379.704	90.62
379.929	92.62
380.155	85.62
380.38	112.62
380.606	110.62
380.831	95.62
381.057	103.62
381.282	92.62
381.507	98.62
381.733	91.62
381.958	91.62
382.184	102.62
382.409	98.62
382.634	95.62
382.86	104.62
383.085	94.62
383.31	102.62
383.535	103.62
383.761	103.62
383.986	107.62
384.211	106.62
384.436	88.62
384.662	101.62
384.887	94.62
385.112	109.62
385.337	101.62
385.562	95.62
385.787	95.62
386.013	105.62
386.238	113.62
386.463	103.62
386.688	125.62
386.913	102.62
387.138	100.62
387.363	97.62
387.588	92.62
387.813	93.62
388.038	104.62
388.263	116.62
388.488	107.62
388.713	109.62
388.938	96.62
389.163	95.62
389.387	90.62
389.612	96.62
389.837	97.62
390.062	95.62
390.287	94.62
390.512	92.62
390.736	91.62
390.961	87.62
391.186	84.62
391.411	91.62
391.636	86.62
391.86	91.62
392.085	86.62
392.31	82.62
392.534	82.62
392.759	97.62
392.984	78.62
393.208	83.62
393.433	96.62
393.658	83.62
393.882	79.62
394.107	76.62
394.331	91.62
394.556	93.62
394.78	89.62
395.005	98.62
395.229	83.62
395.454	80.62
395.678	85.62
395.903	87.62
396.127	99.62
396.352	94.62
396.576	87.62
396.801	83.62
397.025	84.62
397.249	86.62
397.474	89.62
397.698	84.62
397.922	82.62
398.147	91.62
398.371	86.62
398.595	93.62
398.82	101.62
399.044	85.62
399.268	94.62
399.492	88.62
399.717	86.62
399.941	90.62
400.165	92.62
400.389	82.62
400.613	89.62
400.837	81.62
401.062	82.62
401.286	88.62
401.51	77.62
401.734	86.62
401.958	108.62
402.182	113.62
402.406	172.62
402.63	132.62
402.854	102.62
403.078	89.62
403.302	89.62
403.526	82.62
403.75	89.62
403.974	92.62
404.198	98.62
404.422	87.62
404.645	82.62
404.869	103.62
405.093	108.62
405.317	118.62
405.541	106.62
405.765	107.62
405.988	114.62
406.212	176.62
406.436	255.62
406.66	155.62
406.883	106.62
407.107	98.62
407.331	99.62
407.555	90.62
407.778	94.62
408.002	98.62
408.226	83.62
408.449	95.62
408.673	84.62
408.896	91.62
409.12	98.62
409.344	90.62
409.567	107.62
409.791	85.62
410.014	91.62
410.238	100.62
410.461	107.62
410.685	103.62
410.908	100.62
411.132	91.62
411.355	87.62
411.578	86.62
411.802	77.62
412.025	76.62
412.249	89.62
412.472	97.62
412.695	103.62
412.919	104.62
413.142	87.62
413.365	96.62
413.589	84.62
413.812	90.62
414.035	95.62
414.258	84.62
414.482	84.62
414.705	90.62
414.928	98.62
415.151	83.62
415.374	97.62
415.597	78.62
415.821	78.62
416.044	84.62
416.267	92.62
416.49	85.62
416.713	105.62
416.936	84.62
417.159	98.62
417.382	99.62
417.605	106.62
417.828	87.62
418.051	95.62
418.274	89.62
418.497	85.62
418.72	100.62
418.943	96.62
419.166	79.62
419.389	90.62
419.611	74.62
419.834	106.62
420.057	110.62
420.28	93.62
420.503	88.62
420.726	85.62
420.948	95.62
421.171	108.62
421.394	91.62
421.617	98.62
421.839	77.62
422.062	79.62
422.285	83.62
422.507	102.62
422.73	97.62
422.953	100.62
423.175	94.62
423.398	93.62
423.621	92.62
423.843	88.62
424.066	94.62
424.288	85.62
424.511	91.62
424.733	84.62
424.956	109.62
425.178	88.62
425.401	98.62
425.623	99.62
425.846	96.62
426.068	104.62
426.291	92.62
426.513	95.62
426.735	101.62
426.958	90.62
427.18	103.62
427.402	131.62
427.625	190.62
427.847	167.62
428.069	179.62
428.292	106.62
428.514	111.62
428.736	94.62
428.958	84.62
429.181	78.62
429.403	71.62
429.625	87.62
429.847	102.62
430.069	100.62
430.292	104.62
430.514	79.62
430.736	89.62
430.958	91.62
431.18	83.62
431.402	78.62
431.624	84.62
431.846	85.62
432.068	77.62
432.29	83.62
432.512	90.62
432.734	98.62
432.956	99.62
433.178	99.62
433.4	103.62
433.622	111.62
433.844	75.62
434.066	95.62
434.287	89.62
434.509	89.62
434.731	107.62
434.953	104.62
435.175	89.62
435.397	102.62
435.618	85.62
435.84	113.62
436.062	126.62
436.284	114.62
436.505	108.62
436.727	94.62
436.949	100.62
437.17	87.62
437.392	84.62
437.614	99.62
437.835	118.62
438.057	112.62
438.278	112.62
438.5	103.62
438.721	120.62
438.943	82.62
439.165	100.62
439.386	91.62
439.608	102.62
439.829	90.62
440.05	132.62
440.272	140.62
440.493	90.62
440.715	86.62
440.936	89.62
441.158	95.62
441.379	96.62
441.6	93.62
441.822	107.62
442.043	92.62
442.264	100.62
442.486	99.62
442.707	95.62
442.928	111.62
443.149	155.62
443.371	133.62
443.592	119.62
443.813	123.62
444.034	127.62
444.255	84.62
444.476	90.62
444.698	90.62
444.919	97.62
445.14	148.62
445.361	126.62
445.582	119.62
445.803	146.62
446.024	123.62
446.245	127.62
446.466	130.62
446.687	94.62
446.908	92.62
447.129	78.62
447.35	85.62
447.571	96.62
447.792	99.62
448.013	86.62
448.234	107.62
448.455	97.62
448.675	119.62
448.896	111.62
449.117	105.62
449.338	113.62
449.559	128.62
449.779	135.62
450	90.62
450.221	99.62
450.442	97.62
450.662	87.62
450.883	115.62
451.104	113.62
451.324	109.62
451.545	95.62
451.766	88.62
451.986	91.62
452.207	91.62
452.428	94.62
452.648	99.62
452.869	108.62
453.089	113.62
453.31	138.62
453.53	102.62
453.751	97.62
453.971	105.62
454.192	126.62
454.412	83.62
454.633	90.62
454.853	75.62
455.073	85.62
455.294	75.62
455.514	105.62
455.734	84.62
455.955	79.62
456.175	79.62
456.395	87.62
456.616	73.62
456.836	69.62
457.056	85.62
457.276	74.62
457.497	94.62
457.717	87.62
457.937	85.62
458.157	85.62
458.377	90.62
458.598	92.62
458.818	145.62
459.038	171.62
459.258	126.62
459.478	77.62
459.698	85.62
459.918	84.62
460.138	95.62
460.358	80.62
460.578	82.62
460.798	78.62
461.018	96.62
461.238	87.62
461.458	85.62
461.678	84.62
461.898	76.62
462.118	82.62
462.338	81.62
462.558	94.62
462.777	77.62
462.997	80.62
463.217	82.62
463.437	100.62
463.657	82.62
463.876	90.62
464.096	73.62
464.316	82.62
464.536	86.62
464.755	87.62
464.975	114.62
465.195	187.62
465.414	162.62
465.634	101.62
465.854	88.62
466.073	88.62
466.293	97.62
466.512	98.62
466.732	94.62
466.951	97.62
467.171	90.62
467.391	105.62
467.61	112.62
467.829	148.62
468.049	339.62
468.268	446.62
468.488	132.62
468.707	88.62
468.927	89.62
469.146	91.62
469.365	88.62
469.585	90.62
469.804	98.62
470.023	84.62
470.243	91.62
470.462	107.62
470.681	118.62
470.901	89.62
471.12	86.62
471.339	89.62
471.558	101.62
471.777	126.62
471.997	194.62
472.216	599.62
472.435	1264.62
472.654	334.62
472.873	128.62
473.092	84.62
473.311	101.62
473.53	82.62
473.749	95.62
473.968	103.62
474.187	126.62
474.406	112.62
474.625	97.62
474.844	88.62
475.063	90.62
475.282	88.62
475.501	84.62
475.72	89.62
475.939	84.62
476.158	96.62
476.377	82.62
476.596	90.62
476.814	93.62
477.033	99.62
477.252	93.62
477.471	85.62
477.69	85.62
477.908	107.62
478.127	81.62
478.346	99.62
478.564	102.62
478.783	104.62
479.002	110.62
479.22	100.62
479.439	114.62
479.658	104.62
479.876	112.62
480.095	117.62
480.313	102.62
480.532	112.62
480.751	197.62
480.969	579.62
481.188	2190.62
481.406	1265.62
481.624	218.62
481.843	110.62
482.061	102.62
482.28	96.62
482.498	98.62
482.717	90.62
482.935	82.62
483.153	86.62
483.372	104.62
483.59	101.62
483.808	88.62
484.027	97.62
484.245	96.62
484.463	98.62
484.681	104.62
484.9	100.62
485.118	82.62
485.336	90.62
485.554	79.62
485.772	104.62
485.99	105.62
486.209	106.62
486.427	114.62
486.645	134.62
486.863	102.62
487.081	101.62
487.299	102.62
487.517	106.62
487.735	92.62
487.953	94.62
488.171	91.62
488.389	97.62
488.607	104.62
488.825	83.62
489.043	79.62
489.261	98.62
489.479	88.62
489.696	87.62
489.914	85.62
490.132	104.62
490.35	93.62
490.568	91.62
490.786	90.62
491.003	93.62
491.221	104.62
491.439	94.62
491.657	94.62
491.874	95.62
492.092	90.62
492.31	91.62
492.527	92.62
492.745	82.62
492.963	100.62
493.18	88.62
493.398	93.62
493.615	88.62
493.833	101.62
494.05	95.62
494.268	90.62
494.485	89.62
494.703	90.62
494.92	87.62
495.138	82.62
495.355	95.62
495.573	98.62
495.79	92.62
496.008	96.62
496.225	93.62
496.442	89.62
496.66	96.62
496.877	86.62
497.094	75.62
497.312	76.62
497.529	94.62
497.746	84.62
497.963	87.62
498.181	88.62
498.398	88.62
498.615	109.62
498.832	90.62
499.049	91.62
499.267	94.62
499.484	102.62
499.701	87.62
499.918	92.62
500.135	89.62
500.352	89.62
500.569	100.62
500.786	110.62
501.003	92.62
501.22	71.62
501.437	88.62
501.654	96.62
501.871	113.62
502.088	90.62
502.305	84.62
502.522	98.62
502.739	86.62
502.956	84.62
503.172	83.62
503.389	91.62
503.606	119.62
503.823	88.62
504.04	86.62
504.256	86.62
504.473	90.62
504.69	92.62
504.907	90.62
505.123	104.62
505.34	82.62
505.557	99.62
505.773	83.62
505.99	102.62
506.207	95.62
506.423	89.62
506.64	82.62
506.856	84.62
507.073	80.62
507.289	83.62
507.506	99.62
507.722	129.62
507.939	118.62
508.155	91.62
508.372	99.62
508.588	91.62
508.805	98.62
509.021	95.62
509.238	89.62
509.454	97.62
509.67	92.62
509.887	95.62
510.103	124.62
510.319	204.62
510.536	737.62
510.752	2348.62
510.968	665.62
511.184	155.62
511.401	116.62
511.617	103.62
511.833	90.62
512.049	94.62
512.265	91.62
512.481	88.62
512.698	88.62
512.914	87.62
513.13	91.62
513.346	100.62
513.562	107.62
513.778	98.62
513.994	107.62
514.21	92.62
514.426	124.62
514.642	145.62
514.858	112.62
