Data from Circ_2001_H10_HRD10591_00047.txt Node
Date: Wed Jan 03 10:45:48 EST 2024
User: Yrep
Spectrometer: HR+D1059
Trigger mode: 1
Integration Time (sec): 1.000000E-1
Scans to average: 1
Electric dark correction enabled: true
Nonlinearity correction enabled: false
Boxcar width: 0
XAxis mode: Wavelengths
Number of Pixels in Spectrum: 2048
>>>>>Begin Spectral Data<<<<<
223.165	-16.5
223.4	-16.5
223.635	-16.5
223.869	-15.5
224.104	-18.5
224.338	-15.5
224.573	-17.5
224.808	-11.5
225.042	-18.5
225.277	-12.5
225.511	-1.5
225.746	12.5
225.98	16.5
226.215	0.5
226.449	29.5
226.683	8.5
226.918	25.5
227.152	34.5
227.387	35.5
227.621	33.5
227.856	43.5
228.09	42.5
228.324	54.5
228.559	77.5
228.793	52.5
229.027	64.5
229.262	65.5
229.496	71.5
229.73	87.5
229.964	71.5
230.199	66.5
230.433	74.5
230.667	75.5
230.901	72.5
231.136	75.5
231.37	76.5
231.604	81.5
231.838	65.5
232.072	88.5
232.306	73.5
232.541	83.5
232.775	78.5
233.009	78.5
233.243	95.5
233.477	84.5
233.711	82.5
233.945	78.5
234.179	93.5
234.413	76.5
234.647	83.5
234.881	75.5
235.115	73.5
235.349	97.5
235.583	70.5
235.817	71.5
236.051	89.5
236.285	75.5
236.519	71.5
236.753	71.5
236.987	89.5
237.221	87.5
237.455	82.5
237.689	70.5
237.922	72.5
238.156	70.5
238.39	73.5
238.624	74.5
238.858	85.5
239.091	65.5
239.325	83.5
239.559	74.5
239.793	73.5
240.027	83.5
240.26	68.5
240.494	76.5
240.728	77.5
240.961	77.5
241.195	71.5
241.429	66.5
241.662	78.5
241.896	71.5
242.13	61.5
242.363	70.5
242.597	84.5
242.83	73.5
243.064	65.5
243.298	70.5
243.531	66.5
243.765	78.5
243.998	87.5
244.232	80.5
244.465	89.5
244.699	90.5
244.932	79.5
245.166	78.5
245.399	80.5
245.633	79.5
245.866	85.5
246.099	79.5
246.333	76.5
246.566	85.5
246.8	74.5
247.033	81.5
247.266	72.5
247.5	77.5
247.733	79.5
247.966	105.5
248.2	80.5
248.433	76.5
248.666	65.5
248.899	83.5
249.133	89.5
249.366	99.5
249.599	90.5
249.832	91.5
250.066	95.5
250.299	78.5
250.532	91.5
250.765	75.5
250.998	81.5
251.231	81.5
251.465	79.5
251.698	80.5
251.931	81.5
252.164	90.5
252.397	85.5
252.63	80.5
252.863	77.5
253.096	81.5
253.329	70.5
253.562	78.5
253.795	77.5
254.028	79.5
254.261	82.5
254.494	75.5
254.727	94.5
254.96	89.5
255.193	69.5
255.426	79.5
255.659	85.5
255.892	94.5
256.124	88.5
256.357	89.5
256.59	79.5
256.823	79.5
257.056	93.5
257.289	74.5
257.521	88.5
257.754	90.5
257.987	76.5
258.22	83.5
258.452	93.5
258.685	89.5
258.918	89.5
259.151	77.5
259.383	74.5
259.616	88.5
259.849	80.5
260.081	86.5
260.314	90.5
260.547	82.5
260.779	100.5
261.012	90.5
261.244	92.5
261.477	86.5
261.71	89.5
261.942	116.5
262.175	114.5
262.407	76.5
262.64	87.5
262.872	75.5
263.105	81.5
263.337	90.5
263.57	77.5
263.802	96.5
264.035	75.5
264.267	81.5
264.499	77.5
264.732	93.5
264.964	93.5
265.197	93.5
265.429	81.5
265.661	88.5
265.894	86.5
266.126	95.5
266.358	73.5
266.591	66.5
266.823	90.5
267.055	88.5
267.287	75.5
267.52	76.5
267.752	69.5
267.984	92.5
268.216	81.5
268.448	82.5
268.681	84.5
268.913	80.5
269.145	96.5
269.377	83.5
269.609	68.5
269.841	92.5
270.073	76.5
270.306	83.5
270.538	87.5
270.77	65.5
271.002	90.5
271.234	86.5
271.466	83.5
271.698	81.5
271.93	89.5
272.162	87.5
272.394	86.5
272.626	89.5
272.858	65.5
273.09	88.5
273.322	87.5
273.553	75.5
273.785	82.5
274.017	74.5
274.249	84.5
274.481	82.5
274.713	77.5
274.945	92.5
275.176	96.5
275.408	103.5
275.64	100.5
275.872	100.5
276.104	95.5
276.335	96.5
276.567	103.5
276.799	134.5
277.031	124.5
277.262	144.5
277.494	124.5
277.726	93.5
277.957	77.5
278.189	79.5
278.421	86.5
278.652	76.5
278.884	89.5
279.115	86.5
279.347	85.5
279.579	100.5
279.81	104.5
280.042	140.5
280.273	171.5
280.505	126.5
280.736	97.5
280.968	82.5
281.199	82.5
281.431	78.5
281.662	77.5
281.894	82.5
282.125	98.5
282.356	115.5
282.588	144.5
282.819	119.5
283.051	94.5
283.282	94.5
283.513	92.5
283.745	73.5
283.976	88.5
284.207	93.5
284.439	92.5
284.67	88.5
284.901	73.5
285.132	70.5
285.364	79.5
285.595	84.5
285.826	89.5
286.057	94.5
286.288	84.5
286.52	79.5
286.751	74.5
286.982	90.5
287.213	85.5
287.444	81.5
287.675	76.5
287.906	96.5
288.138	70.5
288.369	79.5
288.6	78.5
288.831	85.5
289.062	72.5
289.293	101.5
289.524	82.5
289.755	85.5
289.986	94.5
290.217	92.5
290.448	85.5
290.679	91.5
290.91	78.5
291.141	88.5
291.371	94.5
291.602	96.5
291.833	83.5
292.064	76.5
292.295	94.5
292.526	87.5
292.757	61.5
292.987	92.5
293.218	103.5
293.449	86.5
293.68	79.5
293.91	81.5
294.141	91.5
294.372	83.5
294.603	96.5
294.833	89.5
295.064	89.5
295.295	89.5
295.525	87.5
295.756	94.5
295.987	109.5
296.217	146.5
296.448	117.5
296.679	94.5
296.909	89.5
297.14	94.5
297.37	100.5
297.601	92.5
297.831	75.5
298.062	88.5
298.292	97.5
298.523	74.5
298.753	94.5
298.984	97.5
299.214	96.5
299.445	96.5
299.675	89.5
299.905	114.5
300.136	76.5
300.366	83.5
300.597	98.5
300.827	93.5
301.057	101.5
301.288	95.5
301.518	84.5
301.748	101.5
301.979	112.5
302.209	106.5
302.439	90.5
302.669	91.5
302.9	87.5
303.13	108.5
303.36	103.5
303.59	111.5
303.82	123.5
304.051	87.5
304.281	94.5
304.511	89.5
304.741	89.5
304.971	86.5
305.201	72.5
305.431	87.5
305.661	91.5
305.891	83.5
306.121	86.5
306.352	112.5
306.582	107.5
306.812	101.5
307.042	98.5
307.272	127.5
307.502	148.5
307.731	141.5
307.961	107.5
308.191	93.5
308.421	102.5
308.651	94.5
308.881	80.5
309.111	96.5
309.341	106.5
309.571	93.5
309.8	93.5
310.03	99.5
310.26	99.5
310.49	96.5
310.72	104.5
310.949	105.5
311.179	98.5
311.409	91.5
311.639	105.5
311.868	88.5
312.098	88.5
312.328	111.5
312.557	100.5
312.787	105.5
313.017	111.5
313.246	104.5
313.476	97.5
313.706	96.5
313.935	99.5
314.165	94.5
314.394	93.5
314.624	95.5
314.853	103.5
315.083	88.5
315.312	81.5
315.542	97.5
315.771	89.5
316.001	101.5
316.23	93.5
316.46	93.5
316.689	90.5
316.919	87.5
317.148	103.5
317.377	101.5
317.607	100.5
317.836	91.5
318.065	77.5
318.295	97.5
318.524	89.5
318.753	87.5
318.983	93.5
319.212	83.5
319.441	87.5
319.67	109.5
319.9	89.5
320.129	94.5
320.358	88.5
320.587	99.5
320.816	113.5
321.046	121.5
321.275	99.5
321.504	109.5
321.733	93.5
321.962	101.5
322.191	102.5
322.42	105.5
322.649	107.5
322.878	115.5
323.108	125.5
323.337	126.5
323.566	144.5
323.795	167.5
324.024	210.5
324.253	437.5
324.482	954.5
324.71	1930.5
324.939	2484.5
325.168	895.5
325.397	264.5
325.626	157.5
325.855	144.5
326.084	120.5
326.313	151.5
326.542	163.5
326.77	244.5
326.999	510.5
327.228	1031.5
327.457	1907.5
327.686	1518.5
327.914	478.5
328.143	384.5
328.372	434.5
328.6	256.5
328.829	162.5
329.058	166.5
329.287	164.5
329.515	147.5
329.744	200.5
329.972	344.5
330.201	634.5
330.43	869.5
330.658	406.5
330.887	219.5
331.115	167.5
331.344	105.5
331.572	120.5
331.801	124.5
332.03	112.5
332.258	115.5
332.486	99.5
332.715	106.5
332.943	108.5
333.172	113.5
333.4	103.5
333.629	127.5
333.857	202.5
334.085	331.5
334.314	615.5
334.542	1136.5
334.771	1014.5
334.999	282.5
335.227	150.5
335.455	110.5
335.684	108.5
335.912	116.5
336.14	100.5
336.369	101.5
336.597	96.5
336.825	116.5
337.053	98.5
337.281	81.5
337.51	91.5
337.738	101.5
337.966	90.5
338.194	106.5
338.422	101.5
338.65	95.5
338.878	73.5
339.106	99.5
339.334	101.5
339.562	87.5
339.79	96.5
340.018	90.5
340.246	104.5
340.474	90.5
340.702	92.5
340.93	89.5
341.158	95.5
341.386	100.5
341.614	102.5
341.842	107.5
342.07	101.5
342.298	98.5
342.526	90.5
342.754	101.5
342.981	99.5
343.209	92.5
343.437	97.5
343.665	81.5
343.893	86.5
344.12	76.5
344.348	85.5
344.576	88.5
344.804	77.5
345.031	96.5
345.259	98.5
345.487	90.5
345.714	94.5
345.942	86.5
346.17	87.5
346.397	101.5
346.625	89.5
346.853	90.5
347.08	88.5
347.308	106.5
347.535	105.5
347.763	92.5
347.99	96.5
348.218	88.5
348.445	114.5
348.673	110.5
348.9	96.5
349.128	94.5
349.355	86.5
349.583	93.5
349.81	93.5
350.037	98.5
350.265	85.5
350.492	93.5
350.72	102.5
350.947	93.5
351.174	106.5
351.402	118.5
351.629	113.5
351.856	93.5
352.083	111.5
352.311	96.5
352.538	108.5
352.765	102.5
352.992	106.5
353.22	103.5
353.447	89.5
353.674	100.5
353.901	89.5
354.128	82.5
354.355	101.5
354.583	75.5
354.81	82.5
355.037	103.5
355.264	104.5
355.491	90.5
355.718	100.5
355.945	104.5
356.172	90.5
356.399	102.5
356.626	96.5
356.853	86.5
357.08	91.5
357.307	76.5
357.534	77.5
357.761	82.5
357.988	90.5
358.215	87.5
358.441	86.5
358.668	100.5
358.895	90.5
359.122	94.5
359.349	87.5
359.576	94.5
359.802	82.5
360.029	129.5
360.256	126.5
360.483	113.5
360.709	93.5
360.936	90.5
361.163	110.5
361.39	84.5
361.616	91.5
361.843	80.5
362.07	90.5
362.296	98.5
362.523	94.5
362.749	104.5
362.976	82.5
363.203	89.5
363.429	91.5
363.656	97.5
363.882	83.5
364.109	99.5
364.335	77.5
364.562	105.5
364.788	78.5
365.015	90.5
365.241	105.5
365.468	98.5
365.694	112.5
365.92	85.5
366.147	87.5
366.373	91.5
366.599	94.5
366.826	76.5
367.052	96.5
367.278	88.5
367.505	90.5
367.731	93.5
367.957	89.5
368.184	90.5
368.41	95.5
368.636	104.5
368.862	116.5
369.089	101.5
369.315	107.5
369.541	92.5
369.767	99.5
369.993	87.5
370.219	89.5
370.445	88.5
370.672	101.5
370.898	73.5
371.124	89.5
371.35	85.5
371.576	85.5
371.802	85.5
372.028	89.5
372.254	89.5
372.48	85.5
372.706	92.5
372.932	85.5
373.158	80.5
373.384	93.5
373.61	104.5
373.835	93.5
374.061	90.5
374.287	102.5
374.513	93.5
374.739	78.5
374.965	76.5
375.191	83.5
375.416	95.5
375.642	84.5
375.868	102.5
376.094	99.5
376.319	85.5
376.545	85.5
376.771	86.5
376.997	82.5
377.222	101.5
377.448	82.5
377.674	82.5
377.899	95.5
378.125	103.5
378.35	87.5
378.576	86.5
378.802	82.5
379.027	106.5
379.253	98.5
379.478	90.5
379.704	93.5
379.929	88.5
380.155	87.5
380.38	83.5
380.606	88.5
380.831	99.5
381.057	87.5
381.282	96.5
381.507	97.5
381.733	81.5
381.958	92.5
382.184	97.5
382.409	87.5
382.634	89.5
382.86	100.5
383.085	96.5
383.31	102.5
383.535	99.5
383.761	104.5
383.986	84.5
384.211	82.5
384.436	73.5
384.662	89.5
384.887	91.5
385.112	101.5
385.337	113.5
385.562	111.5
385.787	100.5
386.013	101.5
386.238	112.5
386.463	103.5
386.688	98.5
386.913	87.5
387.138	85.5
387.363	107.5
387.588	89.5
387.813	93.5
388.038	99.5
388.263	98.5
388.488	113.5
388.713	74.5
388.938	107.5
389.163	113.5
389.387	95.5
389.612	88.5
389.837	88.5
390.062	91.5
390.287	76.5
390.512	78.5
390.736	82.5
390.961	95.5
391.186	80.5
391.411	103.5
391.636	93.5
391.86	77.5
392.085	82.5
392.31	79.5
392.534	80.5
392.759	93.5
392.984	101.5
393.208	85.5
393.433	94.5
393.658	96.5
393.882	94.5
394.107	78.5
394.331	90.5
394.556	80.5
394.78	82.5
395.005	84.5
395.229	92.5
395.454	82.5
395.678	75.5
395.903	79.5
396.127	76.5
396.352	86.5
396.576	96.5
396.801	89.5
397.025	92.5
397.249	85.5
397.474	89.5
397.698	83.5
397.922	86.5
398.147	70.5
398.371	74.5
398.595	88.5
398.82	93.5
399.044	88.5
399.268	76.5
399.492	83.5
399.717	86.5
399.941	101.5
400.165	93.5
400.389	89.5
400.613	63.5
400.837	82.5
401.062	82.5
401.286	89.5
401.51	96.5
401.734	90.5
401.958	96.5
402.182	119.5
402.406	173.5
402.63	125.5
402.854	96.5
403.078	89.5
403.302	97.5
403.526	96.5
403.75	94.5
403.974	94.5
404.198	87.5
404.422	90.5
404.645	81.5
404.869	95.5
405.093	110.5
405.317	127.5
405.541	115.5
405.765	108.5
405.988	126.5
406.212	176.5
406.436	237.5
406.66	161.5
406.883	101.5
407.107	100.5
407.331	110.5
407.555	104.5
407.778	97.5
408.002	69.5
408.226	79.5
408.449	88.5
408.673	88.5
408.896	89.5
409.12	97.5
409.344	84.5
409.567	85.5
409.791	85.5
410.014	97.5
410.238	95.5
410.461	82.5
410.685	81.5
410.908	86.5
411.132	103.5
411.355	95.5
411.578	89.5
411.802	80.5
412.025	65.5
412.249	109.5
412.472	97.5
412.695	115.5
412.919	94.5
413.142	86.5
413.365	90.5
413.589	86.5
413.812	83.5
414.035	81.5
414.258	88.5
414.482	90.5
414.705	89.5
414.928	91.5
415.151	103.5
415.374	74.5
415.597	73.5
415.821	94.5
416.044	95.5
416.267	86.5
416.49	73.5
416.713	91.5
416.936	87.5
417.159	85.5
417.382	85.5
417.605	97.5
417.828	103.5
418.051	92.5
418.274	77.5
418.497	85.5
418.72	86.5
418.943	76.5
419.166	94.5
419.389	77.5
419.611	89.5
419.834	80.5
420.057	86.5
420.28	88.5
420.503	76.5
420.726	87.5
420.948	82.5
421.171	95.5
421.394	86.5
421.617	76.5
421.839	72.5
422.062	81.5
422.285	102.5
422.507	101.5
422.73	109.5
422.953	94.5
423.175	81.5
423.398	97.5
423.621	85.5
423.843	83.5
424.066	78.5
424.288	81.5
424.511	96.5
424.733	84.5
424.956	100.5
425.178	85.5
425.401	103.5
425.623	110.5
425.846	100.5
426.068	83.5
426.291	95.5
426.513	87.5
426.735	96.5
426.958	102.5
427.18	110.5
427.402	154.5
427.625	201.5
427.847	198.5
428.069	176.5
428.292	105.5
428.514	98.5
428.736	95.5
428.958	86.5
429.181	86.5
429.403	71.5
429.625	77.5
429.847	91.5
430.069	107.5
430.292	90.5
430.514	92.5
430.736	94.5
430.958	78.5
431.18	70.5
431.402	77.5
431.624	68.5
431.846	85.5
432.068	92.5
432.29	95.5
432.512	93.5
432.734	95.5
432.956	82.5
433.178	101.5
433.4	92.5
433.622	75.5
433.844	82.5
434.066	84.5
434.287	101.5
434.509	97.5
434.731	95.5
434.953	82.5
435.175	77.5
435.397	85.5
435.618	97.5
435.84	96.5
436.062	129.5
436.284	122.5
436.505	96.5
436.727	113.5
436.949	86.5
437.17	83.5
437.392	90.5
437.614	85.5
437.835	113.5
438.057	128.5
438.278	120.5
438.5	108.5
438.721	106.5
438.943	105.5
439.165	93.5
439.386	86.5
439.608	87.5
439.829	86.5
440.05	126.5
440.272	156.5
440.493	89.5
440.715	94.5
440.936	90.5
441.158	93.5
441.379	89.5
441.6	94.5
441.822	85.5
442.043	84.5
442.264	104.5
442.486	112.5
442.707	115.5
442.928	103.5
443.149	131.5
443.371	142.5
443.592	120.5
443.813	111.5
444.034	118.5
444.255	90.5
444.476	89.5
444.698	95.5
444.919	85.5
445.14	133.5
445.361	144.5
445.582	126.5
445.803	168.5
446.024	137.5
446.245	136.5
446.466	113.5
446.687	82.5
446.908	82.5
447.129	100.5
447.35	85.5
447.571	89.5
447.792	81.5
448.013	102.5
448.234	104.5
448.455	100.5
448.675	102.5
448.896	115.5
449.117	101.5
449.338	99.5
449.559	134.5
449.779	130.5
450	87.5
450.221	81.5
450.442	71.5
450.662	98.5
450.883	108.5
451.104	116.5
451.324	96.5
451.545	80.5
451.766	89.5
451.986	90.5
452.207	99.5
452.428	80.5
452.648	101.5
452.869	110.5
453.089	130.5
453.31	129.5
453.53	84.5
453.751	98.5
453.971	107.5
454.192	121.5
454.412	84.5
454.633	82.5
454.853	86.5
455.073	81.5
455.294	82.5
455.514	105.5
455.734	89.5
455.955	91.5
456.175	77.5
456.395	81.5
456.616	79.5
456.836	85.5
457.056	81.5
457.276	87.5
457.497	84.5
457.717	83.5
457.937	81.5
458.157	87.5
458.377	96.5
458.598	102.5
458.818	164.5
459.038	192.5
459.258	132.5
459.478	85.5
459.698	83.5
459.918	89.5
460.138	78.5
460.358	88.5
460.578	92.5
460.798	80.5
461.018	87.5
461.238	83.5
461.458	84.5
461.678	79.5
461.898	92.5
462.118	69.5
462.338	83.5
462.558	79.5
462.777	99.5
462.997	92.5
463.217	98.5
463.437	79.5
463.657	101.5
463.876	80.5
464.096	92.5
464.316	89.5
464.536	98.5
464.755	93.5
464.975	101.5
465.195	185.5
465.414	176.5
465.634	98.5
465.854	92.5
466.073	95.5
466.293	104.5
466.512	89.5
466.732	84.5
466.951	77.5
467.171	101.5
467.391	85.5
467.61	119.5
467.829	177.5
468.049	363.5
468.268	509.5
468.488	162.5
468.707	97.5
468.927	86.5
469.146	78.5
469.365	85.5
469.585	77.5
469.804	90.5
470.023	102.5
470.243	98.5
470.462	110.5
470.681	121.5
470.901	91.5
471.12	104.5
471.339	91.5
471.558	98.5
471.777	130.5
471.997	235.5
472.216	737.5
472.435	1525.5
472.654	388.5
472.873	123.5
473.092	98.5
473.311	95.5
473.53	86.5
473.749	81.5
473.968	102.5
474.187	128.5
474.406	104.5
474.625	82.5
474.844	87.5
475.063	72.5
475.282	90.5
475.501	80.5
475.72	76.5
475.939	75.5
476.158	85.5
476.377	82.5
476.596	89.5
476.814	83.5
477.033	90.5
477.252	85.5
477.471	76.5
477.69	101.5
477.908	93.5
478.127	92.5
478.346	92.5
478.564	85.5
478.783	93.5
479.002	101.5
479.22	89.5
479.439	105.5
479.658	116.5
479.876	103.5
480.095	90.5
480.313	110.5
480.532	141.5
480.751	212.5
480.969	689.5
481.188	2642.5
481.406	1495.5
481.624	246.5
481.843	118.5
482.061	90.5
482.28	95.5
482.498	104.5
482.717	89.5
482.935	85.5
483.153	96.5
483.372	88.5
483.59	89.5
483.808	94.5
484.027	85.5
484.245	101.5
484.463	99.5
484.681	89.5
484.9	87.5
485.118	103.5
485.336	96.5
485.554	85.5
485.772	114.5
485.99	117.5
486.209	106.5
486.427	114.5
486.645	107.5
486.863	115.5
487.081	107.5
487.299	91.5
487.517	90.5
487.735	117.5
487.953	88.5
488.171	99.5
488.389	96.5
488.607	87.5
488.825	73.5
489.043	92.5
489.261	87.5
489.479	89.5
489.696	92.5
489.914	104.5
490.132	98.5
490.35	85.5
490.568	82.5
490.786	85.5
491.003	81.5
491.221	99.5
491.439	105.5
491.657	104.5
491.874	81.5
492.092	93.5
492.31	79.5
492.527	89.5
492.745	76.5
492.963	94.5
493.18	84.5
493.398	86.5
493.615	109.5
493.833	108.5
494.05	95.5
494.268	96.5
494.485	79.5
494.703	85.5
494.92	95.5
495.138	70.5
495.355	89.5
495.573	81.5
495.79	92.5
496.008	100.5
496.225	76.5
496.442	75.5
496.66	82.5
496.877	80.5
497.094	89.5
497.312	90.5
497.529	91.5
497.746	93.5
497.963	80.5
498.181	74.5
498.398	86.5
498.615	106.5
498.832	91.5
499.049	104.5
499.267	91.5
499.484	80.5
499.701	90.5
499.918	94.5
500.135	88.5
500.352	100.5
500.569	92.5
500.786	99.5
501.003	81.5
501.22	89.5
501.437	97.5
501.654	89.5
501.871	119.5
502.088	95.5
502.305	85.5
502.522	103.5
502.739	92.5
502.956	89.5
503.172	87.5
503.389	99.5
503.606	86.5
503.823	97.5
504.04	84.5
504.256	83.5
504.473	82.5
504.69	89.5
504.907	86.5
505.123	89.5
505.34	93.5
505.557	105.5
505.773	92.5
505.99	88.5
506.207	81.5
506.423	84.5
506.64	78.5
506.856	102.5
507.073	79.5
507.289	86.5
507.506	80.5
507.722	106.5
507.939	126.5
508.155	97.5
508.372	96.5
508.588	86.5
508.805	85.5
509.021	95.5
509.238	100.5
509.454	97.5
509.67	99.5
509.887	112.5
510.103	121.5
510.319	197.5
510.536	742.5
510.752	2443.5
510.968	687.5
511.184	169.5
511.401	126.5
511.617	99.5
511.833	107.5
512.049	89.5
512.265	108.5
512.481	103.5
512.698	87.5
512.914	92.5
513.13	102.5
513.346	95.5
513.562	96.5
513.778	89.5
513.994	105.5
514.21	111.5
514.426	118.5
514.642	142.5
514.858	152.5
515.074	182.5
515.29	529.5
515.506	1834.5
515.721	637.5
515.937	172.5
516.153	115.5
516.369	99.5
516.585	95.5
516.801	87.5
517.016	87.5
517.232	94.5
517.448	84.5
517.664	103.5
517.879	85.5
518.095	97.5
518.311	110.5
518.527	104.5
518.742	91.5
518.958	96.5
519.173	115.5
519.389	84.5
519.605	88.5
519.82	103.5
520.036	110.5
520.251	121.5
520.467	128.5
520.682	104.5
520.898	123.5
521.113	127.5
521.329	157.5
521.544	220.5
521.76	698.5
521.975	3068.5
522.19	1811.5
522.406	368.5
522.621	148.5
522.836	113.5
523.052	81.5
523.267	92.5
523.482	94.5
523.698	108.5
523.913	135.5
524.128	113.5
524.343	108.5
524.559	96.5
524.774	81.5
524.989	98.5
525.204	111.5
525.419	107.5
525.634	106.5
525.849	80.5
526.064	80.5
526.28	89.5
526.495	73.5
526.71	87.5
526.925	75.5
527.14	93.5
527.355	83.5
527.57	86.5
527.785	96.5
527.999	87.5
528.214	92.5
528.429	80.5
528.644	96.5
528.859	84.5
529.074	95.5
529.289	140.5
529.503	233.5
529.718	119.5
529.933	107.5
530.148	89.5
530.363	78.5
530.577	100.5
530.792	93.5
531.007	92.5
531.221	88.5
531.436	93.5
531.651	96.5
531.865	91.5
532.08	88.5
532.295	94.5
532.509	89.5
532.724	98.5
532.938	79.5
533.153	94.5
533.367	80.5
533.582	81.5
533.796	77.5
534.011	93.5
534.225	102.5
