Data from Circ_2001_H10_HRD10591_00092.txt Node
Date: Wed Jan 03 10:45:57 EST 2024
User: Yrep
Spectrometer: HR+D1059
Trigger mode: 1
Integration Time (sec): 1.000000E-1
Scans to average: 1
Electric dark correction enabled: true
Nonlinearity correction enabled: false
Boxcar width: 0
XAxis mode: Wavelengths
Number of Pixels in Spectrum: 2048
>>>>>Begin Spectral Data<<<<<
223.165	-9.25
223.4	-9.25
223.635	-9.25
223.869	-22.25
224.104	-8.25
224.338	-22.25
224.573	-17.25
224.808	-11.25
225.042	-9.25
225.277	-11.25
225.511	-8.25
225.746	7.75
225.98	18.75
226.215	6.75
226.449	15.75
226.683	14.75
226.918	27.75
227.152	27.75
227.387	33.75
227.621	40.75
227.856	34.75
228.09	44.75
228.324	62.75
228.559	64.75
228.793	66.75
229.027	60.75
229.262	66.75
229.496	78.75
229.73	82.75
229.964	82.75
230.199	87.75
230.433	78.75
230.667	61.75
230.901	90.75
231.136	76.75
231.37	89.75
231.604	76.75
231.838	80.75
232.072	76.75
232.306	81.75
232.541	83.75
232.775	79.75
233.009	72.75
233.243	73.75
233.477	82.75
233.711	79.75
233.945	79.75
234.179	73.75
234.413	88.75
234.647	87.75
234.881	75.75
235.115	79.75
235.349	83.75
235.583	94.75
235.817	71.75
236.051	82.75
236.285	79.75
236.519	73.75
236.753	85.75
236.987	76.75
237.221	80.75
237.455	84.75
237.689	78.75
237.922	78.75
238.156	84.75
238.39	72.75
238.624	68.75
238.858	79.75
239.091	79.75
239.325	73.75
239.559	88.75
239.793	87.75
240.027	87.75
240.26	75.75
240.494	81.75
240.728	63.75
240.961	84.75
241.195	78.75
241.429	83.75
241.662	53.75
241.896	78.75
242.13	66.75
242.363	82.75
242.597	79.75
242.83	78.75
243.064	86.75
243.298	88.75
243.531	82.75
243.765	75.75
243.998	72.75
244.232	76.75
244.465	82.75
244.699	82.75
244.932	78.75
245.166	73.75
245.399	83.75
245.633	74.75
245.866	90.75
246.099	73.75
246.333	74.75
246.566	74.75
246.8	74.75
247.033	71.75
247.266	83.75
247.5	75.75
247.733	74.75
247.966	83.75
248.2	94.75
248.433	75.75
248.666	82.75
248.899	88.75
249.133	82.75
249.366	111.75
249.599	98.75
249.832	85.75
250.066	76.75
250.299	94.75
250.532	78.75
250.765	90.75
250.998	89.75
251.231	84.75
251.465	86.75
251.698	82.75
251.931	84.75
252.164	88.75
252.397	95.75
252.63	78.75
252.863	79.75
253.096	85.75
253.329	80.75
253.562	84.75
253.795	76.75
254.028	84.75
254.261	90.75
254.494	79.75
254.727	80.75
254.96	83.75
255.193	76.75
255.426	74.75
255.659	87.75
255.892	96.75
256.124	88.75
256.357	70.75
256.59	90.75
256.823	80.75
257.056	76.75
257.289	82.75
257.521	78.75
257.754	79.75
257.987	89.75
258.22	90.75
258.452	94.75
258.685	91.75
258.918	69.75
259.151	82.75
259.383	75.75
259.616	75.75
259.849	89.75
260.081	82.75
260.314	78.75
260.547	80.75
260.779	87.75
261.012	102.75
261.244	83.75
261.477	92.75
261.71	91.75
261.942	109.75
262.175	115.75
262.407	95.75
262.64	89.75
262.872	84.75
263.105	86.75
263.337	89.75
263.57	76.75
263.802	86.75
264.035	71.75
264.267	82.75
264.499	90.75
264.732	79.75
264.964	86.75
265.197	91.75
265.429	59.75
265.661	88.75
265.894	77.75
266.126	71.75
266.358	71.75
266.591	81.75
266.823	84.75
267.055	82.75
267.287	83.75
267.52	86.75
267.752	87.75
267.984	79.75
268.216	92.75
268.448	106.75
268.681	88.75
268.913	78.75
269.145	86.75
269.377	86.75
269.609	84.75
269.841	90.75
270.073	84.75
270.306	88.75
270.538	98.75
270.77	89.75
271.002	91.75
271.234	85.75
271.466	91.75
271.698	85.75
271.93	85.75
272.162	89.75
272.394	76.75
272.626	93.75
272.858	83.75
273.09	96.75
273.322	80.75
273.553	87.75
273.785	75.75
274.017	81.75
274.249	90.75
274.481	87.75
274.713	90.75
274.945	85.75
275.176	83.75
275.408	86.75
275.64	109.75
275.872	131.75
276.104	106.75
276.335	105.75
276.567	106.75
276.799	118.75
277.031	130.75
277.262	146.75
277.494	115.75
277.726	99.75
277.957	89.75
278.189	90.75
278.421	103.75
278.652	100.75
278.884	83.75
279.115	73.75
279.347	80.75
279.579	78.75
279.81	117.75
280.042	144.75
280.273	207.75
280.505	128.75
280.736	106.75
280.968	79.75
281.199	91.75
281.431	80.75
281.662	74.75
281.894	96.75
282.125	101.75
282.356	113.75
282.588	134.75
282.819	101.75
283.051	89.75
283.282	94.75
283.513	90.75
283.745	79.75
283.976	87.75
284.207	82.75
284.439	84.75
284.67	89.75
284.901	91.75
285.132	86.75
285.364	90.75
285.595	92.75
285.826	95.75
286.057	93.75
286.288	70.75
286.52	91.75
286.751	85.75
286.982	88.75
287.213	95.75
287.444	79.75
287.675	96.75
287.906	86.75
288.138	81.75
288.369	82.75
288.6	101.75
288.831	84.75
289.062	92.75
289.293	86.75
289.524	69.75
289.755	96.75
289.986	83.75
290.217	81.75
290.448	90.75
290.679	99.75
290.91	88.75
291.141	97.75
291.371	98.75
291.602	86.75
291.833	94.75
292.064	96.75
292.295	91.75
292.526	74.75
292.757	83.75
292.987	76.75
293.218	80.75
293.449	87.75
293.68	85.75
293.91	93.75
294.141	90.75
294.372	100.75
294.603	81.75
294.833	95.75
295.064	79.75
295.295	103.75
295.525	100.75
295.756	98.75
295.987	118.75
296.217	134.75
296.448	124.75
296.679	98.75
296.909	86.75
297.14	98.75
297.37	72.75
297.601	86.75
297.831	89.75
298.062	74.75
298.292	87.75
298.523	101.75
298.753	74.75
298.984	82.75
299.214	90.75
299.445	90.75
299.675	96.75
299.905	94.75
300.136	86.75
300.366	80.75
300.597	80.75
300.827	90.75
301.057	104.75
301.288	108.75
301.518	82.75
301.748	96.75
301.979	103.75
302.209	90.75
302.439	89.75
302.669	97.75
302.9	93.75
303.13	96.75
303.36	104.75
303.59	108.75
303.82	127.75
304.051	80.75
304.281	89.75
304.511	90.75
304.741	97.75
304.971	88.75
305.201	93.75
305.431	108.75
305.661	101.75
305.891	90.75
306.121	105.75
306.352	103.75
306.582	111.75
306.812	90.75
307.042	103.75
307.272	132.75
307.502	147.75
307.731	126.75
307.961	129.75
308.191	98.75
308.421	93.75
308.651	84.75
308.881	81.75
309.111	103.75
309.341	88.75
309.571	92.75
309.8	95.75
310.03	105.75
310.26	113.75
310.49	105.75
310.72	93.75
310.949	107.75
311.179	100.75
311.409	83.75
311.639	108.75
311.868	94.75
312.098	101.75
312.328	100.75
312.557	91.75
312.787	96.75
313.017	88.75
313.246	101.75
313.476	72.75
313.706	99.75
313.935	87.75
314.165	112.75
314.394	102.75
314.624	103.75
314.853	103.75
315.083	90.75
315.312	95.75
315.542	88.75
315.771	85.75
316.001	91.75
316.23	83.75
316.46	104.75
316.689	90.75
316.919	89.75
317.148	95.75
317.377	87.75
317.607	88.75
317.836	90.75
318.065	98.75
318.295	86.75
318.524	92.75
318.753	94.75
318.983	83.75
319.212	96.75
319.441	108.75
319.67	105.75
319.9	106.75
320.129	97.75
320.358	96.75
320.587	103.75
320.816	115.75
321.046	108.75
321.275	73.75
321.504	85.75
321.733	90.75
321.962	91.75
322.191	99.75
322.42	104.75
322.649	108.75
322.878	120.75
323.108	129.75
323.337	143.75
323.566	139.75
323.795	156.75
324.024	217.75
324.253	426.75
324.482	917.75
324.71	1868.75
324.939	2446.75
325.168	876.75
325.397	270.75
325.626	152.75
325.855	124.75
326.084	127.75
326.313	135.75
326.542	162.75
326.77	243.75
326.999	491.75
327.228	1044.75
327.457	1847.75
327.686	1487.75
327.914	488.75
328.143	411.75
328.372	460.75
328.6	272.75
328.829	149.75
329.058	158.75
329.287	157.75
329.515	160.75
329.744	203.75
329.972	359.75
330.201	688.75
330.43	970.75
330.658	441.75
330.887	216.75
331.115	160.75
331.344	135.75
331.572	108.75
331.801	122.75
332.03	107.75
332.258	100.75
332.486	98.75
332.715	115.75
332.943	91.75
333.172	112.75
333.4	128.75
333.629	154.75
333.857	181.75
334.085	329.75
334.314	672.75
334.542	1236.75
334.771	1127.75
334.999	318.75
335.227	138.75
335.455	116.75
335.684	107.75
335.912	96.75
336.14	118.75
336.369	103.75
336.597	103.75
336.825	108.75
337.053	102.75
337.281	98.75
337.51	90.75
337.738	97.75
337.966	92.75
338.194	94.75
338.422	87.75
338.65	96.75
338.878	102.75
339.106	85.75
339.334	82.75
339.562	98.75
339.79	84.75
340.018	87.75
340.246	89.75
340.474	97.75
340.702	89.75
340.93	96.75
341.158	99.75
341.386	97.75
341.614	96.75
341.842	110.75
342.07	107.75
342.298	100.75
342.526	91.75
342.754	100.75
342.981	89.75
343.209	82.75
343.437	93.75
343.665	100.75
343.893	82.75
344.12	102.75
344.348	90.75
344.576	102.75
344.804	94.75
345.031	102.75
345.259	117.75
345.487	89.75
345.714	104.75
345.942	90.75
346.17	87.75
346.397	88.75
346.625	87.75
346.853	89.75
347.08	102.75
347.308	99.75
347.535	97.75
347.763	90.75
347.99	90.75
348.218	99.75
348.445	102.75
348.673	89.75
348.9	93.75
349.128	96.75
349.355	94.75
349.583	92.75
349.81	102.75
350.037	86.75
350.265	91.75
350.492	96.75
350.72	107.75
350.947	108.75
351.174	106.75
351.402	116.75
351.629	86.75
351.856	111.75
352.083	96.75
352.311	111.75
352.538	108.75
352.765	125.75
352.992	116.75
353.22	118.75
353.447	117.75
353.674	101.75
353.901	89.75
354.128	96.75
354.355	84.75
354.583	87.75
354.81	105.75
355.037	89.75
355.264	87.75
355.491	79.75
355.718	95.75
355.945	92.75
356.172	88.75
356.399	95.75
356.626	101.75
356.853	77.75
357.08	99.75
357.307	87.75
357.534	97.75
357.761	91.75
357.988	98.75
358.215	91.75
358.441	79.75
358.668	79.75
358.895	83.75
359.122	84.75
359.349	103.75
359.576	99.75
359.802	114.75
360.029	126.75
360.256	125.75
360.483	115.75
360.709	108.75
360.936	84.75
361.163	86.75
361.39	90.75
361.616	96.75
361.843	98.75
362.07	102.75
362.296	101.75
362.523	88.75
362.749	93.75
362.976	91.75
363.203	91.75
363.429	82.75
363.656	87.75
363.882	88.75
364.109	94.75
364.335	95.75
364.562	88.75
364.788	86.75
365.015	98.75
365.241	121.75
365.468	105.75
365.694	106.75
365.92	111.75
366.147	89.75
366.373	84.75
366.599	91.75
366.826	88.75
367.052	79.75
367.278	98.75
367.505	82.75
367.731	87.75
367.957	98.75
368.184	81.75
368.41	102.75
368.636	106.75
368.862	121.75
369.089	85.75
369.315	104.75
369.541	99.75
369.767	83.75
369.993	91.75
370.219	102.75
370.445	84.75
370.672	90.75
370.898	78.75
371.124	97.75
371.35	85.75
371.576	89.75
371.802	87.75
372.028	78.75
372.254	89.75
372.48	90.75
372.706	68.75
372.932	82.75
373.158	98.75
373.384	91.75
373.61	107.75
373.835	85.75
374.061	92.75
374.287	89.75
374.513	89.75
374.739	89.75
374.965	98.75
375.191	97.75
375.416	83.75
375.642	82.75
375.868	98.75
376.094	93.75
376.319	82.75
376.545	76.75
376.771	85.75
376.997	97.75
377.222	78.75
377.448	86.75
377.674	92.75
377.899	77.75
378.125	83.75
378.35	82.75
378.576	95.75
378.802	85.75
379.027	88.75
379.253	88.75
379.478	79.75
379.704	100.75
379.929	95.75
380.155	80.75
380.38	82.75
380.606	80.75
380.831	91.75
381.057	86.75
381.282	98.75
381.507	101.75
381.733	98.75
381.958	98.75
382.184	99.75
382.409	87.75
382.634	90.75
382.86	80.75
383.085	98.75
383.31	89.75
383.535	104.75
383.761	86.75
383.986	91.75
384.211	96.75
384.436	87.75
384.662	82.75
384.887	108.75
385.112	84.75
385.337	99.75
385.562	90.75
385.787	98.75
386.013	109.75
386.238	102.75
386.463	82.75
386.688	91.75
386.913	98.75
387.138	90.75
387.363	110.75
387.588	91.75
387.813	101.75
388.038	106.75
388.263	110.75
388.488	97.75
388.713	93.75
388.938	89.75
389.163	92.75
389.387	84.75
389.612	88.75
389.837	79.75
390.062	68.75
390.287	91.75
390.512	78.75
390.736	92.75
390.961	84.75
391.186	97.75
391.411	88.75
391.636	90.75
391.86	83.75
392.085	77.75
392.31	83.75
392.534	76.75
392.759	86.75
392.984	86.75
393.208	85.75
393.433	88.75
393.658	89.75
393.882	93.75
394.107	83.75
394.331	76.75
394.556	82.75
394.78	78.75
395.005	77.75
395.229	83.75
395.454	90.75
395.678	86.75
395.903	102.75
396.127	87.75
396.352	78.75
396.576	72.75
396.801	88.75
397.025	97.75
397.249	83.75
397.474	75.75
397.698	106.75
397.922	79.75
398.147	86.75
398.371	77.75
398.595	96.75
398.82	86.75
399.044	98.75
399.268	84.75
399.492	76.75
399.717	83.75
399.941	88.75
400.165	85.75
400.389	95.75
400.613	80.75
400.837	86.75
401.062	83.75
401.286	87.75
401.51	82.75
401.734	103.75
401.958	91.75
402.182	127.75
402.406	156.75
402.63	122.75
402.854	96.75
403.078	89.75
403.302	98.75
403.526	90.75
403.75	77.75
403.974	80.75
404.198	73.75
404.422	79.75
404.645	96.75
404.869	94.75
405.093	99.75
405.317	117.75
405.541	131.75
405.765	105.75
405.988	105.75
406.212	186.75
406.436	236.75
406.66	150.75
406.883	101.75
407.107	93.75
407.331	81.75
407.555	107.75
407.778	116.75
408.002	88.75
408.226	94.75
408.449	72.75
408.673	98.75
408.896	91.75
409.12	90.75
409.344	101.75
409.567	93.75
409.791	83.75
410.014	89.75
410.238	83.75
410.461	90.75
410.685	86.75
410.908	93.75
411.132	94.75
411.355	101.75
411.578	98.75
411.802	89.75
412.025	114.75
412.249	103.75
412.472	107.75
412.695	132.75
412.919	108.75
413.142	83.75
413.365	91.75
413.589	86.75
413.812	79.75
414.035	94.75
414.258	91.75
414.482	99.75
414.705	95.75
414.928	93.75
415.151	101.75
415.374	104.75
415.597	91.75
415.821	78.75
416.044	80.75
416.267	88.75
416.49	91.75
416.713	97.75
416.936	94.75
417.159	92.75
417.382	79.75
417.605	91.75
417.828	108.75
418.051	102.75
418.274	88.75
418.497	94.75
418.72	84.75
418.943	88.75
419.166	78.75
419.389	82.75
419.611	87.75
419.834	78.75
420.057	84.75
420.28	92.75
420.503	87.75
420.726	79.75
420.948	90.75
421.171	83.75
421.394	90.75
421.617	83.75
421.839	96.75
422.062	73.75
422.285	89.75
422.507	96.75
422.73	101.75
422.953	82.75
423.175	86.75
423.398	66.75
423.621	84.75
423.843	85.75
424.066	95.75
424.288	79.75
424.511	82.75
424.733	86.75
424.956	117.75
425.178	95.75
425.401	91.75
425.623	103.75
425.846	97.75
426.068	91.75
426.291	106.75
426.513	88.75
426.735	89.75
426.958	110.75
427.18	111.75
427.402	154.75
427.625	208.75
427.847	191.75
428.069	178.75
428.292	112.75
428.514	106.75
428.736	82.75
428.958	81.75
429.181	80.75
429.403	80.75
429.625	91.75
429.847	102.75
430.069	96.75
430.292	90.75
430.514	88.75
430.736	77.75
430.958	88.75
431.18	84.75
431.402	80.75
431.624	99.75
431.846	78.75
432.068	68.75
432.29	86.75
432.512	99.75
432.734	75.75
432.956	91.75
433.178	96.75
433.4	95.75
433.622	99.75
433.844	98.75
434.066	88.75
434.287	92.75
434.509	78.75
434.731	92.75
434.953	92.75
435.175	87.75
435.397	90.75
435.618	91.75
435.84	119.75
436.062	120.75
436.284	123.75
436.505	101.75
436.727	107.75
436.949	103.75
437.17	102.75
437.392	91.75
437.614	89.75
437.835	116.75
438.057	132.75
438.278	104.75
438.5	113.75
438.721	126.75
438.943	95.75
439.165	97.75
439.386	86.75
439.608	80.75
439.829	94.75
440.05	129.75
440.272	163.75
440.493	114.75
440.715	73.75
440.936	69.75
441.158	78.75
441.379	86.75
441.6	95.75
441.822	90.75
442.043	107.75
442.264	102.75
442.486	94.75
442.707	90.75
442.928	106.75
443.149	143.75
443.371	138.75
443.592	115.75
443.813	120.75
444.034	98.75
444.255	85.75
444.476	103.75
444.698	78.75
444.919	87.75
445.14	128.75
445.361	130.75
445.582	117.75
445.803	146.75
446.024	142.75
446.245	150.75
446.466	114.75
446.687	74.75
446.908	84.75
447.129	75.75
447.35	96.75
447.571	81.75
447.792	88.75
448.013	91.75
448.234	126.75
448.455	112.75
448.675	128.75
448.896	122.75
449.117	97.75
449.338	106.75
449.559	150.75
449.779	134.75
450	100.75
450.221	81.75
450.442	85.75
450.662	110.75
450.883	113.75
451.104	130.75
451.324	96.75
451.545	94.75
451.766	86.75
451.986	82.75
452.207	82.75
452.428	91.75
452.648	107.75
452.869	111.75
453.089	115.75
453.31	115.75
453.53	100.75
453.751	87.75
453.971	108.75
454.192	101.75
454.412	101.75
454.633	97.75
454.853	82.75
455.073	95.75
455.294	94.75
455.514	96.75
455.734	95.75
455.955	76.75
456.175	89.75
456.395	79.75
456.616	95.75
456.836	102.75
457.056	83.75
457.276	92.75
457.497	94.75
457.717	87.75
457.937	71.75
458.157	100.75
458.377	96.75
458.598	104.75
458.818	163.75
459.038	178.75
459.258	130.75
459.478	99.75
459.698	91.75
459.918	91.75
460.138	90.75
460.358	81.75
460.578	79.75
460.798	98.75
461.018	81.75
461.238	90.75
461.458	93.75
461.678	82.75
461.898	96.75
462.118	94.75
462.338	71.75
462.558	93.75
462.777	95.75
462.997	100.75
463.217	90.75
463.437	83.75
463.657	72.75
463.876	86.75
464.096	91.75
464.316	99.75
464.536	98.75
464.755	98.75
464.975	121.75
465.195	160.75
465.414	169.75
465.634	103.75
465.854	73.75
466.073	80.75
466.293	85.75
466.512	91.75
466.732	88.75
466.951	90.75
467.171	90.75
467.391	110.75
467.61	112.75
467.829	171.75
468.049	424.75
468.268	592.75
468.488	182.75
468.707	97.75
468.927	100.75
469.146	84.75
469.365	86.75
469.585	92.75
469.804	102.75
470.023	114.75
470.243	97.75
470.462	109.75
470.681	107.75
470.901	95.75
471.12	89.75
471.339	100.75
471.558	113.75
471.777	136.75
471.997	245.75
472.216	816.75
472.435	1747.75
472.654	430.75
472.873	131.75
473.092	91.75
473.311	99.75
473.53	91.75
473.749	99.75
473.968	91.75
474.187	107.75
474.406	96.75
474.625	92.75
474.844	82.75
475.063	87.75
475.282	88.75
475.501	90.75
475.72	96.75
475.939	91.75
476.158	82.75
476.377	100.75
476.596	86.75
476.814	93.75
477.033	89.75
477.252	76.75
477.471	84.75
477.69	93.75
477.908	91.75
478.127	93.75
478.346	94.75
478.564	80.75
478.783	101.75
479.002	113.75
479.22	115.75
479.439	116.75
479.658	114.75
479.876	104.75
480.095	110.75
480.313	115.75
480.532	133.75
480.751	249.75
480.969	751.75
481.188	3027.75
481.406	1724.75
481.624	281.75
481.843	118.75
482.061	97.75
482.28	113.75
482.498	99.75
482.717	95.75
482.935	97.75
483.153	96.75
483.372	93.75
483.59	90.75
483.808	96.75
484.027	96.75
484.245	88.75
484.463	104.75
484.681	95.75
484.9	95.75
485.118	89.75
485.336	107.75
485.554	101.75
485.772	102.75
485.99	103.75
486.209	106.75
486.427	115.75
486.645	103.75
486.863	114.75
487.081	93.75
487.299	94.75
487.517	113.75
487.735	104.75
487.953	91.75
488.171	98.75
488.389	85.75
488.607	92.75
488.825	96.75
489.043	96.75
489.261	79.75
489.479	87.75
489.696	88.75
489.914	85.75
490.132	91.75
490.35	75.75
490.568	85.75
490.786	87.75
491.003	94.75
491.221	90.75
491.439	87.75
491.657	83.75
491.874	83.75
492.092	89.75
492.31	80.75
492.527	95.75
492.745	92.75
492.963	93.75
493.18	91.75
493.398	95.75
493.615	104.75
493.833	99.75
494.05	92.75
494.268	102.75
494.485	99.75
494.703	98.75
494.92	85.75
495.138	94.75
495.355	86.75
495.573	88.75
495.79	100.75
496.008	76.75
496.225	87.75
496.442	85.75
496.66	80.75
496.877	88.75
497.094	91.75
497.312	89.75
497.529	97.75
497.746	82.75
497.963	91.75
498.181	95.75
498.398	103.75
498.615	109.75
498.832	105.75
499.049	91.75
499.267	94.75
499.484	102.75
499.701	96.75
499.918	88.75
500.135	91.75
500.352	82.75
500.569	90.75
500.786	95.75
501.003	94.75
501.22	88.75
501.437	92.75
501.654	90.75
501.871	103.75
502.088	95.75
502.305	89.75
502.522	86.75
502.739	81.75
502.956	96.75
503.172	96.75
503.389	101.75
503.606	93.75
503.823	100.75
504.04	95.75
504.256	83.75
504.473	96.75
504.69	99.75
504.907	89.75
505.123	96.75
505.34	76.75
505.557	105.75
505.773	92.75
505.99	91.75
506.207	89.75
506.423	96.75
506.64	88.75
506.856	80.75
507.073	91.75
507.289	99.75
507.506	104.75
507.722	112.75
507.939	124.75
508.155	106.75
508.372	87.75
508.588	105.75
508.805	98.75
509.021	92.75
509.238	95.75
509.454	97.75
509.67	89.75
509.887	112.75
510.103	148.75
510.319	189.75
510.536	694.75
510.752	2206.75
510.968	633.75
511.184	160.75
511.401	112.75
511.617	116.75
511.833	82.75
512.049	100.75
512.265	100.75
512.481	111.75
512.698	87.75
512.914	101.75
513.13	92.75
513.346	89.75
513.562	95.75
513.778	86.75
513.994	89.75
514.21	110.75
514.426	114.75
514.642	143.75
514.858	127.75
