Data from Circ_2001_H10_HRD10591_00010.txt Node
Date: Wed Jan 03 10:45:40 EST 2024
User: Yrep
Spectrometer: HR+D1059
Trigger mode: 1
Integration Time (sec): 1.000000E-1
Scans to average: 1
Electric dark correction enabled: true
Nonlinearity correction enabled: false
Boxcar width: 0
XAxis mode: Wavelengths
Number of Pixels in Spectrum: 2048
>>>>>Begin Spectral Data<<<<<
223.165	-16.81
223.4	-16.81
223.635	-16.81
223.869	-11.81
224.104	-24.81
224.338	-14.81
224.573	-9.81
224.808	-5.81
225.042	-5.81
225.277	-13.81
225.511	-8.81
225.746	3.19
225.98	7.19
226.215	8.19
226.449	20.19
226.683	17.19
226.918	23.19
227.152	33.19
227.387	38.19
227.621	58.19
227.856	48.19
228.09	58.19
228.324	47.19
228.559	59.19
228.793	67.19
229.027	62.19
229.262	80.19
229.496	81.19
229.73	88.19
229.964	74.19
230.199	79.19
230.433	78.19
230.667	70.19
230.901	75.19
231.136	80.19
231.37	70.19
231.604	74.19
231.838	73.19
232.072	65.19
232.306	93.19
232.541	75.19
232.775	83.19
233.009	71.19
233.243	72.19
233.477	80.19
233.711	76.19
233.945	80.19
234.179	70.19
234.413	74.19
234.647	77.19
234.881	81.19
235.115	83.19
235.349	87.19
235.583	67.19
235.817	79.19
236.051	81.19
236.285	71.19
236.519	78.19
236.753	83.19
236.987	71.19
237.221	96.19
237.455	100.19
237.689	77.19
237.922	79.19
238.156	86.19
238.39	74.19
238.624	60.19
238.858	82.19
239.091	63.19
239.325	84.19
239.559	71.19
239.793	61.19
240.027	70.19
240.26	74.19
240.494	72.19
240.728	88.19
240.961	81.19
241.195	81.19
241.429	70.19
241.662	86.19
241.896	72.19
242.13	79.19
242.363	78.19
242.597	84.19
242.83	84.19
243.064	77.19
243.298	89.19
243.531	80.19
243.765	73.19
243.998	82.19
244.232	85.19
244.465	80.19
244.699	87.19
244.932	96.19
245.166	77.19
245.399	93.19
245.633	81.19
245.866	80.19
246.099	84.19
246.333	78.19
246.566	80.19
246.8	85.19
247.033	83.19
247.266	77.19
247.5	76.19
247.733	82.19
247.966	71.19
248.2	81.19
248.433	75.19
248.666	81.19
248.899	90.19
249.133	91.19
249.366	96.19
249.599	93.19
249.832	75.19
250.066	72.19
250.299	80.19
250.532	83.19
250.765	69.19
250.998	79.19
251.231	72.19
251.465	92.19
251.698	61.19
251.931	72.19
252.164	82.19
252.397	86.19
252.63	85.19
252.863	81.19
253.096	82.19
253.329	80.19
253.562	80.19
253.795	92.19
254.028	79.19
254.261	74.19
254.494	67.19
254.727	72.19
254.96	75.19
255.193	85.19
255.426	85.19
255.659	86.19
255.892	84.19
256.124	85.19
256.357	72.19
256.59	81.19
256.823	86.19
257.056	64.19
257.289	84.19
257.521	93.19
257.754	91.19
257.987	75.19
258.22	88.19
258.452	75.19
258.685	84.19
258.918	81.19
259.151	92.19
259.383	84.19
259.616	80.19
259.849	81.19
260.081	85.19
260.314	83.19
260.547	72.19
260.779	78.19
261.012	86.19
261.244	97.19
261.477	104.19
261.71	94.19
261.942	117.19
262.175	104.19
262.407	90.19
262.64	70.19
262.872	67.19
263.105	85.19
263.337	85.19
263.57	88.19
263.802	75.19
264.035	90.19
264.267	81.19
264.499	81.19
264.732	73.19
264.964	83.19
265.197	86.19
265.429	80.19
265.661	69.19
265.894	81.19
266.126	86.19
266.358	80.19
266.591	81.19
266.823	82.19
267.055	65.19
267.287	100.19
267.52	96.19
267.752	79.19
267.984	91.19
268.216	85.19
268.448	77.19
268.681	91.19
268.913	83.19
269.145	87.19
269.377	93.19
269.609	90.19
269.841	95.19
270.073	79.19
270.306	77.19
270.538	88.19
270.77	71.19
271.002	85.19
271.234	81.19
271.466	78.19
271.698	87.19
271.93	89.19
272.162	92.19
272.394	94.19
272.626	76.19
272.858	82.19
273.09	88.19
273.322	88.19
273.553	79.19
273.785	87.19
274.017	95.19
274.249	78.19
274.481	78.19
274.713	75.19
274.945	91.19
275.176	83.19
275.408	80.19
275.64	93.19
275.872	95.19
276.104	80.19
276.335	77.19
276.567	103.19
276.799	106.19
277.031	111.19
277.262	107.19
277.494	100.19
277.726	84.19
277.957	96.19
278.189	94.19
278.421	94.19
278.652	86.19
278.884	75.19
279.115	85.19
279.347	75.19
279.579	93.19
279.81	92.19
280.042	93.19
280.273	123.19
280.505	106.19
280.736	91.19
280.968	79.19
281.199	84.19
281.431	91.19
281.662	96.19
281.894	88.19
282.125	102.19
282.356	117.19
282.588	110.19
282.819	96.19
283.051	88.19
283.282	92.19
283.513	99.19
283.745	91.19
283.976	88.19
284.207	94.19
284.439	83.19
284.67	72.19
284.901	86.19
285.132	79.19
285.364	97.19
285.595	99.19
285.826	94.19
286.057	97.19
286.288	83.19
286.52	98.19
286.751	98.19
286.982	88.19
287.213	92.19
287.444	92.19
287.675	102.19
287.906	93.19
288.138	85.19
288.369	90.19
288.6	93.19
288.831	82.19
289.062	95.19
289.293	92.19
289.524	87.19
289.755	79.19
289.986	88.19
290.217	89.19
290.448	84.19
290.679	80.19
290.91	83.19
291.141	85.19
291.371	82.19
291.602	92.19
291.833	81.19
292.064	76.19
292.295	88.19
292.526	65.19
292.757	99.19
292.987	72.19
293.218	84.19
293.449	91.19
293.68	97.19
293.91	81.19
294.141	82.19
294.372	95.19
294.603	90.19
294.833	85.19
295.064	88.19
295.295	92.19
295.525	81.19
295.756	113.19
295.987	116.19
296.217	130.19
296.448	121.19
296.679	107.19
296.909	82.19
297.14	67.19
297.37	85.19
297.601	82.19
297.831	100.19
298.062	83.19
298.292	84.19
298.523	92.19
298.753	88.19
298.984	99.19
299.214	92.19
299.445	83.19
299.675	83.19
299.905	100.19
300.136	83.19
300.366	95.19
300.597	93.19
300.827	73.19
301.057	92.19
301.288	106.19
301.518	106.19
301.748	101.19
301.979	108.19
302.209	80.19
302.439	102.19
302.669	97.19
302.9	97.19
303.13	95.19
303.36	91.19
303.59	102.19
303.82	112.19
304.051	89.19
304.281	93.19
304.511	89.19
304.741	82.19
304.971	99.19
305.201	96.19
305.431	86.19
305.661	86.19
305.891	93.19
306.121	95.19
306.352	92.19
306.582	89.19
306.812	97.19
307.042	98.19
307.272	111.19
307.502	117.19
307.731	115.19
307.961	102.19
308.191	89.19
308.421	89.19
308.651	83.19
308.881	83.19
309.111	84.19
309.341	92.19
309.571	100.19
309.8	102.19
310.03	92.19
310.26	89.19
310.49	82.19
310.72	106.19
310.949	105.19
311.179	89.19
311.409	97.19
311.639	100.19
311.868	107.19
312.098	95.19
312.328	85.19
312.557	93.19
312.787	103.19
313.017	116.19
313.246	96.19
313.476	96.19
313.706	84.19
313.935	92.19
314.165	99.19
314.394	109.19
314.624	102.19
314.853	80.19
315.083	85.19
315.312	93.19
315.542	99.19
315.771	97.19
316.001	97.19
316.23	90.19
316.46	79.19
316.689	79.19
316.919	95.19
317.148	100.19
317.377	98.19
317.607	95.19
317.836	90.19
318.065	89.19
318.295	92.19
318.524	83.19
318.753	90.19
318.983	95.19
319.212	89.19
319.441	101.19
319.67	112.19
319.9	92.19
320.129	103.19
320.358	100.19
320.587	100.19
320.816	108.19
321.046	105.19
321.275	100.19
321.504	89.19
321.733	98.19
321.962	85.19
322.191	114.19
322.42	93.19
322.649	104.19
322.878	107.19
323.108	111.19
323.337	115.19
323.566	131.19
323.795	129.19
324.024	189.19
324.253	380.19
324.482	781.19
324.71	1637.19
324.939	2080.19
325.168	770.19
325.397	245.19
325.626	133.19
325.855	120.19
326.084	114.19
326.313	116.19
326.542	158.19
326.77	214.19
326.999	444.19
327.228	899.19
327.457	1628.19
327.686	1259.19
327.914	386.19
328.143	252.19
328.372	266.19
328.6	186.19
328.829	129.19
329.058	135.19
329.287	137.19
329.515	114.19
329.744	150.19
329.972	209.19
330.201	360.19
330.43	469.19
330.658	247.19
330.887	159.19
331.115	115.19
331.344	95.19
331.572	117.19
331.801	98.19
332.03	117.19
332.258	104.19
332.486	86.19
332.715	100.19
332.943	92.19
333.172	103.19
333.4	102.19
333.629	124.19
333.857	143.19
334.085	183.19
334.314	340.19
334.542	603.19
334.771	539.19
334.999	192.19
335.227	118.19
335.455	113.19
335.684	108.19
335.912	87.19
336.14	106.19
336.369	82.19
336.597	85.19
336.825	91.19
337.053	107.19
337.281	95.19
337.51	93.19
337.738	98.19
337.966	95.19
338.194	99.19
338.422	94.19
338.65	104.19
338.878	92.19
339.106	99.19
339.334	98.19
339.562	105.19
339.79	100.19
340.018	96.19
340.246	92.19
340.474	91.19
340.702	94.19
340.93	92.19
341.158	97.19
341.386	102.19
341.614	90.19
341.842	95.19
342.07	85.19
342.298	85.19
342.526	85.19
342.754	86.19
342.981	106.19
343.209	95.19
343.437	87.19
343.665	88.19
343.893	100.19
344.12	90.19
344.348	77.19
344.576	80.19
344.804	99.19
345.031	89.19
345.259	88.19
345.487	96.19
345.714	101.19
345.942	97.19
346.17	93.19
346.397	86.19
346.625	91.19
346.853	99.19
347.08	89.19
347.308	92.19
347.535	102.19
347.763	104.19
347.99	79.19
348.218	92.19
348.445	109.19
348.673	94.19
348.9	96.19
349.128	99.19
349.355	99.19
349.583	89.19
349.81	93.19
350.037	93.19
350.265	92.19
350.492	103.19
350.72	97.19
350.947	111.19
351.174	101.19
351.402	113.19
351.629	107.19
351.856	96.19
352.083	104.19
352.311	113.19
352.538	117.19
352.765	107.19
352.992	117.19
353.22	107.19
353.447	101.19
353.674	91.19
353.901	88.19
354.128	86.19
354.355	93.19
354.583	102.19
354.81	109.19
355.037	86.19
355.264	89.19
355.491	87.19
355.718	97.19
355.945	116.19
356.172	101.19
356.399	102.19
356.626	101.19
356.853	96.19
357.08	108.19
357.307	84.19
357.534	86.19
357.761	96.19
357.988	92.19
358.215	87.19
358.441	102.19
358.668	106.19
358.895	90.19
359.122	91.19
359.349	80.19
359.576	92.19
359.802	91.19
360.029	113.19
360.256	93.19
360.483	94.19
360.709	88.19
360.936	99.19
361.163	100.19
361.39	95.19
361.616	81.19
361.843	93.19
362.07	99.19
362.296	98.19
362.523	86.19
362.749	89.19
362.976	113.19
363.203	93.19
363.429	93.19
363.656	81.19
363.882	91.19
364.109	89.19
364.335	101.19
364.562	96.19
364.788	88.19
365.015	87.19
365.241	105.19
365.468	97.19
365.694	106.19
365.92	99.19
366.147	97.19
366.373	80.19
366.599	98.19
366.826	69.19
367.052	70.19
367.278	91.19
367.505	90.19
367.731	89.19
367.957	88.19
368.184	97.19
368.41	93.19
368.636	112.19
368.862	132.19
369.089	99.19
369.315	99.19
369.541	84.19
369.767	99.19
369.993	91.19
370.219	97.19
370.445	100.19
370.672	98.19
370.898	103.19
371.124	82.19
371.35	76.19
371.576	91.19
371.802	99.19
372.028	71.19
372.254	99.19
372.48	93.19
372.706	96.19
372.932	89.19
373.158	96.19
373.384	86.19
373.61	96.19
373.835	98.19
374.061	79.19
374.287	89.19
374.513	76.19
374.739	87.19
374.965	86.19
375.191	102.19
375.416	89.19
375.642	98.19
375.868	91.19
376.094	76.19
376.319	89.19
376.545	87.19
376.771	86.19
376.997	89.19
377.222	107.19
377.448	83.19
377.674	80.19
377.899	96.19
378.125	80.19
378.35	87.19
378.576	83.19
378.802	89.19
379.027	105.19
379.253	107.19
379.478	97.19
379.704	87.19
379.929	103.19
380.155	99.19
380.38	91.19
380.606	102.19
380.831	105.19
381.057	97.19
381.282	106.19
381.507	86.19
381.733	78.19
381.958	99.19
382.184	91.19
382.409	108.19
382.634	100.19
382.86	90.19
383.085	97.19
383.31	102.19
383.535	111.19
383.761	109.19
383.986	105.19
384.211	112.19
384.436	107.19
384.662	112.19
384.887	116.19
385.112	128.19
385.337	111.19
385.562	105.19
385.787	106.19
386.013	118.19
386.238	135.19
386.463	123.19
386.688	124.19
386.913	120.19
387.138	128.19
387.363	114.19
387.588	105.19
387.813	106.19
388.038	118.19
388.263	134.19
388.488	117.19
388.713	83.19
388.938	92.19
389.163	82.19
389.387	95.19
389.612	89.19
389.837	94.19
390.062	92.19
390.287	100.19
390.512	93.19
390.736	100.19
390.961	99.19
391.186	90.19
391.411	92.19
391.636	90.19
391.86	84.19
392.085	72.19
392.31	82.19
392.534	94.19
392.759	93.19
392.984	98.19
393.208	111.19
393.433	103.19
393.658	98.19
393.882	92.19
394.107	89.19
394.331	92.19
394.556	93.19
394.78	98.19
395.005	97.19
395.229	74.19
395.454	80.19
395.678	84.19
395.903	92.19
396.127	97.19
396.352	97.19
396.576	79.19
396.801	93.19
397.025	99.19
397.249	76.19
397.474	80.19
397.698	83.19
397.922	78.19
398.147	71.19
398.371	73.19
398.595	93.19
398.82	75.19
399.044	103.19
399.268	100.19
399.492	72.19
399.717	85.19
399.941	89.19
400.165	106.19
400.389	80.19
400.613	77.19
400.837	97.19
401.062	78.19
401.286	91.19
401.51	97.19
401.734	88.19
401.958	104.19
402.182	127.19
402.406	153.19
402.63	108.19
402.854	105.19
403.078	86.19
403.302	78.19
403.526	82.19
403.75	93.19
403.974	74.19
404.198	87.19
404.422	89.19
404.645	84.19
404.869	88.19
405.093	85.19
405.317	114.19
405.541	116.19
405.765	114.19
405.988	118.19
406.212	155.19
406.436	201.19
406.66	137.19
406.883	94.19
407.107	92.19
407.331	107.19
407.555	102.19
407.778	95.19
408.002	90.19
408.226	95.19
408.449	94.19
408.673	90.19
408.896	98.19
409.12	94.19
409.344	88.19
409.567	99.19
409.791	89.19
410.014	111.19
410.238	86.19
410.461	89.19
410.685	91.19
410.908	100.19
411.132	99.19
411.355	99.19
411.578	85.19
411.802	88.19
412.025	88.19
412.249	94.19
412.472	93.19
412.695	103.19
412.919	83.19
413.142	92.19
413.365	90.19
413.589	85.19
413.812	100.19
414.035	98.19
414.258	100.19
414.482	98.19
414.705	93.19
414.928	83.19
415.151	87.19
415.374	85.19
415.597	91.19
415.821	85.19
416.044	83.19
416.267	104.19
416.49	94.19
416.713	75.19
416.936	99.19
417.159	91.19
417.382	92.19
417.605	101.19
417.828	105.19
418.051	88.19
418.274	89.19
418.497	84.19
418.72	104.19
418.943	75.19
419.166	100.19
419.389	78.19
419.611	89.19
419.834	98.19
420.057	81.19
420.28	87.19
420.503	83.19
420.726	78.19
420.948	89.19
421.171	105.19
421.394	83.19
421.617	83.19
421.839	87.19
422.062	92.19
422.285	93.19
422.507	101.19
422.73	98.19
422.953	104.19
423.175	96.19
423.398	80.19
423.621	93.19
423.843	96.19
424.066	83.19
424.288	89.19
424.511	106.19
424.733	92.19
424.956	99.19
425.178	93.19
425.401	91.19
425.623	88.19
425.846	101.19
426.068	103.19
426.291	89.19
426.513	98.19
426.735	92.19
426.958	100.19
427.18	106.19
427.402	145.19
427.625	173.19
427.847	143.19
428.069	152.19
428.292	98.19
428.514	84.19
428.736	76.19
428.958	79.19
429.181	93.19
429.403	99.19
429.625	79.19
429.847	75.19
430.069	113.19
430.292	88.19
430.514	85.19
430.736	86.19
430.958	85.19
431.18	102.19
431.402	89.19
431.624	83.19
431.846	102.19
432.068	84.19
432.29	84.19
432.512	79.19
432.734	81.19
432.956	81.19
433.178	93.19
433.4	104.19
433.622	95.19
433.844	98.19
434.066	89.19
434.287	99.19
434.509	81.19
434.731	74.19
434.953	80.19
435.175	103.19
435.397	82.19
435.618	90.19
435.84	110.19
436.062	112.19
436.284	105.19
436.505	118.19
436.727	96.19
436.949	76.19
437.17	84.19
437.392	92.19
437.614	90.19
437.835	103.19
438.057	122.19
438.278	105.19
438.5	100.19
438.721	112.19
438.943	95.19
439.165	93.19
439.386	70.19
439.608	95.19
439.829	93.19
440.05	124.19
440.272	160.19
440.493	87.19
440.715	82.19
440.936	96.19
441.158	99.19
441.379	101.19
441.6	86.19
441.822	87.19
442.043	97.19
442.264	85.19
442.486	115.19
442.707	93.19
442.928	103.19
443.149	127.19
443.371	135.19
443.592	114.19
443.813	106.19
444.034	101.19
444.255	88.19
444.476	83.19
444.698	84.19
444.919	75.19
445.14	134.19
445.361	123.19
445.582	102.19
445.803	128.19
446.024	141.19
446.245	111.19
446.466	100.19
446.687	94.19
446.908	103.19
447.129	67.19
447.35	86.19
447.571	81.19
447.792	92.19
448.013	98.19
448.234	106.19
448.455	100.19
448.675	106.19
448.896	116.19
449.117	101.19
449.338	107.19
449.559	143.19
449.779	118.19
450	99.19
450.221	75.19
450.442	94.19
450.662	88.19
450.883	99.19
451.104	99.19
451.324	93.19
451.545	101.19
451.766	83.19
451.986	88.19
452.207	90.19
452.428	86.19
452.648	107.19
452.869	110.19
453.089	111.19
453.31	119.19
453.53	88.19
453.751	97.19
453.971	115.19
454.192	105.19
454.412	91.19
454.633	89.19
454.853	93.19
455.073	86.19
455.294	88.19
455.514	96.19
455.734	89.19
455.955	100.19
456.175	91.19
456.395	97.19
456.616	76.19
456.836	91.19
457.056	98.19
457.276	73.19
457.497	79.19
457.717	79.19
457.937	73.19
458.157	85.19
458.377	92.19
458.598	106.19
458.818	148.19
459.038	164.19
459.258	93.19
459.478	95.19
459.698	77.19
459.918	80.19
460.138	100.19
460.358	84.19
460.578	84.19
460.798	85.19
461.018	76.19
461.238	73.19
461.458	84.19
461.678	86.19
461.898	93.19
462.118	79.19
462.338	101.19
462.558	92.19
462.777	83.19
462.997	84.19
463.217	100.19
463.437	86.19
463.657	91.19
463.876	84.19
464.096	70.19
464.316	84.19
464.536	87.19
464.755	103.19
464.975	97.19
465.195	171.19
465.414	151.19
465.634	99.19
465.854	89.19
466.073	99.19
466.293	93.19
466.512	85.19
466.732	88.19
466.951	101.19
467.171	91.19
467.391	84.19
467.61	116.19
467.829	124.19
468.049	233.19
468.268	316.19
468.488	136.19
468.707	96.19
468.927	88.19
469.146	89.19
469.365	86.19
469.585	106.19
469.804	93.19
470.023	89.19
470.243	100.19
470.462	91.19
470.681	117.19
470.901	79.19
471.12	80.19
471.339	82.19
471.558	97.19
471.777	103.19
471.997	175.19
472.216	426.19
472.435	807.19
472.654	244.19
472.873	112.19
473.092	81.19
473.311	82.19
473.53	85.19
473.749	85.19
473.968	85.19
474.187	97.19
474.406	97.19
474.625	78.19
474.844	98.19
475.063	79.19
475.282	79.19
475.501	87.19
475.72	96.19
475.939	88.19
476.158	99.19
476.377	80.19
476.596	83.19
476.814	108.19
477.033	87.19
477.252	85.19
477.471	91.19
477.69	95.19
477.908	100.19
478.127	79.19
478.346	87.19
478.564	85.19
478.783	85.19
479.002	104.19
479.22	102.19
479.439	91.19
479.658	113.19
479.876	108.19
480.095	104.19
480.313	101.19
480.532	108.19
480.751	147.19
480.969	383.19
481.188	1367.19
481.406	837.19
481.624	175.19
481.843	108.19
482.061	99.19
482.28	84.19
482.498	88.19
482.717	83.19
482.935	92.19
483.153	91.19
483.372	85.19
483.59	91.19
483.808	92.19
484.027	79.19
484.245	83.19
484.463	79.19
484.681	84.19
484.9	97.19
485.118	92.19
485.336	87.19
485.554	76.19
485.772	95.19
485.99	95.19
486.209	103.19
486.427	104.19
486.645	101.19
486.863	95.19
487.081	111.19
487.299	89.19
487.517	81.19
487.735	95.19
487.953	101.19
488.171	91.19
488.389	96.19
488.607	90.19
488.825	92.19
489.043	77.19
489.261	77.19
489.479	73.19
489.696	88.19
489.914	98.19
490.132	90.19
490.35	80.19
490.568	80.19
490.786	87.19
491.003	93.19
491.221	78.19
491.439	89.19
491.657	96.19
491.874	99.19
492.092	99.19
492.31	86.19
492.527	110.19
492.745	88.19
492.963	100.19
493.18	89.19
493.398	92.19
493.615	92.19
493.833	101.19
494.05	89.19
494.268	83.19
494.485	94.19
494.703	83.19
494.92	75.19
495.138	101.19
495.355	85.19
495.573	97.19
495.79	95.19
496.008	100.19
496.225	91.19
496.442	109.19
496.66	104.19
496.877	77.19
497.094	79.19
497.312	99.19
497.529	82.19
497.746	96.19
497.963	86.19
498.181	100.19
498.398	87.19
498.615	100.19
498.832	88.19
499.049	86.19
499.267	80.19
499.484	89.19
499.701	88.19
499.918	85.19
500.135	88.19
500.352	98.19
500.569	92.19
500.786	100.19
501.003	88.19
501.22	100.19
501.437	99.19
501.654	91.19
501.871	98.19
502.088	86.19
502.305	83.19
502.522	81.19
502.739	99.19
502.956	102.19
503.172	89.19
503.389	97.19
503.606	115.19
503.823	104.19
504.04	85.19
504.256	97.19
504.473	68.19
504.69	71.19
504.907	87.19
505.123	77.19
505.34	94.19
505.557	91.19
505.773	89.19
505.99	79.19
506.207	92.19
506.423	92.19
506.64	88.19
506.856	89.19
507.073	88.19
507.289	76.19
507.506	97.19
507.722	131.19
507.939	117.19
508.155	91.19
508.372	71.19
508.588	82.19
508.805	95.19
509.021	83.19
509.238	85.19
509.454	91.19
509.67	106.19
509.887	105.19
510.103	120.19
510.319	198.19
510.536	634.19
510.752	1977.19
510.968	598.19
511.184	135.19
511.401	101.19
511.617	103.19
511.833	94.19
512.049	89.19
512.265	97.19
512.481	93.19
512.698	80.19
512.914	92.19
513.13	77.19
513.346	96.19
513.562	88.19
513.778	96.19
513.994	86.19
514.21	100.19
514.426	101.19
514.642	142.19
514.858	119.19
515.074	155.19
