Data from Circ_2001_H10_HRD10591_00098.txt Node
Date: Wed Jan 03 10:45:58 EST 2024
User: Yrep
Spectrometer: HR+D1059
Trigger mode: 1
Integration Time (sec): 1.000000E-1
Scans to average: 1
Electric dark correction enabled: true
Nonlinearity correction enabled: false
Boxcar width: 0
XAxis mode: Wavelengths
Number of Pixels in Spectrum: 2048
>>>>>Begin Spectral Data<<<<<
223.165	-14.75
223.4	-14.75
223.635	-14.75
223.869	-27.75
224.104	-12.75
224.338	-12.75
224.573	-14.75
224.808	-6.75
225.042	1.25
225.277	7.25
225.511	-13.75
225.746	3.25
225.98	10.25
226.215	6.25
226.449	2.25
226.683	18.25
226.918	24.25
227.152	30.25
227.387	36.25
227.621	52.25
227.856	43.25
228.09	52.25
228.324	60.25
228.559	50.25
228.793	70.25
229.027	66.25
229.262	66.25
229.496	73.25
229.73	81.25
229.964	79.25
230.199	58.25
230.433	87.25
230.667	71.25
230.901	87.25
231.136	78.25
231.37	79.25
231.604	75.25
231.838	82.25
232.072	81.25
232.306	82.25
232.541	92.25
232.775	84.25
233.009	81.25
233.243	80.25
233.477	66.25
233.711	81.25
233.945	70.25
234.179	78.25
234.413	84.25
234.647	96.25
234.881	70.25
235.115	89.25
235.349	70.25
235.583	62.25
235.817	78.25
236.051	85.25
236.285	70.25
236.519	75.25
236.753	74.25
236.987	83.25
237.221	78.25
237.455	95.25
237.689	87.25
237.922	80.25
238.156	76.25
238.39	78.25
238.624	77.25
238.858	84.25
239.091	84.25
239.325	94.25
239.559	76.25
239.793	79.25
240.027	83.25
240.26	74.25
240.494	70.25
240.728	84.25
240.961	58.25
241.195	95.25
241.429	66.25
241.662	73.25
241.896	73.25
242.13	59.25
242.363	84.25
242.597	64.25
242.83	72.25
243.064	87.25
243.298	68.25
243.531	74.25
243.765	69.25
243.998	74.25
244.232	76.25
244.465	102.25
244.699	82.25
244.932	71.25
245.166	72.25
245.399	77.25
245.633	60.25
245.866	73.25
246.099	79.25
246.333	81.25
246.566	83.25
246.8	85.25
247.033	78.25
247.266	64.25
247.5	81.25
247.733	74.25
247.966	78.25
248.2	79.25
248.433	71.25
248.666	81.25
248.899	81.25
249.133	85.25
249.366	87.25
249.599	116.25
249.832	97.25
250.066	83.25
250.299	88.25
250.532	72.25
250.765	82.25
250.998	96.25
251.231	84.25
251.465	80.25
251.698	80.25
251.931	76.25
252.164	75.25
252.397	91.25
252.63	74.25
252.863	93.25
253.096	76.25
253.329	70.25
253.562	80.25
253.795	72.25
254.028	78.25
254.261	74.25
254.494	83.25
254.727	85.25
254.96	86.25
255.193	88.25
255.426	81.25
255.659	92.25
255.892	81.25
256.124	89.25
256.357	89.25
256.59	84.25
256.823	74.25
257.056	93.25
257.289	98.25
257.521	93.25
257.754	87.25
257.987	81.25
258.22	100.25
258.452	101.25
258.685	92.25
258.918	93.25
259.151	74.25
259.383	82.25
259.616	77.25
259.849	72.25
260.081	81.25
260.314	70.25
260.547	90.25
260.779	83.25
261.012	100.25
261.244	98.25
261.477	107.25
261.71	93.25
261.942	96.25
262.175	126.25
262.407	90.25
262.64	84.25
262.872	88.25
263.105	90.25
263.337	83.25
263.57	73.25
263.802	84.25
264.035	72.25
264.267	82.25
264.499	92.25
264.732	83.25
264.964	75.25
265.197	96.25
265.429	89.25
265.661	76.25
265.894	83.25
266.126	100.25
266.358	82.25
266.591	73.25
266.823	78.25
267.055	80.25
267.287	96.25
267.52	83.25
267.752	90.25
267.984	95.25
268.216	83.25
268.448	84.25
268.681	68.25
268.913	80.25
269.145	85.25
269.377	81.25
269.609	78.25
269.841	89.25
270.073	73.25
270.306	79.25
270.538	97.25
270.77	98.25
271.002	69.25
271.234	79.25
271.466	84.25
271.698	83.25
271.93	57.25
272.162	89.25
272.394	89.25
272.626	70.25
272.858	85.25
273.09	77.25
273.322	82.25
273.553	89.25
273.785	100.25
274.017	93.25
274.249	79.25
274.481	85.25
274.713	88.25
274.945	86.25
275.176	101.25
275.408	92.25
275.64	87.25
275.872	106.25
276.104	106.25
276.335	104.25
276.567	106.25
276.799	110.25
277.031	140.25
277.262	144.25
277.494	119.25
277.726	110.25
277.957	79.25
278.189	91.25
278.421	84.25
278.652	81.25
278.884	84.25
279.115	85.25
279.347	85.25
279.579	94.25
279.81	97.25
280.042	154.25
280.273	197.25
280.505	134.25
280.736	96.25
280.968	84.25
281.199	96.25
281.431	88.25
281.662	87.25
281.894	89.25
282.125	99.25
282.356	121.25
282.588	146.25
282.819	107.25
283.051	90.25
283.282	94.25
283.513	84.25
283.745	80.25
283.976	91.25
284.207	80.25
284.439	101.25
284.67	86.25
284.901	97.25
285.132	95.25
285.364	89.25
285.595	89.25
285.826	95.25
286.057	95.25
286.288	92.25
286.52	84.25
286.751	84.25
286.982	81.25
287.213	91.25
287.444	86.25
287.675	78.25
287.906	86.25
288.138	90.25
288.369	94.25
288.6	93.25
288.831	89.25
289.062	94.25
289.293	86.25
289.524	92.25
289.755	75.25
289.986	102.25
290.217	86.25
290.448	75.25
290.679	76.25
290.91	83.25
291.141	100.25
291.371	97.25
291.602	91.25
291.833	76.25
292.064	91.25
292.295	87.25
292.526	94.25
292.757	95.25
292.987	97.25
293.218	87.25
293.449	92.25
293.68	84.25
293.91	95.25
294.141	73.25
294.372	70.25
294.603	75.25
294.833	87.25
295.064	88.25
295.295	98.25
295.525	106.25
295.756	116.25
295.987	107.25
296.217	148.25
296.448	131.25
296.679	92.25
296.909	99.25
297.14	91.25
297.37	85.25
297.601	97.25
297.831	94.25
298.062	87.25
298.292	111.25
298.523	91.25
298.753	82.25
298.984	97.25
299.214	94.25
299.445	98.25
299.675	82.25
299.905	98.25
300.136	95.25
300.366	98.25
300.597	96.25
300.827	110.25
301.057	107.25
301.288	104.25
301.518	87.25
301.748	101.25
301.979	80.25
302.209	99.25
302.439	90.25
302.669	88.25
302.9	85.25
303.13	97.25
303.36	107.25
303.59	118.25
303.82	120.25
304.051	94.25
304.281	111.25
304.511	99.25
304.741	95.25
304.971	81.25
305.201	77.25
305.431	84.25
305.661	95.25
305.891	87.25
306.121	98.25
306.352	109.25
306.582	115.25
306.812	104.25
307.042	107.25
307.272	142.25
307.502	153.25
307.731	158.25
307.961	119.25
308.191	100.25
308.421	96.25
308.651	98.25
308.881	88.25
309.111	88.25
309.341	90.25
309.571	100.25
309.8	100.25
310.03	99.25
310.26	98.25
310.49	99.25
310.72	108.25
310.949	111.25
311.179	106.25
311.409	91.25
311.639	89.25
311.868	115.25
312.098	96.25
312.328	89.25
312.557	115.25
312.787	114.25
313.017	98.25
313.246	88.25
313.476	94.25
313.706	97.25
313.935	97.25
314.165	107.25
314.394	103.25
314.624	99.25
314.853	96.25
315.083	112.25
315.312	91.25
315.542	84.25
315.771	85.25
316.001	89.25
316.23	85.25
316.46	106.25
316.689	95.25
316.919	98.25
317.148	93.25
317.377	110.25
317.607	99.25
317.836	96.25
318.065	86.25
318.295	87.25
318.524	91.25
318.753	97.25
318.983	86.25
319.212	103.25
319.441	105.25
319.67	116.25
319.9	99.25
320.129	83.25
320.358	99.25
320.587	90.25
320.816	116.25
321.046	106.25
321.275	98.25
321.504	92.25
321.733	104.25
321.962	96.25
322.191	100.25
322.42	113.25
322.649	114.25
322.878	116.25
323.108	117.25
323.337	130.25
323.566	134.25
323.795	171.25
324.024	209.25
324.253	426.25
324.482	875.25
324.71	1786.25
324.939	2309.25
325.168	834.25
325.397	248.25
325.626	160.25
325.855	126.25
326.084	131.25
326.313	131.25
326.542	162.25
326.77	256.25
326.999	474.25
327.228	992.25
327.457	1760.25
327.686	1424.25
327.914	477.25
328.143	399.25
328.372	448.25
328.6	261.25
328.829	170.25
329.058	162.25
329.287	172.25
329.515	145.25
329.744	214.25
329.972	362.25
330.201	675.25
330.43	930.25
330.658	439.25
330.887	229.25
331.115	141.25
331.344	115.25
331.572	111.25
331.801	111.25
332.03	126.25
332.258	113.25
332.486	98.25
332.715	107.25
332.943	112.25
333.172	108.25
333.4	119.25
333.629	141.25
333.857	192.25
334.085	337.25
334.314	629.25
334.542	1191.25
334.771	1097.25
334.999	307.25
335.227	140.25
335.455	126.25
335.684	114.25
335.912	101.25
336.14	107.25
336.369	106.25
336.597	99.25
336.825	99.25
337.053	106.25
337.281	99.25
337.51	97.25
337.738	103.25
337.966	83.25
338.194	103.25
338.422	84.25
338.65	94.25
338.878	88.25
339.106	84.25
339.334	84.25
339.562	76.25
339.79	85.25
340.018	101.25
340.246	92.25
340.474	93.25
340.702	104.25
340.93	89.25
341.158	105.25
341.386	94.25
341.614	89.25
341.842	93.25
342.07	84.25
342.298	86.25
342.526	90.25
342.754	78.25
342.981	105.25
343.209	106.25
343.437	101.25
343.665	80.25
343.893	81.25
344.12	99.25
344.348	95.25
344.576	83.25
344.804	95.25
345.031	102.25
345.259	104.25
345.487	107.25
345.714	100.25
345.942	81.25
346.17	97.25
346.397	89.25
346.625	88.25
346.853	76.25
347.08	96.25
347.308	95.25
347.535	106.25
347.763	89.25
347.99	104.25
348.218	85.25
348.445	99.25
348.673	105.25
348.9	98.25
349.128	97.25
349.355	79.25
349.583	101.25
349.81	92.25
350.037	97.25
350.265	91.25
350.492	106.25
350.72	89.25
350.947	114.25
351.174	104.25
351.402	96.25
351.629	98.25
351.856	106.25
352.083	112.25
352.311	98.25
352.538	104.25
352.765	115.25
352.992	110.25
353.22	106.25
353.447	107.25
353.674	106.25
353.901	89.25
354.128	112.25
354.355	89.25
354.583	81.25
354.81	88.25
355.037	77.25
355.264	93.25
355.491	95.25
355.718	87.25
355.945	92.25
356.172	108.25
356.399	82.25
356.626	99.25
356.853	98.25
357.08	101.25
357.307	90.25
357.534	80.25
357.761	97.25
357.988	86.25
358.215	100.25
358.441	94.25
358.668	82.25
358.895	96.25
359.122	96.25
359.349	84.25
359.576	102.25
359.802	110.25
360.029	113.25
360.256	113.25
360.483	105.25
360.709	97.25
360.936	92.25
361.163	91.25
361.39	100.25
361.616	89.25
361.843	87.25
362.07	91.25
362.296	89.25
362.523	96.25
362.749	78.25
362.976	79.25
363.203	91.25
363.429	86.25
363.656	85.25
363.882	82.25
364.109	81.25
364.335	98.25
364.562	81.25
364.788	96.25
365.015	96.25
365.241	105.25
365.468	114.25
365.694	100.25
365.92	98.25
366.147	95.25
366.373	96.25
366.599	101.25
366.826	98.25
367.052	80.25
367.278	96.25
367.505	84.25
367.731	98.25
367.957	91.25
368.184	84.25
368.41	94.25
368.636	114.25
368.862	110.25
369.089	107.25
369.315	99.25
369.541	88.25
369.767	90.25
369.993	97.25
370.219	92.25
370.445	96.25
370.672	99.25
370.898	90.25
371.124	85.25
371.35	80.25
371.576	86.25
371.802	81.25
372.028	71.25
372.254	77.25
372.48	89.25
372.706	84.25
372.932	81.25
373.158	68.25
373.384	85.25
373.61	86.25
373.835	85.25
374.061	101.25
374.287	96.25
374.513	95.25
374.739	85.25
374.965	93.25
375.191	88.25
375.416	68.25
375.642	83.25
375.868	102.25
376.094	97.25
376.319	102.25
376.545	96.25
376.771	91.25
376.997	79.25
377.222	78.25
377.448	78.25
377.674	90.25
377.899	97.25
378.125	97.25
378.35	83.25
378.576	92.25
378.802	96.25
379.027	97.25
379.253	100.25
379.478	88.25
379.704	97.25
379.929	82.25
380.155	101.25
380.38	88.25
380.606	77.25
380.831	88.25
381.057	64.25
381.282	105.25
381.507	91.25
381.733	90.25
381.958	89.25
382.184	100.25
382.409	82.25
382.634	90.25
382.86	81.25
383.085	90.25
383.31	99.25
383.535	99.25
383.761	100.25
383.986	105.25
384.211	82.25
384.436	104.25
384.662	94.25
384.887	89.25
385.112	90.25
385.337	85.25
385.562	99.25
385.787	100.25
386.013	107.25
386.238	106.25
386.463	87.25
386.688	95.25
386.913	99.25
387.138	94.25
387.363	112.25
387.588	98.25
387.813	86.25
388.038	117.25
388.263	90.25
388.488	94.25
388.713	80.25
388.938	102.25
389.163	94.25
389.387	80.25
389.612	92.25
389.837	86.25
390.062	94.25
390.287	89.25
390.512	94.25
390.736	86.25
390.961	81.25
391.186	82.25
391.411	86.25
391.636	89.25
391.86	85.25
392.085	80.25
392.31	93.25
392.534	90.25
392.759	87.25
392.984	90.25
393.208	93.25
393.433	102.25
393.658	90.25
393.882	85.25
394.107	87.25
394.331	79.25
394.556	90.25
394.78	85.25
395.005	75.25
395.229	85.25
395.454	80.25
395.678	77.25
395.903	92.25
396.127	96.25
396.352	97.25
396.576	78.25
396.801	90.25
397.025	76.25
397.249	80.25
397.474	101.25
397.698	78.25
397.922	79.25
398.147	87.25
398.371	89.25
398.595	84.25
398.82	78.25
399.044	74.25
399.268	95.25
399.492	84.25
399.717	83.25
399.941	75.25
400.165	90.25
400.389	82.25
400.613	79.25
400.837	85.25
401.062	87.25
401.286	90.25
401.51	95.25
401.734	89.25
401.958	107.25
402.182	144.25
402.406	159.25
402.63	115.25
402.854	81.25
403.078	98.25
403.302	87.25
403.526	86.25
403.75	80.25
403.974	91.25
404.198	92.25
404.422	86.25
404.645	104.25
404.869	91.25
405.093	102.25
405.317	119.25
405.541	123.25
405.765	107.25
405.988	127.25
406.212	177.25
406.436	252.25
406.66	160.25
406.883	103.25
407.107	78.25
407.331	113.25
407.555	105.25
407.778	95.25
408.002	75.25
408.226	103.25
408.449	90.25
408.673	96.25
408.896	88.25
409.12	82.25
409.344	95.25
409.567	91.25
409.791	90.25
410.014	87.25
410.238	88.25
410.461	92.25
410.685	96.25
410.908	91.25
411.132	104.25
411.355	97.25
411.578	89.25
411.802	112.25
412.025	82.25
412.249	90.25
412.472	94.25
412.695	111.25
412.919	99.25
413.142	90.25
413.365	87.25
413.589	91.25
413.812	81.25
414.035	87.25
414.258	90.25
414.482	83.25
414.705	68.25
414.928	73.25
415.151	85.25
415.374	95.25
415.597	89.25
415.821	89.25
416.044	90.25
416.267	98.25
416.49	94.25
416.713	83.25
416.936	88.25
417.159	84.25
417.382	97.25
417.605	91.25
417.828	85.25
418.051	92.25
418.274	92.25
418.497	83.25
418.72	81.25
418.943	103.25
419.166	100.25
419.389	79.25
419.611	91.25
419.834	98.25
420.057	93.25
420.28	98.25
420.503	89.25
420.726	75.25
420.948	88.25
421.171	101.25
421.394	92.25
421.617	100.25
421.839	88.25
422.062	88.25
422.285	99.25
422.507	98.25
422.73	108.25
422.953	91.25
423.175	95.25
423.398	91.25
423.621	94.25
423.843	91.25
424.066	84.25
424.288	76.25
424.511	82.25
424.733	90.25
424.956	103.25
425.178	94.25
425.401	117.25
425.623	101.25
425.846	97.25
426.068	96.25
426.291	89.25
426.513	90.25
426.735	92.25
426.958	100.25
427.18	120.25
427.402	147.25
427.625	184.25
427.847	174.25
428.069	177.25
428.292	108.25
428.514	93.25
428.736	85.25
428.958	85.25
429.181	91.25
429.403	97.25
429.625	89.25
429.847	91.25
430.069	108.25
430.292	98.25
430.514	82.25
430.736	88.25
430.958	86.25
431.18	88.25
431.402	98.25
431.624	95.25
431.846	73.25
432.068	85.25
432.29	82.25
432.512	82.25
432.734	82.25
432.956	88.25
433.178	99.25
433.4	102.25
433.622	99.25
433.844	87.25
434.066	83.25
434.287	76.25
434.509	89.25
434.731	91.25
434.953	81.25
435.175	94.25
435.397	92.25
435.618	78.25
435.84	95.25
436.062	115.25
436.284	107.25
436.505	102.25
436.727	99.25
436.949	99.25
437.17	80.25
437.392	95.25
437.614	96.25
437.835	103.25
438.057	110.25
438.278	122.25
438.5	101.25
438.721	127.25
438.943	103.25
439.165	96.25
439.386	82.25
439.608	100.25
439.829	111.25
440.05	124.25
440.272	150.25
440.493	120.25
440.715	87.25
440.936	91.25
441.158	82.25
441.379	90.25
441.6	89.25
441.822	100.25
442.043	101.25
442.264	113.25
442.486	104.25
442.707	91.25
442.928	90.25
443.149	155.25
443.371	144.25
443.592	107.25
443.813	104.25
444.034	116.25
444.255	105.25
444.476	83.25
444.698	80.25
444.919	82.25
445.14	131.25
445.361	126.25
445.582	126.25
445.803	144.25
446.024	146.25
446.245	142.25
446.466	103.25
446.687	97.25
446.908	91.25
447.129	95.25
447.35	80.25
447.571	103.25
447.792	91.25
448.013	90.25
448.234	117.25
448.455	113.25
448.675	115.25
448.896	130.25
449.117	100.25
449.338	107.25
449.559	124.25
449.779	121.25
450	95.25
450.221	98.25
450.442	78.25
450.662	94.25
450.883	111.25
451.104	111.25
451.324	100.25
451.545	92.25
451.766	87.25
451.986	84.25
452.207	83.25
452.428	90.25
452.648	96.25
452.869	115.25
453.089	110.25
453.31	113.25
453.53	102.25
453.751	93.25
453.971	115.25
454.192	115.25
454.412	99.25
454.633	86.25
454.853	81.25
455.073	84.25
455.294	90.25
455.514	88.25
455.734	95.25
455.955	75.25
456.175	89.25
456.395	83.25
456.616	61.25
456.836	90.25
457.056	84.25
457.276	93.25
457.497	86.25
457.717	94.25
457.937	105.25
458.157	91.25
458.377	90.25
458.598	122.25
458.818	176.25
459.038	186.25
459.258	127.25
459.478	95.25
459.698	92.25
459.918	88.25
460.138	88.25
460.358	103.25
460.578	87.25
460.798	88.25
461.018	76.25
461.238	76.25
461.458	100.25
461.678	88.25
461.898	85.25
462.118	81.25
462.338	87.25
462.558	74.25
462.777	87.25
462.997	83.25
463.217	101.25
463.437	94.25
463.657	72.25
463.876	95.25
464.096	72.25
464.316	88.25
464.536	83.25
464.755	91.25
464.975	116.25
465.195	179.25
465.414	185.25
465.634	111.25
465.854	96.25
466.073	75.25
466.293	82.25
466.512	89.25
466.732	93.25
466.951	78.25
467.171	96.25
467.391	105.25
467.61	118.25
467.829	173.25
468.049	427.25
468.268	615.25
468.488	183.25
468.707	95.25
468.927	93.25
469.146	90.25
469.365	74.25
469.585	89.25
469.804	99.25
470.023	96.25
470.243	106.25
470.462	112.25
470.681	126.25
470.901	100.25
471.12	107.25
471.339	95.25
471.558	103.25
471.777	129.25
471.997	231.25
472.216	818.25
472.435	1743.25
472.654	437.25
472.873	150.25
473.092	108.25
473.311	91.25
473.53	89.25
473.749	95.25
473.968	97.25
474.187	91.25
474.406	80.25
474.625	85.25
474.844	100.25
475.063	84.25
475.282	94.25
475.501	87.25
475.72	92.25
475.939	81.25
476.158	95.25
476.377	100.25
476.596	75.25
476.814	90.25
477.033	118.25
477.252	101.25
477.471	88.25
477.69	77.25
477.908	89.25
478.127	98.25
478.346	76.25
478.564	85.25
478.783	85.25
479.002	90.25
479.22	92.25
479.439	103.25
479.658	112.25
479.876	120.25
480.095	105.25
480.313	113.25
480.532	145.25
480.751	225.25
480.969	766.25
481.188	3010.25
481.406	1686.25
481.624	272.25
481.843	119.25
482.061	96.25
482.28	100.25
482.498	91.25
482.717	91.25
482.935	100.25
483.153	98.25
483.372	96.25
483.59	83.25
483.808	92.25
484.027	87.25
484.245	93.25
484.463	97.25
484.681	105.25
484.9	87.25
485.118	98.25
485.336	84.25
485.554	89.25
485.772	100.25
485.99	120.25
486.209	115.25
486.427	88.25
486.645	104.25
486.863	117.25
487.081	107.25
487.299	97.25
487.517	103.25
487.735	102.25
487.953	66.25
488.171	81.25
488.389	98.25
488.607	103.25
488.825	93.25
489.043	90.25
489.261	91.25
489.479	82.25
489.696	84.25
489.914	83.25
490.132	85.25
490.35	100.25
490.568	93.25
490.786	77.25
491.003	99.25
491.221	99.25
491.439	76.25
491.657	87.25
491.874	89.25
492.092	99.25
492.31	95.25
492.527	96.25
492.745	90.25
492.963	92.25
493.18	88.25
493.398	80.25
493.615	104.25
493.833	95.25
494.05	73.25
494.268	96.25
494.485	88.25
494.703	86.25
494.92	91.25
495.138	91.25
495.355	83.25
495.573	102.25
495.79	87.25
496.008	96.25
496.225	89.25
496.442	102.25
496.66	94.25
496.877	96.25
497.094	90.25
497.312	98.25
497.529	82.25
497.746	83.25
497.963	92.25
498.181	91.25
498.398	104.25
498.615	96.25
498.832	105.25
499.049	92.25
499.267	104.25
499.484	87.25
499.701	85.25
499.918	98.25
500.135	93.25
500.352	96.25
500.569	98.25
500.786	82.25
501.003	95.25
501.22	91.25
501.437	92.25
501.654	92.25
501.871	107.25
502.088	88.25
502.305	84.25
502.522	86.25
502.739	83.25
502.956	92.25
503.172	84.25
503.389	95.25
503.606	121.25
503.823	100.25
504.04	92.25
504.256	93.25
504.473	81.25
504.69	87.25
504.907	89.25
505.123	96.25
505.34	90.25
505.557	103.25
505.773	95.25
505.99	92.25
506.207	84.25
506.423	84.25
506.64	98.25
506.856	87.25
507.073	82.25
507.289	86.25
507.506	96.25
507.722	116.25
507.939	118.25
508.155	89.25
508.372	92.25
508.588	92.25
508.805	100.25
509.021	98.25
509.238	81.25
509.454	105.25
509.67	84.25
509.887	106.25
510.103	127.25
510.319	211.25
510.536	762.25
510.752	2442.25
510.968	674.25
511.184	162.25
511.401	115.25
511.617	114.25
511.833	79.25
512.049	101.25
512.265	94.25
512.481	98.25
512.698	103.25
512.914	98.25
513.13	88.25
513.346	103.25
513.562	103.25
513.778	97.25
513.994	115.25
514.21	126.25
514.426	134.25
514.642	143.25
