Data from Circ_2001_H10_HRD10591_00035.txt Node
Date: Wed Jan 03 10:45:45 EST 2024
User: Yrep
Spectrometer: HR+D1059
Trigger mode: 1
Integration Time (sec): 1.000000E-1
Scans to average: 1
Electric dark correction enabled: true
Nonlinearity correction enabled: false
Boxcar width: 0
XAxis mode: Wavelengths
Number of Pixels in Spectrum: 2048
>>>>>Begin Spectral Data<<<<<
223.165	-21.75
223.4	-21.75
223.635	-21.75
223.869	-18.75
224.104	-20.75
224.338	-12.75
224.573	-11.75
224.808	-25.75
225.042	10.25
225.277	-13.75
225.511	3.25
225.746	10.25
225.98	3.25
226.215	17.25
226.449	20.25
226.683	17.25
226.918	15.25
227.152	28.25
227.387	30.25
227.621	39.25
227.856	49.25
228.09	43.25
228.324	49.25
228.559	51.25
228.793	69.25
229.027	59.25
229.262	54.25
229.496	83.25
229.73	91.25
229.964	88.25
230.199	79.25
230.433	63.25
230.667	81.25
230.901	86.25
231.136	74.25
231.37	78.25
231.604	88.25
231.838	67.25
232.072	71.25
232.306	69.25
232.541	79.25
232.775	93.25
233.009	98.25
233.243	98.25
233.477	84.25
233.711	92.25
233.945	79.25
234.179	73.25
234.413	71.25
234.647	79.25
234.881	81.25
235.115	82.25
235.349	70.25
235.583	75.25
235.817	70.25
236.051	80.25
236.285	85.25
236.519	80.25
236.753	82.25
236.987	83.25
237.221	82.25
237.455	63.25
237.689	81.25
237.922	73.25
238.156	81.25
238.39	76.25
238.624	80.25
238.858	86.25
239.091	81.25
239.325	96.25
239.559	75.25
239.793	94.25
240.027	87.25
240.26	83.25
240.494	83.25
240.728	94.25
240.961	87.25
241.195	90.25
241.429	76.25
241.662	88.25
241.896	71.25
242.13	73.25
242.363	71.25
242.597	63.25
242.83	73.25
243.064	84.25
243.298	71.25
243.531	84.25
243.765	77.25
243.998	84.25
244.232	95.25
244.465	88.25
244.699	79.25
244.932	71.25
245.166	85.25
245.399	76.25
245.633	83.25
245.866	82.25
246.099	71.25
246.333	85.25
246.566	84.25
246.8	80.25
247.033	91.25
247.266	76.25
247.5	81.25
247.733	85.25
247.966	77.25
248.2	80.25
248.433	76.25
248.666	73.25
248.899	83.25
249.133	89.25
249.366	114.25
249.599	93.25
249.832	84.25
250.066	77.25
250.299	98.25
250.532	83.25
250.765	84.25
250.998	80.25
251.231	88.25
251.465	97.25
251.698	85.25
251.931	83.25
252.164	84.25
252.397	75.25
252.63	77.25
252.863	88.25
253.096	93.25
253.329	83.25
253.562	92.25
253.795	89.25
254.028	94.25
254.261	91.25
254.494	85.25
254.727	86.25
254.96	89.25
255.193	80.25
255.426	71.25
255.659	73.25
255.892	102.25
256.124	79.25
256.357	95.25
256.59	79.25
256.823	89.25
257.056	69.25
257.289	91.25
257.521	90.25
257.754	90.25
257.987	87.25
258.22	77.25
258.452	86.25
258.685	81.25
258.918	84.25
259.151	82.25
259.383	79.25
259.616	79.25
259.849	84.25
260.081	82.25
260.314	65.25
260.547	101.25
260.779	92.25
261.012	106.25
261.244	90.25
261.477	87.25
261.71	101.25
261.942	123.25
262.175	132.25
262.407	89.25
262.64	98.25
262.872	79.25
263.105	72.25
263.337	85.25
263.57	97.25
263.802	77.25
264.035	83.25
264.267	101.25
264.499	82.25
264.732	89.25
264.964	77.25
265.197	84.25
265.429	90.25
265.661	92.25
265.894	85.25
266.126	84.25
266.358	83.25
266.591	87.25
266.823	84.25
267.055	79.25
267.287	83.25
267.52	88.25
267.752	93.25
267.984	95.25
268.216	92.25
268.448	98.25
268.681	90.25
268.913	82.25
269.145	91.25
269.377	76.25
269.609	83.25
269.841	86.25
270.073	77.25
270.306	83.25
270.538	93.25
270.77	93.25
271.002	86.25
271.234	90.25
271.466	96.25
271.698	89.25
271.93	79.25
272.162	83.25
272.394	102.25
272.626	93.25
272.858	75.25
273.09	89.25
273.322	96.25
273.553	77.25
273.785	84.25
274.017	92.25
274.249	77.25
274.481	83.25
274.713	92.25
274.945	82.25
275.176	88.25
275.408	90.25
275.64	93.25
275.872	105.25
276.104	100.25
276.335	96.25
276.567	98.25
276.799	129.25
277.031	148.25
277.262	149.25
277.494	139.25
277.726	93.25
277.957	89.25
278.189	97.25
278.421	102.25
278.652	78.25
278.884	92.25
279.115	93.25
279.347	85.25
279.579	86.25
279.81	114.25
280.042	157.25
280.273	176.25
280.505	127.25
280.736	92.25
280.968	80.25
281.199	99.25
281.431	90.25
281.662	66.25
281.894	90.25
282.125	101.25
282.356	123.25
282.588	157.25
282.819	115.25
283.051	104.25
283.282	84.25
283.513	107.25
283.745	87.25
283.976	71.25
284.207	87.25
284.439	82.25
284.67	88.25
284.901	82.25
285.132	87.25
285.364	94.25
285.595	93.25
285.826	91.25
286.057	92.25
286.288	91.25
286.52	85.25
286.751	100.25
286.982	97.25
287.213	95.25
287.444	88.25
287.675	109.25
287.906	73.25
288.138	107.25
288.369	94.25
288.6	84.25
288.831	98.25
289.062	98.25
289.293	92.25
289.524	77.25
289.755	87.25
289.986	87.25
290.217	86.25
290.448	80.25
290.679	79.25
290.91	96.25
291.141	101.25
291.371	96.25
291.602	83.25
291.833	89.25
292.064	85.25
292.295	86.25
292.526	84.25
292.757	83.25
292.987	82.25
293.218	84.25
293.449	88.25
293.68	84.25
293.91	97.25
294.141	92.25
294.372	84.25
294.603	92.25
294.833	91.25
295.064	90.25
295.295	86.25
295.525	99.25
295.756	108.25
295.987	118.25
296.217	160.25
296.448	135.25
296.679	96.25
296.909	88.25
297.14	90.25
297.37	88.25
297.601	84.25
297.831	100.25
298.062	111.25
298.292	88.25
298.523	92.25
298.753	97.25
298.984	98.25
299.214	95.25
299.445	97.25
299.675	90.25
299.905	111.25
300.136	91.25
300.366	80.25
300.597	100.25
300.827	77.25
301.057	101.25
301.288	135.25
301.518	100.25
301.748	88.25
301.979	96.25
302.209	85.25
302.439	97.25
302.669	96.25
302.9	83.25
303.13	92.25
303.36	119.25
303.59	108.25
303.82	128.25
304.051	104.25
304.281	97.25
304.511	95.25
304.741	81.25
304.971	87.25
305.201	92.25
305.431	90.25
305.661	86.25
305.891	96.25
306.121	105.25
306.352	113.25
306.582	107.25
306.812	104.25
307.042	101.25
307.272	121.25
307.502	147.25
307.731	153.25
307.961	121.25
308.191	96.25
308.421	96.25
308.651	104.25
308.881	95.25
309.111	91.25
309.341	90.25
309.571	105.25
309.8	107.25
310.03	116.25
310.26	105.25
310.49	93.25
310.72	104.25
310.949	104.25
311.179	108.25
311.409	106.25
311.639	114.25
311.868	87.25
312.098	93.25
312.328	100.25
312.557	109.25
312.787	113.25
313.017	107.25
313.246	88.25
313.476	100.25
313.706	101.25
313.935	102.25
314.165	120.25
314.394	99.25
314.624	96.25
314.853	103.25
315.083	95.25
315.312	103.25
315.542	97.25
315.771	103.25
316.001	103.25
316.23	86.25
316.46	97.25
316.689	89.25
316.919	91.25
317.148	97.25
317.377	101.25
317.607	99.25
317.836	87.25
318.065	83.25
318.295	90.25
318.524	91.25
318.753	93.25
318.983	92.25
319.212	109.25
319.441	100.25
319.67	110.25
319.9	107.25
320.129	108.25
320.358	90.25
320.587	110.25
320.816	115.25
321.046	96.25
321.275	105.25
321.504	96.25
321.733	93.25
321.962	106.25
322.191	109.25
322.42	107.25
322.649	114.25
322.878	122.25
323.108	125.25
323.337	151.25
323.566	160.25
323.795	167.25
324.024	226.25
324.253	437.25
324.482	929.25
324.71	1912.25
324.939	2530.25
325.168	954.25
325.397	268.25
325.626	178.25
325.855	142.25
326.084	135.25
326.313	137.25
326.542	170.25
326.77	247.25
326.999	483.25
327.228	1066.25
327.457	1866.25
327.686	1501.25
327.914	500.25
328.143	385.25
328.372	433.25
328.6	260.25
328.829	179.25
329.058	154.25
329.287	167.25
329.515	150.25
329.744	200.25
329.972	332.25
330.201	640.25
330.43	877.25
330.658	431.25
330.887	233.25
331.115	157.25
331.344	128.25
331.572	122.25
331.801	120.25
332.03	108.25
332.258	121.25
332.486	112.25
332.715	105.25
332.943	111.25
333.172	112.25
333.4	100.25
333.629	153.25
333.857	191.25
334.085	299.25
334.314	606.25
334.542	1078.25
334.771	1069.25
334.999	306.25
335.227	149.25
335.455	115.25
335.684	99.25
335.912	123.25
336.14	105.25
336.369	101.25
336.597	97.25
336.825	107.25
337.053	99.25
337.281	107.25
337.51	100.25
337.738	83.25
337.966	101.25
338.194	96.25
338.422	102.25
338.65	94.25
338.878	95.25
339.106	96.25
339.334	98.25
339.562	100.25
339.79	92.25
340.018	98.25
340.246	87.25
340.474	100.25
340.702	95.25
340.93	93.25
341.158	88.25
341.386	89.25
341.614	96.25
341.842	108.25
342.07	98.25
342.298	97.25
342.526	84.25
342.754	78.25
342.981	93.25
343.209	100.25
343.437	96.25
343.665	101.25
343.893	70.25
344.12	91.25
344.348	92.25
344.576	82.25
344.804	95.25
345.031	105.25
345.259	105.25
345.487	99.25
345.714	98.25
345.942	103.25
346.17	88.25
346.397	93.25
346.625	90.25
346.853	85.25
347.08	97.25
347.308	84.25
347.535	88.25
347.763	118.25
347.99	100.25
348.218	90.25
348.445	106.25
348.673	108.25
348.9	88.25
349.128	92.25
349.355	99.25
349.583	100.25
349.81	96.25
350.037	106.25
350.265	107.25
350.492	110.25
350.72	87.25
350.947	93.25
351.174	122.25
351.402	109.25
351.629	109.25
351.856	109.25
352.083	97.25
352.311	89.25
352.538	111.25
352.765	116.25
352.992	123.25
353.22	120.25
353.447	98.25
353.674	97.25
353.901	96.25
354.128	95.25
354.355	81.25
354.583	104.25
354.81	100.25
355.037	91.25
355.264	104.25
355.491	86.25
355.718	98.25
355.945	91.25
356.172	93.25
356.399	78.25
356.626	92.25
356.853	88.25
357.08	97.25
357.307	97.25
357.534	100.25
357.761	97.25
357.988	97.25
358.215	106.25
358.441	87.25
358.668	99.25
358.895	89.25
359.122	94.25
359.349	100.25
359.576	88.25
359.802	116.25
360.029	127.25
360.256	131.25
360.483	109.25
360.709	80.25
360.936	92.25
361.163	101.25
361.39	100.25
361.616	100.25
361.843	100.25
362.07	98.25
362.296	108.25
362.523	105.25
362.749	101.25
362.976	102.25
363.203	97.25
363.429	117.25
363.656	87.25
363.882	89.25
364.109	93.25
364.335	107.25
364.562	99.25
364.788	98.25
365.015	111.25
365.241	120.25
365.468	107.25
365.694	112.25
365.92	102.25
366.147	96.25
366.373	93.25
366.599	87.25
366.826	105.25
367.052	106.25
367.278	114.25
367.505	83.25
367.731	100.25
367.957	88.25
368.184	97.25
368.41	104.25
368.636	113.25
368.862	128.25
369.089	118.25
369.315	90.25
369.541	100.25
369.767	103.25
369.993	85.25
370.219	82.25
370.445	96.25
370.672	78.25
370.898	97.25
371.124	81.25
371.35	92.25
371.576	91.25
371.802	94.25
372.028	79.25
372.254	99.25
372.48	82.25
372.706	100.25
372.932	87.25
373.158	81.25
373.384	89.25
373.61	110.25
373.835	93.25
374.061	87.25
374.287	74.25
374.513	93.25
374.739	92.25
374.965	91.25
375.191	99.25
375.416	85.25
375.642	85.25
375.868	93.25
376.094	89.25
376.319	81.25
376.545	107.25
376.771	86.25
376.997	87.25
377.222	92.25
377.448	92.25
377.674	83.25
377.899	95.25
378.125	90.25
378.35	81.25
378.576	86.25
378.802	85.25
379.027	90.25
379.253	89.25
379.478	98.25
379.704	87.25
379.929	92.25
380.155	96.25
380.38	84.25
380.606	101.25
380.831	83.25
381.057	108.25
381.282	98.25
381.507	91.25
381.733	99.25
381.958	101.25
382.184	97.25
382.409	108.25
382.634	103.25
382.86	97.25
383.085	110.25
383.31	117.25
383.535	88.25
383.761	84.25
383.986	111.25
384.211	90.25
384.436	77.25
384.662	107.25
384.887	113.25
385.112	105.25
385.337	99.25
385.562	103.25
385.787	115.25
386.013	107.25
386.238	106.25
386.463	103.25
386.688	110.25
386.913	92.25
387.138	116.25
387.363	101.25
387.588	105.25
387.813	90.25
388.038	99.25
388.263	103.25
388.488	109.25
388.713	100.25
388.938	103.25
389.163	99.25
389.387	87.25
389.612	74.25
389.837	85.25
390.062	93.25
390.287	91.25
390.512	85.25
390.736	85.25
390.961	85.25
391.186	93.25
391.411	87.25
391.636	104.25
391.86	90.25
392.085	76.25
392.31	91.25
392.534	98.25
392.759	76.25
392.984	94.25
393.208	99.25
393.433	89.25
393.658	90.25
393.882	82.25
394.107	83.25
394.331	105.25
394.556	79.25
394.78	88.25
395.005	95.25
395.229	82.25
395.454	76.25
395.678	98.25
395.903	91.25
396.127	92.25
396.352	97.25
396.576	93.25
396.801	98.25
397.025	90.25
397.249	86.25
397.474	89.25
397.698	94.25
397.922	108.25
398.147	91.25
398.371	85.25
398.595	93.25
398.82	84.25
399.044	81.25
399.268	88.25
399.492	91.25
399.717	82.25
399.941	92.25
400.165	101.25
400.389	83.25
400.613	90.25
400.837	98.25
401.062	88.25
401.286	84.25
401.51	99.25
401.734	98.25
401.958	92.25
402.182	137.25
402.406	184.25
402.63	130.25
402.854	114.25
403.078	92.25
403.302	89.25
403.526	102.25
403.75	95.25
403.974	96.25
404.198	89.25
404.422	79.25
404.645	96.25
404.869	101.25
405.093	106.25
405.317	123.25
405.541	131.25
405.765	103.25
405.988	110.25
406.212	193.25
406.436	286.25
406.66	191.25
406.883	100.25
407.107	101.25
407.331	96.25
407.555	111.25
407.778	111.25
408.002	98.25
408.226	78.25
408.449	84.25
408.673	100.25
408.896	84.25
409.12	98.25
409.344	79.25
409.567	94.25
409.791	88.25
410.014	86.25
410.238	93.25
410.461	99.25
410.685	96.25
410.908	94.25
411.132	99.25
411.355	119.25
411.578	97.25
411.802	103.25
412.025	92.25
412.249	112.25
412.472	108.25
412.695	115.25
412.919	99.25
413.142	90.25
413.365	81.25
413.589	85.25
413.812	84.25
414.035	88.25
414.258	97.25
414.482	101.25
414.705	81.25
414.928	93.25
415.151	96.25
415.374	97.25
415.597	90.25
415.821	110.25
416.044	99.25
416.267	75.25
416.49	85.25
416.713	102.25
416.936	83.25
417.159	86.25
417.382	88.25
417.605	95.25
417.828	98.25
418.051	91.25
418.274	100.25
418.497	88.25
418.72	92.25
418.943	87.25
419.166	92.25
419.389	84.25
419.611	84.25
419.834	92.25
420.057	81.25
420.28	92.25
420.503	100.25
420.726	90.25
420.948	84.25
421.171	90.25
421.394	112.25
421.617	97.25
421.839	100.25
422.062	83.25
422.285	102.25
422.507	101.25
422.73	104.25
422.953	98.25
423.175	94.25
423.398	85.25
423.621	103.25
423.843	92.25
424.066	72.25
424.288	96.25
424.511	105.25
424.733	99.25
424.956	103.25
425.178	111.25
425.401	99.25
425.623	103.25
425.846	99.25
426.068	95.25
426.291	95.25
426.513	93.25
426.735	95.25
426.958	103.25
427.18	115.25
427.402	171.25
427.625	243.25
427.847	195.25
428.069	193.25
428.292	130.25
428.514	85.25
428.736	103.25
428.958	83.25
429.181	96.25
429.403	84.25
429.625	87.25
429.847	88.25
430.069	117.25
430.292	97.25
430.514	90.25
430.736	94.25
430.958	95.25
431.18	84.25
431.402	92.25
431.624	78.25
431.846	97.25
432.068	88.25
432.29	98.25
432.512	87.25
432.734	80.25
432.956	90.25
433.178	102.25
433.4	105.25
433.622	86.25
433.844	88.25
434.066	90.25
434.287	95.25
434.509	75.25
434.731	90.25
434.953	83.25
435.175	83.25
435.397	89.25
435.618	96.25
435.84	94.25
436.062	122.25
436.284	124.25
436.505	97.25
436.727	99.25
436.949	101.25
437.17	84.25
437.392	88.25
437.614	93.25
437.835	116.25
438.057	138.25
438.278	120.25
438.5	124.25
438.721	128.25
438.943	90.25
439.165	89.25
439.386	90.25
439.608	82.25
439.829	103.25
440.05	125.25
440.272	153.25
440.493	115.25
440.715	77.25
440.936	77.25
441.158	95.25
441.379	87.25
441.6	84.25
441.822	101.25
442.043	80.25
442.264	92.25
442.486	99.25
442.707	83.25
442.928	127.25
443.149	147.25
443.371	147.25
443.592	130.25
443.813	128.25
444.034	99.25
444.255	86.25
444.476	84.25
444.698	101.25
444.919	92.25
445.14	143.25
445.361	141.25
445.582	127.25
445.803	156.25
446.024	149.25
446.245	163.25
446.466	108.25
446.687	91.25
446.908	88.25
447.129	100.25
447.35	92.25
447.571	108.25
447.792	88.25
448.013	107.25
448.234	122.25
448.455	115.25
448.675	137.25
448.896	102.25
449.117	99.25
449.338	108.25
449.559	130.25
449.779	156.25
450	103.25
450.221	86.25
450.442	86.25
450.662	114.25
450.883	117.25
451.104	127.25
451.324	113.25
451.545	82.25
451.766	96.25
451.986	89.25
452.207	85.25
452.428	83.25
452.648	96.25
452.869	110.25
453.089	139.25
453.31	145.25
453.53	105.25
453.751	73.25
453.971	104.25
454.192	123.25
454.412	101.25
454.633	91.25
454.853	101.25
455.073	92.25
455.294	96.25
455.514	103.25
455.734	94.25
455.955	100.25
456.175	88.25
456.395	92.25
456.616	93.25
456.836	104.25
457.056	88.25
457.276	86.25
457.497	91.25
457.717	81.25
457.937	82.25
458.157	103.25
458.377	111.25
458.598	123.25
458.818	186.25
459.038	198.25
459.258	128.25
459.478	91.25
459.698	95.25
459.918	93.25
460.138	91.25
460.358	87.25
460.578	92.25
460.798	92.25
461.018	99.25
461.238	89.25
461.458	81.25
461.678	79.25
461.898	87.25
462.118	88.25
462.338	72.25
462.558	80.25
462.777	81.25
462.997	96.25
463.217	102.25
463.437	93.25
463.657	99.25
463.876	87.25
464.096	83.25
464.316	95.25
464.536	97.25
464.755	111.25
464.975	117.25
465.195	213.25
465.414	224.25
465.634	97.25
465.854	105.25
466.073	96.25
466.293	87.25
466.512	89.25
466.732	86.25
466.951	83.25
467.171	89.25
467.391	100.25
467.61	120.25
467.829	180.25
468.049	390.25
468.268	569.25
468.488	165.25
468.707	105.25
468.927	103.25
469.146	92.25
469.365	91.25
469.585	91.25
469.804	104.25
470.023	118.25
470.243	104.25
470.462	107.25
470.681	120.25
470.901	88.25
471.12	92.25
471.339	107.25
471.558	99.25
471.777	127.25
471.997	211.25
472.216	760.25
472.435	1610.25
472.654	415.25
472.873	131.25
473.092	97.25
473.311	97.25
473.53	103.25
473.749	95.25
473.968	105.25
474.187	110.25
474.406	98.25
474.625	104.25
474.844	84.25
475.063	93.25
475.282	89.25
475.501	85.25
475.72	93.25
475.939	87.25
476.158	92.25
476.377	78.25
476.596	99.25
476.814	87.25
477.033	92.25
477.252	99.25
477.471	86.25
477.69	83.25
477.908	93.25
478.127	97.25
478.346	83.25
478.564	93.25
478.783	90.25
479.002	100.25
479.22	95.25
479.439	111.25
479.658	114.25
479.876	120.25
480.095	101.25
480.313	123.25
480.532	139.25
480.751	212.25
480.969	679.25
481.188	2804.25
481.406	1596.25
481.624	249.25
481.843	132.25
482.061	83.25
482.28	83.25
482.498	86.25
482.717	104.25
482.935	92.25
483.153	90.25
483.372	81.25
483.59	84.25
483.808	88.25
484.027	85.25
484.245	84.25
484.463	92.25
484.681	95.25
484.9	99.25
485.118	94.25
485.336	89.25
485.554	74.25
485.772	97.25
485.99	105.25
486.209	107.25
486.427	103.25
486.645	98.25
486.863	124.25
487.081	112.25
487.299	113.25
487.517	108.25
487.735	100.25
487.953	96.25
488.171	102.25
488.389	81.25
488.607	96.25
488.825	85.25
489.043	98.25
489.261	88.25
489.479	92.25
489.696	81.25
489.914	101.25
490.132	95.25
490.35	97.25
490.568	85.25
490.786	83.25
491.003	91.25
491.221	80.25
491.439	84.25
491.657	92.25
491.874	80.25
492.092	88.25
492.31	90.25
492.527	75.25
492.745	95.25
492.963	96.25
493.18	107.25
493.398	104.25
493.615	88.25
493.833	83.25
494.05	94.25
494.268	93.25
494.485	87.25
494.703	90.25
494.92	73.25
495.138	92.25
495.355	87.25
495.573	95.25
495.79	94.25
496.008	87.25
496.225	93.25
496.442	79.25
496.66	101.25
496.877	92.25
497.094	102.25
497.312	105.25
497.529	88.25
497.746	99.25
497.963	91.25
498.181	92.25
498.398	86.25
498.615	104.25
498.832	106.25
499.049	78.25
499.267	99.25
499.484	92.25
499.701	97.25
499.918	92.25
500.135	87.25
500.352	83.25
500.569	91.25
500.786	99.25
501.003	87.25
501.22	89.25
501.437	107.25
501.654	90.25
501.871	116.25
502.088	111.25
502.305	97.25
502.522	93.25
502.739	91.25
502.956	102.25
503.172	87.25
503.389	92.25
503.606	95.25
503.823	95.25
504.04	97.25
504.256	111.25
504.473	98.25
504.69	100.25
504.907	92.25
505.123	88.25
505.34	99.25
505.557	104.25
505.773	84.25
505.99	82.25
506.207	86.25
506.423	94.25
506.64	94.25
506.856	91.25
507.073	81.25
507.289	90.25
507.506	107.25
507.722	131.25
507.939	136.25
508.155	101.25
508.372	91.25
508.588	97.25
508.805	114.25
509.021	113.25
509.238	114.25
509.454	99.25
509.67	105.25
509.887	105.25
510.103	146.25
510.319	215.25
510.536	845.25
510.752	2840.25
510.968	765.25
511.184	167.25
511.401	119.25
511.617	100.25
511.833	96.25
512.049	90.25
512.265	100.25
512.481	99.25
512.698	97.25
512.914	90.25
513.13	85.25
513.346	105.25
513.562	86.25
513.778	101.25
