Data from Circ_2001_H10_HRD10591_00073.txt Node
Date: Wed Jan 03 10:45:53 EST 2024
User: Yrep
Spectrometer: HR+D1059
Trigger mode: 1
Integration Time (sec): 1.000000E-1
Scans to average: 1
Electric dark correction enabled: true
Nonlinearity correction enabled: false
Boxcar width: 0
XAxis mode: Wavelengths
Number of Pixels in Spectrum: 2048
>>>>>Begin Spectral Data<<<<<
223.165	-13.31
223.4	-13.31
223.635	-13.31
223.869	-20.31
224.104	-27.31
224.338	-25.31
224.573	-7.31
224.808	-12.31
225.042	-1.31
225.277	-12.31
225.511	-4.31
225.746	9.69
225.98	13.69
226.215	4.69
226.449	13.69
226.683	26.69
226.918	15.69
227.152	39.69
227.387	47.69
227.621	53.69
227.856	36.69
228.09	36.69
228.324	59.69
228.559	55.69
228.793	62.69
229.027	67.69
229.262	86.69
229.496	88.69
229.73	104.69
229.964	92.69
230.199	76.69
230.433	72.69
230.667	86.69
230.901	81.69
231.136	79.69
231.37	74.69
231.604	73.69
231.838	88.69
232.072	84.69
232.306	73.69
232.541	80.69
232.775	101.69
233.009	84.69
233.243	84.69
233.477	90.69
233.711	81.69
233.945	88.69
234.179	95.69
234.413	92.69
234.647	82.69
234.881	77.69
235.115	89.69
235.349	83.69
235.583	76.69
235.817	91.69
236.051	80.69
236.285	90.69
236.519	77.69
236.753	89.69
236.987	97.69
237.221	89.69
237.455	94.69
237.689	75.69
237.922	91.69
238.156	79.69
238.39	76.69
238.624	68.69
238.858	75.69
239.091	82.69
239.325	85.69
239.559	95.69
239.793	80.69
240.027	70.69
240.26	90.69
240.494	84.69
240.728	88.69
240.961	84.69
241.195	101.69
241.429	100.69
241.662	86.69
241.896	68.69
242.13	84.69
242.363	83.69
242.597	87.69
242.83	76.69
243.064	81.69
243.298	89.69
243.531	90.69
243.765	92.69
243.998	67.69
244.232	83.69
244.465	101.69
244.699	79.69
244.932	88.69
245.166	85.69
245.399	75.69
245.633	83.69
245.866	84.69
246.099	72.69
246.333	79.69
246.566	76.69
246.8	74.69
247.033	93.69
247.266	84.69
247.5	82.69
247.733	87.69
247.966	83.69
248.2	77.69
248.433	76.69
248.666	93.69
248.899	84.69
249.133	91.69
249.366	104.69
249.599	107.69
249.832	74.69
250.066	99.69
250.299	99.69
250.532	82.69
250.765	86.69
250.998	75.69
251.231	86.69
251.465	91.69
251.698	78.69
251.931	100.69
252.164	76.69
252.397	84.69
252.63	85.69
252.863	82.69
253.096	86.69
253.329	83.69
253.562	93.69
253.795	75.69
254.028	81.69
254.261	84.69
254.494	76.69
254.727	96.69
254.96	75.69
255.193	87.69
255.426	97.69
255.659	98.69
255.892	84.69
256.124	102.69
256.357	90.69
256.59	95.69
256.823	91.69
257.056	84.69
257.289	98.69
257.521	90.69
257.754	96.69
257.987	85.69
258.22	88.69
258.452	89.69
258.685	99.69
258.918	99.69
259.151	109.69
259.383	93.69
259.616	105.69
259.849	87.69
260.081	90.69
260.314	82.69
260.547	99.69
260.779	102.69
261.012	114.69
261.244	94.69
261.477	96.69
261.71	106.69
261.942	136.69
262.175	144.69
262.407	93.69
262.64	87.69
262.872	88.69
263.105	82.69
263.337	99.69
263.57	87.69
263.802	86.69
264.035	85.69
264.267	86.69
264.499	73.69
264.732	76.69
264.964	94.69
265.197	99.69
265.429	106.69
265.661	88.69
265.894	85.69
266.126	93.69
266.358	86.69
266.591	80.69
266.823	72.69
267.055	85.69
267.287	80.69
267.52	106.69
267.752	89.69
267.984	88.69
268.216	92.69
268.448	88.69
268.681	93.69
268.913	80.69
269.145	96.69
269.377	96.69
269.609	100.69
269.841	87.69
270.073	64.69
270.306	84.69
270.538	90.69
270.77	90.69
271.002	93.69
271.234	92.69
271.466	90.69
271.698	86.69
271.93	90.69
272.162	94.69
272.394	93.69
272.626	100.69
272.858	84.69
273.09	91.69
273.322	98.69
273.553	90.69
273.785	86.69
274.017	95.69
274.249	90.69
274.481	80.69
274.713	98.69
274.945	83.69
275.176	94.69
275.408	113.69
275.64	101.69
275.872	108.69
276.104	112.69
276.335	103.69
276.567	110.69
276.799	152.69
277.031	162.69
277.262	184.69
277.494	144.69
277.726	96.69
277.957	106.69
278.189	90.69
278.421	87.69
278.652	100.69
278.884	97.69
279.115	85.69
279.347	103.69
279.579	114.69
279.81	119.69
280.042	180.69
280.273	224.69
280.505	156.69
280.736	96.69
280.968	93.69
281.199	86.69
281.431	91.69
281.662	92.69
281.894	105.69
282.125	112.69
282.356	117.69
282.588	166.69
282.819	132.69
283.051	111.69
283.282	82.69
283.513	100.69
283.745	99.69
283.976	96.69
284.207	102.69
284.439	114.69
284.67	103.69
284.901	100.69
285.132	95.69
285.364	84.69
285.595	93.69
285.826	100.69
286.057	96.69
286.288	93.69
286.52	92.69
286.751	88.69
286.982	76.69
287.213	87.69
287.444	94.69
287.675	92.69
287.906	92.69
288.138	104.69
288.369	110.69
288.6	98.69
288.831	84.69
289.062	86.69
289.293	104.69
289.524	107.69
289.755	81.69
289.986	92.69
290.217	86.69
290.448	87.69
290.679	83.69
290.91	102.69
291.141	99.69
291.371	87.69
291.602	88.69
291.833	81.69
292.064	85.69
292.295	89.69
292.526	92.69
292.757	84.69
292.987	90.69
293.218	89.69
293.449	94.69
293.68	83.69
293.91	101.69
294.141	96.69
294.372	93.69
294.603	86.69
294.833	92.69
295.064	83.69
295.295	87.69
295.525	92.69
295.756	101.69
295.987	124.69
296.217	168.69
296.448	134.69
296.679	102.69
296.909	100.69
297.14	99.69
297.37	104.69
297.601	80.69
297.831	95.69
298.062	88.69
298.292	89.69
298.523	99.69
298.753	94.69
298.984	88.69
299.214	90.69
299.445	90.69
299.675	107.69
299.905	124.69
300.136	92.69
300.366	100.69
300.597	92.69
300.827	105.69
301.057	104.69
301.288	117.69
301.518	100.69
301.748	107.69
301.979	112.69
302.209	104.69
302.439	102.69
302.669	86.69
302.9	91.69
303.13	94.69
303.36	106.69
303.59	134.69
303.82	146.69
304.051	109.69
304.281	72.69
304.511	100.69
304.741	102.69
304.971	87.69
305.201	94.69
305.431	96.69
305.661	93.69
305.891	94.69
306.121	94.69
306.352	111.69
306.582	110.69
306.812	100.69
307.042	130.69
307.272	144.69
307.502	166.69
307.731	148.69
307.961	129.69
308.191	93.69
308.421	87.69
308.651	103.69
308.881	103.69
309.111	102.69
309.341	104.69
309.571	102.69
309.8	107.69
310.03	120.69
310.26	112.69
310.49	95.69
310.72	118.69
310.949	124.69
311.179	97.69
311.409	103.69
311.639	96.69
311.868	116.69
312.098	114.69
312.328	107.69
312.557	94.69
312.787	127.69
313.017	113.69
313.246	92.69
313.476	85.69
313.706	88.69
313.935	97.69
314.165	100.69
314.394	110.69
314.624	103.69
314.853	101.69
315.083	99.69
315.312	79.69
315.542	95.69
315.771	96.69
316.001	95.69
316.23	93.69
316.46	86.69
316.689	83.69
316.919	103.69
317.148	106.69
317.377	112.69
317.607	91.69
317.836	93.69
318.065	92.69
318.295	88.69
318.524	102.69
318.753	91.69
318.983	106.69
319.212	100.69
319.441	100.69
319.67	110.69
319.9	116.69
320.129	100.69
320.358	93.69
320.587	114.69
320.816	86.69
321.046	99.69
321.275	110.69
321.504	108.69
321.733	95.69
321.962	103.69
322.191	118.69
322.42	134.69
322.649	119.69
322.878	127.69
323.108	114.69
323.337	153.69
323.566	142.69
323.795	171.69
324.024	247.69
324.253	484.69
324.482	975.69
324.71	2028.69
324.939	2707.69
325.168	990.69
325.397	289.69
325.626	179.69
325.855	147.69
326.084	149.69
326.313	136.69
326.542	160.69
326.77	258.69
326.999	536.69
327.228	1063.69
327.457	2050.69
327.686	1576.69
327.914	554.69
328.143	451.69
328.372	564.69
328.6	322.69
328.829	178.69
329.058	173.69
329.287	181.69
329.515	168.69
329.744	236.69
329.972	427.69
330.201	839.69
330.43	1204.69
330.658	555.69
330.887	288.69
331.115	184.69
331.344	113.69
331.572	117.69
331.801	121.69
332.03	122.69
332.258	111.69
332.486	117.69
332.715	104.69
332.943	99.69
333.172	116.69
333.4	135.69
333.629	144.69
333.857	206.69
334.085	404.69
334.314	797.69
334.542	1541.69
334.771	1415.69
334.999	388.69
335.227	165.69
335.455	116.69
335.684	107.69
335.912	111.69
336.14	108.69
336.369	117.69
336.597	118.69
336.825	104.69
337.053	92.69
337.281	88.69
337.51	103.69
337.738	100.69
337.966	96.69
338.194	125.69
338.422	100.69
338.65	90.69
338.878	113.69
339.106	101.69
339.334	100.69
339.562	95.69
339.79	100.69
340.018	100.69
340.246	121.69
340.474	98.69
340.702	100.69
340.93	86.69
341.158	117.69
341.386	107.69
341.614	120.69
341.842	102.69
342.07	102.69
342.298	108.69
342.526	96.69
342.754	95.69
342.981	105.69
343.209	88.69
343.437	103.69
343.665	85.69
343.893	90.69
344.12	104.69
344.348	98.69
344.576	94.69
344.804	101.69
345.031	99.69
345.259	124.69
345.487	96.69
345.714	118.69
345.942	86.69
346.17	100.69
346.397	100.69
346.625	95.69
346.853	96.69
347.08	80.69
347.308	106.69
347.535	96.69
347.763	99.69
347.99	118.69
348.218	97.69
348.445	132.69
348.673	118.69
348.9	79.69
349.128	104.69
349.355	105.69
349.583	88.69
349.81	92.69
350.037	88.69
350.265	100.69
350.492	111.69
350.72	113.69
350.947	104.69
351.174	116.69
351.402	117.69
351.629	109.69
351.856	115.69
352.083	107.69
352.311	116.69
352.538	121.69
352.765	109.69
352.992	123.69
353.22	124.69
353.447	112.69
353.674	119.69
353.901	95.69
354.128	111.69
354.355	86.69
354.583	96.69
354.81	94.69
355.037	106.69
355.264	88.69
355.491	96.69
355.718	90.69
355.945	90.69
356.172	97.69
356.399	95.69
356.626	84.69
356.853	94.69
357.08	99.69
357.307	87.69
357.534	98.69
357.761	80.69
357.988	92.69
358.215	102.69
358.441	87.69
358.668	89.69
358.895	93.69
359.122	86.69
359.349	90.69
359.576	109.69
359.802	113.69
360.029	132.69
360.256	138.69
360.483	113.69
360.709	98.69
360.936	102.69
361.163	107.69
361.39	113.69
361.616	117.69
361.843	101.69
362.07	105.69
362.296	107.69
362.523	96.69
362.749	92.69
362.976	87.69
363.203	74.69
363.429	88.69
363.656	92.69
363.882	94.69
364.109	104.69
364.335	95.69
364.562	98.69
364.788	96.69
365.015	102.69
365.241	109.69
365.468	111.69
365.694	119.69
365.92	114.69
366.147	95.69
366.373	100.69
366.599	108.69
366.826	93.69
367.052	102.69
367.278	96.69
367.505	108.69
367.731	105.69
367.957	93.69
368.184	102.69
368.41	91.69
368.636	117.69
368.862	137.69
369.089	115.69
369.315	97.69
369.541	106.69
369.767	96.69
369.993	89.69
370.219	90.69
370.445	91.69
370.672	71.69
370.898	95.69
371.124	94.69
371.35	84.69
371.576	88.69
371.802	88.69
372.028	80.69
372.254	96.69
372.48	95.69
372.706	103.69
372.932	98.69
373.158	95.69
373.384	99.69
373.61	95.69
373.835	93.69
374.061	97.69
374.287	96.69
374.513	92.69
374.739	81.69
374.965	86.69
375.191	77.69
375.416	75.69
375.642	98.69
375.868	90.69
376.094	77.69
376.319	97.69
376.545	82.69
376.771	95.69
376.997	94.69
377.222	101.69
377.448	95.69
377.674	92.69
377.899	93.69
378.125	86.69
378.35	99.69
378.576	89.69
378.802	81.69
379.027	96.69
379.253	88.69
379.478	93.69
379.704	94.69
379.929	100.69
380.155	93.69
380.38	92.69
380.606	88.69
380.831	81.69
381.057	92.69
381.282	88.69
381.507	94.69
381.733	99.69
381.958	94.69
382.184	84.69
382.409	102.69
382.634	101.69
382.86	106.69
383.085	94.69
383.31	105.69
383.535	107.69
383.761	91.69
383.986	91.69
384.211	105.69
384.436	98.69
384.662	101.69
384.887	95.69
385.112	95.69
385.337	100.69
385.562	110.69
385.787	105.69
386.013	117.69
386.238	107.69
386.463	115.69
386.688	111.69
386.913	93.69
387.138	97.69
387.363	110.69
387.588	94.69
387.813	82.69
388.038	96.69
388.263	104.69
388.488	99.69
388.713	82.69
388.938	100.69
389.163	106.69
389.387	98.69
389.612	90.69
389.837	104.69
390.062	102.69
390.287	91.69
390.512	95.69
390.736	94.69
390.961	93.69
391.186	90.69
391.411	101.69
391.636	90.69
391.86	76.69
392.085	91.69
392.31	90.69
392.534	91.69
392.759	89.69
392.984	91.69
393.208	92.69
393.433	88.69
393.658	83.69
393.882	85.69
394.107	91.69
394.331	94.69
394.556	69.69
394.78	80.69
395.005	92.69
395.229	78.69
395.454	84.69
395.678	94.69
395.903	91.69
396.127	94.69
396.352	95.69
396.576	95.69
396.801	94.69
397.025	83.69
397.249	90.69
397.474	90.69
397.698	86.69
397.922	99.69
398.147	88.69
398.371	99.69
398.595	94.69
398.82	101.69
399.044	104.69
399.268	85.69
399.492	83.69
399.717	91.69
399.941	85.69
400.165	99.69
400.389	108.69
400.613	85.69
400.837	92.69
401.062	85.69
401.286	88.69
401.51	87.69
401.734	101.69
401.958	107.69
402.182	138.69
402.406	187.69
402.63	122.69
402.854	103.69
403.078	102.69
403.302	93.69
403.526	98.69
403.75	88.69
403.974	106.69
404.198	102.69
404.422	96.69
404.645	96.69
404.869	100.69
405.093	121.69
405.317	118.69
405.541	123.69
405.765	110.69
405.988	133.69
406.212	201.69
406.436	290.69
406.66	182.69
406.883	114.69
407.107	89.69
407.331	117.69
407.555	114.69
407.778	111.69
408.002	110.69
408.226	94.69
408.449	86.69
408.673	95.69
408.896	88.69
409.12	100.69
409.344	100.69
409.567	90.69
409.791	91.69
410.014	95.69
410.238	97.69
410.461	95.69
410.685	91.69
410.908	112.69
411.132	99.69
411.355	115.69
411.578	89.69
411.802	94.69
412.025	90.69
412.249	99.69
412.472	109.69
412.695	142.69
412.919	108.69
413.142	88.69
413.365	102.69
413.589	78.69
413.812	95.69
414.035	93.69
414.258	96.69
414.482	93.69
414.705	81.69
414.928	93.69
415.151	93.69
415.374	87.69
415.597	87.69
415.821	84.69
416.044	92.69
416.267	87.69
416.49	90.69
416.713	79.69
416.936	80.69
417.159	74.69
417.382	96.69
417.605	108.69
417.828	107.69
418.051	109.69
418.274	102.69
418.497	93.69
418.72	92.69
418.943	66.69
419.166	103.69
419.389	80.69
419.611	89.69
419.834	93.69
420.057	86.69
420.28	84.69
420.503	79.69
420.726	74.69
420.948	88.69
421.171	94.69
421.394	100.69
421.617	77.69
421.839	88.69
422.062	82.69
422.285	96.69
422.507	93.69
422.73	102.69
422.953	88.69
423.175	101.69
423.398	100.69
423.621	105.69
423.843	104.69
424.066	88.69
424.288	96.69
424.511	98.69
424.733	106.69
424.956	109.69
425.178	115.69
425.401	111.69
425.623	111.69
425.846	96.69
426.068	88.69
426.291	103.69
426.513	102.69
426.735	89.69
426.958	95.69
427.18	124.69
427.402	155.69
427.625	226.69
427.847	212.69
428.069	201.69
428.292	125.69
428.514	82.69
428.736	102.69
428.958	101.69
429.181	99.69
429.403	82.69
429.625	92.69
429.847	84.69
430.069	103.69
430.292	94.69
430.514	94.69
430.736	101.69
430.958	86.69
431.18	95.69
431.402	88.69
431.624	84.69
431.846	79.69
432.068	93.69
432.29	75.69
432.512	67.69
432.734	91.69
432.956	91.69
433.178	114.69
433.4	114.69
433.622	112.69
433.844	95.69
434.066	79.69
434.287	90.69
434.509	95.69
434.731	103.69
434.953	96.69
435.175	85.69
435.397	89.69
435.618	99.69
435.84	115.69
436.062	131.69
436.284	130.69
436.505	108.69
436.727	99.69
436.949	101.69
437.17	100.69
437.392	84.69
437.614	103.69
437.835	114.69
438.057	148.69
438.278	127.69
438.5	130.69
438.721	134.69
438.943	104.69
439.165	86.69
439.386	88.69
439.608	110.69
439.829	110.69
440.05	144.69
440.272	186.69
440.493	110.69
440.715	101.69
440.936	109.69
441.158	90.69
441.379	88.69
441.6	102.69
441.822	98.69
442.043	85.69
442.264	116.69
442.486	124.69
442.707	99.69
442.928	117.69
443.149	156.69
443.371	157.69
443.592	140.69
443.813	134.69
444.034	123.69
444.255	95.69
444.476	97.69
444.698	79.69
444.919	92.69
445.14	147.69
445.361	148.69
445.582	132.69
445.803	178.69
446.024	175.69
446.245	158.69
446.466	143.69
446.687	100.69
446.908	84.69
447.129	103.69
447.35	91.69
447.571	95.69
447.792	93.69
448.013	99.69
448.234	118.69
448.455	102.69
448.675	118.69
448.896	143.69
449.117	100.69
449.338	86.69
449.559	133.69
449.779	155.69
450	90.69
450.221	83.69
450.442	87.69
450.662	99.69
450.883	126.69
451.104	156.69
451.324	89.69
451.545	86.69
451.766	90.69
451.986	88.69
452.207	85.69
452.428	102.69
452.648	108.69
452.869	118.69
453.089	134.69
453.31	142.69
453.53	108.69
453.751	103.69
453.971	107.69
454.192	131.69
454.412	115.69
454.633	91.69
454.853	94.69
455.073	95.69
455.294	93.69
455.514	102.69
455.734	89.69
455.955	96.69
456.175	88.69
456.395	80.69
456.616	96.69
456.836	90.69
457.056	91.69
457.276	87.69
457.497	107.69
457.717	81.69
457.937	89.69
458.157	91.69
458.377	105.69
458.598	120.69
458.818	198.69
459.038	211.69
459.258	144.69
459.478	93.69
459.698	99.69
459.918	66.69
460.138	101.69
460.358	90.69
460.578	103.69
460.798	89.69
461.018	105.69
461.238	91.69
461.458	93.69
461.678	86.69
461.898	102.69
462.118	87.69
462.338	74.69
462.558	95.69
462.777	89.69
462.997	104.69
463.217	100.69
463.437	89.69
463.657	92.69
463.876	93.69
464.096	80.69
464.316	95.69
464.536	94.69
464.755	101.69
464.975	125.69
465.195	215.69
465.414	222.69
465.634	115.69
465.854	96.69
466.073	94.69
466.293	87.69
466.512	95.69
466.732	92.69
466.951	97.69
467.171	105.69
467.391	101.69
467.61	147.69
467.829	194.69
468.049	494.69
468.268	717.69
468.488	212.69
468.707	102.69
468.927	89.69
469.146	94.69
469.365	91.69
469.585	95.69
469.804	98.69
470.023	116.69
470.243	111.69
470.462	124.69
470.681	124.69
470.901	104.69
471.12	110.69
471.339	98.69
471.558	117.69
471.777	146.69
471.997	274.69
472.216	939.69
472.435	2094.69
472.654	516.69
472.873	151.69
473.092	100.69
473.311	105.69
473.53	96.69
473.749	98.69
473.968	102.69
474.187	111.69
474.406	114.69
474.625	103.69
474.844	88.69
475.063	94.69
475.282	105.69
475.501	100.69
475.72	89.69
475.939	95.69
476.158	100.69
476.377	87.69
476.596	94.69
476.814	109.69
477.033	109.69
477.252	100.69
477.471	95.69
477.69	97.69
477.908	96.69
478.127	78.69
478.346	102.69
478.564	92.69
478.783	112.69
479.002	102.69
479.22	113.69
479.439	139.69
479.658	122.69
479.876	130.69
480.095	125.69
480.313	132.69
480.532	156.69
480.751	262.69
480.969	887.69
481.188	3643.69
481.406	2057.69
481.624	342.69
481.843	132.69
482.061	102.69
482.28	89.69
482.498	98.69
482.717	100.69
482.935	94.69
483.153	98.69
483.372	102.69
483.59	103.69
483.808	107.69
484.027	96.69
484.245	101.69
484.463	84.69
484.681	103.69
484.9	91.69
485.118	93.69
485.336	94.69
485.554	111.69
485.772	105.69
485.99	95.69
486.209	94.69
486.427	112.69
486.645	109.69
486.863	133.69
487.081	111.69
487.299	101.69
487.517	91.69
487.735	88.69
487.953	99.69
488.171	102.69
488.389	93.69
488.607	101.69
488.825	94.69
489.043	99.69
489.261	86.69
489.479	91.69
489.696	86.69
489.914	88.69
490.132	78.69
490.35	88.69
490.568	84.69
490.786	105.69
491.003	100.69
491.221	99.69
491.439	98.69
491.657	96.69
491.874	89.69
492.092	101.69
492.31	96.69
492.527	101.69
492.745	97.69
492.963	94.69
493.18	101.69
493.398	106.69
493.615	101.69
493.833	98.69
494.05	96.69
494.268	97.69
494.485	114.69
494.703	98.69
494.92	101.69
495.138	97.69
495.355	99.69
495.573	87.69
495.79	93.69
496.008	93.69
496.225	95.69
496.442	97.69
496.66	93.69
496.877	87.69
497.094	103.69
497.312	87.69
497.529	79.69
497.746	97.69
497.963	92.69
498.181	94.69
498.398	91.69
498.615	112.69
498.832	103.69
499.049	88.69
499.267	91.69
499.484	82.69
499.701	95.69
499.918	86.69
500.135	90.69
500.352	110.69
500.569	107.69
500.786	79.69
501.003	83.69
501.22	101.69
501.437	95.69
501.654	106.69
501.871	130.69
502.088	98.69
502.305	101.69
502.522	100.69
502.739	87.69
502.956	100.69
503.172	90.69
503.389	103.69
503.606	123.69
503.823	111.69
504.04	108.69
504.256	103.69
504.473	87.69
504.69	104.69
504.907	88.69
505.123	91.69
505.34	100.69
505.557	95.69
505.773	102.69
505.99	94.69
506.207	96.69
506.423	103.69
506.64	97.69
506.856	99.69
507.073	86.69
507.289	96.69
507.506	91.69
507.722	127.69
507.939	132.69
508.155	101.69
508.372	99.69
508.588	106.69
508.805	106.69
509.021	101.69
509.238	103.69
509.454	107.69
509.67	99.69
509.887	120.69
510.103	134.69
510.319	241.69
510.536	889.69
510.752	2903.69
510.968	798.69
511.184	174.69
511.401	126.69
511.617	103.69
511.833	108.69
512.049	107.69
512.265	97.69
