Data from Circ_2001_H10_HRD10591_00042.txt Node
Date: Wed Jan 03 10:45:47 EST 2024
User: Yrep
Spectrometer: HR+D1059
Trigger mode: 1
Integration Time (sec): 1.000000E-1
Scans to average: 1
Electric dark correction enabled: true
Nonlinearity correction enabled: false
Boxcar width: 0
XAxis mode: Wavelengths
Number of Pixels in Spectrum: 2048
>>>>>Begin Spectral Data<<<<<
223.165	-15.38
223.4	-15.38
223.635	-15.38
223.869	-20.38
224.104	-15.38
224.338	-18.38
224.573	-7.38
224.808	-1.38
225.042	-2.38
225.277	-12.38
225.511	-8.38
225.746	10.62
225.98	5.62
226.215	6.62
226.449	10.62
226.683	13.62
226.918	20.62
227.152	33.62
227.387	29.62
227.621	37.62
227.856	37.62
228.09	39.62
228.324	55.62
228.559	53.62
228.793	54.62
229.027	68.62
229.262	56.62
229.496	84.62
229.73	104.62
229.964	92.62
230.199	72.62
230.433	79.62
230.667	79.62
230.901	73.62
231.136	80.62
231.37	78.62
231.604	97.62
231.838	76.62
232.072	81.62
232.306	93.62
232.541	88.62
232.775	81.62
233.009	81.62
233.243	94.62
233.477	85.62
233.711	76.62
233.945	88.62
234.179	76.62
234.413	93.62
234.647	91.62
234.881	86.62
235.115	78.62
235.349	84.62
235.583	77.62
235.817	86.62
236.051	72.62
236.285	70.62
236.519	75.62
236.753	73.62
236.987	80.62
237.221	80.62
237.455	101.62
237.689	92.62
237.922	67.62
238.156	75.62
238.39	68.62
238.624	74.62
238.858	71.62
239.091	77.62
239.325	81.62
239.559	82.62
239.793	95.62
240.027	61.62
240.26	92.62
240.494	78.62
240.728	77.62
240.961	81.62
241.195	87.62
241.429	94.62
241.662	79.62
241.896	67.62
242.13	78.62
242.363	82.62
242.597	89.62
242.83	85.62
243.064	69.62
243.298	85.62
243.531	81.62
243.765	82.62
243.998	83.62
244.232	83.62
244.465	91.62
244.699	81.62
244.932	95.62
245.166	72.62
245.399	72.62
245.633	67.62
245.866	102.62
246.099	79.62
246.333	80.62
246.566	90.62
246.8	86.62
247.033	86.62
247.266	92.62
247.5	74.62
247.733	67.62
247.966	69.62
248.2	81.62
248.433	84.62
248.666	72.62
248.899	98.62
249.133	89.62
249.366	96.62
249.599	113.62
249.832	84.62
250.066	78.62
250.299	83.62
250.532	80.62
250.765	81.62
250.998	83.62
251.231	87.62
251.465	79.62
251.698	86.62
251.931	84.62
252.164	97.62
252.397	97.62
252.63	86.62
252.863	80.62
253.096	87.62
253.329	76.62
253.562	80.62
253.795	94.62
254.028	84.62
254.261	74.62
254.494	87.62
254.727	90.62
254.96	81.62
255.193	94.62
255.426	98.62
255.659	98.62
255.892	92.62
256.124	90.62
256.357	92.62
256.59	97.62
256.823	74.62
257.056	83.62
257.289	80.62
257.521	79.62
257.754	87.62
257.987	71.62
258.22	83.62
258.452	72.62
258.685	84.62
258.918	89.62
259.151	79.62
259.383	99.62
259.616	92.62
259.849	79.62
260.081	87.62
260.314	71.62
260.547	88.62
260.779	89.62
261.012	85.62
261.244	95.62
261.477	93.62
261.71	105.62
261.942	144.62
262.175	128.62
262.407	88.62
262.64	73.62
262.872	82.62
263.105	95.62
263.337	88.62
263.57	84.62
263.802	86.62
264.035	79.62
264.267	86.62
264.499	85.62
264.732	85.62
264.964	80.62
265.197	89.62
265.429	81.62
265.661	81.62
265.894	92.62
266.126	93.62
266.358	89.62
266.591	80.62
266.823	84.62
267.055	79.62
267.287	97.62
267.52	95.62
267.752	92.62
267.984	81.62
268.216	84.62
268.448	92.62
268.681	93.62
268.913	86.62
269.145	87.62
269.377	96.62
269.609	88.62
269.841	80.62
270.073	93.62
270.306	88.62
270.538	88.62
270.77	88.62
271.002	84.62
271.234	90.62
271.466	96.62
271.698	85.62
271.93	76.62
272.162	91.62
272.394	97.62
272.626	82.62
272.858	87.62
273.09	80.62
273.322	93.62
273.553	78.62
273.785	88.62
274.017	93.62
274.249	82.62
274.481	92.62
274.713	97.62
274.945	89.62
275.176	87.62
275.408	92.62
275.64	112.62
275.872	101.62
276.104	101.62
276.335	81.62
276.567	114.62
276.799	146.62
277.031	166.62
277.262	172.62
277.494	131.62
277.726	101.62
277.957	89.62
278.189	93.62
278.421	91.62
278.652	105.62
278.884	94.62
279.115	85.62
279.347	84.62
279.579	89.62
279.81	117.62
280.042	170.62
280.273	213.62
280.505	164.62
280.736	108.62
280.968	91.62
281.199	78.62
281.431	97.62
281.662	113.62
281.894	100.62
282.125	110.62
282.356	144.62
282.588	162.62
282.819	130.62
283.051	105.62
283.282	90.62
283.513	96.62
283.745	102.62
283.976	74.62
284.207	88.62
284.439	90.62
284.67	94.62
284.901	83.62
285.132	91.62
285.364	90.62
285.595	99.62
285.826	90.62
286.057	92.62
286.288	94.62
286.52	94.62
286.751	75.62
286.982	93.62
287.213	110.62
287.444	99.62
287.675	93.62
287.906	106.62
288.138	83.62
288.369	92.62
288.6	79.62
288.831	88.62
289.062	90.62
289.293	86.62
289.524	96.62
289.755	86.62
289.986	91.62
290.217	93.62
290.448	82.62
290.679	91.62
290.91	85.62
291.141	77.62
291.371	98.62
291.602	97.62
291.833	92.62
292.064	100.62
292.295	80.62
292.526	83.62
292.757	84.62
292.987	91.62
293.218	87.62
293.449	86.62
293.68	94.62
293.91	83.62
294.141	92.62
294.372	109.62
294.603	96.62
294.833	88.62
295.064	88.62
295.295	94.62
295.525	93.62
295.756	103.62
295.987	108.62
296.217	152.62
296.448	150.62
296.679	97.62
296.909	111.62
297.14	88.62
297.37	92.62
297.601	85.62
297.831	100.62
298.062	96.62
298.292	96.62
298.523	94.62
298.753	93.62
298.984	93.62
299.214	93.62
299.445	90.62
299.675	90.62
299.905	96.62
300.136	82.62
300.366	82.62
300.597	86.62
300.827	94.62
301.057	96.62
301.288	130.62
301.518	100.62
301.748	93.62
301.979	114.62
302.209	89.62
302.439	92.62
302.669	82.62
302.9	99.62
303.13	95.62
303.36	110.62
303.59	134.62
303.82	133.62
304.051	105.62
304.281	92.62
304.511	100.62
304.741	95.62
304.971	94.62
305.201	79.62
305.431	104.62
305.661	105.62
305.891	90.62
306.121	100.62
306.352	116.62
306.582	118.62
306.812	112.62
307.042	117.62
307.272	126.62
307.502	150.62
307.731	157.62
307.961	130.62
308.191	103.62
308.421	93.62
308.651	98.62
308.881	91.62
309.111	92.62
309.341	90.62
309.571	92.62
309.8	101.62
310.03	104.62
310.26	103.62
310.49	110.62
310.72	105.62
310.949	113.62
311.179	110.62
311.409	102.62
311.639	92.62
311.868	112.62
312.098	88.62
312.328	96.62
312.557	113.62
312.787	122.62
313.017	118.62
313.246	105.62
313.476	86.62
313.706	101.62
313.935	100.62
314.165	100.62
314.394	107.62
314.624	107.62
314.853	109.62
315.083	100.62
315.312	96.62
315.542	98.62
315.771	91.62
316.001	102.62
316.23	87.62
316.46	82.62
316.689	99.62
316.919	103.62
317.148	97.62
317.377	112.62
317.607	106.62
317.836	100.62
318.065	93.62
318.295	96.62
318.524	102.62
318.753	90.62
318.983	94.62
319.212	121.62
319.441	118.62
319.67	116.62
319.9	101.62
320.129	89.62
320.358	100.62
320.587	90.62
320.816	107.62
321.046	124.62
321.275	89.62
321.504	99.62
321.733	100.62
321.962	97.62
322.191	108.62
322.42	116.62
322.649	125.62
322.878	132.62
323.108	131.62
323.337	149.62
323.566	156.62
323.795	190.62
324.024	237.62
324.253	490.62
324.482	1044.62
324.71	2125.62
324.939	2744.62
325.168	985.62
325.397	298.62
325.626	172.62
325.855	142.62
326.084	126.62
326.313	144.62
326.542	174.62
326.77	266.62
326.999	542.62
327.228	1141.62
327.457	1996.62
327.686	1634.62
327.914	531.62
328.143	456.62
328.372	484.62
328.6	295.62
328.829	186.62
329.058	173.62
329.287	178.62
329.515	172.62
329.744	226.62
329.972	388.62
330.201	756.62
330.43	1037.62
330.658	497.62
330.887	247.62
331.115	156.62
331.344	134.62
331.572	124.62
331.801	130.62
332.03	116.62
332.258	110.62
332.486	105.62
332.715	116.62
332.943	106.62
333.172	124.62
333.4	138.62
333.629	148.62
333.857	207.62
334.085	353.62
334.314	723.62
334.542	1296.62
334.771	1160.62
334.999	346.62
335.227	148.62
335.455	137.62
335.684	114.62
335.912	101.62
336.14	110.62
336.369	118.62
336.597	123.62
336.825	113.62
337.053	109.62
337.281	109.62
337.51	87.62
337.738	90.62
337.966	105.62
338.194	110.62
338.422	113.62
338.65	103.62
338.878	97.62
339.106	104.62
339.334	95.62
339.562	99.62
339.79	108.62
340.018	101.62
340.246	105.62
340.474	96.62
340.702	104.62
340.93	101.62
341.158	101.62
341.386	101.62
341.614	97.62
341.842	85.62
342.07	83.62
342.298	88.62
342.526	94.62
342.754	84.62
342.981	93.62
343.209	89.62
343.437	82.62
343.665	99.62
343.893	94.62
344.12	102.62
344.348	87.62
344.576	93.62
344.804	92.62
345.031	108.62
345.259	107.62
345.487	103.62
345.714	104.62
345.942	94.62
346.17	105.62
346.397	96.62
346.625	95.62
346.853	90.62
347.08	107.62
347.308	105.62
347.535	112.62
347.763	112.62
347.99	109.62
348.218	117.62
348.445	116.62
348.673	108.62
348.9	91.62
349.128	95.62
349.355	92.62
349.583	93.62
349.81	93.62
350.037	81.62
350.265	106.62
350.492	88.62
350.72	106.62
350.947	121.62
351.174	120.62
351.402	112.62
351.629	104.62
351.856	119.62
352.083	94.62
352.311	108.62
352.538	115.62
352.765	108.62
352.992	123.62
353.22	128.62
353.447	109.62
353.674	90.62
353.901	96.62
354.128	84.62
354.355	98.62
354.583	86.62
354.81	98.62
355.037	104.62
355.264	106.62
355.491	100.62
355.718	92.62
355.945	87.62
356.172	91.62
356.399	91.62
356.626	97.62
356.853	92.62
357.08	100.62
357.307	98.62
357.534	102.62
357.761	96.62
357.988	100.62
358.215	95.62
358.441	89.62
358.668	109.62
358.895	91.62
359.122	99.62
359.349	95.62
359.576	107.62
359.802	123.62
360.029	154.62
360.256	133.62
360.483	116.62
360.709	95.62
360.936	108.62
361.163	94.62
361.39	96.62
361.616	96.62
361.843	88.62
362.07	105.62
362.296	100.62
362.523	113.62
362.749	103.62
362.976	102.62
363.203	93.62
363.429	97.62
363.656	89.62
363.882	88.62
364.109	92.62
364.335	93.62
364.562	87.62
364.788	94.62
365.015	111.62
365.241	114.62
365.468	118.62
365.694	122.62
365.92	108.62
366.147	112.62
366.373	83.62
366.599	97.62
366.826	98.62
367.052	86.62
367.278	89.62
367.505	108.62
367.731	103.62
367.957	74.62
368.184	94.62
368.41	97.62
368.636	125.62
368.862	143.62
369.089	125.62
369.315	100.62
369.541	97.62
369.767	97.62
369.993	90.62
370.219	97.62
370.445	98.62
370.672	88.62
370.898	88.62
371.124	93.62
371.35	91.62
371.576	84.62
371.802	92.62
372.028	88.62
372.254	99.62
372.48	92.62
372.706	95.62
372.932	91.62
373.158	89.62
373.384	85.62
373.61	92.62
373.835	86.62
374.061	96.62
374.287	96.62
374.513	104.62
374.739	86.62
374.965	82.62
375.191	99.62
375.416	89.62
375.642	86.62
375.868	90.62
376.094	106.62
376.319	109.62
376.545	89.62
376.771	96.62
376.997	85.62
377.222	100.62
377.448	99.62
377.674	83.62
377.899	103.62
378.125	95.62
378.35	95.62
378.576	88.62
378.802	97.62
379.027	85.62
379.253	95.62
379.478	88.62
379.704	82.62
379.929	90.62
380.155	103.62
380.38	92.62
380.606	96.62
380.831	105.62
381.057	99.62
381.282	99.62
381.507	113.62
381.733	101.62
381.958	108.62
382.184	97.62
382.409	104.62
382.634	107.62
382.86	121.62
383.085	94.62
383.31	100.62
383.535	102.62
383.761	101.62
383.986	113.62
384.211	98.62
384.436	92.62
384.662	94.62
384.887	95.62
385.112	109.62
385.337	102.62
385.562	97.62
385.787	110.62
386.013	113.62
386.238	121.62
386.463	109.62
386.688	108.62
386.913	99.62
387.138	105.62
387.363	100.62
387.588	104.62
387.813	85.62
388.038	93.62
388.263	122.62
388.488	103.62
388.713	90.62
388.938	99.62
389.163	86.62
389.387	84.62
389.612	95.62
389.837	87.62
390.062	88.62
390.287	91.62
390.512	97.62
390.736	86.62
390.961	77.62
391.186	101.62
391.411	113.62
391.636	83.62
391.86	84.62
392.085	94.62
392.31	92.62
392.534	97.62
392.759	98.62
392.984	83.62
393.208	109.62
393.433	97.62
393.658	94.62
393.882	95.62
394.107	85.62
394.331	96.62
394.556	102.62
394.78	95.62
395.005	81.62
395.229	92.62
395.454	80.62
395.678	77.62
395.903	85.62
396.127	97.62
396.352	85.62
396.576	98.62
396.801	87.62
397.025	87.62
397.249	84.62
397.474	94.62
397.698	88.62
397.922	80.62
398.147	89.62
398.371	93.62
398.595	87.62
398.82	106.62
399.044	84.62
399.268	87.62
399.492	88.62
399.717	93.62
399.941	91.62
400.165	107.62
400.389	93.62
400.613	94.62
400.837	93.62
401.062	104.62
401.286	94.62
401.51	104.62
401.734	91.62
401.958	109.62
402.182	145.62
402.406	208.62
402.63	151.62
402.854	101.62
403.078	77.62
403.302	95.62
403.526	105.62
403.75	85.62
403.974	92.62
404.198	88.62
404.422	93.62
404.645	96.62
404.869	107.62
405.093	106.62
405.317	120.62
405.541	133.62
405.765	108.62
405.988	140.62
406.212	221.62
406.436	302.62
406.66	189.62
406.883	112.62
407.107	88.62
407.331	112.62
407.555	114.62
407.778	98.62
408.002	95.62
408.226	107.62
408.449	98.62
408.673	98.62
408.896	88.62
409.12	90.62
409.344	116.62
409.567	94.62
409.791	97.62
410.014	102.62
410.238	87.62
410.461	94.62
410.685	105.62
410.908	116.62
411.132	112.62
411.355	100.62
411.578	103.62
411.802	90.62
412.025	88.62
412.249	91.62
412.472	108.62
412.695	120.62
412.919	96.62
413.142	85.62
413.365	84.62
413.589	84.62
413.812	94.62
414.035	99.62
414.258	94.62
414.482	82.62
414.705	95.62
414.928	94.62
415.151	99.62
415.374	80.62
415.597	97.62
415.821	89.62
416.044	85.62
416.267	89.62
416.49	104.62
416.713	82.62
416.936	90.62
417.159	96.62
417.382	89.62
417.605	100.62
417.828	102.62
418.051	105.62
418.274	90.62
418.497	74.62
418.72	91.62
418.943	88.62
419.166	83.62
419.389	77.62
419.611	89.62
419.834	88.62
420.057	91.62
420.28	88.62
420.503	88.62
420.726	92.62
420.948	89.62
421.171	103.62
421.394	114.62
421.617	91.62
421.839	82.62
422.062	92.62
422.285	83.62
422.507	113.62
422.73	81.62
422.953	102.62
423.175	98.62
423.398	96.62
423.621	93.62
423.843	86.62
424.066	81.62
424.288	83.62
424.511	92.62
424.733	96.62
424.956	105.62
425.178	113.62
425.401	115.62
425.623	114.62
425.846	99.62
426.068	91.62
426.291	95.62
426.513	89.62
426.735	103.62
426.958	100.62
427.18	107.62
427.402	169.62
427.625	251.62
427.847	212.62
428.069	184.62
428.292	110.62
428.514	86.62
428.736	92.62
428.958	83.62
429.181	96.62
429.403	93.62
429.625	102.62
429.847	87.62
430.069	110.62
430.292	74.62
430.514	90.62
430.736	101.62
430.958	91.62
431.18	88.62
431.402	84.62
431.624	89.62
431.846	97.62
432.068	88.62
432.29	80.62
432.512	91.62
432.734	77.62
432.956	93.62
433.178	117.62
433.4	100.62
433.622	82.62
433.844	99.62
434.066	99.62
434.287	98.62
434.509	72.62
434.731	91.62
434.953	83.62
435.175	103.62
435.397	98.62
435.618	99.62
435.84	121.62
436.062	128.62
436.284	135.62
436.505	113.62
436.727	104.62
436.949	93.62
437.17	77.62
437.392	92.62
437.614	121.62
437.835	125.62
438.057	150.62
438.278	116.62
438.5	93.62
438.721	132.62
438.943	103.62
439.165	84.62
439.386	96.62
439.608	93.62
439.829	102.62
440.05	140.62
440.272	169.62
440.493	117.62
440.715	95.62
440.936	92.62
441.158	88.62
441.379	85.62
441.6	113.62
441.822	102.62
442.043	111.62
442.264	110.62
442.486	121.62
442.707	98.62
442.928	128.62
443.149	168.62
443.371	161.62
443.592	137.62
443.813	121.62
444.034	104.62
444.255	91.62
444.476	96.62
444.698	92.62
444.919	91.62
445.14	132.62
445.361	141.62
445.582	131.62
445.803	159.62
446.024	165.62
446.245	152.62
446.466	124.62
446.687	103.62
446.908	87.62
447.129	104.62
447.35	92.62
447.571	97.62
447.792	107.62
448.013	108.62
448.234	120.62
448.455	117.62
448.675	118.62
448.896	131.62
449.117	97.62
449.338	107.62
449.559	124.62
449.779	140.62
450	79.62
450.221	92.62
450.442	96.62
450.662	118.62
450.883	129.62
451.104	123.62
451.324	105.62
451.545	82.62
451.766	97.62
451.986	107.62
452.207	102.62
452.428	102.62
452.648	102.62
452.869	130.62
453.089	136.62
453.31	156.62
453.53	109.62
453.751	114.62
453.971	113.62
454.192	126.62
454.412	102.62
454.633	83.62
454.853	86.62
455.073	85.62
455.294	79.62
455.514	99.62
455.734	93.62
455.955	94.62
456.175	92.62
456.395	89.62
456.616	86.62
456.836	86.62
457.056	75.62
457.276	78.62
457.497	82.62
457.717	80.62
457.937	85.62
458.157	91.62
458.377	96.62
458.598	123.62
458.818	187.62
459.038	213.62
459.258	125.62
459.478	113.62
459.698	89.62
459.918	92.62
460.138	95.62
460.358	87.62
460.578	87.62
460.798	97.62
461.018	105.62
461.238	98.62
461.458	92.62
461.678	82.62
461.898	85.62
462.118	89.62
462.338	90.62
462.558	76.62
462.777	79.62
462.997	92.62
463.217	103.62
463.437	99.62
463.657	85.62
463.876	96.62
464.096	86.62
464.316	102.62
464.536	92.62
464.755	106.62
464.975	130.62
465.195	226.62
465.414	225.62
465.634	117.62
465.854	85.62
466.073	90.62
466.293	98.62
466.512	89.62
466.732	91.62
466.951	101.62
467.171	82.62
467.391	113.62
467.61	135.62
467.829	174.62
468.049	446.62
468.268	639.62
468.488	188.62
468.707	90.62
468.927	96.62
469.146	86.62
469.365	92.62
469.585	87.62
469.804	108.62
470.023	116.62
470.243	105.62
470.462	101.62
470.681	129.62
470.901	80.62
471.12	89.62
471.339	103.62
471.558	120.62
471.777	129.62
471.997	248.62
472.216	849.62
472.435	1866.62
472.654	457.62
472.873	153.62
473.092	107.62
473.311	94.62
473.53	88.62
473.749	94.62
473.968	111.62
474.187	120.62
474.406	113.62
474.625	91.62
474.844	87.62
475.063	97.62
475.282	100.62
475.501	93.62
475.72	88.62
475.939	98.62
476.158	85.62
476.377	93.62
476.596	105.62
476.814	94.62
477.033	113.62
477.252	98.62
477.471	87.62
477.69	110.62
477.908	100.62
478.127	93.62
478.346	93.62
478.564	102.62
478.783	112.62
479.002	95.62
479.22	101.62
479.439	112.62
479.658	126.62
479.876	120.62
480.095	109.62
480.313	124.62
480.532	152.62
480.751	257.62
480.969	780.62
481.188	3213.62
481.406	1803.62
481.624	279.62
481.843	146.62
482.061	97.62
482.28	106.62
482.498	86.62
482.717	101.62
482.935	94.62
483.153	92.62
483.372	92.62
483.59	100.62
483.808	94.62
484.027	100.62
484.245	97.62
484.463	87.62
484.681	86.62
484.9	108.62
485.118	97.62
485.336	104.62
485.554	105.62
485.772	107.62
485.99	92.62
486.209	112.62
486.427	116.62
486.645	125.62
486.863	130.62
487.081	110.62
487.299	109.62
487.517	96.62
487.735	105.62
487.953	96.62
488.171	101.62
488.389	115.62
488.607	97.62
488.825	96.62
489.043	109.62
489.261	87.62
489.479	89.62
489.696	101.62
489.914	80.62
490.132	100.62
490.35	89.62
490.568	88.62
490.786	80.62
491.003	85.62
491.221	92.62
491.439	96.62
491.657	97.62
491.874	92.62
492.092	100.62
492.31	93.62
492.527	90.62
492.745	86.62
492.963	103.62
493.18	92.62
493.398	96.62
493.615	102.62
493.833	92.62
494.05	93.62
494.268	94.62
494.485	93.62
494.703	87.62
494.92	102.62
495.138	90.62
495.355	101.62
495.573	98.62
495.79	92.62
496.008	96.62
496.225	92.62
496.442	101.62
496.66	88.62
496.877	90.62
497.094	93.62
497.312	87.62
497.529	86.62
497.746	89.62
497.963	92.62
498.181	98.62
498.398	106.62
498.615	117.62
498.832	106.62
499.049	111.62
499.267	96.62
499.484	91.62
499.701	81.62
499.918	103.62
500.135	78.62
500.352	99.62
500.569	86.62
500.786	101.62
501.003	89.62
501.22	77.62
501.437	93.62
501.654	93.62
501.871	118.62
502.088	108.62
502.305	106.62
502.522	97.62
502.739	90.62
502.956	104.62
503.172	99.62
503.389	101.62
503.606	113.62
503.823	107.62
504.04	93.62
504.256	93.62
504.473	86.62
504.69	84.62
504.907	103.62
505.123	91.62
505.34	70.62
505.557	94.62
505.773	100.62
505.99	97.62
506.207	88.62
506.423	80.62
506.64	83.62
506.856	82.62
507.073	93.62
507.289	91.62
507.506	98.62
507.722	136.62
507.939	117.62
508.155	105.62
508.372	104.62
508.588	81.62
508.805	102.62
509.021	90.62
509.238	111.62
509.454	96.62
509.67	103.62
509.887	120.62
510.103	140.62
510.319	246.62
510.536	941.62
510.752	3138.62
510.968	842.62
511.184	194.62
511.401	124.62
511.617	111.62
511.833	112.62
512.049	94.62
512.265	105.62
512.481	89.62
512.698	91.62
512.914	98.62
