Data from Circ_2001_H10_HRD10591_00071.txt Node
Date: Wed Jan 03 10:45:53 EST 2024
User: Yrep
Spectrometer: HR+D1059
Trigger mode: 1
Integration Time (sec): 1.000000E-1
Scans to average: 1
Electric dark correction enabled: true
Nonlinearity correction enabled: false
Boxcar width: 0
XAxis mode: Wavelengths
Number of Pixels in Spectrum: 2048
>>>>>Begin Spectral Data<<<<<
223.165	-13.44
223.4	-13.44
223.635	-13.44
223.869	-26.44
224.104	-6.44
224.338	-13.44
224.573	-24.44
224.808	-8.44
225.042	-13.44
225.277	-5.44
225.511	-6.44
225.746	-3.44
225.98	-2.44
226.215	12.56
226.449	16.56
226.683	26.56
226.918	32.56
227.152	35.56
227.387	28.56
227.621	45.56
227.856	46.56
228.09	48.56
228.324	53.56
228.559	45.56
228.793	50.56
229.027	56.56
229.262	73.56
229.496	65.56
229.73	73.56
229.964	79.56
230.199	100.56
230.433	68.56
230.667	69.56
230.901	74.56
231.136	85.56
231.37	78.56
231.604	77.56
231.838	75.56
232.072	76.56
232.306	71.56
232.541	80.56
232.775	80.56
233.009	86.56
233.243	72.56
233.477	91.56
233.711	81.56
233.945	77.56
234.179	84.56
234.413	85.56
234.647	87.56
234.881	76.56
235.115	77.56
235.349	84.56
235.583	73.56
235.817	68.56
236.051	75.56
236.285	76.56
236.519	76.56
236.753	73.56
236.987	96.56
237.221	82.56
237.455	82.56
237.689	70.56
237.922	85.56
238.156	87.56
238.39	72.56
238.624	77.56
238.858	92.56
239.091	90.56
239.325	69.56
239.559	83.56
239.793	81.56
240.027	70.56
240.26	80.56
240.494	87.56
240.728	79.56
240.961	60.56
241.195	73.56
241.429	82.56
241.662	72.56
241.896	68.56
242.13	89.56
242.363	67.56
242.597	78.56
242.83	71.56
243.064	76.56
243.298	76.56
243.531	77.56
243.765	85.56
243.998	75.56
244.232	71.56
244.465	90.56
244.699	79.56
244.932	81.56
245.166	71.56
245.399	73.56
245.633	79.56
245.866	82.56
246.099	75.56
246.333	84.56
246.566	82.56
246.8	77.56
247.033	73.56
247.266	81.56
247.5	74.56
247.733	93.56
247.966	80.56
248.2	74.56
248.433	80.56
248.666	86.56
248.899	69.56
249.133	78.56
249.366	99.56
249.599	95.56
249.832	90.56
250.066	84.56
250.299	85.56
250.532	76.56
250.765	90.56
250.998	73.56
251.231	63.56
251.465	94.56
251.698	94.56
251.931	92.56
252.164	88.56
252.397	84.56
252.63	70.56
252.863	82.56
253.096	72.56
253.329	77.56
253.562	80.56
253.795	79.56
254.028	84.56
254.261	92.56
254.494	89.56
254.727	90.56
254.96	82.56
255.193	74.56
255.426	81.56
255.659	79.56
255.892	76.56
256.124	76.56
256.357	85.56
256.59	79.56
256.823	69.56
257.056	63.56
257.289	77.56
257.521	72.56
257.754	68.56
257.987	85.56
258.22	81.56
258.452	93.56
258.685	85.56
258.918	86.56
259.151	85.56
259.383	88.56
259.616	80.56
259.849	84.56
260.081	74.56
260.314	84.56
260.547	78.56
260.779	83.56
261.012	83.56
261.244	95.56
261.477	84.56
261.71	84.56
261.942	107.56
262.175	105.56
262.407	81.56
262.64	75.56
262.872	69.56
263.105	88.56
263.337	76.56
263.57	92.56
263.802	83.56
264.035	84.56
264.267	81.56
264.499	75.56
264.732	92.56
264.964	81.56
265.197	88.56
265.429	98.56
265.661	88.56
265.894	88.56
266.126	82.56
266.358	74.56
266.591	70.56
266.823	93.56
267.055	79.56
267.287	82.56
267.52	78.56
267.752	91.56
267.984	85.56
268.216	70.56
268.448	83.56
268.681	90.56
268.913	82.56
269.145	73.56
269.377	101.56
269.609	86.56
269.841	80.56
270.073	85.56
270.306	90.56
270.538	85.56
270.77	81.56
271.002	82.56
271.234	69.56
271.466	78.56
271.698	87.56
271.93	71.56
272.162	81.56
272.394	84.56
272.626	92.56
272.858	82.56
273.09	77.56
273.322	93.56
273.553	93.56
273.785	80.56
274.017	85.56
274.249	83.56
274.481	84.56
274.713	80.56
274.945	96.56
275.176	88.56
275.408	87.56
275.64	97.56
275.872	107.56
276.104	92.56
276.335	93.56
276.567	114.56
276.799	133.56
277.031	122.56
277.262	122.56
277.494	129.56
277.726	87.56
277.957	91.56
278.189	84.56
278.421	92.56
278.652	74.56
278.884	89.56
279.115	91.56
279.347	82.56
279.579	83.56
279.81	107.56
280.042	138.56
280.273	188.56
280.505	133.56
280.736	98.56
280.968	83.56
281.199	84.56
281.431	77.56
281.662	94.56
281.894	87.56
282.125	97.56
282.356	113.56
282.588	130.56
282.819	97.56
283.051	81.56
283.282	93.56
283.513	93.56
283.745	74.56
283.976	87.56
284.207	79.56
284.439	83.56
284.67	95.56
284.901	75.56
285.132	87.56
285.364	86.56
285.595	80.56
285.826	87.56
286.057	87.56
286.288	69.56
286.52	93.56
286.751	100.56
286.982	85.56
287.213	93.56
287.444	91.56
287.675	90.56
287.906	79.56
288.138	86.56
288.369	90.56
288.6	82.56
288.831	76.56
289.062	87.56
289.293	74.56
289.524	97.56
289.755	83.56
289.986	83.56
290.217	82.56
290.448	92.56
290.679	92.56
290.91	88.56
291.141	96.56
291.371	80.56
291.602	79.56
291.833	91.56
292.064	90.56
292.295	90.56
292.526	87.56
292.757	89.56
292.987	82.56
293.218	101.56
293.449	87.56
293.68	77.56
293.91	86.56
294.141	102.56
294.372	94.56
294.603	90.56
294.833	82.56
295.064	84.56
295.295	95.56
295.525	104.56
295.756	99.56
295.987	110.56
296.217	129.56
296.448	123.56
296.679	93.56
296.909	90.56
297.14	97.56
297.37	90.56
297.601	81.56
297.831	87.56
298.062	87.56
298.292	106.56
298.523	103.56
298.753	88.56
298.984	95.56
299.214	83.56
299.445	92.56
299.675	88.56
299.905	106.56
300.136	85.56
300.366	87.56
300.597	87.56
300.827	88.56
301.057	96.56
301.288	103.56
301.518	105.56
301.748	89.56
301.979	101.56
302.209	84.56
302.439	99.56
302.669	92.56
302.9	92.56
303.13	89.56
303.36	91.56
303.59	119.56
303.82	117.56
304.051	104.56
304.281	87.56
304.511	106.56
304.741	92.56
304.971	93.56
305.201	87.56
305.431	87.56
305.661	91.56
305.891	99.56
306.121	103.56
306.352	89.56
306.582	109.56
306.812	93.56
307.042	114.56
307.272	143.56
307.502	129.56
307.731	145.56
307.961	109.56
308.191	84.56
308.421	83.56
308.651	89.56
308.881	102.56
309.111	81.56
309.341	82.56
309.571	111.56
309.8	92.56
310.03	99.56
310.26	97.56
310.49	85.56
310.72	97.56
310.949	109.56
311.179	105.56
311.409	94.56
311.639	103.56
311.868	98.56
312.098	100.56
312.328	88.56
312.557	112.56
312.787	120.56
313.017	94.56
313.246	102.56
313.476	92.56
313.706	89.56
313.935	113.56
314.165	115.56
314.394	116.56
314.624	85.56
314.853	99.56
315.083	85.56
315.312	92.56
315.542	103.56
315.771	90.56
316.001	91.56
316.23	80.56
316.46	89.56
316.689	97.56
316.919	93.56
317.148	96.56
317.377	91.56
317.607	101.56
317.836	83.56
318.065	92.56
318.295	102.56
318.524	101.56
318.753	98.56
318.983	99.56
319.212	112.56
319.441	108.56
319.67	111.56
319.9	95.56
320.129	95.56
320.358	104.56
320.587	90.56
320.816	92.56
321.046	95.56
321.275	108.56
321.504	101.56
321.733	98.56
321.962	102.56
322.191	106.56
322.42	92.56
322.649	115.56
322.878	106.56
323.108	117.56
323.337	128.56
323.566	125.56
323.795	155.56
324.024	220.56
324.253	414.56
324.482	907.56
324.71	1833.56
324.939	2378.56
325.168	883.56
325.397	259.56
325.626	155.56
325.855	126.56
326.084	150.56
326.313	138.56
326.542	158.56
326.77	239.56
326.999	476.56
327.228	999.56
327.457	1823.56
327.686	1429.56
327.914	458.56
328.143	375.56
328.372	430.56
328.6	241.56
328.829	153.56
329.058	160.56
329.287	159.56
329.515	165.56
329.744	197.56
329.972	322.56
330.201	579.56
330.43	803.56
330.658	406.56
330.887	218.56
331.115	150.56
331.344	101.56
331.572	98.56
331.801	100.56
332.03	99.56
332.258	108.56
332.486	96.56
332.715	100.56
332.943	107.56
333.172	94.56
333.4	117.56
333.629	126.56
333.857	179.56
334.085	286.56
334.314	557.56
334.542	1054.56
334.771	969.56
334.999	300.56
335.227	150.56
335.455	131.56
335.684	114.56
335.912	103.56
336.14	90.56
336.369	104.56
336.597	95.56
336.825	100.56
337.053	101.56
337.281	76.56
337.51	91.56
337.738	102.56
337.966	83.56
338.194	106.56
338.422	100.56
338.65	99.56
338.878	104.56
339.106	107.56
339.334	96.56
339.562	97.56
339.79	97.56
340.018	96.56
340.246	93.56
340.474	103.56
340.702	101.56
340.93	91.56
341.158	100.56
341.386	91.56
341.614	96.56
341.842	107.56
342.07	97.56
342.298	87.56
342.526	90.56
342.754	93.56
342.981	94.56
343.209	88.56
343.437	90.56
343.665	99.56
343.893	87.56
344.12	97.56
344.348	100.56
344.576	93.56
344.804	95.56
345.031	103.56
345.259	106.56
345.487	89.56
345.714	102.56
345.942	101.56
346.17	104.56
346.397	94.56
346.625	89.56
346.853	77.56
347.08	84.56
347.308	95.56
347.535	105.56
347.763	107.56
347.99	92.56
348.218	87.56
348.445	108.56
348.673	104.56
348.9	91.56
349.128	78.56
349.355	96.56
349.583	91.56
349.81	93.56
350.037	80.56
350.265	103.56
350.492	108.56
350.72	91.56
350.947	94.56
351.174	99.56
351.402	111.56
351.629	91.56
351.856	118.56
352.083	103.56
352.311	112.56
352.538	104.56
352.765	97.56
352.992	109.56
353.22	107.56
353.447	97.56
353.674	101.56
353.901	109.56
354.128	92.56
354.355	97.56
354.583	91.56
354.81	85.56
355.037	82.56
355.264	90.56
355.491	89.56
355.718	94.56
355.945	89.56
356.172	106.56
356.399	90.56
356.626	95.56
356.853	89.56
357.08	90.56
357.307	86.56
357.534	80.56
357.761	86.56
357.988	96.56
358.215	107.56
358.441	89.56
358.668	91.56
358.895	83.56
359.122	87.56
359.349	82.56
359.576	98.56
359.802	116.56
360.029	116.56
360.256	106.56
360.483	100.56
360.709	103.56
360.936	97.56
361.163	103.56
361.39	93.56
361.616	98.56
361.843	84.56
362.07	87.56
362.296	107.56
362.523	92.56
362.749	92.56
362.976	89.56
363.203	83.56
363.429	80.56
363.656	86.56
363.882	84.56
364.109	85.56
364.335	95.56
364.562	81.56
364.788	85.56
365.015	111.56
365.241	109.56
365.468	105.56
365.694	101.56
365.92	96.56
366.147	84.56
366.373	88.56
366.599	98.56
366.826	83.56
367.052	105.56
367.278	92.56
367.505	83.56
367.731	107.56
367.957	101.56
368.184	90.56
368.41	104.56
368.636	131.56
368.862	102.56
369.089	96.56
369.315	83.56
369.541	83.56
369.767	102.56
369.993	109.56
370.219	97.56
370.445	81.56
370.672	96.56
370.898	89.56
371.124	80.56
371.35	89.56
371.576	88.56
371.802	97.56
372.028	85.56
372.254	84.56
372.48	93.56
372.706	93.56
372.932	93.56
373.158	91.56
373.384	89.56
373.61	92.56
373.835	68.56
374.061	93.56
374.287	85.56
374.513	89.56
374.739	88.56
374.965	84.56
375.191	83.56
375.416	90.56
375.642	80.56
375.868	96.56
376.094	74.56
376.319	75.56
376.545	86.56
376.771	91.56
376.997	85.56
377.222	85.56
377.448	83.56
377.674	97.56
377.899	99.56
378.125	90.56
378.35	84.56
378.576	86.56
378.802	88.56
379.027	104.56
379.253	90.56
379.478	83.56
379.704	95.56
379.929	75.56
380.155	82.56
380.38	84.56
380.606	94.56
380.831	85.56
381.057	100.56
381.282	90.56
381.507	88.56
381.733	86.56
381.958	100.56
382.184	97.56
382.409	92.56
382.634	102.56
382.86	93.56
383.085	104.56
383.31	104.56
383.535	97.56
383.761	102.56
383.986	108.56
384.211	101.56
384.436	97.56
384.662	98.56
384.887	102.56
385.112	91.56
385.337	91.56
385.562	98.56
385.787	95.56
386.013	108.56
386.238	104.56
386.463	102.56
386.688	110.56
386.913	94.56
387.138	96.56
387.363	100.56
387.588	93.56
387.813	97.56
388.038	106.56
388.263	107.56
388.488	95.56
388.713	91.56
388.938	88.56
389.163	109.56
389.387	110.56
389.612	99.56
389.837	91.56
390.062	96.56
390.287	97.56
390.512	99.56
390.736	80.56
390.961	98.56
391.186	79.56
391.411	90.56
391.636	90.56
391.86	86.56
392.085	83.56
392.31	74.56
392.534	96.56
392.759	90.56
392.984	93.56
393.208	114.56
393.433	96.56
393.658	87.56
393.882	85.56
394.107	80.56
394.331	83.56
394.556	80.56
394.78	86.56
395.005	94.56
395.229	81.56
395.454	97.56
395.678	69.56
395.903	106.56
396.127	83.56
396.352	73.56
396.576	72.56
396.801	93.56
397.025	66.56
397.249	77.56
397.474	100.56
397.698	76.56
397.922	77.56
398.147	91.56
398.371	88.56
398.595	90.56
398.82	86.56
399.044	101.56
399.268	82.56
399.492	99.56
399.717	99.56
399.941	78.56
400.165	84.56
400.389	89.56
400.613	90.56
400.837	85.56
401.062	78.56
401.286	89.56
401.51	111.56
401.734	90.56
401.958	104.56
402.182	112.56
402.406	157.56
402.63	112.56
402.854	94.56
403.078	90.56
403.302	84.56
403.526	93.56
403.75	95.56
403.974	92.56
404.198	98.56
404.422	92.56
404.645	92.56
404.869	116.56
405.093	112.56
405.317	121.56
405.541	121.56
405.765	96.56
405.988	121.56
406.212	171.56
406.436	236.56
406.66	157.56
406.883	107.56
407.107	103.56
407.331	99.56
407.555	94.56
407.778	98.56
408.002	105.56
408.226	87.56
408.449	93.56
408.673	81.56
408.896	110.56
409.12	90.56
409.344	92.56
409.567	82.56
409.791	86.56
410.014	80.56
410.238	89.56
410.461	99.56
410.685	92.56
410.908	105.56
411.132	108.56
411.355	101.56
411.578	92.56
411.802	88.56
412.025	98.56
412.249	96.56
412.472	98.56
412.695	122.56
412.919	104.56
413.142	92.56
413.365	96.56
413.589	92.56
413.812	80.56
414.035	83.56
414.258	84.56
414.482	85.56
414.705	95.56
414.928	92.56
415.151	93.56
415.374	85.56
415.597	89.56
415.821	89.56
416.044	90.56
416.267	68.56
416.49	86.56
416.713	92.56
416.936	99.56
417.159	88.56
417.382	93.56
417.605	99.56
417.828	99.56
418.051	100.56
418.274	91.56
418.497	90.56
418.72	80.56
418.943	95.56
419.166	85.56
419.389	96.56
419.611	93.56
419.834	93.56
420.057	93.56
420.28	95.56
420.503	99.56
420.726	99.56
420.948	93.56
421.171	108.56
421.394	90.56
421.617	91.56
421.839	93.56
422.062	84.56
422.285	79.56
422.507	93.56
422.73	112.56
422.953	103.56
423.175	88.56
423.398	79.56
423.621	80.56
423.843	85.56
424.066	83.56
424.288	90.56
424.511	90.56
424.733	115.56
424.956	112.56
425.178	106.56
425.401	110.56
425.623	101.56
425.846	91.56
426.068	103.56
426.291	104.56
426.513	79.56
426.735	88.56
426.958	104.56
427.18	120.56
427.402	156.56
427.625	204.56
427.847	196.56
428.069	192.56
428.292	111.56
428.514	91.56
428.736	97.56
428.958	84.56
429.181	90.56
429.403	86.56
429.625	82.56
429.847	91.56
430.069	104.56
430.292	95.56
430.514	79.56
430.736	89.56
430.958	82.56
431.18	82.56
431.402	91.56
431.624	88.56
431.846	91.56
432.068	92.56
432.29	87.56
432.512	96.56
432.734	98.56
432.956	102.56
433.178	92.56
433.4	101.56
433.622	96.56
433.844	104.56
434.066	93.56
434.287	91.56
434.509	99.56
434.731	97.56
434.953	94.56
435.175	86.56
435.397	94.56
435.618	101.56
435.84	106.56
436.062	115.56
436.284	123.56
436.505	113.56
436.727	104.56
436.949	89.56
437.17	75.56
437.392	77.56
437.614	97.56
437.835	115.56
438.057	124.56
438.278	120.56
438.5	129.56
438.721	119.56
438.943	102.56
439.165	82.56
439.386	84.56
439.608	88.56
439.829	106.56
440.05	129.56
440.272	162.56
440.493	108.56
440.715	93.56
440.936	88.56
441.158	96.56
441.379	88.56
441.6	92.56
441.822	98.56
442.043	101.56
442.264	107.56
442.486	106.56
442.707	94.56
442.928	116.56
443.149	131.56
443.371	133.56
443.592	98.56
443.813	109.56
444.034	108.56
444.255	83.56
444.476	95.56
444.698	89.56
444.919	90.56
445.14	131.56
445.361	123.56
445.582	114.56
445.803	145.56
446.024	149.56
446.245	124.56
446.466	107.56
446.687	69.56
446.908	87.56
447.129	92.56
447.35	83.56
447.571	105.56
447.792	107.56
448.013	97.56
448.234	104.56
448.455	98.56
448.675	120.56
448.896	116.56
449.117	98.56
449.338	107.56
449.559	119.56
449.779	129.56
450	99.56
450.221	97.56
450.442	79.56
450.662	104.56
450.883	121.56
451.104	118.56
451.324	108.56
451.545	93.56
451.766	88.56
451.986	76.56
452.207	92.56
452.428	88.56
452.648	95.56
452.869	113.56
453.089	107.56
453.31	121.56
453.53	92.56
453.751	89.56
453.971	103.56
454.192	110.56
454.412	88.56
454.633	81.56
454.853	101.56
455.073	104.56
455.294	79.56
455.514	108.56
455.734	77.56
455.955	82.56
456.175	92.56
456.395	90.56
456.616	81.56
456.836	87.56
457.056	79.56
457.276	78.56
457.497	81.56
457.717	83.56
457.937	86.56
458.157	82.56
458.377	100.56
458.598	115.56
458.818	152.56
459.038	170.56
459.258	116.56
459.478	84.56
459.698	75.56
459.918	77.56
460.138	88.56
460.358	89.56
460.578	89.56
460.798	92.56
461.018	92.56
461.238	89.56
461.458	74.56
461.678	95.56
461.898	90.56
462.118	101.56
462.338	79.56
462.558	93.56
462.777	90.56
462.997	94.56
463.217	91.56
463.437	79.56
463.657	89.56
463.876	97.56
464.096	94.56
464.316	84.56
464.536	114.56
464.755	100.56
464.975	123.56
465.195	195.56
465.414	191.56
465.634	99.56
465.854	79.56
466.073	92.56
466.293	82.56
466.512	97.56
466.732	96.56
466.951	100.56
467.171	84.56
467.391	111.56
467.61	126.56
467.829	167.56
468.049	392.56
468.268	525.56
468.488	167.56
468.707	103.56
468.927	95.56
469.146	86.56
469.365	83.56
469.585	82.56
469.804	78.56
470.023	101.56
470.243	97.56
470.462	115.56
470.681	121.56
470.901	101.56
471.12	103.56
471.339	90.56
471.558	89.56
471.777	129.56
471.997	223.56
472.216	711.56
472.435	1508.56
472.654	373.56
472.873	135.56
473.092	94.56
473.311	88.56
473.53	87.56
473.749	92.56
473.968	108.56
474.187	134.56
474.406	114.56
474.625	104.56
474.844	77.56
475.063	80.56
475.282	85.56
475.501	101.56
475.72	82.56
475.939	81.56
476.158	86.56
476.377	101.56
476.596	85.56
476.814	101.56
477.033	101.56
477.252	93.56
477.471	95.56
477.69	90.56
477.908	84.56
478.127	95.56
478.346	83.56
478.564	97.56
478.783	100.56
479.002	105.56
479.22	90.56
479.439	103.56
479.658	118.56
479.876	108.56
480.095	111.56
480.313	114.56
480.532	140.56
480.751	216.56
480.969	679.56
481.188	2624.56
481.406	1507.56
481.624	260.56
481.843	114.56
482.061	106.56
482.28	93.56
482.498	87.56
482.717	100.56
482.935	95.56
483.153	84.56
483.372	85.56
483.59	100.56
483.808	101.56
484.027	85.56
484.245	81.56
484.463	98.56
484.681	101.56
484.9	92.56
485.118	99.56
485.336	81.56
485.554	103.56
485.772	98.56
485.99	99.56
486.209	97.56
486.427	115.56
486.645	110.56
486.863	119.56
487.081	102.56
487.299	98.56
487.517	99.56
487.735	100.56
487.953	90.56
488.171	96.56
488.389	107.56
488.607	103.56
488.825	87.56
489.043	88.56
489.261	102.56
489.479	85.56
489.696	89.56
489.914	104.56
490.132	95.56
490.35	79.56
490.568	80.56
490.786	96.56
491.003	90.56
491.221	91.56
491.439	88.56
491.657	95.56
491.874	94.56
492.092	95.56
492.31	88.56
492.527	103.56
492.745	88.56
492.963	90.56
493.18	99.56
493.398	85.56
493.615	105.56
493.833	92.56
494.05	89.56
494.268	83.56
494.485	105.56
494.703	78.56
494.92	91.56
495.138	78.56
495.355	95.56
495.573	104.56
495.79	86.56
496.008	99.56
496.225	72.56
496.442	99.56
496.66	95.56
496.877	84.56
497.094	92.56
497.312	91.56
497.529	92.56
497.746	92.56
497.963	91.56
498.181	99.56
498.398	93.56
498.615	120.56
498.832	106.56
499.049	84.56
499.267	93.56
499.484	92.56
499.701	93.56
499.918	95.56
500.135	84.56
500.352	88.56
500.569	97.56
500.786	108.56
501.003	79.56
501.22	104.56
501.437	92.56
501.654	89.56
501.871	88.56
502.088	85.56
502.305	100.56
502.522	95.56
502.739	87.56
502.956	78.56
503.172	93.56
503.389	93.56
503.606	109.56
503.823	102.56
504.04	79.56
504.256	83.56
504.473	77.56
504.69	100.56
504.907	103.56
505.123	83.56
505.34	69.56
505.557	89.56
505.773	86.56
505.99	85.56
506.207	92.56
506.423	97.56
506.64	102.56
506.856	93.56
507.073	103.56
507.289	91.56
507.506	105.56
507.722	130.56
507.939	129.56
508.155	96.56
508.372	97.56
508.588	85.56
508.805	84.56
509.021	100.56
509.238	100.56
509.454	113.56
509.67	95.56
509.887	101.56
510.103	132.56
510.319	193.56
510.536	717.56
510.752	2320.56
510.968	669.56
511.184	153.56
511.401	116.56
511.617	105.56
511.833	99.56
512.049	107.56
512.265	107.56
512.481	101.56
512.698	95.56
512.914	89.56
513.13	100.56
513.346	101.56
513.562	92.56
513.778	112.56
513.994	105.56
514.21	107.56
514.426	126.56
