Data from Circ_2001_H10_HRD10591_00096.txt Node
Date: Wed Jan 03 10:45:58 EST 2024
User: Yrep
Spectrometer: HR+D1059
Trigger mode: 1
Integration Time (sec): 1.000000E-1
Scans to average: 1
Electric dark correction enabled: true
Nonlinearity correction enabled: false
Boxcar width: 0
XAxis mode: Wavelengths
Number of Pixels in Spectrum: 2048
>>>>>Begin Spectral Data<<<<<
223.165	-24.56
223.4	-24.56
223.635	-24.56
223.869	-19.56
224.104	-16.56
224.338	-9.56
224.573	-12.56
224.808	-27.56
225.042	-9.56
225.277	3.44
225.511	-8.56
225.746	4.44
225.98	7.44
226.215	28.44
226.449	7.44
226.683	18.44
226.918	28.44
227.152	30.44
227.387	34.44
227.621	33.44
227.856	49.44
228.09	56.44
228.324	54.44
228.559	57.44
228.793	57.44
229.027	53.44
229.262	57.44
229.496	72.44
229.73	76.44
229.964	81.44
230.199	50.44
230.433	53.44
230.667	69.44
230.901	77.44
231.136	82.44
231.37	82.44
231.604	79.44
231.838	84.44
232.072	52.44
232.306	75.44
232.541	72.44
232.775	90.44
233.009	83.44
233.243	74.44
233.477	72.44
233.711	78.44
233.945	78.44
234.179	72.44
234.413	75.44
234.647	75.44
234.881	84.44
235.115	86.44
235.349	85.44
235.583	82.44
235.817	78.44
236.051	85.44
236.285	68.44
236.519	76.44
236.753	66.44
236.987	76.44
237.221	92.44
237.455	83.44
237.689	71.44
237.922	75.44
238.156	71.44
238.39	71.44
238.624	86.44
238.858	95.44
239.091	76.44
239.325	82.44
239.559	72.44
239.793	67.44
240.027	66.44
240.26	67.44
240.494	76.44
240.728	77.44
240.961	82.44
241.195	95.44
241.429	88.44
241.662	60.44
241.896	74.44
242.13	74.44
242.363	79.44
242.597	73.44
242.83	80.44
243.064	76.44
243.298	66.44
243.531	72.44
243.765	54.44
243.998	62.44
244.232	85.44
244.465	77.44
244.699	84.44
244.932	70.44
245.166	79.44
245.399	78.44
245.633	65.44
245.866	83.44
246.099	78.44
246.333	71.44
246.566	78.44
246.8	63.44
247.033	64.44
247.266	74.44
247.5	79.44
247.733	86.44
247.966	87.44
248.2	88.44
248.433	81.44
248.666	85.44
248.899	87.44
249.133	81.44
249.366	90.44
249.599	108.44
249.832	95.44
250.066	71.44
250.299	84.44
250.532	79.44
250.765	66.44
250.998	69.44
251.231	72.44
251.465	80.44
251.698	79.44
251.931	87.44
252.164	79.44
252.397	77.44
252.63	65.44
252.863	78.44
253.096	72.44
253.329	81.44
253.562	84.44
253.795	80.44
254.028	90.44
254.261	78.44
254.494	76.44
254.727	83.44
254.96	60.44
255.193	73.44
255.426	81.44
255.659	73.44
255.892	94.44
256.124	100.44
256.357	76.44
256.59	85.44
256.823	66.44
257.056	85.44
257.289	73.44
257.521	84.44
257.754	81.44
257.987	85.44
258.22	96.44
258.452	93.44
258.685	93.44
258.918	78.44
259.151	72.44
259.383	81.44
259.616	80.44
259.849	85.44
260.081	75.44
260.314	80.44
260.547	90.44
260.779	94.44
261.012	90.44
261.244	98.44
261.477	93.44
261.71	81.44
261.942	113.44
262.175	113.44
262.407	81.44
262.64	89.44
262.872	78.44
263.105	82.44
263.337	105.44
263.57	84.44
263.802	93.44
264.035	86.44
264.267	74.44
264.499	85.44
264.732	79.44
264.964	77.44
265.197	84.44
265.429	83.44
265.661	73.44
265.894	79.44
266.126	82.44
266.358	62.44
266.591	80.44
266.823	72.44
267.055	83.44
267.287	89.44
267.52	73.44
267.752	82.44
267.984	76.44
268.216	96.44
268.448	81.44
268.681	72.44
268.913	85.44
269.145	70.44
269.377	84.44
269.609	77.44
269.841	80.44
270.073	76.44
270.306	86.44
270.538	78.44
270.77	84.44
271.002	80.44
271.234	76.44
271.466	83.44
271.698	80.44
271.93	89.44
272.162	76.44
272.394	86.44
272.626	89.44
272.858	85.44
273.09	83.44
273.322	85.44
273.553	86.44
273.785	79.44
274.017	89.44
274.249	91.44
274.481	89.44
274.713	85.44
274.945	89.44
275.176	89.44
275.408	80.44
275.64	94.44
275.872	103.44
276.104	112.44
276.335	107.44
276.567	106.44
276.799	125.44
277.031	130.44
277.262	145.44
277.494	132.44
277.726	99.44
277.957	98.44
278.189	109.44
278.421	87.44
278.652	78.44
278.884	78.44
279.115	80.44
279.347	90.44
279.579	91.44
279.81	117.44
280.042	165.44
280.273	203.44
280.505	122.44
280.736	97.44
280.968	83.44
281.199	85.44
281.431	90.44
281.662	80.44
281.894	106.44
282.125	97.44
282.356	118.44
282.588	135.44
282.819	107.44
283.051	94.44
283.282	92.44
283.513	84.44
283.745	92.44
283.976	76.44
284.207	75.44
284.439	90.44
284.67	83.44
284.901	76.44
285.132	78.44
285.364	80.44
285.595	88.44
285.826	77.44
286.057	86.44
286.288	96.44
286.52	82.44
286.751	95.44
286.982	81.44
287.213	80.44
287.444	83.44
287.675	75.44
287.906	91.44
288.138	98.44
288.369	105.44
288.6	96.44
288.831	79.44
289.062	84.44
289.293	83.44
289.524	90.44
289.755	95.44
289.986	80.44
290.217	80.44
290.448	100.44
290.679	87.44
290.91	78.44
291.141	71.44
291.371	88.44
291.602	79.44
291.833	93.44
292.064	73.44
292.295	94.44
292.526	88.44
292.757	91.44
292.987	97.44
293.218	60.44
293.449	94.44
293.68	86.44
293.91	73.44
294.141	89.44
294.372	93.44
294.603	83.44
294.833	87.44
295.064	81.44
295.295	88.44
295.525	96.44
295.756	90.44
295.987	110.44
296.217	138.44
296.448	118.44
296.679	85.44
296.909	88.44
297.14	82.44
297.37	92.44
297.601	90.44
297.831	107.44
298.062	93.44
298.292	81.44
298.523	76.44
298.753	96.44
298.984	84.44
299.214	92.44
299.445	95.44
299.675	91.44
299.905	86.44
300.136	81.44
300.366	77.44
300.597	95.44
300.827	87.44
301.057	100.44
301.288	107.44
301.518	93.44
301.748	92.44
301.979	97.44
302.209	99.44
302.439	82.44
302.669	95.44
302.9	82.44
303.13	101.44
303.36	104.44
303.59	114.44
303.82	118.44
304.051	103.44
304.281	97.44
304.511	95.44
304.741	76.44
304.971	79.44
305.201	73.44
305.431	81.44
305.661	91.44
305.891	86.44
306.121	80.44
306.352	85.44
306.582	109.44
306.812	91.44
307.042	129.44
307.272	116.44
307.502	158.44
307.731	150.44
307.961	102.44
308.191	93.44
308.421	103.44
308.651	82.44
308.881	86.44
309.111	93.44
309.341	104.44
309.571	94.44
309.8	101.44
310.03	101.44
310.26	111.44
310.49	86.44
310.72	93.44
310.949	91.44
311.179	115.44
311.409	85.44
311.639	92.44
311.868	100.44
312.098	88.44
312.328	97.44
312.557	106.44
312.787	118.44
313.017	109.44
313.246	91.44
313.476	100.44
313.706	85.44
313.935	78.44
314.165	99.44
314.394	97.44
314.624	103.44
314.853	104.44
315.083	95.44
315.312	81.44
315.542	89.44
315.771	87.44
316.001	96.44
316.23	94.44
316.46	89.44
316.689	75.44
316.919	83.44
317.148	87.44
317.377	87.44
317.607	77.44
317.836	92.44
318.065	87.44
318.295	94.44
318.524	91.44
318.753	92.44
318.983	98.44
319.212	94.44
319.441	88.44
319.67	108.44
319.9	88.44
320.129	92.44
320.358	96.44
320.587	85.44
320.816	88.44
321.046	104.44
321.275	92.44
321.504	90.44
321.733	90.44
321.962	111.44
322.191	105.44
322.42	104.44
322.649	109.44
322.878	129.44
323.108	130.44
323.337	132.44
323.566	141.44
323.795	133.44
324.024	219.44
324.253	418.44
324.482	918.44
324.71	1934.44
324.939	2462.44
325.168	896.44
325.397	254.44
325.626	138.44
325.855	121.44
326.084	116.44
326.313	135.44
326.542	178.44
326.77	255.44
326.999	496.44
327.228	1028.44
327.457	1887.44
327.686	1470.44
327.914	462.44
328.143	412.44
328.372	473.44
328.6	290.44
328.829	156.44
329.058	150.44
329.287	164.44
329.515	157.44
329.744	193.44
329.972	365.44
330.201	698.44
330.43	992.44
330.658	474.44
330.887	230.44
331.115	138.44
331.344	115.44
331.572	113.44
331.801	106.44
332.03	106.44
332.258	113.44
332.486	90.44
332.715	105.44
332.943	122.44
333.172	106.44
333.4	116.44
333.629	149.44
333.857	190.44
334.085	312.44
334.314	648.44
334.542	1230.44
334.771	1138.44
334.999	330.44
335.227	130.44
335.455	109.44
335.684	112.44
335.912	96.44
336.14	97.44
336.369	92.44
336.597	99.44
336.825	107.44
337.053	93.44
337.281	99.44
337.51	89.44
337.738	96.44
337.966	88.44
338.194	98.44
338.422	99.44
338.65	107.44
338.878	88.44
339.106	85.44
339.334	89.44
339.562	90.44
339.79	84.44
340.018	97.44
340.246	94.44
340.474	91.44
340.702	89.44
340.93	88.44
341.158	93.44
341.386	84.44
341.614	101.44
341.842	102.44
342.07	95.44
342.298	87.44
342.526	90.44
342.754	96.44
342.981	90.44
343.209	86.44
343.437	108.44
343.665	87.44
343.893	87.44
344.12	100.44
344.348	79.44
344.576	89.44
344.804	93.44
345.031	102.44
345.259	95.44
345.487	94.44
345.714	91.44
345.942	93.44
346.17	89.44
346.397	86.44
346.625	93.44
346.853	87.44
347.08	93.44
347.308	98.44
347.535	103.44
347.763	103.44
347.99	100.44
348.218	89.44
348.445	101.44
348.673	120.44
348.9	100.44
349.128	81.44
349.355	90.44
349.583	92.44
349.81	90.44
350.037	100.44
350.265	104.44
350.492	91.44
350.72	96.44
350.947	102.44
351.174	95.44
351.402	111.44
351.629	108.44
351.856	106.44
352.083	104.44
352.311	101.44
352.538	108.44
352.765	111.44
352.992	106.44
353.22	90.44
353.447	106.44
353.674	97.44
353.901	99.44
354.128	87.44
354.355	70.44
354.583	100.44
354.81	104.44
355.037	84.44
355.264	96.44
355.491	82.44
355.718	87.44
355.945	92.44
356.172	92.44
356.399	110.44
356.626	95.44
356.853	86.44
357.08	84.44
357.307	99.44
357.534	84.44
357.761	78.44
357.988	102.44
358.215	81.44
358.441	85.44
358.668	93.44
358.895	65.44
359.122	78.44
359.349	81.44
359.576	92.44
359.802	108.44
360.029	136.44
360.256	110.44
360.483	105.44
360.709	93.44
360.936	98.44
361.163	94.44
361.39	103.44
361.616	104.44
361.843	83.44
362.07	97.44
362.296	93.44
362.523	88.44
362.749	90.44
362.976	74.44
363.203	95.44
363.429	86.44
363.656	83.44
363.882	83.44
364.109	94.44
364.335	89.44
364.562	96.44
364.788	90.44
365.015	76.44
365.241	90.44
365.468	104.44
365.694	110.44
365.92	100.44
366.147	70.44
366.373	89.44
366.599	82.44
366.826	86.44
367.052	84.44
367.278	88.44
367.505	91.44
367.731	88.44
367.957	99.44
368.184	85.44
368.41	91.44
368.636	88.44
368.862	103.44
369.089	104.44
369.315	104.44
369.541	85.44
369.767	69.44
369.993	98.44
370.219	100.44
370.445	87.44
370.672	74.44
370.898	69.44
371.124	92.44
371.35	100.44
371.576	104.44
371.802	82.44
372.028	89.44
372.254	86.44
372.48	88.44
372.706	81.44
372.932	85.44
373.158	82.44
373.384	90.44
373.61	88.44
373.835	96.44
374.061	85.44
374.287	89.44
374.513	101.44
374.739	97.44
374.965	87.44
375.191	89.44
375.416	83.44
375.642	84.44
375.868	93.44
376.094	98.44
376.319	92.44
376.545	82.44
376.771	89.44
376.997	90.44
377.222	96.44
377.448	85.44
377.674	89.44
377.899	97.44
378.125	91.44
378.35	79.44
378.576	87.44
378.802	83.44
379.027	79.44
379.253	88.44
379.478	76.44
379.704	80.44
379.929	79.44
380.155	69.44
380.38	96.44
380.606	89.44
380.831	84.44
381.057	98.44
381.282	101.44
381.507	92.44
381.733	104.44
381.958	95.44
382.184	88.44
382.409	90.44
382.634	93.44
382.86	89.44
383.085	100.44
383.31	106.44
383.535	90.44
383.761	90.44
383.986	82.44
384.211	92.44
384.436	100.44
384.662	89.44
384.887	82.44
385.112	90.44
385.337	102.44
385.562	95.44
385.787	114.44
386.013	102.44
386.238	101.44
386.463	109.44
386.688	111.44
386.913	97.44
387.138	106.44
387.363	93.44
387.588	94.44
387.813	94.44
388.038	92.44
388.263	111.44
388.488	90.44
388.713	89.44
388.938	88.44
389.163	77.44
389.387	98.44
389.612	85.44
389.837	90.44
390.062	79.44
390.287	97.44
390.512	90.44
390.736	83.44
390.961	105.44
391.186	98.44
391.411	83.44
391.636	101.44
391.86	79.44
392.085	81.44
392.31	87.44
392.534	77.44
392.759	86.44
392.984	77.44
393.208	73.44
393.433	80.44
393.658	96.44
393.882	89.44
394.107	83.44
394.331	89.44
394.556	80.44
394.78	86.44
395.005	70.44
395.229	85.44
395.454	87.44
395.678	92.44
395.903	72.44
396.127	86.44
396.352	82.44
396.576	78.44
396.801	75.44
397.025	84.44
397.249	93.44
397.474	88.44
397.698	81.44
397.922	86.44
398.147	73.44
398.371	81.44
398.595	82.44
398.82	86.44
399.044	71.44
399.268	80.44
399.492	85.44
399.717	81.44
399.941	95.44
400.165	91.44
400.389	77.44
400.613	87.44
400.837	80.44
401.062	82.44
401.286	79.44
401.51	79.44
401.734	91.44
401.958	100.44
402.182	136.44
402.406	176.44
402.63	124.44
402.854	100.44
403.078	89.44
403.302	79.44
403.526	78.44
403.75	93.44
403.974	86.44
404.198	75.44
404.422	91.44
404.645	93.44
404.869	93.44
405.093	98.44
405.317	115.44
405.541	124.44
405.765	118.44
405.988	129.44
406.212	192.44
406.436	257.44
406.66	166.44
406.883	107.44
407.107	105.44
407.331	95.44
407.555	96.44
407.778	102.44
408.002	86.44
408.226	87.44
408.449	91.44
408.673	84.44
408.896	97.44
409.12	100.44
409.344	97.44
409.567	89.44
409.791	99.44
410.014	95.44
410.238	93.44
410.461	77.44
410.685	92.44
410.908	77.44
411.132	90.44
411.355	94.44
411.578	103.44
411.802	65.44
412.025	97.44
412.249	94.44
412.472	104.44
412.695	112.44
412.919	113.44
413.142	93.44
413.365	87.44
413.589	66.44
413.812	78.44
414.035	90.44
414.258	98.44
414.482	91.44
414.705	88.44
414.928	95.44
415.151	94.44
415.374	82.44
415.597	84.44
415.821	98.44
416.044	85.44
416.267	69.44
416.49	81.44
416.713	84.44
416.936	77.44
417.159	77.44
417.382	86.44
417.605	104.44
417.828	87.44
418.051	81.44
418.274	92.44
418.497	88.44
418.72	74.44
418.943	91.44
419.166	82.44
419.389	74.44
419.611	101.44
419.834	87.44
420.057	82.44
420.28	93.44
420.503	99.44
420.726	83.44
420.948	86.44
421.171	81.44
421.394	81.44
421.617	87.44
421.839	89.44
422.062	88.44
422.285	77.44
422.507	105.44
422.73	90.44
422.953	85.44
423.175	90.44
423.398	85.44
423.621	81.44
423.843	84.44
424.066	87.44
424.288	88.44
424.511	87.44
424.733	89.44
424.956	109.44
425.178	92.44
425.401	82.44
425.623	93.44
425.846	85.44
426.068	90.44
426.291	87.44
426.513	101.44
426.735	87.44
426.958	87.44
427.18	112.44
427.402	158.44
427.625	212.44
427.847	208.44
428.069	197.44
428.292	111.44
428.514	106.44
428.736	85.44
428.958	71.44
429.181	65.44
429.403	86.44
429.625	87.44
429.847	93.44
430.069	90.44
430.292	96.44
430.514	79.44
430.736	90.44
430.958	83.44
431.18	80.44
431.402	89.44
431.624	73.44
431.846	67.44
432.068	81.44
432.29	86.44
432.512	85.44
432.734	93.44
432.956	80.44
433.178	96.44
433.4	106.44
433.622	96.44
433.844	104.44
434.066	89.44
434.287	87.44
434.509	89.44
434.731	83.44
434.953	82.44
435.175	99.44
435.397	95.44
435.618	87.44
435.84	107.44
436.062	118.44
436.284	114.44
436.505	93.44
436.727	88.44
436.949	79.44
437.17	92.44
437.392	88.44
437.614	92.44
437.835	104.44
438.057	126.44
438.278	105.44
438.5	97.44
438.721	125.44
438.943	105.44
439.165	76.44
439.386	81.44
439.608	98.44
439.829	101.44
440.05	117.44
440.272	159.44
440.493	102.44
440.715	97.44
440.936	95.44
441.158	94.44
441.379	89.44
441.6	111.44
441.822	90.44
442.043	88.44
442.264	113.44
442.486	93.44
442.707	96.44
442.928	114.44
443.149	128.44
443.371	145.44
443.592	117.44
443.813	113.44
444.034	102.44
444.255	90.44
444.476	76.44
444.698	94.44
444.919	86.44
445.14	137.44
445.361	116.44
445.582	125.44
445.803	140.44
446.024	144.44
446.245	144.44
446.466	103.44
446.687	82.44
446.908	94.44
447.129	77.44
447.35	78.44
447.571	89.44
447.792	85.44
448.013	101.44
448.234	109.44
448.455	98.44
448.675	105.44
448.896	138.44
449.117	100.44
449.338	105.44
449.559	126.44
449.779	128.44
450	103.44
450.221	85.44
450.442	94.44
450.662	99.44
450.883	106.44
451.104	115.44
451.324	93.44
451.545	91.44
451.766	81.44
451.986	84.44
452.207	83.44
452.428	87.44
452.648	96.44
452.869	115.44
453.089	115.44
453.31	133.44
453.53	90.44
453.751	88.44
453.971	106.44
454.192	108.44
454.412	101.44
454.633	76.44
454.853	81.44
455.073	78.44
455.294	100.44
455.514	100.44
455.734	95.44
455.955	88.44
456.175	74.44
456.395	80.44
456.616	74.44
456.836	81.44
457.056	86.44
457.276	77.44
457.497	88.44
457.717	98.44
457.937	89.44
458.157	89.44
458.377	85.44
458.598	113.44
458.818	166.44
459.038	178.44
459.258	129.44
459.478	89.44
459.698	86.44
459.918	72.44
460.138	82.44
460.358	64.44
460.578	80.44
460.798	82.44
461.018	91.44
461.238	92.44
461.458	87.44
461.678	70.44
461.898	76.44
462.118	92.44
462.338	71.44
462.558	87.44
462.777	78.44
462.997	84.44
463.217	89.44
463.437	89.44
463.657	95.44
463.876	95.44
464.096	87.44
464.316	100.44
464.536	90.44
464.755	99.44
464.975	109.44
465.195	176.44
465.414	173.44
465.634	105.44
465.854	82.44
466.073	77.44
466.293	78.44
466.512	91.44
466.732	90.44
466.951	99.44
467.171	90.44
467.391	93.44
467.61	131.44
467.829	170.44
468.049	425.44
468.268	586.44
468.488	170.44
468.707	97.44
468.927	90.44
469.146	82.44
469.365	68.44
469.585	89.44
469.804	78.44
470.023	108.44
470.243	108.44
470.462	104.44
470.681	112.44
470.901	101.44
471.12	85.44
471.339	85.44
471.558	112.44
471.777	132.44
471.997	237.44
472.216	830.44
472.435	1803.44
472.654	432.44
472.873	124.44
473.092	102.44
473.311	92.44
473.53	79.44
473.749	73.44
473.968	101.44
474.187	103.44
474.406	100.44
474.625	85.44
474.844	88.44
475.063	83.44
475.282	78.44
475.501	83.44
475.72	88.44
475.939	79.44
476.158	90.44
476.377	89.44
476.596	86.44
476.814	90.44
477.033	84.44
477.252	80.44
477.471	86.44
477.69	82.44
477.908	94.44
478.127	100.44
478.346	84.44
478.564	90.44
478.783	85.44
479.002	106.44
479.22	115.44
479.439	107.44
479.658	128.44
479.876	96.44
480.095	101.44
480.313	118.44
480.532	133.44
480.751	215.44
480.969	729.44
481.188	3054.44
481.406	1764.44
481.624	276.44
481.843	119.44
482.061	105.44
482.28	82.44
482.498	89.44
482.717	68.44
482.935	86.44
483.153	97.44
483.372	89.44
483.59	75.44
483.808	97.44
484.027	99.44
484.245	86.44
484.463	96.44
484.681	82.44
484.9	91.44
485.118	98.44
485.336	88.44
485.554	97.44
485.772	93.44
485.99	101.44
486.209	108.44
486.427	102.44
486.645	103.44
486.863	111.44
487.081	104.44
487.299	95.44
487.517	86.44
487.735	100.44
487.953	84.44
488.171	85.44
488.389	85.44
488.607	77.44
488.825	84.44
489.043	96.44
489.261	77.44
489.479	99.44
489.696	84.44
489.914	82.44
490.132	101.44
490.35	93.44
490.568	83.44
490.786	83.44
491.003	92.44
491.221	83.44
491.439	88.44
491.657	101.44
491.874	92.44
492.092	66.44
492.31	81.44
492.527	89.44
492.745	104.44
492.963	90.44
493.18	89.44
493.398	70.44
493.615	95.44
493.833	76.44
494.05	84.44
494.268	88.44
494.485	85.44
494.703	86.44
494.92	82.44
495.138	78.44
495.355	88.44
495.573	82.44
495.79	83.44
496.008	81.44
496.225	100.44
496.442	87.44
496.66	101.44
496.877	96.44
497.094	84.44
497.312	76.44
497.529	76.44
497.746	98.44
497.963	76.44
498.181	88.44
498.398	95.44
498.615	105.44
498.832	89.44
499.049	103.44
499.267	69.44
499.484	75.44
499.701	82.44
499.918	97.44
500.135	85.44
500.352	85.44
500.569	88.44
500.786	94.44
501.003	94.44
501.22	86.44
501.437	72.44
501.654	80.44
501.871	95.44
502.088	102.44
502.305	91.44
502.522	90.44
502.739	71.44
502.956	92.44
503.172	106.44
503.389	96.44
503.606	100.44
503.823	96.44
504.04	94.44
504.256	89.44
504.473	99.44
504.69	86.44
504.907	79.44
505.123	82.44
505.34	77.44
505.557	80.44
505.773	84.44
505.99	90.44
506.207	86.44
506.423	89.44
506.64	87.44
506.856	84.44
507.073	85.44
507.289	86.44
507.506	76.44
507.722	106.44
507.939	113.44
508.155	88.44
508.372	102.44
508.588	84.44
508.805	88.44
509.021	97.44
509.238	100.44
509.454	92.44
509.67	103.44
509.887	102.44
510.103	114.44
510.319	211.44
510.536	734.44
510.752	2400.44
510.968	648.44
511.184	152.44
511.401	116.44
511.617	94.44
511.833	93.44
512.049	91.44
512.265	98.44
512.481	91.44
512.698	87.44
512.914	95.44
513.13	95.44
513.346	103.44
513.562	97.44
513.778	90.44
513.994	102.44
514.21	110.44
514.426	122.44
514.642	156.44
514.858	130.44
515.074	193.44
515.29	551.44
