Data from Circ_2001_H10_HRD10591_00021.txt Node
Date: Wed Jan 03 10:45:43 EST 2024
User: Yrep
Spectrometer: HR+D1059
Trigger mode: 1
Integration Time (sec): 1.000000E-1
Scans to average: 1
Electric dark correction enabled: true
Nonlinearity correction enabled: false
Boxcar width: 0
XAxis mode: Wavelengths
Number of Pixels in Spectrum: 2048
>>>>>Begin Spectral Data<<<<<
223.165	-9.5
223.4	-9.5
223.635	-9.5
223.869	-11.5
224.104	-13.5
224.338	-19.5
224.573	-28.5
224.808	-20.5
225.042	-6.5
225.277	-7.5
225.511	0.5
225.746	15.5
225.98	-0.5
226.215	8.5
226.449	19.5
226.683	19.5
226.918	27.5
227.152	26.5
227.387	9.5
227.621	30.5
227.856	40.5
228.09	40.5
228.324	45.5
228.559	48.5
228.793	61.5
229.027	54.5
229.262	73.5
229.496	73.5
229.73	82.5
229.964	84.5
230.199	68.5
230.433	63.5
230.667	72.5
230.901	78.5
231.136	82.5
231.37	83.5
231.604	70.5
231.838	64.5
232.072	69.5
232.306	65.5
232.541	77.5
232.775	78.5
233.009	81.5
233.243	80.5
233.477	93.5
233.711	80.5
233.945	84.5
234.179	71.5
234.413	75.5
234.647	82.5
234.881	83.5
235.115	69.5
235.349	67.5
235.583	85.5
235.817	84.5
236.051	74.5
236.285	78.5
236.519	70.5
236.753	71.5
236.987	67.5
237.221	79.5
237.455	72.5
237.689	75.5
237.922	71.5
238.156	86.5
238.39	73.5
238.624	71.5
238.858	85.5
239.091	88.5
239.325	71.5
239.559	75.5
239.793	81.5
240.027	89.5
240.26	74.5
240.494	72.5
240.728	72.5
240.961	79.5
241.195	83.5
241.429	77.5
241.662	84.5
241.896	67.5
242.13	72.5
242.363	67.5
242.597	76.5
242.83	82.5
243.064	73.5
243.298	67.5
243.531	67.5
243.765	75.5
243.998	69.5
244.232	84.5
244.465	70.5
244.699	81.5
244.932	75.5
245.166	71.5
245.399	72.5
245.633	85.5
245.866	68.5
246.099	62.5
246.333	79.5
246.566	64.5
246.8	86.5
247.033	84.5
247.266	80.5
247.5	80.5
247.733	85.5
247.966	68.5
248.2	67.5
248.433	81.5
248.666	75.5
248.899	79.5
249.133	84.5
249.366	98.5
249.599	101.5
249.832	87.5
250.066	94.5
250.299	65.5
250.532	79.5
250.765	71.5
250.998	77.5
251.231	82.5
251.465	82.5
251.698	72.5
251.931	85.5
252.164	74.5
252.397	75.5
252.63	71.5
252.863	79.5
253.096	66.5
253.329	63.5
253.562	78.5
253.795	74.5
254.028	78.5
254.261	73.5
254.494	69.5
254.727	90.5
254.96	74.5
255.193	81.5
255.426	77.5
255.659	73.5
255.892	84.5
256.124	94.5
256.357	87.5
256.59	79.5
256.823	56.5
257.056	90.5
257.289	73.5
257.521	85.5
257.754	75.5
257.987	81.5
258.22	82.5
258.452	82.5
258.685	83.5
258.918	85.5
259.151	77.5
259.383	78.5
259.616	66.5
259.849	84.5
260.081	81.5
260.314	77.5
260.547	79.5
260.779	85.5
261.012	95.5
261.244	93.5
261.477	104.5
261.71	99.5
261.942	126.5
262.175	113.5
262.407	77.5
262.64	71.5
262.872	84.5
263.105	75.5
263.337	77.5
263.57	79.5
263.802	79.5
264.035	90.5
264.267	79.5
264.499	58.5
264.732	81.5
264.964	75.5
265.197	92.5
265.429	88.5
265.661	77.5
265.894	76.5
266.126	73.5
266.358	81.5
266.591	76.5
266.823	69.5
267.055	75.5
267.287	68.5
267.52	83.5
267.752	87.5
267.984	86.5
268.216	66.5
268.448	75.5
268.681	75.5
268.913	85.5
269.145	75.5
269.377	75.5
269.609	77.5
269.841	88.5
270.073	95.5
270.306	76.5
270.538	88.5
270.77	93.5
271.002	67.5
271.234	78.5
271.466	77.5
271.698	70.5
271.93	85.5
272.162	78.5
272.394	100.5
272.626	79.5
272.858	84.5
273.09	84.5
273.322	95.5
273.553	84.5
273.785	81.5
274.017	78.5
274.249	91.5
274.481	75.5
274.713	82.5
274.945	86.5
275.176	81.5
275.408	103.5
275.64	90.5
275.872	107.5
276.104	86.5
276.335	86.5
276.567	102.5
276.799	142.5
277.031	133.5
277.262	137.5
277.494	110.5
277.726	88.5
277.957	96.5
278.189	80.5
278.421	86.5
278.652	73.5
278.884	89.5
279.115	86.5
279.347	81.5
279.579	85.5
279.81	84.5
280.042	134.5
280.273	191.5
280.505	120.5
280.736	83.5
280.968	84.5
281.199	84.5
281.431	79.5
281.662	76.5
281.894	80.5
282.125	95.5
282.356	137.5
282.588	141.5
282.819	119.5
283.051	81.5
283.282	71.5
283.513	78.5
283.745	76.5
283.976	84.5
284.207	81.5
284.439	72.5
284.67	86.5
284.901	93.5
285.132	83.5
285.364	90.5
285.595	84.5
285.826	103.5
286.057	83.5
286.288	75.5
286.52	73.5
286.751	90.5
286.982	80.5
287.213	80.5
287.444	88.5
287.675	95.5
287.906	99.5
288.138	98.5
288.369	84.5
288.6	99.5
288.831	83.5
289.062	69.5
289.293	85.5
289.524	85.5
289.755	103.5
289.986	85.5
290.217	86.5
290.448	74.5
290.679	86.5
290.91	89.5
291.141	72.5
291.371	71.5
291.602	74.5
291.833	75.5
292.064	83.5
292.295	75.5
292.526	86.5
292.757	80.5
292.987	82.5
293.218	94.5
293.449	81.5
293.68	79.5
293.91	92.5
294.141	99.5
294.372	78.5
294.603	87.5
294.833	86.5
295.064	78.5
295.295	88.5
295.525	83.5
295.756	109.5
295.987	125.5
296.217	164.5
296.448	120.5
296.679	89.5
296.909	76.5
297.14	85.5
297.37	95.5
297.601	87.5
297.831	93.5
298.062	99.5
298.292	92.5
298.523	79.5
298.753	78.5
298.984	87.5
299.214	92.5
299.445	78.5
299.675	81.5
299.905	94.5
300.136	90.5
300.366	89.5
300.597	79.5
300.827	95.5
301.057	107.5
301.288	107.5
301.518	109.5
301.748	84.5
301.979	108.5
302.209	88.5
302.439	81.5
302.669	80.5
302.9	84.5
303.13	98.5
303.36	108.5
303.59	123.5
303.82	121.5
304.051	106.5
304.281	91.5
304.511	95.5
304.741	78.5
304.971	83.5
305.201	85.5
305.431	97.5
305.661	77.5
305.891	81.5
306.121	95.5
306.352	107.5
306.582	115.5
306.812	100.5
307.042	100.5
307.272	131.5
307.502	151.5
307.731	139.5
307.961	102.5
308.191	91.5
308.421	76.5
308.651	97.5
308.881	86.5
309.111	87.5
309.341	94.5
309.571	103.5
309.8	95.5
310.03	89.5
310.26	103.5
310.49	86.5
310.72	108.5
310.949	110.5
311.179	105.5
311.409	103.5
311.639	93.5
311.868	101.5
312.098	98.5
312.328	86.5
312.557	91.5
312.787	114.5
313.017	94.5
313.246	90.5
313.476	99.5
313.706	110.5
313.935	80.5
314.165	97.5
314.394	92.5
314.624	96.5
314.853	103.5
315.083	89.5
315.312	81.5
315.542	98.5
315.771	89.5
316.001	87.5
316.23	105.5
316.46	79.5
316.689	89.5
316.919	85.5
317.148	103.5
317.377	93.5
317.607	103.5
317.836	101.5
318.065	87.5
318.295	84.5
318.524	86.5
318.753	97.5
318.983	105.5
319.212	92.5
319.441	101.5
319.67	117.5
319.9	101.5
320.129	95.5
320.358	101.5
320.587	108.5
320.816	96.5
321.046	104.5
321.275	84.5
321.504	88.5
321.733	81.5
321.962	99.5
322.191	103.5
322.42	109.5
322.649	117.5
322.878	117.5
323.108	110.5
323.337	136.5
323.566	159.5
323.795	166.5
324.024	222.5
324.253	439.5
324.482	935.5
324.71	1911.5
324.939	2454.5
325.168	902.5
325.397	280.5
325.626	155.5
325.855	137.5
326.084	126.5
326.313	141.5
326.542	171.5
326.77	253.5
326.999	487.5
327.228	1017.5
327.457	1756.5
327.686	1441.5
327.914	463.5
328.143	381.5
328.372	464.5
328.6	290.5
328.829	178.5
329.058	164.5
329.287	167.5
329.515	154.5
329.744	201.5
329.972	326.5
330.201	641.5
330.43	883.5
330.658	430.5
330.887	215.5
331.115	180.5
331.344	130.5
331.572	118.5
331.801	114.5
332.03	110.5
332.258	100.5
332.486	101.5
332.715	96.5
332.943	102.5
333.172	109.5
333.4	111.5
333.629	147.5
333.857	188.5
334.085	291.5
334.314	579.5
334.542	1119.5
334.771	1019.5
334.999	297.5
335.227	152.5
335.455	107.5
335.684	99.5
335.912	107.5
336.14	103.5
336.369	103.5
336.597	117.5
336.825	99.5
337.053	97.5
337.281	88.5
337.51	89.5
337.738	75.5
337.966	101.5
338.194	118.5
338.422	82.5
338.65	101.5
338.878	79.5
339.106	95.5
339.334	94.5
339.562	75.5
339.79	89.5
340.018	85.5
340.246	89.5
340.474	81.5
340.702	98.5
340.93	88.5
341.158	103.5
341.386	91.5
341.614	91.5
341.842	86.5
342.07	94.5
342.298	101.5
342.526	88.5
342.754	101.5
342.981	97.5
343.209	86.5
343.437	89.5
343.665	91.5
343.893	82.5
344.12	85.5
344.348	96.5
344.576	94.5
344.804	81.5
345.031	110.5
345.259	109.5
345.487	104.5
345.714	83.5
345.942	79.5
346.17	86.5
346.397	89.5
346.625	91.5
346.853	95.5
347.08	88.5
347.308	95.5
347.535	84.5
347.763	93.5
347.99	105.5
348.218	97.5
348.445	118.5
348.673	95.5
348.9	88.5
349.128	90.5
349.355	81.5
349.583	79.5
349.81	89.5
350.037	97.5
350.265	81.5
350.492	89.5
350.72	87.5
350.947	100.5
351.174	99.5
351.402	115.5
351.629	95.5
351.856	101.5
352.083	108.5
352.311	100.5
352.538	126.5
352.765	119.5
352.992	119.5
353.22	114.5
353.447	102.5
353.674	93.5
353.901	99.5
354.128	94.5
354.355	80.5
354.583	84.5
354.81	99.5
355.037	86.5
355.264	91.5
355.491	92.5
355.718	69.5
355.945	92.5
356.172	84.5
356.399	73.5
356.626	93.5
356.853	82.5
357.08	91.5
357.307	93.5
357.534	96.5
357.761	87.5
357.988	91.5
358.215	89.5
358.441	95.5
358.668	99.5
358.895	94.5
359.122	96.5
359.349	65.5
359.576	102.5
359.802	102.5
360.029	130.5
360.256	135.5
360.483	99.5
360.709	84.5
360.936	91.5
361.163	107.5
361.39	107.5
361.616	108.5
361.843	71.5
362.07	101.5
362.296	79.5
362.523	84.5
362.749	92.5
362.976	92.5
363.203	96.5
363.429	87.5
363.656	85.5
363.882	99.5
364.109	92.5
364.335	84.5
364.562	88.5
364.788	101.5
365.015	94.5
365.241	98.5
365.468	108.5
365.694	107.5
365.92	94.5
366.147	103.5
366.373	86.5
366.599	96.5
366.826	88.5
367.052	84.5
367.278	74.5
367.505	72.5
367.731	85.5
367.957	94.5
368.184	85.5
368.41	101.5
368.636	124.5
368.862	133.5
369.089	123.5
369.315	93.5
369.541	82.5
369.767	89.5
369.993	98.5
370.219	87.5
370.445	97.5
370.672	97.5
370.898	92.5
371.124	99.5
371.35	88.5
371.576	92.5
371.802	83.5
372.028	91.5
372.254	79.5
372.48	84.5
372.706	79.5
372.932	76.5
373.158	87.5
373.384	87.5
373.61	76.5
373.835	80.5
374.061	81.5
374.287	89.5
374.513	87.5
374.739	97.5
374.965	88.5
375.191	84.5
375.416	88.5
375.642	89.5
375.868	83.5
376.094	96.5
376.319	78.5
376.545	83.5
376.771	104.5
376.997	88.5
377.222	92.5
377.448	106.5
377.674	80.5
377.899	81.5
378.125	95.5
378.35	97.5
378.576	88.5
378.802	102.5
379.027	84.5
379.253	81.5
379.478	79.5
379.704	92.5
379.929	95.5
380.155	107.5
380.38	91.5
380.606	111.5
380.831	102.5
381.057	95.5
381.282	84.5
381.507	88.5
381.733	85.5
381.958	101.5
382.184	91.5
382.409	104.5
382.634	92.5
382.86	94.5
383.085	94.5
383.31	96.5
383.535	87.5
383.761	99.5
383.986	104.5
384.211	100.5
384.436	99.5
384.662	94.5
384.887	102.5
385.112	106.5
385.337	107.5
385.562	94.5
385.787	102.5
386.013	104.5
386.238	120.5
386.463	112.5
386.688	103.5
386.913	109.5
387.138	95.5
387.363	101.5
387.588	95.5
387.813	90.5
388.038	110.5
388.263	114.5
388.488	110.5
388.713	77.5
388.938	86.5
389.163	96.5
389.387	78.5
389.612	88.5
389.837	92.5
390.062	72.5
390.287	99.5
390.512	84.5
390.736	84.5
390.961	81.5
391.186	89.5
391.411	78.5
391.636	72.5
391.86	91.5
392.085	79.5
392.31	89.5
392.534	86.5
392.759	88.5
392.984	77.5
393.208	95.5
393.433	102.5
393.658	100.5
393.882	89.5
394.107	84.5
394.331	80.5
394.556	66.5
394.78	88.5
395.005	76.5
395.229	75.5
395.454	77.5
395.678	68.5
395.903	89.5
396.127	88.5
396.352	70.5
396.576	84.5
396.801	82.5
397.025	84.5
397.249	83.5
397.474	83.5
397.698	92.5
397.922	79.5
398.147	93.5
398.371	80.5
398.595	80.5
398.82	97.5
399.044	108.5
399.268	97.5
399.492	77.5
399.717	76.5
399.941	77.5
400.165	92.5
400.389	93.5
400.613	82.5
400.837	83.5
401.062	74.5
401.286	68.5
401.51	89.5
401.734	84.5
401.958	102.5
402.182	153.5
402.406	193.5
402.63	137.5
402.854	104.5
403.078	91.5
403.302	79.5
403.526	96.5
403.75	86.5
403.974	78.5
404.198	65.5
404.422	83.5
404.645	85.5
404.869	88.5
405.093	100.5
405.317	107.5
405.541	117.5
405.765	109.5
405.988	142.5
406.212	227.5
406.436	294.5
406.66	181.5
406.883	125.5
407.107	96.5
407.331	86.5
407.555	113.5
407.778	104.5
408.002	95.5
408.226	77.5
408.449	80.5
408.673	79.5
408.896	100.5
409.12	94.5
409.344	98.5
409.567	86.5
409.791	86.5
410.014	96.5
410.238	89.5
410.461	93.5
410.685	89.5
410.908	88.5
411.132	98.5
411.355	97.5
411.578	95.5
411.802	98.5
412.025	87.5
412.249	86.5
412.472	99.5
412.695	109.5
412.919	86.5
413.142	86.5
413.365	87.5
413.589	84.5
413.812	82.5
414.035	79.5
414.258	78.5
414.482	90.5
414.705	88.5
414.928	101.5
415.151	85.5
415.374	78.5
415.597	93.5
415.821	98.5
416.044	79.5
416.267	80.5
416.49	94.5
416.713	86.5
416.936	89.5
417.159	75.5
417.382	83.5
417.605	86.5
417.828	105.5
418.051	88.5
418.274	84.5
418.497	78.5
418.72	79.5
418.943	82.5
419.166	93.5
419.389	82.5
419.611	88.5
419.834	87.5
420.057	91.5
420.28	70.5
420.503	71.5
420.726	94.5
420.948	91.5
421.171	105.5
421.394	85.5
421.617	79.5
421.839	85.5
422.062	86.5
422.285	86.5
422.507	101.5
422.73	113.5
422.953	99.5
423.175	88.5
423.398	88.5
423.621	82.5
423.843	86.5
424.066	85.5
424.288	87.5
424.511	105.5
424.733	101.5
424.956	101.5
425.178	110.5
425.401	110.5
425.623	86.5
425.846	85.5
426.068	100.5
426.291	87.5
426.513	102.5
426.735	94.5
426.958	96.5
427.18	109.5
427.402	152.5
427.625	228.5
427.847	207.5
428.069	172.5
428.292	115.5
428.514	77.5
428.736	86.5
428.958	85.5
429.181	89.5
429.403	81.5
429.625	100.5
429.847	84.5
430.069	113.5
430.292	99.5
430.514	97.5
430.736	91.5
430.958	73.5
431.18	92.5
431.402	86.5
431.624	89.5
431.846	85.5
432.068	81.5
432.29	90.5
432.512	79.5
432.734	93.5
432.956	92.5
433.178	92.5
433.4	96.5
433.622	95.5
433.844	84.5
434.066	80.5
434.287	93.5
434.509	83.5
434.731	63.5
434.953	80.5
435.175	94.5
435.397	97.5
435.618	83.5
435.84	105.5
436.062	114.5
436.284	106.5
436.505	91.5
436.727	92.5
436.949	96.5
437.17	99.5
437.392	101.5
437.614	93.5
437.835	127.5
438.057	113.5
438.278	113.5
438.5	106.5
438.721	104.5
438.943	112.5
439.165	89.5
439.386	74.5
439.608	91.5
439.829	99.5
440.05	143.5
440.272	148.5
440.493	94.5
440.715	88.5
440.936	77.5
441.158	104.5
441.379	84.5
441.6	106.5
441.822	104.5
442.043	87.5
442.264	107.5
442.486	111.5
442.707	100.5
442.928	100.5
443.149	152.5
443.371	139.5
443.592	132.5
443.813	119.5
444.034	114.5
444.255	95.5
444.476	91.5
444.698	92.5
444.919	83.5
445.14	126.5
445.361	115.5
445.582	125.5
445.803	152.5
446.024	155.5
446.245	142.5
446.466	111.5
446.687	75.5
446.908	91.5
447.129	83.5
447.35	82.5
447.571	100.5
447.792	93.5
448.013	83.5
448.234	110.5
448.455	91.5
448.675	100.5
448.896	120.5
449.117	101.5
449.338	106.5
449.559	108.5
449.779	135.5
450	88.5
450.221	85.5
450.442	100.5
450.662	103.5
450.883	113.5
451.104	126.5
451.324	104.5
451.545	99.5
451.766	80.5
451.986	86.5
452.207	75.5
452.428	102.5
452.648	106.5
452.869	132.5
453.089	147.5
453.31	128.5
453.53	96.5
453.751	86.5
453.971	108.5
454.192	128.5
454.412	110.5
454.633	96.5
454.853	71.5
455.073	90.5
455.294	88.5
455.514	93.5
455.734	88.5
455.955	72.5
456.175	71.5
456.395	83.5
456.616	88.5
456.836	74.5
457.056	76.5
457.276	76.5
457.497	80.5
457.717	79.5
457.937	74.5
458.157	88.5
458.377	96.5
458.598	132.5
458.818	181.5
459.038	213.5
459.258	153.5
459.478	84.5
459.698	93.5
459.918	94.5
460.138	91.5
460.358	94.5
460.578	74.5
460.798	91.5
461.018	81.5
461.238	78.5
461.458	69.5
461.678	75.5
461.898	77.5
462.118	100.5
462.338	73.5
462.558	92.5
462.777	86.5
462.997	93.5
463.217	107.5
463.437	95.5
463.657	89.5
463.876	95.5
464.096	83.5
464.316	91.5
464.536	94.5
464.755	89.5
464.975	103.5
465.195	224.5
465.414	219.5
465.634	117.5
465.854	94.5
466.073	81.5
466.293	78.5
466.512	88.5
466.732	99.5
466.951	93.5
467.171	90.5
467.391	103.5
467.61	136.5
467.829	160.5
468.049	389.5
468.268	545.5
468.488	161.5
468.707	113.5
468.927	84.5
469.146	83.5
469.365	85.5
469.585	98.5
469.804	94.5
470.023	118.5
470.243	96.5
470.462	99.5
470.681	117.5
470.901	109.5
471.12	99.5
471.339	98.5
471.558	108.5
471.777	129.5
471.997	240.5
472.216	747.5
472.435	1605.5
472.654	395.5
472.873	131.5
473.092	101.5
473.311	87.5
473.53	81.5
473.749	91.5
473.968	106.5
474.187	117.5
474.406	105.5
474.625	98.5
474.844	86.5
475.063	93.5
475.282	82.5
475.501	89.5
475.72	77.5
475.939	82.5
476.158	80.5
476.377	84.5
476.596	92.5
476.814	109.5
477.033	91.5
477.252	74.5
477.471	85.5
477.69	79.5
477.908	82.5
478.127	88.5
478.346	79.5
478.564	85.5
478.783	90.5
479.002	101.5
479.22	96.5
479.439	125.5
479.658	114.5
479.876	113.5
480.095	110.5
480.313	113.5
480.532	137.5
480.751	210.5
480.969	679.5
481.188	2727.5
481.406	1555.5
481.624	262.5
481.843	109.5
482.061	95.5
482.28	83.5
482.498	82.5
482.717	92.5
482.935	84.5
483.153	88.5
483.372	86.5
483.59	79.5
483.808	94.5
484.027	91.5
484.245	81.5
484.463	91.5
484.681	93.5
484.9	73.5
485.118	84.5
485.336	102.5
485.554	91.5
485.772	95.5
485.99	105.5
486.209	107.5
486.427	94.5
486.645	118.5
486.863	112.5
487.081	102.5
487.299	95.5
487.517	103.5
487.735	69.5
487.953	103.5
488.171	106.5
488.389	101.5
488.607	105.5
488.825	96.5
489.043	92.5
489.261	94.5
489.479	90.5
489.696	92.5
489.914	91.5
490.132	93.5
490.35	93.5
490.568	86.5
490.786	79.5
491.003	80.5
491.221	88.5
491.439	86.5
491.657	77.5
491.874	84.5
492.092	81.5
492.31	84.5
492.527	100.5
492.745	101.5
492.963	91.5
493.18	82.5
493.398	74.5
493.615	91.5
493.833	86.5
494.05	89.5
494.268	94.5
494.485	73.5
494.703	85.5
494.92	88.5
495.138	77.5
495.355	85.5
495.573	79.5
495.79	69.5
496.008	91.5
496.225	82.5
496.442	87.5
496.66	100.5
496.877	93.5
497.094	95.5
497.312	86.5
497.529	91.5
497.746	80.5
497.963	89.5
498.181	79.5
498.398	83.5
498.615	118.5
498.832	90.5
499.049	78.5
499.267	77.5
499.484	89.5
499.701	92.5
499.918	89.5
500.135	99.5
500.352	87.5
500.569	87.5
500.786	89.5
501.003	95.5
501.22	78.5
501.437	88.5
501.654	92.5
501.871	109.5
502.088	83.5
502.305	89.5
502.522	86.5
502.739	64.5
502.956	83.5
503.172	84.5
503.389	99.5
503.606	96.5
503.823	107.5
504.04	107.5
504.256	88.5
504.473	88.5
504.69	87.5
504.907	96.5
505.123	99.5
505.34	69.5
505.557	97.5
505.773	92.5
505.99	79.5
506.207	75.5
506.423	94.5
506.64	103.5
506.856	83.5
507.073	71.5
507.289	88.5
507.506	105.5
507.722	124.5
507.939	120.5
508.155	92.5
508.372	93.5
508.588	84.5
508.805	76.5
509.021	88.5
509.238	93.5
509.454	94.5
509.67	107.5
509.887	121.5
510.103	155.5
510.319	242.5
510.536	921.5
510.752	3241.5
510.968	852.5
511.184	180.5
511.401	126.5
511.617	95.5
511.833	86.5
512.049	91.5
512.265	92.5
512.481	95.5
512.698	87.5
512.914	96.5
513.13	96.5
513.346	102.5
513.562	109.5
513.778	94.5
513.994	91.5
514.21	111.5
514.426	134.5
514.642	163.5
514.858	150.5
515.074	226.5
515.29	667.5
515.506	2391.5
515.721	837.5
515.937	189.5
516.153	123.5
516.369	102.5
516.585	99.5
516.801	96.5
517.016	99.5
517.232	97.5
517.448	88.5
517.664	90.5
517.879	89.5
518.095	75.5
518.311	85.5
518.527	104.5
518.742	97.5
518.958	86.5
519.173	76.5
519.389	103.5
519.605	84.5
519.82	99.5
520.036	93.5
520.251	121.5
520.467	126.5
520.682	119.5
520.898	119.5
521.113	130.5
521.329	172.5
521.544	280.5
521.76	869.5
521.975	4008.5
522.19	2335.5
522.406	464.5
522.621	163.5
522.836	118.5
523.052	115.5
523.267	89.5
523.482	95.5
523.698	104.5
523.913	126.5
524.128	109.5
524.343	99.5
524.559	96.5
524.774	80.5
524.989	111.5
525.204	111.5
525.419	85.5
525.634	93.5
525.849	85.5
526.064	107.5
526.28	96.5
526.495	82.5
526.71	91.5
526.925	87.5
527.14	76.5
527.355	80.5
527.57	90.5
527.785	77.5
527.999	88.5
528.214	97.5
528.429	94.5
528.644	80.5
528.859	82.5
529.074	100.5
529.289	157.5
529.503	242.5
529.718	126.5
529.933	93.5
530.148	101.5
530.363	96.5
530.577	84.5
530.792	85.5
531.007	85.5
531.221	80.5
531.436	95.5
531.651	89.5
531.865	91.5
532.08	85.5
532.295	95.5
532.509	101.5
532.724	79.5
532.938	81.5
533.153	73.5
533.367	83.5
533.582	81.5
533.796	78.5
534.011	86.5
534.225	103.5
534.44	71.5
