Data from Circ_2001_H10_HRD10591_00044.txt Node
Date: Wed Jan 03 10:45:47 EST 2024
User: Yrep
Spectrometer: HR+D1059
Trigger mode: 1
Integration Time (sec): 1.000000E-1
Scans to average: 1
Electric dark correction enabled: true
Nonlinearity correction enabled: false
Boxcar width: 0
XAxis mode: Wavelengths
Number of Pixels in Spectrum: 2048
>>>>>Begin Spectral Data<<<<<
223.165	-8.56
223.4	-8.56
223.635	-8.56
223.869	-7.56
224.104	-28.56
224.338	-10.56
224.573	-14.56
224.808	-2.56
225.042	-17.56
225.277	-11.56
225.511	-6.56
225.746	0.44
225.98	5.44
226.215	9.44
226.449	15.44
226.683	20.44
226.918	27.44
227.152	29.44
227.387	26.44
227.621	34.44
227.856	40.44
228.09	33.44
228.324	53.44
228.559	55.44
228.793	57.44
229.027	68.44
229.262	62.44
229.496	81.44
229.73	79.44
229.964	84.44
230.199	74.44
230.433	86.44
230.667	84.44
230.901	79.44
231.136	70.44
231.37	85.44
231.604	90.44
231.838	90.44
232.072	76.44
232.306	72.44
232.541	82.44
232.775	83.44
233.009	93.44
233.243	84.44
233.477	88.44
233.711	80.44
233.945	84.44
234.179	83.44
234.413	80.44
234.647	79.44
234.881	83.44
235.115	75.44
235.349	83.44
235.583	74.44
235.817	58.44
236.051	69.44
236.285	71.44
236.519	83.44
236.753	74.44
236.987	56.44
237.221	87.44
237.455	88.44
237.689	80.44
237.922	76.44
238.156	77.44
238.39	67.44
238.624	78.44
238.858	67.44
239.091	68.44
239.325	74.44
239.559	94.44
239.793	79.44
240.027	80.44
240.26	71.44
240.494	80.44
240.728	81.44
240.961	88.44
241.195	75.44
241.429	59.44
241.662	76.44
241.896	87.44
242.13	82.44
242.363	74.44
242.597	90.44
242.83	89.44
243.064	60.44
243.298	72.44
243.531	79.44
243.765	79.44
243.998	81.44
244.232	69.44
244.465	74.44
244.699	71.44
244.932	82.44
245.166	72.44
245.399	80.44
245.633	86.44
245.866	82.44
246.099	84.44
246.333	89.44
246.566	81.44
246.8	95.44
247.033	92.44
247.266	84.44
247.5	75.44
247.733	81.44
247.966	88.44
248.2	83.44
248.433	69.44
248.666	92.44
248.899	83.44
249.133	83.44
249.366	93.44
249.599	96.44
249.832	80.44
250.066	77.44
250.299	87.44
250.532	89.44
250.765	83.44
250.998	81.44
251.231	73.44
251.465	82.44
251.698	84.44
251.931	82.44
252.164	81.44
252.397	81.44
252.63	80.44
252.863	68.44
253.096	90.44
253.329	90.44
253.562	88.44
253.795	88.44
254.028	67.44
254.261	78.44
254.494	76.44
254.727	86.44
254.96	81.44
255.193	97.44
255.426	83.44
255.659	84.44
255.892	90.44
256.124	93.44
256.357	81.44
256.59	82.44
256.823	77.44
257.056	81.44
257.289	75.44
257.521	75.44
257.754	84.44
257.987	79.44
258.22	80.44
258.452	85.44
258.685	100.44
258.918	72.44
259.151	67.44
259.383	98.44
259.616	75.44
259.849	84.44
260.081	86.44
260.314	79.44
260.547	90.44
260.779	85.44
261.012	96.44
261.244	95.44
261.477	86.44
261.71	80.44
261.942	113.44
262.175	125.44
262.407	88.44
262.64	64.44
262.872	75.44
263.105	76.44
263.337	81.44
263.57	74.44
263.802	84.44
264.035	90.44
264.267	70.44
264.499	88.44
264.732	94.44
264.964	75.44
265.197	71.44
265.429	83.44
265.661	85.44
265.894	88.44
266.126	83.44
266.358	86.44
266.591	83.44
266.823	84.44
267.055	84.44
267.287	67.44
267.52	80.44
267.752	91.44
267.984	89.44
268.216	81.44
268.448	89.44
268.681	80.44
268.913	83.44
269.145	85.44
269.377	89.44
269.609	77.44
269.841	92.44
270.073	81.44
270.306	89.44
270.538	85.44
270.77	92.44
271.002	90.44
271.234	80.44
271.466	95.44
271.698	83.44
271.93	91.44
272.162	103.44
272.394	93.44
272.626	91.44
272.858	91.44
273.09	82.44
273.322	84.44
273.553	83.44
273.785	97.44
274.017	98.44
274.249	96.44
274.481	87.44
274.713	79.44
274.945	105.44
275.176	85.44
275.408	88.44
275.64	100.44
275.872	94.44
276.104	93.44
276.335	83.44
276.567	120.44
276.799	116.44
277.031	118.44
277.262	125.44
277.494	115.44
277.726	82.44
277.957	97.44
278.189	81.44
278.421	92.44
278.652	102.44
278.884	92.44
279.115	88.44
279.347	90.44
279.579	87.44
279.81	104.44
280.042	129.44
280.273	172.44
280.505	130.44
280.736	100.44
280.968	77.44
281.199	84.44
281.431	91.44
281.662	91.44
281.894	102.44
282.125	101.44
282.356	117.44
282.588	130.44
282.819	120.44
283.051	95.44
283.282	99.44
283.513	108.44
283.745	84.44
283.976	92.44
284.207	90.44
284.439	87.44
284.67	83.44
284.901	87.44
285.132	88.44
285.364	74.44
285.595	83.44
285.826	80.44
286.057	75.44
286.288	86.44
286.52	86.44
286.751	80.44
286.982	91.44
287.213	88.44
287.444	91.44
287.675	80.44
287.906	96.44
288.138	89.44
288.369	70.44
288.6	97.44
288.831	91.44
289.062	91.44
289.293	80.44
289.524	80.44
289.755	77.44
289.986	96.44
290.217	84.44
290.448	87.44
290.679	80.44
290.91	92.44
291.141	88.44
291.371	91.44
291.602	94.44
291.833	79.44
292.064	83.44
292.295	69.44
292.526	71.44
292.757	82.44
292.987	90.44
293.218	97.44
293.449	76.44
293.68	79.44
293.91	91.44
294.141	92.44
294.372	88.44
294.603	91.44
294.833	99.44
295.064	81.44
295.295	84.44
295.525	95.44
295.756	107.44
295.987	129.44
296.217	149.44
296.448	113.44
296.679	92.44
296.909	100.44
297.14	92.44
297.37	86.44
297.601	92.44
297.831	87.44
298.062	92.44
298.292	79.44
298.523	96.44
298.753	92.44
298.984	88.44
299.214	88.44
299.445	102.44
299.675	94.44
299.905	101.44
300.136	99.44
300.366	88.44
300.597	91.44
300.827	85.44
301.057	96.44
301.288	92.44
301.518	106.44
301.748	82.44
301.979	110.44
302.209	99.44
302.439	89.44
302.669	93.44
302.9	93.44
303.13	99.44
303.36	100.44
303.59	113.44
303.82	125.44
304.051	88.44
304.281	91.44
304.511	95.44
304.741	82.44
304.971	75.44
305.201	90.44
305.431	93.44
305.661	84.44
305.891	89.44
306.121	101.44
306.352	100.44
306.582	106.44
306.812	101.44
307.042	116.44
307.272	120.44
307.502	134.44
307.731	129.44
307.961	108.44
308.191	92.44
308.421	95.44
308.651	83.44
308.881	84.44
309.111	73.44
309.341	87.44
309.571	96.44
309.8	106.44
310.03	88.44
310.26	87.44
310.49	98.44
310.72	96.44
310.949	98.44
311.179	100.44
311.409	85.44
311.639	104.44
311.868	80.44
312.098	98.44
312.328	100.44
312.557	105.44
312.787	92.44
313.017	112.44
313.246	98.44
313.476	102.44
313.706	92.44
313.935	111.44
314.165	106.44
314.394	105.44
314.624	104.44
314.853	83.44
315.083	94.44
315.312	93.44
315.542	89.44
315.771	86.44
316.001	81.44
316.23	100.44
316.46	85.44
316.689	89.44
316.919	99.44
317.148	98.44
317.377	102.44
317.607	100.44
317.836	99.44
318.065	88.44
318.295	93.44
318.524	98.44
318.753	99.44
318.983	87.44
319.212	97.44
319.441	100.44
319.67	109.44
319.9	99.44
320.129	92.44
320.358	94.44
320.587	108.44
320.816	106.44
321.046	102.44
321.275	98.44
321.504	88.44
321.733	84.44
321.962	90.44
322.191	112.44
322.42	104.44
322.649	110.44
322.878	102.44
323.108	114.44
323.337	131.44
323.566	125.44
323.795	165.44
324.024	209.44
324.253	405.44
324.482	837.44
324.71	1724.44
324.939	2230.44
325.168	838.44
325.397	263.44
325.626	153.44
325.855	129.44
326.084	144.44
326.313	123.44
326.542	151.44
326.77	227.44
326.999	447.44
327.228	944.44
327.457	1724.44
327.686	1347.44
327.914	419.44
328.143	351.44
328.372	361.44
328.6	215.44
328.829	143.44
329.058	143.44
329.287	144.44
329.515	140.44
329.744	167.44
329.972	308.44
330.201	537.44
330.43	731.44
330.658	350.44
330.887	201.44
331.115	163.44
331.344	119.44
331.572	98.44
331.801	105.44
332.03	112.44
332.258	111.44
332.486	103.44
332.715	112.44
332.943	100.44
333.172	100.44
333.4	120.44
333.629	144.44
333.857	161.44
334.085	272.44
334.314	512.44
334.542	925.44
334.771	833.44
334.999	262.44
335.227	119.44
335.455	114.44
335.684	109.44
335.912	107.44
336.14	113.44
336.369	94.44
336.597	105.44
336.825	97.44
337.053	89.44
337.281	101.44
337.51	105.44
337.738	93.44
337.966	101.44
338.194	97.44
338.422	86.44
338.65	91.44
338.878	78.44
339.106	88.44
339.334	92.44
339.562	94.44
339.79	89.44
340.018	94.44
340.246	91.44
340.474	99.44
340.702	96.44
340.93	97.44
341.158	100.44
341.386	97.44
341.614	77.44
341.842	97.44
342.07	91.44
342.298	92.44
342.526	105.44
342.754	83.44
342.981	94.44
343.209	106.44
343.437	102.44
343.665	91.44
343.893	93.44
344.12	100.44
344.348	84.44
344.576	91.44
344.804	91.44
345.031	98.44
345.259	85.44
345.487	101.44
345.714	87.44
345.942	89.44
346.17	93.44
346.397	88.44
346.625	105.44
346.853	98.44
347.08	90.44
347.308	99.44
347.535	93.44
347.763	93.44
347.99	94.44
348.218	105.44
348.445	97.44
348.673	100.44
348.9	96.44
349.128	96.44
349.355	97.44
349.583	109.44
349.81	79.44
350.037	94.44
350.265	92.44
350.492	101.44
350.72	108.44
350.947	110.44
351.174	126.44
351.402	117.44
351.629	96.44
351.856	105.44
352.083	106.44
352.311	106.44
352.538	105.44
352.765	86.44
352.992	124.44
353.22	109.44
353.447	91.44
353.674	104.44
353.901	97.44
354.128	82.44
354.355	92.44
354.583	92.44
354.81	88.44
355.037	97.44
355.264	92.44
355.491	87.44
355.718	88.44
355.945	103.44
356.172	89.44
356.399	96.44
356.626	100.44
356.853	86.44
357.08	88.44
357.307	84.44
357.534	71.44
357.761	88.44
357.988	86.44
358.215	88.44
358.441	101.44
358.668	91.44
358.895	91.44
359.122	80.44
359.349	92.44
359.576	88.44
359.802	95.44
360.029	105.44
360.256	111.44
360.483	117.44
360.709	79.44
360.936	86.44
361.163	94.44
361.39	101.44
361.616	89.44
361.843	104.44
362.07	84.44
362.296	93.44
362.523	107.44
362.749	97.44
362.976	92.44
363.203	99.44
363.429	80.44
363.656	88.44
363.882	92.44
364.109	101.44
364.335	90.44
364.562	95.44
364.788	97.44
365.015	97.44
365.241	104.44
365.468	97.44
365.694	124.44
365.92	102.44
366.147	86.44
366.373	81.44
366.599	89.44
366.826	86.44
367.052	80.44
367.278	94.44
367.505	97.44
367.731	108.44
367.957	91.44
368.184	88.44
368.41	116.44
368.636	121.44
368.862	109.44
369.089	104.44
369.315	101.44
369.541	110.44
369.767	87.44
369.993	92.44
370.219	91.44
370.445	85.44
370.672	80.44
370.898	104.44
371.124	90.44
371.35	76.44
371.576	103.44
371.802	98.44
372.028	89.44
372.254	86.44
372.48	87.44
372.706	84.44
372.932	89.44
373.158	98.44
373.384	100.44
373.61	102.44
373.835	98.44
374.061	91.44
374.287	96.44
374.513	86.44
374.739	85.44
374.965	99.44
375.191	98.44
375.416	103.44
375.642	90.44
375.868	92.44
376.094	90.44
376.319	96.44
376.545	81.44
376.771	96.44
376.997	97.44
377.222	97.44
377.448	99.44
377.674	77.44
377.899	93.44
378.125	92.44
378.35	76.44
378.576	91.44
378.802	100.44
379.027	77.44
379.253	94.44
379.478	88.44
379.704	81.44
379.929	89.44
380.155	90.44
380.38	97.44
380.606	96.44
380.831	92.44
381.057	97.44
381.282	100.44
381.507	100.44
381.733	91.44
381.958	90.44
382.184	110.44
382.409	99.44
382.634	88.44
382.86	103.44
383.085	81.44
383.31	98.44
383.535	91.44
383.761	109.44
383.986	107.44
384.211	105.44
384.436	97.44
384.662	97.44
384.887	85.44
385.112	101.44
385.337	100.44
385.562	99.44
385.787	94.44
386.013	105.44
386.238	104.44
386.463	101.44
386.688	97.44
386.913	109.44
387.138	111.44
387.363	99.44
387.588	99.44
387.813	91.44
388.038	100.44
388.263	115.44
388.488	119.44
388.713	100.44
388.938	88.44
389.163	94.44
389.387	97.44
389.612	94.44
389.837	94.44
390.062	101.44
390.287	84.44
390.512	92.44
390.736	101.44
390.961	85.44
391.186	81.44
391.411	85.44
391.636	74.44
391.86	81.44
392.085	100.44
392.31	78.44
392.534	79.44
392.759	90.44
392.984	79.44
393.208	101.44
393.433	93.44
393.658	97.44
393.882	69.44
394.107	86.44
394.331	100.44
394.556	99.44
394.78	98.44
395.005	90.44
395.229	93.44
395.454	85.44
395.678	78.44
395.903	91.44
396.127	97.44
396.352	91.44
396.576	86.44
396.801	90.44
397.025	84.44
397.249	79.44
397.474	90.44
397.698	99.44
397.922	95.44
398.147	72.44
398.371	101.44
398.595	95.44
398.82	105.44
399.044	84.44
399.268	82.44
399.492	88.44
399.717	88.44
399.941	82.44
400.165	105.44
400.389	101.44
400.613	91.44
400.837	67.44
401.062	99.44
401.286	92.44
401.51	98.44
401.734	97.44
401.958	102.44
402.182	118.44
402.406	159.44
402.63	114.44
402.854	107.44
403.078	98.44
403.302	80.44
403.526	94.44
403.75	84.44
403.974	74.44
404.198	93.44
404.422	91.44
404.645	89.44
404.869	88.44
405.093	104.44
405.317	109.44
405.541	107.44
405.765	114.44
405.988	120.44
406.212	175.44
406.436	231.44
406.66	152.44
406.883	107.44
407.107	93.44
407.331	89.44
407.555	103.44
407.778	104.44
408.002	79.44
408.226	90.44
408.449	94.44
408.673	102.44
408.896	75.44
409.12	92.44
409.344	99.44
409.567	89.44
409.791	88.44
410.014	91.44
410.238	97.44
410.461	92.44
410.685	83.44
410.908	81.44
411.132	103.44
411.355	92.44
411.578	83.44
411.802	81.44
412.025	88.44
412.249	100.44
412.472	97.44
412.695	128.44
412.919	88.44
413.142	84.44
413.365	88.44
413.589	98.44
413.812	87.44
414.035	90.44
414.258	94.44
414.482	99.44
414.705	81.44
414.928	101.44
415.151	88.44
415.374	91.44
415.597	89.44
415.821	101.44
416.044	99.44
416.267	89.44
416.49	93.44
416.713	90.44
416.936	92.44
417.159	86.44
417.382	83.44
417.605	92.44
417.828	111.44
418.051	99.44
418.274	89.44
418.497	86.44
418.72	80.44
418.943	92.44
419.166	81.44
419.389	93.44
419.611	91.44
419.834	83.44
420.057	83.44
420.28	102.44
420.503	84.44
420.726	91.44
420.948	84.44
421.171	98.44
421.394	92.44
421.617	90.44
421.839	88.44
422.062	86.44
422.285	87.44
422.507	83.44
422.73	96.44
422.953	101.44
423.175	86.44
423.398	97.44
423.621	92.44
423.843	76.44
424.066	90.44
424.288	92.44
424.511	83.44
424.733	111.44
424.956	101.44
425.178	102.44
425.401	92.44
425.623	91.44
425.846	88.44
426.068	104.44
426.291	90.44
426.513	84.44
426.735	98.44
426.958	102.44
427.18	109.44
427.402	148.44
427.625	182.44
427.847	175.44
428.069	161.44
428.292	120.44
428.514	87.44
428.736	84.44
428.958	82.44
429.181	72.44
429.403	77.44
429.625	90.44
429.847	102.44
430.069	102.44
430.292	96.44
430.514	92.44
430.736	90.44
430.958	82.44
431.18	83.44
431.402	85.44
431.624	81.44
431.846	85.44
432.068	85.44
432.29	103.44
432.512	103.44
432.734	93.44
432.956	94.44
433.178	95.44
433.4	97.44
433.622	86.44
433.844	97.44
434.066	84.44
434.287	81.44
434.509	83.44
434.731	80.44
434.953	91.44
435.175	91.44
435.397	93.44
435.618	91.44
435.84	100.44
436.062	114.44
436.284	103.44
436.505	97.44
436.727	97.44
436.949	99.44
437.17	105.44
437.392	78.44
437.614	101.44
437.835	117.44
438.057	122.44
438.278	101.44
438.5	97.44
438.721	119.44
438.943	107.44
439.165	87.44
439.386	86.44
439.608	95.44
439.829	99.44
440.05	132.44
440.272	127.44
440.493	97.44
440.715	82.44
440.936	82.44
441.158	90.44
441.379	90.44
441.6	80.44
441.822	92.44
442.043	98.44
442.264	103.44
442.486	94.44
442.707	97.44
442.928	98.44
443.149	134.44
443.371	130.44
443.592	113.44
443.813	113.44
444.034	100.44
444.255	87.44
444.476	84.44
444.698	95.44
444.919	87.44
445.14	140.44
445.361	127.44
445.582	122.44
445.803	151.44
446.024	137.44
446.245	137.44
446.466	123.44
446.687	95.44
446.908	85.44
447.129	81.44
447.35	80.44
447.571	90.44
447.792	83.44
448.013	90.44
448.234	108.44
448.455	111.44
448.675	122.44
448.896	112.44
449.117	107.44
449.338	98.44
449.559	134.44
449.779	135.44
450	91.44
450.221	81.44
450.442	89.44
450.662	86.44
450.883	96.44
451.104	111.44
451.324	95.44
451.545	74.44
451.766	91.44
451.986	83.44
452.207	87.44
452.428	104.44
452.648	105.44
452.869	112.44
453.089	128.44
453.31	116.44
453.53	95.44
453.751	78.44
453.971	106.44
454.192	109.44
454.412	104.44
454.633	91.44
454.853	99.44
455.073	85.44
455.294	93.44
455.514	94.44
455.734	87.44
455.955	81.44
456.175	74.44
456.395	91.44
456.616	86.44
456.836	84.44
457.056	88.44
457.276	74.44
457.497	92.44
457.717	89.44
457.937	101.44
458.157	85.44
458.377	102.44
458.598	110.44
458.818	155.44
459.038	178.44
459.258	118.44
459.478	97.44
459.698	72.44
459.918	94.44
460.138	79.44
460.358	86.44
460.578	89.44
460.798	99.44
461.018	86.44
461.238	92.44
461.458	95.44
461.678	82.44
461.898	80.44
462.118	97.44
462.338	89.44
462.558	88.44
462.777	88.44
462.997	112.44
463.217	94.44
463.437	95.44
463.657	96.44
463.876	88.44
464.096	84.44
464.316	102.44
464.536	99.44
464.755	92.44
464.975	123.44
465.195	173.44
465.414	171.44
465.634	96.44
465.854	83.44
466.073	99.44
466.293	92.44
466.512	92.44
466.732	95.44
466.951	95.44
467.171	91.44
467.391	95.44
467.61	107.44
467.829	133.44
468.049	311.44
468.268	450.44
468.488	151.44
468.707	101.44
468.927	81.44
469.146	100.44
469.365	90.44
469.585	92.44
469.804	97.44
470.023	98.44
470.243	103.44
470.462	109.44
470.681	109.44
470.901	93.44
471.12	97.44
471.339	91.44
471.558	114.44
471.777	118.44
471.997	202.44
472.216	651.44
472.435	1284.44
472.654	327.44
472.873	122.44
473.092	107.44
473.311	94.44
473.53	82.44
473.749	98.44
473.968	97.44
474.187	101.44
474.406	96.44
474.625	88.44
474.844	76.44
475.063	83.44
475.282	97.44
475.501	84.44
475.72	89.44
475.939	79.44
476.158	85.44
476.377	86.44
476.596	90.44
476.814	97.44
477.033	80.44
477.252	83.44
477.471	91.44
477.69	86.44
477.908	103.44
478.127	91.44
478.346	95.44
478.564	99.44
478.783	101.44
479.002	113.44
479.22	90.44
479.439	102.44
479.658	113.44
479.876	97.44
480.095	90.44
480.313	110.44
480.532	118.44
480.751	204.44
480.969	576.44
481.188	2227.44
481.406	1295.44
481.624	220.44
481.843	106.44
482.061	100.44
482.28	89.44
482.498	99.44
482.717	102.44
482.935	79.44
483.153	96.44
483.372	85.44
483.59	70.44
483.808	86.44
484.027	109.44
484.245	85.44
484.463	92.44
484.681	89.44
484.9	101.44
485.118	88.44
485.336	93.44
485.554	97.44
485.772	93.44
485.99	100.44
486.209	99.44
486.427	89.44
486.645	102.44
486.863	106.44
487.081	120.44
487.299	103.44
487.517	99.44
487.735	83.44
487.953	97.44
488.171	103.44
488.389	97.44
488.607	112.44
488.825	89.44
489.043	89.44
489.261	89.44
489.479	83.44
489.696	87.44
489.914	84.44
490.132	91.44
490.35	68.44
490.568	80.44
490.786	90.44
491.003	84.44
491.221	97.44
491.439	89.44
491.657	90.44
491.874	90.44
492.092	88.44
492.31	100.44
492.527	90.44
492.745	94.44
492.963	80.44
493.18	100.44
493.398	94.44
493.615	87.44
493.833	89.44
494.05	90.44
494.268	96.44
494.485	95.44
494.703	97.44
494.92	96.44
495.138	90.44
495.355	93.44
495.573	88.44
495.79	74.44
496.008	92.44
496.225	97.44
496.442	90.44
496.66	86.44
496.877	93.44
497.094	89.44
497.312	86.44
497.529	87.44
497.746	88.44
497.963	95.44
498.181	94.44
498.398	91.44
498.615	110.44
498.832	109.44
499.049	103.44
499.267	100.44
499.484	72.44
499.701	89.44
499.918	92.44
500.135	88.44
500.352	82.44
500.569	90.44
500.786	88.44
501.003	84.44
501.22	90.44
501.437	91.44
501.654	79.44
501.871	98.44
502.088	87.44
502.305	85.44
502.522	92.44
502.739	95.44
502.956	106.44
503.172	86.44
503.389	110.44
503.606	114.44
503.823	109.44
504.04	106.44
504.256	88.44
504.473	83.44
504.69	88.44
504.907	96.44
505.123	99.44
505.34	93.44
505.557	87.44
505.773	83.44
505.99	82.44
506.207	82.44
506.423	89.44
506.64	74.44
506.856	92.44
507.073	97.44
507.289	110.44
507.506	92.44
507.722	117.44
507.939	114.44
508.155	100.44
508.372	77.44
508.588	114.44
508.805	76.44
509.021	97.44
509.238	100.44
509.454	97.44
509.67	98.44
509.887	111.44
510.103	119.44
510.319	201.44
510.536	727.44
510.752	2257.44
510.968	649.44
511.184	158.44
511.401	121.44
511.617	116.44
511.833	103.44
512.049	98.44
512.265	89.44
512.481	82.44
512.698	81.44
512.914	89.44
513.13	102.44
513.346	92.44
513.562	87.44
513.778	104.44
513.994	89.44
514.21	97.44
514.426	107.44
514.642	150.44
514.858	133.44
