Data from Circ_2001_H10_HRD10591_00040.txt Node
Date: Wed Jan 03 10:45:46 EST 2024
User: Yrep
Spectrometer: HR+D1059
Trigger mode: 1
Integration Time (sec): 1.000000E-1
Scans to average: 1
Electric dark correction enabled: true
Nonlinearity correction enabled: false
Boxcar width: 0
XAxis mode: Wavelengths
Number of Pixels in Spectrum: 2048
>>>>>Begin Spectral Data<<<<<
223.165	-12.88
223.4	-12.88
223.635	-12.88
223.869	-11.88
224.104	-25.88
224.338	-21.88
224.573	-11.88
224.808	-9.88
225.042	-11.88
225.277	-12.88
225.511	-7.88
225.746	5.12
225.98	25.12
226.215	1.12
226.449	27.12
226.683	21.12
226.918	12.12
227.152	35.12
227.387	24.12
227.621	30.12
227.856	51.12
228.09	38.12
228.324	48.12
228.559	62.12
228.793	52.12
229.027	65.12
229.262	50.12
229.496	76.12
229.73	69.12
229.964	64.12
230.199	65.12
230.433	85.12
230.667	75.12
230.901	68.12
231.136	78.12
231.37	93.12
231.604	71.12
231.838	68.12
232.072	73.12
232.306	66.12
232.541	82.12
232.775	72.12
233.009	77.12
233.243	89.12
233.477	85.12
233.711	76.12
233.945	64.12
234.179	77.12
234.413	77.12
234.647	79.12
234.881	81.12
235.115	69.12
235.349	80.12
235.583	81.12
235.817	76.12
236.051	67.12
236.285	67.12
236.519	80.12
236.753	64.12
236.987	76.12
237.221	94.12
237.455	78.12
237.689	82.12
237.922	66.12
238.156	66.12
238.39	75.12
238.624	68.12
238.858	87.12
239.091	77.12
239.325	82.12
239.559	85.12
239.793	80.12
240.027	83.12
240.26	83.12
240.494	72.12
240.728	85.12
240.961	69.12
241.195	71.12
241.429	67.12
241.662	90.12
241.896	76.12
242.13	66.12
242.363	77.12
242.597	73.12
242.83	93.12
243.064	90.12
243.298	82.12
243.531	92.12
243.765	79.12
243.998	89.12
244.232	74.12
244.465	76.12
244.699	81.12
244.932	88.12
245.166	85.12
245.399	78.12
245.633	87.12
245.866	71.12
246.099	73.12
246.333	75.12
246.566	89.12
246.8	69.12
247.033	73.12
247.266	83.12
247.5	66.12
247.733	65.12
247.966	86.12
248.2	83.12
248.433	72.12
248.666	73.12
248.899	78.12
249.133	89.12
249.366	90.12
249.599	96.12
249.832	81.12
250.066	85.12
250.299	73.12
250.532	78.12
250.765	72.12
250.998	71.12
251.231	67.12
251.465	80.12
251.698	76.12
251.931	72.12
252.164	72.12
252.397	77.12
252.63	74.12
252.863	78.12
253.096	74.12
253.329	77.12
253.562	70.12
253.795	88.12
254.028	67.12
254.261	83.12
254.494	94.12
254.727	87.12
254.96	74.12
255.193	78.12
255.426	71.12
255.659	73.12
255.892	81.12
256.124	84.12
256.357	78.12
256.59	79.12
256.823	80.12
257.056	88.12
257.289	86.12
257.521	87.12
257.754	82.12
257.987	85.12
258.22	99.12
258.452	77.12
258.685	81.12
258.918	83.12
259.151	74.12
259.383	60.12
259.616	81.12
259.849	73.12
260.081	82.12
260.314	86.12
260.547	90.12
260.779	93.12
261.012	86.12
261.244	90.12
261.477	98.12
261.71	85.12
261.942	106.12
262.175	114.12
262.407	89.12
262.64	85.12
262.872	92.12
263.105	72.12
263.337	77.12
263.57	94.12
263.802	61.12
264.035	87.12
264.267	74.12
264.499	77.12
264.732	69.12
264.964	95.12
265.197	72.12
265.429	76.12
265.661	66.12
265.894	79.12
266.126	77.12
266.358	76.12
266.591	95.12
266.823	81.12
267.055	72.12
267.287	83.12
267.52	81.12
267.752	80.12
267.984	83.12
268.216	80.12
268.448	72.12
268.681	81.12
268.913	80.12
269.145	89.12
269.377	77.12
269.609	84.12
269.841	109.12
270.073	87.12
270.306	94.12
270.538	93.12
270.77	78.12
271.002	77.12
271.234	85.12
271.466	99.12
271.698	77.12
271.93	86.12
272.162	93.12
272.394	77.12
272.626	81.12
272.858	72.12
273.09	77.12
273.322	89.12
273.553	84.12
273.785	79.12
274.017	67.12
274.249	84.12
274.481	84.12
274.713	81.12
274.945	75.12
275.176	85.12
275.408	79.12
275.64	90.12
275.872	100.12
276.104	81.12
276.335	101.12
276.567	93.12
276.799	105.12
277.031	127.12
277.262	114.12
277.494	103.12
277.726	87.12
277.957	95.12
278.189	85.12
278.421	86.12
278.652	76.12
278.884	90.12
279.115	96.12
279.347	99.12
279.579	86.12
279.81	89.12
280.042	128.12
280.273	154.12
280.505	121.12
280.736	76.12
280.968	89.12
281.199	78.12
281.431	86.12
281.662	93.12
281.894	68.12
282.125	85.12
282.356	109.12
282.588	140.12
282.819	101.12
283.051	84.12
283.282	88.12
283.513	80.12
283.745	93.12
283.976	88.12
284.207	83.12
284.439	92.12
284.67	82.12
284.901	89.12
285.132	79.12
285.364	98.12
285.595	81.12
285.826	83.12
286.057	80.12
286.288	80.12
286.52	68.12
286.751	87.12
286.982	88.12
287.213	81.12
287.444	85.12
287.675	92.12
287.906	79.12
288.138	97.12
288.369	98.12
288.6	83.12
288.831	78.12
289.062	88.12
289.293	90.12
289.524	85.12
289.755	82.12
289.986	77.12
290.217	92.12
290.448	66.12
290.679	93.12
290.91	80.12
291.141	88.12
291.371	73.12
291.602	77.12
291.833	94.12
292.064	70.12
292.295	80.12
292.526	87.12
292.757	79.12
292.987	89.12
293.218	94.12
293.449	87.12
293.68	81.12
293.91	90.12
294.141	89.12
294.372	82.12
294.603	77.12
294.833	91.12
295.064	72.12
295.295	80.12
295.525	82.12
295.756	106.12
295.987	114.12
296.217	117.12
296.448	122.12
296.679	86.12
296.909	83.12
297.14	89.12
297.37	83.12
297.601	66.12
297.831	81.12
298.062	84.12
298.292	98.12
298.523	93.12
298.753	95.12
298.984	81.12
299.214	80.12
299.445	81.12
299.675	88.12
299.905	108.12
300.136	94.12
300.366	90.12
300.597	73.12
300.827	93.12
301.057	102.12
301.288	103.12
301.518	93.12
301.748	87.12
301.979	100.12
302.209	69.12
302.439	80.12
302.669	97.12
302.9	89.12
303.13	96.12
303.36	103.12
303.59	98.12
303.82	104.12
304.051	90.12
304.281	92.12
304.511	80.12
304.741	88.12
304.971	89.12
305.201	86.12
305.431	91.12
305.661	84.12
305.891	104.12
306.121	115.12
306.352	85.12
306.582	89.12
306.812	83.12
307.042	104.12
307.272	110.12
307.502	119.12
307.731	134.12
307.961	100.12
308.191	89.12
308.421	93.12
308.651	85.12
308.881	89.12
309.111	88.12
309.341	101.12
309.571	90.12
309.8	101.12
310.03	88.12
310.26	82.12
310.49	87.12
310.72	90.12
310.949	90.12
311.179	98.12
311.409	93.12
311.639	88.12
311.868	87.12
312.098	89.12
312.328	81.12
312.557	104.12
312.787	102.12
313.017	114.12
313.246	98.12
313.476	96.12
313.706	103.12
313.935	94.12
314.165	100.12
314.394	113.12
314.624	93.12
314.853	96.12
315.083	84.12
315.312	87.12
315.542	88.12
315.771	81.12
316.001	81.12
316.23	88.12
316.46	90.12
316.689	87.12
316.919	90.12
317.148	97.12
317.377	87.12
317.607	90.12
317.836	89.12
318.065	87.12
318.295	100.12
318.524	92.12
318.753	86.12
318.983	89.12
319.212	94.12
319.441	105.12
319.67	93.12
319.9	93.12
320.129	84.12
320.358	90.12
320.587	87.12
320.816	86.12
321.046	93.12
321.275	95.12
321.504	91.12
321.733	103.12
321.962	104.12
322.191	86.12
322.42	103.12
322.649	113.12
322.878	109.12
323.108	111.12
323.337	127.12
323.566	136.12
323.795	148.12
324.024	208.12
324.253	387.12
324.482	845.12
324.71	1764.12
324.939	2349.12
325.168	844.12
325.397	244.12
325.626	158.12
325.855	118.12
326.084	133.12
326.313	140.12
326.542	158.12
326.77	227.12
326.999	491.12
327.228	1012.12
327.457	1788.12
327.686	1474.12
327.914	448.12
328.143	334.12
328.372	353.12
328.6	226.12
328.829	157.12
329.058	152.12
329.287	153.12
329.515	148.12
329.744	165.12
329.972	293.12
330.201	538.12
330.43	692.12
330.658	336.12
330.887	200.12
331.115	128.12
331.344	104.12
331.572	100.12
331.801	115.12
332.03	104.12
332.258	89.12
332.486	84.12
332.715	98.12
332.943	100.12
333.172	116.12
333.4	108.12
333.629	121.12
333.857	172.12
334.085	275.12
334.314	488.12
334.542	906.12
334.771	813.12
334.999	233.12
335.227	135.12
335.455	113.12
335.684	105.12
335.912	95.12
336.14	86.12
336.369	90.12
336.597	101.12
336.825	104.12
337.053	81.12
337.281	86.12
337.51	89.12
337.738	86.12
337.966	92.12
338.194	94.12
338.422	81.12
338.65	95.12
338.878	92.12
339.106	89.12
339.334	86.12
339.562	86.12
339.79	84.12
340.018	73.12
340.246	92.12
340.474	100.12
340.702	107.12
340.93	83.12
341.158	100.12
341.386	102.12
341.614	93.12
341.842	82.12
342.07	79.12
342.298	101.12
342.526	96.12
342.754	76.12
342.981	74.12
343.209	88.12
343.437	83.12
343.665	97.12
343.893	75.12
344.12	89.12
344.348	76.12
344.576	67.12
344.804	88.12
345.031	97.12
345.259	94.12
345.487	88.12
345.714	102.12
345.942	90.12
346.17	81.12
346.397	73.12
346.625	82.12
346.853	87.12
347.08	85.12
347.308	104.12
347.535	96.12
347.763	99.12
347.99	81.12
348.218	94.12
348.445	101.12
348.673	80.12
348.9	85.12
349.128	96.12
349.355	102.12
349.583	89.12
349.81	109.12
350.037	89.12
350.265	87.12
350.492	86.12
350.72	105.12
350.947	103.12
351.174	115.12
351.402	96.12
351.629	98.12
351.856	99.12
352.083	91.12
352.311	101.12
352.538	100.12
352.765	105.12
352.992	102.12
353.22	112.12
353.447	100.12
353.674	104.12
353.901	82.12
354.128	78.12
354.355	101.12
354.583	96.12
354.81	81.12
355.037	87.12
355.264	100.12
355.491	100.12
355.718	70.12
355.945	94.12
356.172	90.12
356.399	103.12
356.626	86.12
356.853	96.12
357.08	81.12
357.307	85.12
357.534	81.12
357.761	90.12
357.988	102.12
358.215	89.12
358.441	86.12
358.668	84.12
358.895	69.12
359.122	85.12
359.349	90.12
359.576	106.12
359.802	101.12
360.029	102.12
360.256	103.12
360.483	86.12
360.709	91.12
360.936	93.12
361.163	96.12
361.39	70.12
361.616	98.12
361.843	89.12
362.07	87.12
362.296	67.12
362.523	82.12
362.749	94.12
362.976	84.12
363.203	92.12
363.429	80.12
363.656	87.12
363.882	94.12
364.109	94.12
364.335	85.12
364.562	89.12
364.788	80.12
365.015	100.12
365.241	97.12
365.468	119.12
365.694	97.12
365.92	85.12
366.147	83.12
366.373	92.12
366.599	64.12
366.826	77.12
367.052	77.12
367.278	89.12
367.505	86.12
367.731	85.12
367.957	78.12
368.184	86.12
368.41	104.12
368.636	117.12
368.862	113.12
369.089	94.12
369.315	91.12
369.541	96.12
369.767	84.12
369.993	101.12
370.219	73.12
370.445	77.12
370.672	74.12
370.898	86.12
371.124	89.12
371.35	80.12
371.576	80.12
371.802	82.12
372.028	82.12
372.254	85.12
372.48	88.12
372.706	84.12
372.932	85.12
373.158	87.12
373.384	103.12
373.61	92.12
373.835	87.12
374.061	91.12
374.287	89.12
374.513	76.12
374.739	84.12
374.965	73.12
375.191	87.12
375.416	82.12
375.642	78.12
375.868	96.12
376.094	81.12
376.319	83.12
376.545	88.12
376.771	81.12
376.997	94.12
377.222	90.12
377.448	91.12
377.674	91.12
377.899	86.12
378.125	84.12
378.35	85.12
378.576	83.12
378.802	78.12
379.027	87.12
379.253	86.12
379.478	93.12
379.704	88.12
379.929	89.12
380.155	91.12
380.38	97.12
380.606	94.12
380.831	90.12
381.057	93.12
381.282	93.12
381.507	110.12
381.733	101.12
381.958	95.12
382.184	91.12
382.409	88.12
382.634	104.12
382.86	101.12
383.085	112.12
383.31	98.12
383.535	84.12
383.761	87.12
383.986	98.12
384.211	96.12
384.436	92.12
384.662	95.12
384.887	103.12
385.112	101.12
385.337	94.12
385.562	107.12
385.787	89.12
386.013	109.12
386.238	131.12
386.463	93.12
386.688	99.12
386.913	97.12
387.138	125.12
387.363	81.12
387.588	93.12
387.813	98.12
388.038	100.12
388.263	105.12
388.488	111.12
388.713	93.12
388.938	84.12
389.163	85.12
389.387	88.12
389.612	92.12
389.837	92.12
390.062	84.12
390.287	84.12
390.512	100.12
390.736	91.12
390.961	77.12
391.186	85.12
391.411	94.12
391.636	85.12
391.86	80.12
392.085	79.12
392.31	77.12
392.534	76.12
392.759	86.12
392.984	82.12
393.208	88.12
393.433	90.12
393.658	95.12
393.882	77.12
394.107	96.12
394.331	84.12
394.556	76.12
394.78	86.12
395.005	90.12
395.229	76.12
395.454	79.12
395.678	72.12
395.903	97.12
396.127	87.12
396.352	86.12
396.576	81.12
396.801	73.12
397.025	75.12
397.249	83.12
397.474	95.12
397.698	79.12
397.922	83.12
398.147	81.12
398.371	76.12
398.595	89.12
398.82	81.12
399.044	85.12
399.268	79.12
399.492	87.12
399.717	78.12
399.941	82.12
400.165	76.12
400.389	85.12
400.613	74.12
400.837	81.12
401.062	85.12
401.286	87.12
401.51	80.12
401.734	94.12
401.958	92.12
402.182	125.12
402.406	165.12
402.63	131.12
402.854	88.12
403.078	84.12
403.302	74.12
403.526	73.12
403.75	94.12
403.974	85.12
404.198	87.12
404.422	91.12
404.645	95.12
404.869	90.12
405.093	103.12
405.317	110.12
405.541	103.12
405.765	96.12
405.988	119.12
406.212	158.12
406.436	235.12
406.66	152.12
406.883	97.12
407.107	90.12
407.331	101.12
407.555	97.12
407.778	103.12
408.002	73.12
408.226	82.12
408.449	89.12
408.673	79.12
408.896	82.12
409.12	81.12
409.344	81.12
409.567	87.12
409.791	87.12
410.014	83.12
410.238	100.12
410.461	83.12
410.685	106.12
410.908	95.12
411.132	109.12
411.355	103.12
411.578	87.12
411.802	90.12
412.025	77.12
412.249	94.12
412.472	81.12
412.695	108.12
412.919	92.12
413.142	83.12
413.365	81.12
413.589	93.12
413.812	87.12
414.035	78.12
414.258	79.12
414.482	79.12
414.705	89.12
414.928	66.12
415.151	90.12
415.374	81.12
415.597	95.12
415.821	90.12
416.044	86.12
416.267	88.12
416.49	92.12
416.713	80.12
416.936	82.12
417.159	110.12
417.382	94.12
417.605	93.12
417.828	100.12
418.051	90.12
418.274	87.12
418.497	97.12
418.72	79.12
418.943	77.12
419.166	82.12
419.389	76.12
419.611	84.12
419.834	86.12
420.057	76.12
420.28	89.12
420.503	79.12
420.726	74.12
420.948	79.12
421.171	94.12
421.394	96.12
421.617	91.12
421.839	87.12
422.062	79.12
422.285	80.12
422.507	81.12
422.73	94.12
422.953	84.12
423.175	100.12
423.398	78.12
423.621	80.12
423.843	72.12
424.066	95.12
424.288	84.12
424.511	100.12
424.733	94.12
424.956	110.12
425.178	80.12
425.401	94.12
425.623	107.12
425.846	96.12
426.068	89.12
426.291	92.12
426.513	76.12
426.735	97.12
426.958	88.12
427.18	103.12
427.402	156.12
427.625	195.12
427.847	172.12
428.069	161.12
428.292	111.12
428.514	89.12
428.736	84.12
428.958	83.12
429.181	71.12
429.403	93.12
429.625	86.12
429.847	84.12
430.069	102.12
430.292	87.12
430.514	75.12
430.736	102.12
430.958	93.12
431.18	79.12
431.402	77.12
431.624	80.12
431.846	99.12
432.068	83.12
432.29	77.12
432.512	76.12
432.734	89.12
432.956	89.12
433.178	112.12
433.4	96.12
433.622	94.12
433.844	89.12
434.066	100.12
434.287	82.12
434.509	97.12
434.731	101.12
434.953	83.12
435.175	96.12
435.397	82.12
435.618	82.12
435.84	92.12
436.062	101.12
436.284	105.12
436.505	89.12
436.727	100.12
436.949	94.12
437.17	96.12
437.392	85.12
437.614	88.12
437.835	85.12
438.057	109.12
438.278	112.12
438.5	103.12
438.721	125.12
438.943	100.12
439.165	95.12
439.386	90.12
439.608	85.12
439.829	87.12
440.05	108.12
440.272	164.12
440.493	98.12
440.715	88.12
440.936	77.12
441.158	87.12
441.379	74.12
441.6	90.12
441.822	93.12
442.043	108.12
442.264	98.12
442.486	107.12
442.707	86.12
442.928	99.12
443.149	133.12
443.371	140.12
443.592	121.12
443.813	99.12
444.034	121.12
444.255	88.12
444.476	85.12
444.698	92.12
444.919	89.12
445.14	130.12
445.361	122.12
445.582	121.12
445.803	151.12
446.024	150.12
446.245	143.12
446.466	112.12
446.687	86.12
446.908	78.12
447.129	88.12
447.35	89.12
447.571	92.12
447.792	89.12
448.013	98.12
448.234	120.12
448.455	106.12
448.675	113.12
448.896	120.12
449.117	99.12
449.338	104.12
449.559	133.12
449.779	111.12
450	88.12
450.221	84.12
450.442	87.12
450.662	84.12
450.883	102.12
451.104	105.12
451.324	95.12
451.545	81.12
451.766	84.12
451.986	78.12
452.207	93.12
452.428	90.12
452.648	93.12
452.869	113.12
453.089	113.12
453.31	108.12
453.53	92.12
453.751	94.12
453.971	111.12
454.192	103.12
454.412	92.12
454.633	80.12
454.853	81.12
455.073	82.12
455.294	86.12
455.514	99.12
455.734	94.12
455.955	88.12
456.175	80.12
456.395	94.12
456.616	88.12
456.836	76.12
457.056	84.12
457.276	84.12
457.497	77.12
457.717	78.12
457.937	93.12
458.157	102.12
458.377	82.12
458.598	101.12
458.818	165.12
459.038	169.12
459.258	128.12
459.478	86.12
459.698	80.12
459.918	70.12
460.138	80.12
460.358	88.12
460.578	97.12
460.798	85.12
461.018	92.12
461.238	88.12
461.458	78.12
461.678	73.12
461.898	87.12
462.118	82.12
462.338	71.12
462.558	84.12
462.777	84.12
462.997	93.12
463.217	87.12
463.437	87.12
463.657	86.12
463.876	93.12
464.096	91.12
464.316	81.12
464.536	95.12
464.755	85.12
464.975	108.12
465.195	167.12
465.414	172.12
465.634	100.12
465.854	89.12
466.073	83.12
466.293	92.12
466.512	73.12
466.732	91.12
466.951	85.12
467.171	102.12
467.391	108.12
467.61	101.12
467.829	153.12
468.049	335.12
468.268	431.12
468.488	135.12
468.707	91.12
468.927	69.12
469.146	78.12
469.365	72.12
469.585	88.12
469.804	97.12
470.023	101.12
470.243	97.12
470.462	103.12
470.681	126.12
470.901	100.12
471.12	86.12
471.339	95.12
471.558	107.12
471.777	125.12
471.997	200.12
472.216	620.12
472.435	1267.12
472.654	336.12
472.873	119.12
473.092	82.12
473.311	104.12
473.53	93.12
473.749	96.12
473.968	91.12
474.187	101.12
474.406	102.12
474.625	74.12
474.844	81.12
475.063	96.12
475.282	93.12
475.501	85.12
475.72	85.12
475.939	94.12
476.158	91.12
476.377	90.12
476.596	97.12
476.814	80.12
477.033	98.12
477.252	89.12
477.471	99.12
477.69	79.12
477.908	77.12
478.127	102.12
478.346	104.12
478.564	88.12
478.783	98.12
479.002	99.12
479.22	101.12
479.439	109.12
479.658	119.12
479.876	94.12
480.095	96.12
480.313	111.12
480.532	140.12
480.751	189.12
480.969	570.12
481.188	2175.12
481.406	1285.12
481.624	218.12
481.843	98.12
482.061	86.12
482.28	83.12
482.498	93.12
482.717	99.12
482.935	87.12
483.153	100.12
483.372	76.12
483.59	78.12
483.808	89.12
484.027	96.12
484.245	105.12
484.463	81.12
484.681	105.12
484.9	98.12
485.118	85.12
485.336	85.12
485.554	84.12
485.772	85.12
485.99	96.12
486.209	98.12
486.427	95.12
486.645	112.12
486.863	113.12
487.081	98.12
487.299	104.12
487.517	98.12
487.735	96.12
487.953	81.12
488.171	86.12
488.389	80.12
488.607	84.12
488.825	98.12
489.043	100.12
489.261	105.12
489.479	91.12
489.696	72.12
489.914	89.12
490.132	96.12
490.35	86.12
490.568	86.12
490.786	91.12
491.003	90.12
491.221	83.12
491.439	89.12
491.657	97.12
491.874	94.12
492.092	94.12
492.31	89.12
492.527	86.12
492.745	94.12
492.963	85.12
493.18	95.12
493.398	96.12
493.615	73.12
493.833	75.12
494.05	97.12
494.268	86.12
494.485	78.12
494.703	98.12
494.92	81.12
495.138	81.12
495.355	89.12
495.573	92.12
495.79	72.12
496.008	93.12
496.225	73.12
496.442	92.12
496.66	94.12
496.877	82.12
497.094	87.12
497.312	86.12
497.529	89.12
497.746	94.12
497.963	90.12
498.181	103.12
498.398	101.12
498.615	114.12
498.832	99.12
499.049	81.12
499.267	87.12
499.484	98.12
499.701	88.12
499.918	94.12
500.135	81.12
500.352	85.12
500.569	76.12
500.786	106.12
501.003	80.12
501.22	87.12
501.437	84.12
501.654	78.12
501.871	102.12
502.088	94.12
502.305	80.12
502.522	87.12
502.739	80.12
502.956	84.12
503.172	94.12
503.389	80.12
503.606	104.12
503.823	87.12
504.04	92.12
504.256	80.12
504.473	85.12
504.69	76.12
504.907	91.12
505.123	80.12
505.34	82.12
505.557	84.12
505.773	83.12
505.99	92.12
506.207	88.12
506.423	85.12
506.64	87.12
506.856	88.12
507.073	79.12
507.289	84.12
507.506	86.12
507.722	109.12
507.939	106.12
508.155	96.12
508.372	79.12
508.588	93.12
508.805	81.12
509.021	104.12
509.238	96.12
509.454	96.12
509.67	90.12
509.887	101.12
510.103	110.12
510.319	213.12
510.536	724.12
510.752	2250.12
510.968	623.12
511.184	148.12
511.401	111.12
511.617	106.12
511.833	100.12
512.049	102.12
512.265	87.12
512.481	87.12
512.698	93.12
512.914	97.12
513.13	89.12
513.346	84.12
513.562	88.12
513.778	92.12
513.994	107.12
514.21	102.12
514.426	121.12
514.642	127.12
514.858	126.12
515.074	177.12
515.29	485.12
515.506	1572.12
515.721	596.12
