Data from Circ_2001_H10_HRD10591_00059.txt Node
Date: Wed Jan 03 10:45:50 EST 2024
User: Yrep
Spectrometer: HR+D1059
Trigger mode: 1
Integration Time (sec): 1.000000E-1
Scans to average: 1
Electric dark correction enabled: true
Nonlinearity correction enabled: false
Boxcar width: 0
XAxis mode: Wavelengths
Number of Pixels in Spectrum: 2048
>>>>>Begin Spectral Data<<<<<
223.165	-8
223.4	-8
223.635	-8
223.869	-34
224.104	-7
224.338	-8
224.573	-13
224.808	-15
225.042	-16
225.277	-10
225.511	5
225.746	8
225.98	2
226.215	7
226.449	11
226.683	14
226.918	22
227.152	42
227.387	36
227.621	34
227.856	48
228.09	40
228.324	43
228.559	60
228.793	52
229.027	53
229.262	65
229.496	68
229.73	81
229.964	89
230.199	85
230.433	65
230.667	79
230.901	66
231.136	64
231.37	57
231.604	87
231.838	76
232.072	86
232.306	64
232.541	74
232.775	85
233.009	68
233.243	80
233.477	72
233.711	85
233.945	70
234.179	81
234.413	79
234.647	74
234.881	94
235.115	73
235.349	78
235.583	72
235.817	82
236.051	89
236.285	83
236.519	67
236.753	79
236.987	85
237.221	78
237.455	77
237.689	79
237.922	66
238.156	71
238.39	70
238.624	73
238.858	68
239.091	74
239.325	63
239.559	78
239.793	71
240.027	75
240.26	75
240.494	74
240.728	80
240.961	57
241.195	80
241.429	74
241.662	89
241.896	62
242.13	70
242.363	75
242.597	77
242.83	78
243.064	64
243.298	72
243.531	74
243.765	82
243.998	65
244.232	74
244.465	77
244.699	93
244.932	88
245.166	81
245.399	76
245.633	64
245.866	84
246.099	69
246.333	72
246.566	83
246.8	65
247.033	83
247.266	69
247.5	65
247.733	66
247.966	67
248.2	75
248.433	70
248.666	80
248.899	76
249.133	87
249.366	105
249.599	80
249.832	82
250.066	75
250.299	70
250.532	87
250.765	73
250.998	66
251.231	69
251.465	80
251.698	81
251.931	87
252.164	63
252.397	73
252.63	96
252.863	69
253.096	66
253.329	84
253.562	74
253.795	68
254.028	77
254.261	87
254.494	85
254.727	85
254.96	84
255.193	76
255.426	73
255.659	91
255.892	87
256.124	77
256.357	86
256.59	80
256.823	76
257.056	84
257.289	88
257.521	79
257.754	72
257.987	88
258.22	87
258.452	92
258.685	84
258.918	86
259.151	103
259.383	77
259.616	81
259.849	96
260.081	87
260.314	84
260.547	83
260.779	91
261.012	100
261.244	79
261.477	94
261.71	99
261.942	109
262.175	124
262.407	85
262.64	82
262.872	87
263.105	74
263.337	92
263.57	73
263.802	93
264.035	95
264.267	88
264.499	82
264.732	93
264.964	78
265.197	87
265.429	84
265.661	84
265.894	88
266.126	78
266.358	84
266.591	82
266.823	72
267.055	89
267.287	92
267.52	64
267.752	75
267.984	78
268.216	73
268.448	72
268.681	90
268.913	97
269.145	81
269.377	83
269.609	69
269.841	69
270.073	78
270.306	82
270.538	74
270.77	84
271.002	90
271.234	87
271.466	89
271.698	78
271.93	92
272.162	71
272.394	84
272.626	93
272.858	77
273.09	78
273.322	87
273.553	78
273.785	80
274.017	80
274.249	85
274.481	98
274.713	92
274.945	82
275.176	87
275.408	89
275.64	97
275.872	81
276.104	87
276.335	95
276.567	111
276.799	121
277.031	131
277.262	128
277.494	121
277.726	95
277.957	87
278.189	81
278.421	93
278.652	105
278.884	95
279.115	94
279.347	84
279.579	96
279.81	104
280.042	149
280.273	192
280.505	138
280.736	84
280.968	81
281.199	86
281.431	90
281.662	82
281.894	95
282.125	93
282.356	113
282.588	128
282.819	104
283.051	88
283.282	85
283.513	81
283.745	84
283.976	82
284.207	87
284.439	92
284.67	90
284.901	87
285.132	70
285.364	86
285.595	84
285.826	74
286.057	86
286.288	83
286.52	78
286.751	87
286.982	93
287.213	74
287.444	85
287.675	82
287.906	95
288.138	94
288.369	76
288.6	82
288.831	85
289.062	83
289.293	78
289.524	92
289.755	73
289.986	93
290.217	82
290.448	71
290.679	78
290.91	78
291.141	94
291.371	90
291.602	87
291.833	82
292.064	68
292.295	68
292.526	100
292.757	95
292.987	77
293.218	80
293.449	84
293.68	87
293.91	101
294.141	86
294.372	94
294.603	72
294.833	79
295.064	72
295.295	83
295.525	95
295.756	86
295.987	117
296.217	131
296.448	122
296.679	94
296.909	98
297.14	79
297.37	77
297.601	108
297.831	92
298.062	76
298.292	89
298.523	93
298.753	82
298.984	88
299.214	68
299.445	87
299.675	86
299.905	98
300.136	73
300.366	84
300.597	83
300.827	107
301.057	88
301.288	93
301.518	97
301.748	110
301.979	111
302.209	94
302.439	97
302.669	93
302.9	89
303.13	96
303.36	89
303.59	108
303.82	120
304.051	88
304.281	99
304.511	85
304.741	69
304.971	92
305.201	95
305.431	83
305.661	93
305.891	85
306.121	85
306.352	109
306.582	111
306.812	100
307.042	108
307.272	118
307.502	142
307.731	141
307.961	125
308.191	87
308.421	92
308.651	97
308.881	100
309.111	89
309.341	91
309.571	102
309.8	86
310.03	82
310.26	89
310.49	96
310.72	94
310.949	98
311.179	93
311.409	95
311.639	82
311.868	101
312.098	92
312.328	97
312.557	112
312.787	112
313.017	109
313.246	84
313.476	88
313.706	89
313.935	95
314.165	93
314.394	107
314.624	101
314.853	96
315.083	104
315.312	86
315.542	89
315.771	85
316.001	95
316.23	86
316.46	86
316.689	90
316.919	98
317.148	102
317.377	88
317.607	85
317.836	92
318.065	89
318.295	94
318.524	82
318.753	90
318.983	95
319.212	104
319.441	97
319.67	105
319.9	90
320.129	85
320.358	87
320.587	108
320.816	77
321.046	85
321.275	95
321.504	87
321.733	88
321.962	97
322.191	111
322.42	102
322.649	120
322.878	104
323.108	124
323.337	141
323.566	127
323.795	152
324.024	217
324.253	437
324.482	933
324.71	1913
324.939	2508
325.168	933
325.397	278
325.626	161
325.855	127
326.084	122
326.313	142
326.542	155
326.77	254
326.999	506
327.228	1020
327.457	1884
327.686	1514
327.914	478
328.143	395
328.372	441
328.6	266
328.829	142
329.058	161
329.287	173
329.515	146
329.744	200
329.972	319
330.201	642
330.43	922
330.658	432
330.887	225
331.115	166
331.344	114
331.572	116
331.801	111
332.03	128
332.258	104
332.486	87
332.715	101
332.943	115
333.172	89
333.4	120
333.629	146
333.857	175
334.085	312
334.314	621
334.542	1110
334.771	1033
334.999	287
335.227	132
335.455	128
335.684	98
335.912	90
336.14	102
336.369	109
336.597	92
336.825	101
337.053	104
337.281	78
337.51	77
337.738	89
337.966	99
338.194	89
338.422	100
338.65	98
338.878	92
339.106	99
339.334	90
339.562	97
339.79	93
340.018	104
340.246	97
340.474	96
340.702	81
340.93	104
341.158	95
341.386	92
341.614	87
341.842	112
342.07	89
342.298	83
342.526	93
342.754	87
342.981	103
343.209	86
343.437	95
343.665	89
343.893	87
344.12	88
344.348	84
344.576	89
344.804	90
345.031	101
345.259	93
345.487	70
345.714	94
345.942	90
346.17	98
346.397	102
346.625	85
346.853	90
347.08	90
347.308	93
347.535	93
347.763	111
347.99	95
348.218	95
348.445	98
348.673	108
348.9	102
349.128	109
349.355	95
349.583	84
349.81	106
350.037	92
350.265	82
350.492	97
350.72	80
350.947	89
351.174	124
351.402	114
351.629	105
351.856	89
352.083	109
352.311	105
352.538	107
352.765	103
352.992	116
353.22	109
353.447	109
353.674	105
353.901	111
354.128	91
354.355	90
354.583	100
354.81	89
355.037	83
355.264	95
355.491	92
355.718	79
355.945	90
356.172	95
356.399	91
356.626	86
356.853	84
357.08	72
357.307	90
357.534	94
357.761	86
357.988	102
358.215	90
358.441	97
358.668	94
358.895	89
359.122	96
359.349	84
359.576	86
359.802	102
360.029	108
360.256	118
360.483	103
360.709	76
360.936	109
361.163	88
361.39	89
361.616	108
361.843	93
362.07	72
362.296	97
362.523	85
362.749	88
362.976	102
363.203	89
363.429	84
363.656	108
363.882	84
364.109	87
364.335	86
364.562	78
364.788	96
365.015	98
365.241	94
365.468	100
365.694	106
365.92	85
366.147	80
366.373	96
366.599	96
366.826	73
367.052	86
367.278	118
367.505	83
367.731	105
367.957	90
368.184	102
368.41	100
368.636	90
368.862	97
369.089	111
369.315	93
369.541	98
369.767	80
369.993	96
370.219	77
370.445	89
370.672	89
370.898	92
371.124	82
371.35	79
371.576	94
371.802	85
372.028	81
372.254	92
372.48	91
372.706	88
372.932	73
373.158	85
373.384	99
373.61	97
373.835	86
374.061	93
374.287	85
374.513	97
374.739	76
374.965	96
375.191	94
375.416	85
375.642	80
375.868	84
376.094	82
376.319	77
376.545	79
376.771	81
376.997	80
377.222	86
377.448	96
377.674	91
377.899	80
378.125	92
378.35	89
378.576	107
378.802	90
379.027	93
379.253	94
379.478	89
379.704	90
379.929	82
380.155	97
380.38	85
380.606	91
380.831	98
381.057	96
381.282	95
381.507	94
381.733	95
381.958	77
382.184	92
382.409	93
382.634	103
382.86	86
383.085	98
383.31	94
383.535	89
383.761	101
383.986	88
384.211	81
384.436	88
384.662	90
384.887	99
385.112	110
385.337	104
385.562	104
385.787	108
386.013	117
386.238	109
386.463	96
386.688	95
386.913	102
387.138	96
387.363	85
387.588	88
387.813	102
388.038	99
388.263	108
388.488	107
388.713	83
388.938	90
389.163	104
389.387	93
389.612	78
389.837	85
390.062	89
390.287	96
390.512	89
390.736	78
390.961	83
391.186	102
391.411	99
391.636	89
391.86	81
392.085	78
392.31	71
392.534	71
392.759	87
392.984	92
393.208	96
393.433	90
393.658	82
393.882	85
394.107	83
394.331	82
394.556	86
394.78	87
395.005	96
395.229	89
395.454	84
395.678	84
395.903	86
396.127	83
396.352	85
396.576	78
396.801	90
397.025	99
397.249	105
397.474	84
397.698	85
397.922	87
398.147	82
398.371	85
398.595	94
398.82	81
399.044	85
399.268	96
399.492	88
399.717	72
399.941	73
400.165	94
400.389	103
400.613	98
400.837	90
401.062	86
401.286	96
401.51	97
401.734	91
401.958	101
402.182	141
402.406	151
402.63	119
402.854	99
403.078	72
403.302	89
403.526	93
403.75	75
403.974	86
404.198	90
404.422	94
404.645	88
404.869	94
405.093	81
405.317	135
405.541	113
405.765	101
405.988	111
406.212	171
406.436	245
406.66	153
406.883	109
407.107	94
407.331	98
407.555	103
407.778	99
408.002	88
408.226	82
408.449	86
408.673	85
408.896	93
409.12	104
409.344	95
409.567	92
409.791	89
410.014	91
410.238	87
410.461	86
410.685	114
410.908	98
411.132	94
411.355	90
411.578	82
411.802	86
412.025	85
412.249	90
412.472	101
412.695	117
412.919	91
413.142	87
413.365	83
413.589	85
413.812	72
414.035	93
414.258	69
414.482	93
414.705	83
414.928	77
415.151	98
415.374	80
415.597	74
415.821	82
416.044	78
416.267	96
416.49	83
416.713	83
416.936	91
417.159	90
417.382	96
417.605	106
417.828	102
418.051	98
418.274	97
418.497	76
418.72	79
418.943	96
419.166	79
419.389	78
419.611	91
419.834	84
420.057	88
420.28	94
420.503	80
420.726	92
420.948	90
421.171	86
421.394	81
421.617	87
421.839	81
422.062	82
422.285	82
422.507	94
422.73	100
422.953	97
423.175	92
423.398	85
423.621	87
423.843	87
424.066	87
424.288	101
424.511	84
424.733	96
424.956	92
425.178	88
425.401	80
425.623	105
425.846	99
426.068	97
426.291	88
426.513	79
426.735	94
426.958	100
427.18	115
427.402	149
427.625	213
427.847	176
428.069	176
428.292	104
428.514	68
428.736	88
428.958	82
429.181	81
429.403	92
429.625	84
429.847	92
430.069	109
430.292	81
430.514	71
430.736	87
430.958	85
431.18	90
431.402	68
431.624	78
431.846	76
432.068	90
432.29	88
432.512	81
432.734	88
432.956	85
433.178	102
433.4	97
433.622	84
433.844	101
434.066	94
434.287	83
434.509	80
434.731	78
434.953	76
435.175	88
435.397	91
435.618	87
435.84	96
436.062	126
436.284	120
436.505	104
436.727	105
436.949	96
437.17	92
437.392	86
437.614	97
437.835	102
438.057	122
438.278	89
438.5	112
438.721	124
438.943	100
439.165	85
439.386	93
439.608	88
439.829	98
440.05	133
440.272	135
440.493	87
440.715	72
440.936	95
441.158	72
441.379	95
441.6	90
441.822	96
442.043	97
442.264	99
442.486	109
442.707	90
442.928	101
443.149	118
443.371	139
443.592	108
443.813	103
444.034	105
444.255	87
444.476	78
444.698	88
444.919	95
445.14	142
445.361	120
445.582	114
445.803	151
446.024	127
446.245	137
446.466	98
446.687	90
446.908	93
447.129	77
447.35	74
447.571	99
447.792	97
448.013	99
448.234	100
448.455	114
448.675	114
448.896	120
449.117	92
449.338	102
449.559	126
449.779	133
450	85
450.221	87
450.442	95
450.662	83
450.883	114
451.104	116
451.324	103
451.545	67
451.766	87
451.986	95
452.207	77
452.428	94
452.648	96
452.869	106
453.089	117
453.31	109
453.53	88
453.751	87
453.971	100
454.192	108
454.412	102
454.633	86
454.853	82
455.073	85
455.294	89
455.514	94
455.734	80
455.955	86
456.175	76
456.395	63
456.616	91
456.836	86
457.056	85
457.276	82
457.497	77
457.717	96
457.937	88
458.157	75
458.377	87
458.598	118
458.818	167
459.038	174
459.258	126
459.478	94
459.698	85
459.918	88
460.138	84
460.358	90
460.578	86
460.798	89
461.018	92
461.238	76
461.458	92
461.678	80
461.898	72
462.118	79
462.338	82
462.558	93
462.777	72
462.997	82
463.217	99
463.437	91
463.657	79
463.876	89
464.096	86
464.316	97
464.536	89
464.755	94
464.975	122
465.195	177
465.414	168
465.634	90
465.854	78
466.073	78
466.293	89
466.512	91
466.732	87
466.951	96
467.171	92
467.391	106
467.61	115
467.829	158
468.049	407
468.268	535
468.488	156
468.707	98
468.927	76
469.146	85
469.365	85
469.585	71
469.804	97
470.023	96
470.243	80
470.462	101
470.681	117
470.901	86
471.12	83
471.339	106
471.558	116
471.777	124
471.997	213
472.216	743
472.435	1611
472.654	406
472.873	133
473.092	96
473.311	88
473.53	78
473.749	79
473.968	91
474.187	113
474.406	90
474.625	83
474.844	91
475.063	91
475.282	85
475.501	83
475.72	90
475.939	87
476.158	88
476.377	96
476.596	107
476.814	97
477.033	104
477.252	86
477.471	96
477.69	85
477.908	83
478.127	88
478.346	88
478.564	103
478.783	95
479.002	78
479.22	98
479.439	96
479.658	100
479.876	107
480.095	104
480.313	107
480.532	142
480.751	221
480.969	677
481.188	2743
481.406	1560
481.624	262
481.843	117
482.061	99
482.28	101
482.498	82
482.717	94
482.935	89
483.153	94
483.372	87
483.59	83
483.808	83
484.027	102
484.245	92
484.463	91
484.681	88
484.9	89
485.118	78
485.336	90
485.554	89
485.772	82
485.99	108
486.209	94
486.427	104
486.645	111
486.863	106
487.081	91
487.299	103
487.517	103
487.735	100
487.953	88
488.171	85
488.389	76
488.607	87
488.825	80
489.043	93
489.261	90
489.479	98
489.696	90
489.914	79
490.132	102
490.35	94
490.568	84
490.786	82
491.003	80
491.221	90
491.439	88
491.657	107
491.874	92
492.092	94
492.31	83
492.527	87
492.745	100
492.963	103
493.18	103
493.398	105
493.615	93
493.833	81
494.05	82
494.268	79
494.485	87
494.703	86
494.92	90
495.138	77
495.355	94
495.573	109
495.79	91
496.008	84
496.225	91
496.442	86
496.66	94
496.877	86
497.094	75
497.312	89
497.529	81
497.746	81
497.963	92
498.181	91
498.398	90
498.615	95
498.832	97
499.049	92
499.267	97
499.484	81
499.701	90
499.918	89
500.135	102
500.352	75
500.569	102
500.786	87
501.003	83
501.22	82
501.437	81
501.654	81
501.871	96
502.088	80
502.305	93
502.522	80
502.739	82
502.956	80
503.172	82
503.389	94
503.606	90
503.823	92
504.04	92
504.256	96
504.473	66
504.69	85
504.907	89
505.123	79
505.34	90
505.557	82
505.773	94
505.99	99
506.207	92
506.423	84
506.64	76
506.856	92
507.073	96
507.289	90
507.506	93
507.722	128
507.939	114
508.155	97
508.372	76
508.588	78
508.805	90
509.021	94
509.238	89
509.454	77
509.67	97
509.887	100
510.103	128
510.319	205
510.536	752
510.752	2426
510.968	694
511.184	159
511.401	116
511.617	96
511.833	80
512.049	105
512.265	80
512.481	92
512.698	87
512.914	93
513.13	91
513.346	94
513.562	99
513.778	94
513.994	107
514.21	101
514.426	118
514.642	144
514.858	128
515.074	180
515.29	547
515.506	1850
515.721	673
515.937	161
516.153	118
516.369	106
516.585	109
516.801	95
517.016	90
517.232	102
517.448	78
517.664	100
517.879	88
518.095	95
518.311	94
518.527	101
518.742	79
518.958	82
519.173	87
519.389	102
519.605	96
519.82	94
520.036	105
520.251	127
520.467	116
520.682	93
520.898	112
521.113	127
521.329	140
521.544	235
521.76	702
521.975	3038
522.19	1816
522.406	380
522.621	142
522.836	105
523.052	101
523.267	92
523.482	100
523.698	96
523.913	124
524.128	89
524.343	96
524.559	88
524.774	98
524.989	103
525.204	110
525.419	85
525.634	92
525.849	80
526.064	82
526.28	79
526.495	89
526.71	81
526.925	76
527.14	89
527.355	92
527.57	94
527.785	89
527.999	86
528.214	87
528.429	94
528.644	98
528.859	94
529.074	91
529.289	135
529.503	198
529.718	109
529.933	87
530.148	94
530.363	85
530.577	94
530.792	86
531.007	99
531.221	90
531.436	80
531.651	85
531.865	91
532.08	93
532.295	91
532.509	73
532.724	77
532.938	87
533.153	96
533.367	74
533.582	88
533.796	76
534.011	82
534.225	84
534.44	87
534.654	87
534.868	85
535.083	96
535.297	79
535.511	94
535.726	105
535.94	92
536.154	103
536.369	93
536.583	93
536.797	93
537.011	92
537.225	79
537.44	89
537.654	93
537.868	80
538.082	82
538.296	79
538.51	92
538.724	80
538.938	84
539.153	98
539.367	99
539.581	94
539.795	76
540.009	76
540.222	89
540.436	80
540.65	90
540.864	81
541.078	78
541.292	89
541.506	88
541.72	101
541.934	82
542.147	101
542.361	101
542.575	86
542.789	89
543.002	87
543.216	94
543.43	96
543.644	97
543.857	101
544.071	96
544.285	85
544.498	96
544.712	88
544.925	89
545.139	81
545.352	73
545.566	90
545.779	100
545.993	90
546.206	99
546.42	74
546.633	74
546.847	85
547.06	75
547.274	90
547.487	99
547.7	99
547.914	85
548.127	70
548.34	89
548.554	93
548.767	87
548.98	80
549.193	88
549.407	96
549.62	96
549.833	95
550.046	78
550.259	79
550.473	87
550.686	85
550.899	89
551.112	84
551.325	83
551.538	88
551.751	90
551.964	89
552.177	85
552.39	94
552.603	85
552.816	92
553.029	85
553.242	96
553.455	99
553.667	110
553.88	103
554.093	85
554.306	83
554.519	97
554.732	104
554.944	91
555.157	97
555.37	84
555.583	101
555.795	84
556.008	88
556.221	85
556.433	84
556.646	100
556.859	83
557.071	97
557.284	98
557.496	90
557.709	89
557.921	90
558.134	89
558.346	87
558.559	82
558.771	84
558.984	91
559.196	83
559.409	90
559.621	98
559.833	93
560.046	84
560.258	88
560.47	117
560.683	89
560.895	92
561.107	95
561.32	75
561.532	79
561.744	80
561.956	88
562.168	90
562.381	96
562.593	104
562.805	90
563.017	80
563.229	76
563.441	71
563.653	93
563.865	78
564.077	74
564.289	93
564.501	86
564.713	95
564.925	101
565.137	98
565.349	89
565.561	85
565.773	70
565.985	95
566.197	90
566.408	82
566.62	82
566.832	82
567.044	81
567.255	93
567.467	83
567.679	88
567.891	83
568.102	87
568.314	92
568.526	86
568.737	82
568.949	77
569.161	87
569.372	75
569.584	88
569.795	85
570.007	103
570.218	244
570.43	118
570.641	79
570.853	84
571.064	94
571.276	86
571.487	93
571.698	86
571.91	84
572.121	82
572.333	90
572.544	85
572.755	95
572.966	87
573.178	83
573.389	103
573.6	90
573.811	97
574.023	73
574.234	71
574.445	89
574.656	79
574.867	88
575.078	80
575.289	84
575.501	89
575.712	84
575.923	89
576.134	85
576.345	81
576.556	90
576.767	78
576.978	107
577.188	84
577.399	111
577.61	86
577.821	89
578.032	100
578.243	260
578.454	793
578.665	211
578.875	107
579.086	90
579.297	94
579.508	95
579.718	90
579.929	73
580.14	97
580.35	79
580.561	80
580.772	93
580.982	80
581.193	72
581.403	89
581.614	88
581.825	87
582.035	72
582.246	89
582.456	89
582.667	82
582.877	75
583.087	90
583.298	78
583.508	78
583.719	84
583.929	79
584.139	86
584.35	86
