Data from Circ_2001_H10_HRD10591_00030.txt Node
Date: Wed Jan 03 10:45:44 EST 2024
User: Yrep
Spectrometer: HR+D1059
Trigger mode: 1
Integration Time (sec): 1.000000E-1
Scans to average: 1
Electric dark correction enabled: true
Nonlinearity correction enabled: false
Boxcar width: 0
XAxis mode: Wavelengths
Number of Pixels in Spectrum: 2048
>>>>>Begin Spectral Data<<<<<
223.165	-5.69
223.4	-5.69
223.635	-5.69
223.869	-24.69
224.104	-18.69
224.338	-27.69
224.573	-33.69
224.808	-12.69
225.042	-0.69
225.277	-1.69
225.511	-0.69
225.746	5.31
225.98	7.31
226.215	16.31
226.449	23.31
226.683	18.31
226.918	17.31
227.152	38.31
227.387	44.31
227.621	35.31
227.856	42.31
228.09	24.31
228.324	39.31
228.559	54.31
228.793	66.31
229.027	68.31
229.262	71.31
229.496	72.31
229.73	97.31
229.964	85.31
230.199	73.31
230.433	71.31
230.667	75.31
230.901	93.31
231.136	74.31
231.37	92.31
231.604	87.31
231.838	72.31
232.072	97.31
232.306	92.31
232.541	70.31
232.775	73.31
233.009	69.31
233.243	84.31
233.477	84.31
233.711	89.31
233.945	85.31
234.179	84.31
234.413	76.31
234.647	68.31
234.881	77.31
235.115	80.31
235.349	71.31
235.583	76.31
235.817	96.31
236.051	77.31
236.285	79.31
236.519	79.31
236.753	57.31
236.987	79.31
237.221	104.31
237.455	89.31
237.689	91.31
237.922	77.31
238.156	83.31
238.39	74.31
238.624	92.31
238.858	82.31
239.091	85.31
239.325	71.31
239.559	77.31
239.793	87.31
240.027	85.31
240.26	65.31
240.494	69.31
240.728	66.31
240.961	85.31
241.195	67.31
241.429	79.31
241.662	72.31
241.896	79.31
242.13	81.31
242.363	77.31
242.597	76.31
242.83	86.31
243.064	75.31
243.298	77.31
243.531	69.31
243.765	84.31
243.998	74.31
244.232	86.31
244.465	99.31
244.699	83.31
244.932	92.31
245.166	79.31
245.399	75.31
245.633	85.31
245.866	83.31
246.099	80.31
246.333	94.31
246.566	82.31
246.8	82.31
247.033	90.31
247.266	74.31
247.5	73.31
247.733	80.31
247.966	85.31
248.2	84.31
248.433	90.31
248.666	101.31
248.899	86.31
249.133	90.31
249.366	106.31
249.599	108.31
249.832	73.31
250.066	85.31
250.299	91.31
250.532	82.31
250.765	84.31
250.998	84.31
251.231	79.31
251.465	69.31
251.698	65.31
251.931	77.31
252.164	97.31
252.397	99.31
252.63	78.31
252.863	81.31
253.096	68.31
253.329	89.31
253.562	87.31
253.795	82.31
254.028	78.31
254.261	85.31
254.494	88.31
254.727	70.31
254.96	81.31
255.193	79.31
255.426	80.31
255.659	86.31
255.892	88.31
256.124	84.31
256.357	92.31
256.59	84.31
256.823	78.31
257.056	80.31
257.289	75.31
257.521	92.31
257.754	85.31
257.987	85.31
258.22	89.31
258.452	96.31
258.685	97.31
258.918	74.31
259.151	74.31
259.383	92.31
259.616	75.31
259.849	90.31
260.081	93.31
260.314	72.31
260.547	86.31
260.779	92.31
261.012	91.31
261.244	98.31
261.477	95.31
261.71	109.31
261.942	113.31
262.175	147.31
262.407	106.31
262.64	79.31
262.872	81.31
263.105	92.31
263.337	83.31
263.57	74.31
263.802	92.31
264.035	79.31
264.267	81.31
264.499	80.31
264.732	79.31
264.964	86.31
265.197	92.31
265.429	90.31
265.661	83.31
265.894	68.31
266.126	86.31
266.358	83.31
266.591	81.31
266.823	67.31
267.055	81.31
267.287	79.31
267.52	72.31
267.752	88.31
267.984	90.31
268.216	70.31
268.448	101.31
268.681	95.31
268.913	69.31
269.145	79.31
269.377	82.31
269.609	87.31
269.841	86.31
270.073	98.31
270.306	85.31
270.538	79.31
270.77	79.31
271.002	86.31
271.234	78.31
271.466	97.31
271.698	81.31
271.93	80.31
272.162	103.31
272.394	95.31
272.626	63.31
272.858	76.31
273.09	85.31
273.322	88.31
273.553	79.31
273.785	97.31
274.017	69.31
274.249	87.31
274.481	77.31
274.713	74.31
274.945	90.31
275.176	95.31
275.408	89.31
275.64	92.31
275.872	109.31
276.104	104.31
276.335	97.31
276.567	111.31
276.799	139.31
277.031	144.31
277.262	155.31
277.494	120.31
277.726	102.31
277.957	88.31
278.189	99.31
278.421	96.31
278.652	87.31
278.884	90.31
279.115	84.31
279.347	91.31
279.579	102.31
279.81	112.31
280.042	175.31
280.273	198.31
280.505	154.31
280.736	99.31
280.968	91.31
281.199	82.31
281.431	84.31
281.662	98.31
281.894	101.31
282.125	114.31
282.356	125.31
282.588	168.31
282.819	121.31
283.051	96.31
283.282	84.31
283.513	96.31
283.745	85.31
283.976	89.31
284.207	82.31
284.439	89.31
284.67	83.31
284.901	91.31
285.132	87.31
285.364	74.31
285.595	91.31
285.826	96.31
286.057	92.31
286.288	83.31
286.52	96.31
286.751	73.31
286.982	89.31
287.213	87.31
287.444	73.31
287.675	107.31
287.906	96.31
288.138	86.31
288.369	100.31
288.6	104.31
288.831	79.31
289.062	85.31
289.293	91.31
289.524	80.31
289.755	93.31
289.986	84.31
290.217	77.31
290.448	93.31
290.679	79.31
290.91	83.31
291.141	89.31
291.371	73.31
291.602	91.31
291.833	88.31
292.064	83.31
292.295	91.31
292.526	91.31
292.757	100.31
292.987	92.31
293.218	96.31
293.449	86.31
293.68	86.31
293.91	87.31
294.141	82.31
294.372	72.31
294.603	88.31
294.833	96.31
295.064	82.31
295.295	99.31
295.525	91.31
295.756	112.31
295.987	113.31
296.217	162.31
296.448	130.31
296.679	89.31
296.909	96.31
297.14	88.31
297.37	93.31
297.601	96.31
297.831	89.31
298.062	83.31
298.292	82.31
298.523	87.31
298.753	90.31
298.984	81.31
299.214	88.31
299.445	88.31
299.675	88.31
299.905	106.31
300.136	94.31
300.366	92.31
300.597	90.31
300.827	77.31
301.057	117.31
301.288	108.31
301.518	93.31
301.748	98.31
301.979	105.31
302.209	83.31
302.439	91.31
302.669	96.31
302.9	79.31
303.13	97.31
303.36	101.31
303.59	119.31
303.82	133.31
304.051	99.31
304.281	89.31
304.511	87.31
304.741	88.31
304.971	91.31
305.201	106.31
305.431	101.31
305.661	84.31
305.891	84.31
306.121	79.31
306.352	91.31
306.582	109.31
306.812	109.31
307.042	112.31
307.272	136.31
307.502	151.31
307.731	156.31
307.961	127.31
308.191	113.31
308.421	99.31
308.651	110.31
308.881	79.31
309.111	100.31
309.341	92.31
309.571	104.31
309.8	95.31
310.03	105.31
310.26	97.31
310.49	95.31
310.72	110.31
310.949	109.31
311.179	114.31
311.409	94.31
311.639	87.31
311.868	97.31
312.098	82.31
312.328	106.31
312.557	104.31
312.787	127.31
313.017	111.31
313.246	83.31
313.476	96.31
313.706	100.31
313.935	108.31
314.165	100.31
314.394	115.31
314.624	92.31
314.853	101.31
315.083	95.31
315.312	111.31
315.542	91.31
315.771	90.31
316.001	91.31
316.23	90.31
316.46	97.31
316.689	93.31
316.919	95.31
317.148	99.31
317.377	101.31
317.607	91.31
317.836	106.31
318.065	90.31
318.295	77.31
318.524	107.31
318.753	106.31
318.983	101.31
319.212	113.31
319.441	117.31
319.67	107.31
319.9	111.31
320.129	88.31
320.358	103.31
320.587	101.31
320.816	99.31
321.046	106.31
321.275	105.31
321.504	93.31
321.733	108.31
321.962	93.31
322.191	109.31
322.42	121.31
322.649	117.31
322.878	112.31
323.108	111.31
323.337	119.31
323.566	133.31
323.795	165.31
324.024	233.31
324.253	439.31
324.482	924.31
324.71	1848.31
324.939	2447.31
325.168	895.31
325.397	273.31
325.626	169.31
325.855	133.31
326.084	114.31
326.313	151.31
326.542	168.31
326.77	249.31
326.999	473.31
327.228	967.31
327.457	1703.31
327.686	1372.31
327.914	487.31
328.143	435.31
328.372	485.31
328.6	291.31
328.829	148.31
329.058	162.31
329.287	179.31
329.515	165.31
329.744	232.31
329.972	364.31
330.201	706.31
330.43	1000.31
330.658	473.31
330.887	233.31
331.115	168.31
331.344	117.31
331.572	108.31
331.801	121.31
332.03	140.31
332.258	112.31
332.486	102.31
332.715	97.31
332.943	95.31
333.172	121.31
333.4	130.31
333.629	158.31
333.857	193.31
334.085	332.31
334.314	635.31
334.542	1240.31
334.771	1145.31
334.999	332.31
335.227	160.31
335.455	135.31
335.684	110.31
335.912	111.31
336.14	120.31
336.369	98.31
336.597	92.31
336.825	115.31
337.053	92.31
337.281	92.31
337.51	96.31
337.738	97.31
337.966	102.31
338.194	109.31
338.422	114.31
338.65	103.31
338.878	98.31
339.106	96.31
339.334	111.31
339.562	114.31
339.79	89.31
340.018	83.31
340.246	109.31
340.474	106.31
340.702	98.31
340.93	96.31
341.158	102.31
341.386	101.31
341.614	94.31
341.842	97.31
342.07	105.31
342.298	89.31
342.526	97.31
342.754	84.31
342.981	83.31
343.209	90.31
343.437	95.31
343.665	96.31
343.893	92.31
344.12	105.31
344.348	98.31
344.576	103.31
344.804	93.31
345.031	118.31
345.259	117.31
345.487	96.31
345.714	104.31
345.942	87.31
346.17	98.31
346.397	88.31
346.625	95.31
346.853	83.31
347.08	86.31
347.308	97.31
347.535	95.31
347.763	106.31
347.99	104.31
348.218	107.31
348.445	111.31
348.673	119.31
348.9	119.31
349.128	85.31
349.355	82.31
349.583	101.31
349.81	97.31
350.037	96.31
350.265	93.31
350.492	99.31
350.72	81.31
350.947	95.31
351.174	117.31
351.402	111.31
351.629	101.31
351.856	99.31
352.083	104.31
352.311	111.31
352.538	123.31
352.765	132.31
352.992	115.31
353.22	114.31
353.447	98.31
353.674	106.31
353.901	105.31
354.128	96.31
354.355	87.31
354.583	100.31
354.81	106.31
355.037	97.31
355.264	93.31
355.491	83.31
355.718	101.31
355.945	90.31
356.172	85.31
356.399	93.31
356.626	82.31
356.853	97.31
357.08	85.31
357.307	102.31
357.534	93.31
357.761	102.31
357.988	97.31
358.215	123.31
358.441	91.31
358.668	85.31
358.895	93.31
359.122	102.31
359.349	93.31
359.576	100.31
359.802	117.31
360.029	144.31
360.256	138.31
360.483	106.31
360.709	92.31
360.936	98.31
361.163	86.31
361.39	99.31
361.616	106.31
361.843	88.31
362.07	97.31
362.296	92.31
362.523	114.31
362.749	99.31
362.976	104.31
363.203	100.31
363.429	101.31
363.656	82.31
363.882	98.31
364.109	95.31
364.335	87.31
364.562	90.31
364.788	100.31
365.015	97.31
365.241	111.31
365.468	122.31
365.694	141.31
365.92	108.31
366.147	104.31
366.373	92.31
366.599	100.31
366.826	99.31
367.052	86.31
367.278	105.31
367.505	97.31
367.731	97.31
367.957	107.31
368.184	104.31
368.41	99.31
368.636	116.31
368.862	137.31
369.089	116.31
369.315	88.31
369.541	98.31
369.767	102.31
369.993	109.31
370.219	89.31
370.445	89.31
370.672	91.31
370.898	97.31
371.124	78.31
371.35	99.31
371.576	89.31
371.802	83.31
372.028	90.31
372.254	90.31
372.48	75.31
372.706	97.31
372.932	89.31
373.158	85.31
373.384	100.31
373.61	89.31
373.835	85.31
374.061	95.31
374.287	107.31
374.513	96.31
374.739	83.31
374.965	88.31
375.191	98.31
375.416	99.31
375.642	82.31
375.868	86.31
376.094	90.31
376.319	87.31
376.545	76.31
376.771	92.31
376.997	89.31
377.222	84.31
377.448	102.31
377.674	92.31
377.899	98.31
378.125	84.31
378.35	101.31
378.576	92.31
378.802	81.31
379.027	95.31
379.253	90.31
379.478	99.31
379.704	98.31
379.929	96.31
380.155	98.31
380.38	98.31
380.606	89.31
380.831	93.31
381.057	96.31
381.282	103.31
381.507	112.31
381.733	106.31
381.958	97.31
382.184	100.31
382.409	97.31
382.634	99.31
382.86	93.31
383.085	101.31
383.31	116.31
383.535	102.31
383.761	105.31
383.986	97.31
384.211	100.31
384.436	97.31
384.662	96.31
384.887	111.31
385.112	115.31
385.337	116.31
385.562	113.31
385.787	116.31
386.013	112.31
386.238	116.31
386.463	116.31
386.688	108.31
386.913	108.31
387.138	116.31
387.363	111.31
387.588	107.31
387.813	97.31
388.038	115.31
388.263	99.31
388.488	119.31
388.713	97.31
388.938	106.31
389.163	87.31
389.387	93.31
389.612	94.31
389.837	83.31
390.062	101.31
390.287	97.31
390.512	82.31
390.736	92.31
390.961	82.31
391.186	80.31
391.411	99.31
391.636	81.31
391.86	72.31
392.085	89.31
392.31	80.31
392.534	87.31
392.759	81.31
392.984	87.31
393.208	99.31
393.433	92.31
393.658	86.31
393.882	79.31
394.107	88.31
394.331	88.31
394.556	73.31
394.78	97.31
395.005	92.31
395.229	91.31
395.454	87.31
395.678	82.31
395.903	89.31
396.127	87.31
396.352	82.31
396.576	81.31
396.801	88.31
397.025	89.31
397.249	93.31
397.474	101.31
397.698	84.31
397.922	98.31
398.147	92.31
398.371	95.31
398.595	82.31
398.82	87.31
399.044	91.31
399.268	79.31
399.492	92.31
399.717	94.31
399.941	96.31
400.165	104.31
400.389	85.31
400.613	89.31
400.837	102.31
401.062	101.31
401.286	102.31
401.51	101.31
401.734	93.31
401.958	114.31
402.182	143.31
402.406	203.31
402.63	147.31
402.854	103.31
403.078	104.31
403.302	85.31
403.526	81.31
403.75	88.31
403.974	92.31
404.198	80.31
404.422	108.31
404.645	105.31
404.869	98.31
405.093	116.31
405.317	129.31
405.541	130.31
405.765	108.31
405.988	153.31
406.212	221.31
406.436	296.31
406.66	191.31
406.883	119.31
407.107	111.31
407.331	107.31
407.555	100.31
407.778	104.31
408.002	93.31
408.226	98.31
408.449	102.31
408.673	72.31
408.896	93.31
409.12	107.31
409.344	79.31
409.567	97.31
409.791	99.31
410.014	101.31
410.238	88.31
410.461	90.31
410.685	74.31
410.908	113.31
411.132	111.31
411.355	101.31
411.578	88.31
411.802	92.31
412.025	85.31
412.249	92.31
412.472	103.31
412.695	125.31
412.919	100.31
413.142	102.31
413.365	97.31
413.589	94.31
413.812	89.31
414.035	93.31
414.258	88.31
414.482	93.31
414.705	98.31
414.928	96.31
415.151	95.31
415.374	94.31
415.597	97.31
415.821	93.31
416.044	85.31
416.267	90.31
416.49	80.31
416.713	92.31
416.936	99.31
417.159	96.31
417.382	112.31
417.605	98.31
417.828	93.31
418.051	106.31
418.274	84.31
418.497	94.31
418.72	81.31
418.943	87.31
419.166	93.31
419.389	89.31
419.611	80.31
419.834	91.31
420.057	96.31
420.28	96.31
420.503	103.31
420.726	94.31
420.948	97.31
421.171	97.31
421.394	93.31
421.617	84.31
421.839	81.31
422.062	85.31
422.285	88.31
422.507	91.31
422.73	123.31
422.953	91.31
423.175	110.31
423.398	105.31
423.621	88.31
423.843	96.31
424.066	88.31
424.288	84.31
424.511	92.31
424.733	102.31
424.956	109.31
425.178	80.31
425.401	109.31
425.623	105.31
425.846	99.31
426.068	103.31
426.291	88.31
426.513	102.31
426.735	106.31
426.958	102.31
427.18	108.31
427.402	163.31
427.625	233.31
427.847	195.31
428.069	165.31
428.292	106.31
428.514	102.31
428.736	90.31
428.958	83.31
429.181	85.31
429.403	87.31
429.625	88.31
429.847	95.31
430.069	100.31
430.292	99.31
430.514	91.31
430.736	71.31
430.958	88.31
431.18	87.31
431.402	82.31
431.624	81.31
431.846	88.31
432.068	83.31
432.29	86.31
432.512	88.31
432.734	97.31
432.956	90.31
433.178	87.31
433.4	96.31
433.622	92.31
433.844	86.31
434.066	82.31
434.287	96.31
434.509	92.31
434.731	100.31
434.953	93.31
435.175	91.31
435.397	96.31
435.618	100.31
435.84	103.31
436.062	122.31
436.284	132.31
436.505	92.31
436.727	97.31
436.949	88.31
437.17	87.31
437.392	92.31
437.614	89.31
437.835	123.31
438.057	143.31
438.278	114.31
438.5	109.31
438.721	124.31
438.943	105.31
439.165	87.31
439.386	95.31
439.608	105.31
439.829	106.31
440.05	127.31
440.272	158.31
440.493	107.31
440.715	92.31
440.936	99.31
441.158	83.31
441.379	90.31
441.6	100.31
441.822	106.31
442.043	90.31
442.264	123.31
442.486	107.31
442.707	113.31
442.928	96.31
443.149	156.31
443.371	156.31
443.592	141.31
443.813	123.31
444.034	120.31
444.255	92.31
444.476	105.31
444.698	87.31
444.919	82.31
445.14	143.31
445.361	126.31
445.582	119.31
445.803	148.31
446.024	151.31
446.245	151.31
446.466	132.31
446.687	80.31
446.908	91.31
447.129	90.31
447.35	90.31
447.571	107.31
447.792	108.31
448.013	117.31
448.234	129.31
448.455	118.31
448.675	114.31
448.896	125.31
449.117	87.31
449.338	115.31
449.559	125.31
449.779	141.31
450	87.31
450.221	80.31
450.442	100.31
450.662	102.31
450.883	115.31
451.104	131.31
451.324	108.31
451.545	101.31
451.766	85.31
451.986	86.31
452.207	71.31
452.428	92.31
452.648	99.31
452.869	129.31
453.089	137.31
453.31	132.31
453.53	113.31
453.751	96.31
453.971	108.31
454.192	132.31
454.412	97.31
454.633	96.31
454.853	77.31
455.073	77.31
455.294	107.31
455.514	108.31
455.734	89.31
455.955	79.31
456.175	91.31
456.395	85.31
456.616	93.31
456.836	104.31
457.056	93.31
457.276	84.31
457.497	96.31
457.717	84.31
457.937	82.31
458.157	92.31
458.377	104.31
458.598	122.31
458.818	195.31
459.038	205.31
459.258	141.31
459.478	98.31
459.698	74.31
459.918	73.31
460.138	92.31
460.358	82.31
460.578	90.31
460.798	98.31
461.018	88.31
461.238	100.31
461.458	81.31
461.678	83.31
461.898	92.31
462.118	79.31
462.338	89.31
462.558	85.31
462.777	87.31
462.997	97.31
463.217	112.31
463.437	96.31
463.657	96.31
463.876	89.31
464.096	110.31
464.316	99.31
464.536	103.31
464.755	117.31
464.975	113.31
465.195	226.31
465.414	212.31
465.634	118.31
465.854	90.31
466.073	82.31
466.293	96.31
466.512	93.31
466.732	102.31
466.951	97.31
467.171	97.31
467.391	108.31
467.61	146.31
467.829	189.31
468.049	428.31
468.268	603.31
468.488	171.31
468.707	108.31
468.927	91.31
469.146	92.31
469.365	82.31
469.585	77.31
469.804	107.31
470.023	103.31
470.243	110.31
470.462	136.31
470.681	132.31
470.901	100.31
471.12	97.31
471.339	109.31
471.558	103.31
471.777	127.31
471.997	244.31
472.216	790.31
472.435	1732.31
472.654	435.31
472.873	136.31
473.092	87.31
473.311	98.31
473.53	100.31
473.749	84.31
473.968	89.31
474.187	93.31
474.406	103.31
474.625	101.31
474.844	90.31
475.063	81.31
475.282	96.31
475.501	80.31
475.72	93.31
475.939	98.31
476.158	83.31
476.377	86.31
476.596	112.31
476.814	92.31
477.033	97.31
477.252	82.31
477.471	99.31
477.69	89.31
477.908	96.31
478.127	101.31
478.346	91.31
478.564	89.31
478.783	113.31
479.002	92.31
479.22	107.31
479.439	111.31
479.658	121.31
479.876	114.31
480.095	112.31
480.313	116.31
480.532	144.31
480.751	214.31
480.969	740.31
481.188	3001.31
481.406	1711.31
481.624	277.31
481.843	113.31
482.061	111.31
482.28	94.31
482.498	97.31
482.717	99.31
482.935	106.31
483.153	77.31
483.372	93.31
483.59	84.31
483.808	80.31
484.027	99.31
484.245	91.31
484.463	94.31
484.681	97.31
484.9	97.31
485.118	86.31
485.336	97.31
485.554	89.31
485.772	81.31
485.99	109.31
486.209	114.31
486.427	114.31
486.645	122.31
486.863	118.31
487.081	107.31
487.299	107.31
487.517	84.31
487.735	101.31
487.953	98.31
488.171	97.31
488.389	86.31
488.607	94.31
488.825	88.31
489.043	100.31
489.261	92.31
489.479	87.31
489.696	90.31
489.914	94.31
490.132	99.31
490.35	84.31
490.568	95.31
490.786	100.31
491.003	92.31
491.221	82.31
491.439	93.31
491.657	84.31
491.874	90.31
492.092	86.31
492.31	100.31
492.527	101.31
492.745	90.31
492.963	98.31
493.18	89.31
493.398	95.31
493.615	91.31
493.833	95.31
494.05	95.31
494.268	100.31
494.485	99.31
494.703	91.31
494.92	97.31
495.138	92.31
495.355	91.31
495.573	89.31
495.79	104.31
496.008	107.31
496.225	81.31
496.442	94.31
496.66	107.31
496.877	100.31
497.094	102.31
497.312	94.31
497.529	78.31
497.746	86.31
497.963	82.31
498.181	98.31
498.398	84.31
498.615	116.31
498.832	99.31
499.049	103.31
499.267	90.31
499.484	99.31
499.701	103.31
499.918	92.31
500.135	92.31
500.352	83.31
500.569	94.31
500.786	95.31
501.003	91.31
501.22	81.31
501.437	98.31
501.654	86.31
501.871	100.31
502.088	99.31
502.305	98.31
502.522	95.31
502.739	97.31
502.956	98.31
503.172	92.31
503.389	92.31
503.606	108.31
503.823	101.31
504.04	98.31
504.256	82.31
504.473	83.31
504.69	89.31
504.907	94.31
505.123	92.31
505.34	89.31
505.557	84.31
505.773	85.31
505.99	85.31
506.207	77.31
506.423	87.31
506.64	75.31
506.856	87.31
507.073	88.31
507.289	94.31
507.506	88.31
507.722	124.31
507.939	120.31
508.155	99.31
508.372	92.31
508.588	93.31
508.805	102.31
509.021	88.31
509.238	99.31
509.454	97.31
509.67	118.31
509.887	117.31
510.103	140.31
510.319	242.31
510.536	913.31
510.752	3041.31
510.968	824.31
511.184	181.31
511.401	127.31
511.617	107.31
511.833	101.31
512.049	92.31
512.265	83.31
512.481	95.31
512.698	99.31
512.914	84.31
513.13	100.31
513.346	90.31
513.562	91.31
