Data from Circ_2001_H10_HRD10591_00025.txt Node
Date: Wed Jan 03 10:45:43 EST 2024
User: Yrep
Spectrometer: HR+D1059
Trigger mode: 1
Integration Time (sec): 1.000000E-1
Scans to average: 1
Electric dark correction enabled: true
Nonlinearity correction enabled: false
Boxcar width: 0
XAxis mode: Wavelengths
Number of Pixels in Spectrum: 2048
>>>>>Begin Spectral Data<<<<<
223.165	-18.56
223.4	-18.56
223.635	-18.56
223.869	-8.56
224.104	-28.56
224.338	-15.56
224.573	-17.56
224.808	-5.56
225.042	-6.56
225.277	-7.56
225.511	-4.56
225.746	1.44
225.98	13.44
226.215	13.44
226.449	13.44
226.683	16.44
226.918	21.44
227.152	33.44
227.387	28.44
227.621	29.44
227.856	36.44
228.09	50.44
228.324	58.44
228.559	52.44
228.793	50.44
229.027	68.44
229.262	54.44
229.496	80.44
229.73	72.44
229.964	78.44
230.199	76.44
230.433	80.44
230.667	63.44
230.901	62.44
231.136	77.44
231.37	79.44
231.604	84.44
231.838	74.44
232.072	73.44
232.306	87.44
232.541	78.44
232.775	91.44
233.009	75.44
233.243	85.44
233.477	76.44
233.711	75.44
233.945	77.44
234.179	74.44
234.413	78.44
234.647	66.44
234.881	69.44
235.115	81.44
235.349	91.44
235.583	81.44
235.817	80.44
236.051	71.44
236.285	73.44
236.519	81.44
236.753	83.44
236.987	72.44
237.221	90.44
237.455	86.44
237.689	72.44
237.922	77.44
238.156	75.44
238.39	71.44
238.624	67.44
238.858	74.44
239.091	89.44
239.325	82.44
239.559	85.44
239.793	76.44
240.027	70.44
240.26	80.44
240.494	81.44
240.728	86.44
240.961	69.44
241.195	77.44
241.429	73.44
241.662	76.44
241.896	75.44
242.13	87.44
242.363	75.44
242.597	77.44
242.83	63.44
243.064	69.44
243.298	85.44
243.531	72.44
243.765	87.44
243.998	71.44
244.232	91.44
244.465	76.44
244.699	90.44
244.932	70.44
245.166	92.44
245.399	71.44
245.633	67.44
245.866	88.44
246.099	86.44
246.333	75.44
246.566	77.44
246.8	80.44
247.033	83.44
247.266	82.44
247.5	83.44
247.733	94.44
247.966	79.44
248.2	83.44
248.433	90.44
248.666	83.44
248.899	74.44
249.133	71.44
249.366	102.44
249.599	105.44
249.832	84.44
250.066	74.44
250.299	95.44
250.532	93.44
250.765	76.44
250.998	80.44
251.231	64.44
251.465	76.44
251.698	90.44
251.931	80.44
252.164	89.44
252.397	95.44
252.63	75.44
252.863	73.44
253.096	64.44
253.329	75.44
253.562	70.44
253.795	83.44
254.028	89.44
254.261	96.44
254.494	86.44
254.727	85.44
254.96	66.44
255.193	78.44
255.426	73.44
255.659	74.44
255.892	82.44
256.124	79.44
256.357	93.44
256.59	82.44
256.823	80.44
257.056	85.44
257.289	73.44
257.521	78.44
257.754	84.44
257.987	61.44
258.22	95.44
258.452	96.44
258.685	89.44
258.918	84.44
259.151	77.44
259.383	74.44
259.616	79.44
259.849	85.44
260.081	86.44
260.314	91.44
260.547	83.44
260.779	93.44
261.012	86.44
261.244	94.44
261.477	84.44
261.71	87.44
261.942	116.44
262.175	115.44
262.407	88.44
262.64	91.44
262.872	82.44
263.105	81.44
263.337	86.44
263.57	85.44
263.802	76.44
264.035	75.44
264.267	77.44
264.499	77.44
264.732	90.44
264.964	81.44
265.197	79.44
265.429	82.44
265.661	79.44
265.894	69.44
266.126	87.44
266.358	93.44
266.591	82.44
266.823	83.44
267.055	102.44
267.287	98.44
267.52	93.44
267.752	77.44
267.984	91.44
268.216	91.44
268.448	83.44
268.681	77.44
268.913	73.44
269.145	87.44
269.377	87.44
269.609	82.44
269.841	77.44
270.073	82.44
270.306	82.44
270.538	74.44
270.77	81.44
271.002	77.44
271.234	91.44
271.466	82.44
271.698	88.44
271.93	90.44
272.162	83.44
272.394	83.44
272.626	69.44
272.858	63.44
273.09	70.44
273.322	91.44
273.553	73.44
273.785	81.44
274.017	67.44
274.249	93.44
274.481	79.44
274.713	80.44
274.945	83.44
275.176	85.44
275.408	74.44
275.64	79.44
275.872	85.44
276.104	114.44
276.335	87.44
276.567	100.44
276.799	125.44
277.031	119.44
277.262	139.44
277.494	108.44
277.726	85.44
277.957	92.44
278.189	86.44
278.421	87.44
278.652	98.44
278.884	86.44
279.115	97.44
279.347	93.44
279.579	92.44
279.81	98.44
280.042	124.44
280.273	169.44
280.505	128.44
280.736	92.44
280.968	80.44
281.199	81.44
281.431	94.44
281.662	69.44
281.894	68.44
282.125	98.44
282.356	134.44
282.588	147.44
282.819	115.44
283.051	89.44
283.282	86.44
283.513	91.44
283.745	89.44
283.976	90.44
284.207	78.44
284.439	95.44
284.67	83.44
284.901	98.44
285.132	81.44
285.364	92.44
285.595	91.44
285.826	79.44
286.057	87.44
286.288	86.44
286.52	82.44
286.751	78.44
286.982	89.44
287.213	90.44
287.444	81.44
287.675	82.44
287.906	100.44
288.138	105.44
288.369	104.44
288.6	108.44
288.831	82.44
289.062	89.44
289.293	82.44
289.524	75.44
289.755	77.44
289.986	81.44
290.217	94.44
290.448	79.44
290.679	75.44
290.91	86.44
291.141	81.44
291.371	104.44
291.602	70.44
291.833	81.44
292.064	81.44
292.295	73.44
292.526	77.44
292.757	75.44
292.987	89.44
293.218	75.44
293.449	101.44
293.68	88.44
293.91	89.44
294.141	89.44
294.372	86.44
294.603	91.44
294.833	77.44
295.064	89.44
295.295	85.44
295.525	91.44
295.756	97.44
295.987	130.44
296.217	140.44
296.448	117.44
296.679	97.44
296.909	90.44
297.14	88.44
297.37	77.44
297.601	87.44
297.831	90.44
298.062	78.44
298.292	88.44
298.523	89.44
298.753	77.44
298.984	91.44
299.214	90.44
299.445	84.44
299.675	104.44
299.905	97.44
300.136	88.44
300.366	101.44
300.597	105.44
300.827	83.44
301.057	98.44
301.288	105.44
301.518	84.44
301.748	102.44
301.979	109.44
302.209	100.44
302.439	79.44
302.669	92.44
302.9	79.44
303.13	91.44
303.36	109.44
303.59	92.44
303.82	111.44
304.051	86.44
304.281	91.44
304.511	103.44
304.741	89.44
304.971	86.44
305.201	104.44
305.431	88.44
305.661	95.44
305.891	90.44
306.121	97.44
306.352	114.44
306.582	112.44
306.812	119.44
307.042	89.44
307.272	107.44
307.502	117.44
307.731	116.44
307.961	100.44
308.191	88.44
308.421	82.44
308.651	84.44
308.881	92.44
309.111	91.44
309.341	89.44
309.571	102.44
309.8	86.44
310.03	103.44
310.26	103.44
310.49	94.44
310.72	97.44
310.949	113.44
311.179	106.44
311.409	109.44
311.639	82.44
311.868	86.44
312.098	94.44
312.328	95.44
312.557	99.44
312.787	115.44
313.017	98.44
313.246	93.44
313.476	77.44
313.706	87.44
313.935	111.44
314.165	96.44
314.394	103.44
314.624	96.44
314.853	97.44
315.083	97.44
315.312	101.44
315.542	92.44
315.771	79.44
316.001	75.44
316.23	89.44
316.46	94.44
316.689	93.44
316.919	102.44
317.148	89.44
317.377	92.44
317.607	90.44
317.836	87.44
318.065	95.44
318.295	91.44
318.524	94.44
318.753	94.44
318.983	94.44
319.212	105.44
319.441	106.44
319.67	108.44
319.9	101.44
320.129	87.44
320.358	102.44
320.587	91.44
320.816	93.44
321.046	105.44
321.275	86.44
321.504	94.44
321.733	90.44
321.962	93.44
322.191	109.44
322.42	95.44
322.649	106.44
322.878	107.44
323.108	114.44
323.337	130.44
323.566	134.44
323.795	170.44
324.024	216.44
324.253	412.44
324.482	873.44
324.71	1805.44
324.939	2393.44
325.168	853.44
325.397	261.44
325.626	159.44
325.855	123.44
326.084	134.44
326.313	142.44
326.542	160.44
326.77	250.44
326.999	478.44
327.228	1001.44
327.457	1810.44
327.686	1442.44
327.914	435.44
328.143	343.44
328.372	363.44
328.6	225.44
328.829	156.44
329.058	136.44
329.287	136.44
329.515	139.44
329.744	168.44
329.972	284.44
330.201	537.44
330.43	748.44
330.658	360.44
330.887	211.44
331.115	145.44
331.344	112.44
331.572	111.44
331.801	88.44
332.03	99.44
332.258	82.44
332.486	101.44
332.715	98.44
332.943	95.44
333.172	117.44
333.4	115.44
333.629	130.44
333.857	171.44
334.085	275.44
334.314	506.44
334.542	870.44
334.771	871.44
334.999	262.44
335.227	117.44
335.455	109.44
335.684	102.44
335.912	118.44
336.14	99.44
336.369	98.44
336.597	85.44
336.825	105.44
337.053	94.44
337.281	102.44
337.51	89.44
337.738	91.44
337.966	102.44
338.194	118.44
338.422	94.44
338.65	100.44
338.878	108.44
339.106	95.44
339.334	79.44
339.562	96.44
339.79	86.44
340.018	104.44
340.246	81.44
340.474	109.44
340.702	89.44
340.93	90.44
341.158	99.44
341.386	85.44
341.614	94.44
341.842	79.44
342.07	91.44
342.298	98.44
342.526	85.44
342.754	82.44
342.981	83.44
343.209	85.44
343.437	96.44
343.665	84.44
343.893	86.44
344.12	95.44
344.348	86.44
344.576	83.44
344.804	96.44
345.031	99.44
345.259	93.44
345.487	85.44
345.714	93.44
345.942	91.44
346.17	89.44
346.397	88.44
346.625	92.44
346.853	77.44
347.08	75.44
347.308	89.44
347.535	105.44
347.763	96.44
347.99	102.44
348.218	90.44
348.445	102.44
348.673	92.44
348.9	89.44
349.128	99.44
349.355	80.44
349.583	73.44
349.81	94.44
350.037	95.44
350.265	86.44
350.492	104.44
350.72	106.44
350.947	86.44
351.174	101.44
351.402	110.44
351.629	121.44
351.856	121.44
352.083	108.44
352.311	111.44
352.538	111.44
352.765	113.44
352.992	112.44
353.22	106.44
353.447	98.44
353.674	98.44
353.901	93.44
354.128	86.44
354.355	98.44
354.583	93.44
354.81	90.44
355.037	87.44
355.264	87.44
355.491	81.44
355.718	99.44
355.945	99.44
356.172	80.44
356.399	94.44
356.626	97.44
356.853	90.44
357.08	89.44
357.307	83.44
357.534	89.44
357.761	76.44
357.988	103.44
358.215	94.44
358.441	91.44
358.668	83.44
358.895	93.44
359.122	96.44
359.349	81.44
359.576	91.44
359.802	96.44
360.029	131.44
360.256	109.44
360.483	103.44
360.709	103.44
360.936	89.44
361.163	89.44
361.39	107.44
361.616	102.44
361.843	85.44
362.07	88.44
362.296	95.44
362.523	82.44
362.749	83.44
362.976	85.44
363.203	97.44
363.429	84.44
363.656	84.44
363.882	103.44
364.109	96.44
364.335	74.44
364.562	89.44
364.788	88.44
365.015	88.44
365.241	88.44
365.468	112.44
365.694	111.44
365.92	106.44
366.147	92.44
366.373	85.44
366.599	79.44
366.826	86.44
367.052	89.44
367.278	85.44
367.505	85.44
367.731	91.44
367.957	98.44
368.184	98.44
368.41	99.44
368.636	105.44
368.862	131.44
369.089	120.44
369.315	96.44
369.541	98.44
369.767	99.44
369.993	104.44
370.219	73.44
370.445	94.44
370.672	71.44
370.898	66.44
371.124	88.44
371.35	82.44
371.576	88.44
371.802	79.44
372.028	74.44
372.254	84.44
372.48	78.44
372.706	98.44
372.932	89.44
373.158	89.44
373.384	93.44
373.61	93.44
373.835	104.44
374.061	85.44
374.287	80.44
374.513	86.44
374.739	82.44
374.965	80.44
375.191	81.44
375.416	94.44
375.642	80.44
375.868	74.44
376.094	91.44
376.319	90.44
376.545	74.44
376.771	85.44
376.997	96.44
377.222	92.44
377.448	84.44
377.674	80.44
377.899	95.44
378.125	97.44
378.35	90.44
378.576	96.44
378.802	84.44
379.027	90.44
379.253	89.44
379.478	91.44
379.704	110.44
379.929	91.44
380.155	96.44
380.38	91.44
380.606	93.44
380.831	96.44
381.057	108.44
381.282	94.44
381.507	101.44
381.733	99.44
381.958	101.44
382.184	95.44
382.409	107.44
382.634	110.44
382.86	99.44
383.085	107.44
383.31	104.44
383.535	91.44
383.761	103.44
383.986	110.44
384.211	97.44
384.436	99.44
384.662	104.44
384.887	106.44
385.112	116.44
385.337	111.44
385.562	109.44
385.787	115.44
386.013	112.44
386.238	119.44
386.463	105.44
386.688	104.44
386.913	104.44
387.138	90.44
387.363	116.44
387.588	102.44
387.813	100.44
388.038	104.44
388.263	116.44
388.488	123.44
388.713	94.44
388.938	97.44
389.163	94.44
389.387	98.44
389.612	89.44
389.837	88.44
390.062	82.44
390.287	78.44
390.512	92.44
390.736	91.44
390.961	88.44
391.186	86.44
391.411	77.44
391.636	89.44
391.86	83.44
392.085	79.44
392.31	81.44
392.534	89.44
392.759	88.44
392.984	79.44
393.208	92.44
393.433	102.44
393.658	101.44
393.882	75.44
394.107	87.44
394.331	81.44
394.556	94.44
394.78	80.44
395.005	82.44
395.229	84.44
395.454	90.44
395.678	81.44
395.903	101.44
396.127	89.44
396.352	90.44
396.576	79.44
396.801	87.44
397.025	102.44
397.249	85.44
397.474	89.44
397.698	88.44
397.922	83.44
398.147	84.44
398.371	82.44
398.595	91.44
398.82	81.44
399.044	81.44
399.268	112.44
399.492	78.44
399.717	95.44
399.941	87.44
400.165	87.44
400.389	101.44
400.613	81.44
400.837	77.44
401.062	107.44
401.286	105.44
401.51	95.44
401.734	105.44
401.958	94.44
402.182	118.44
402.406	161.44
402.63	125.44
402.854	84.44
403.078	94.44
403.302	74.44
403.526	74.44
403.75	100.44
403.974	73.44
404.198	85.44
404.422	78.44
404.645	98.44
404.869	82.44
405.093	100.44
405.317	111.44
405.541	125.44
405.765	121.44
405.988	135.44
406.212	167.44
406.436	257.44
406.66	170.44
406.883	97.44
407.107	104.44
407.331	88.44
407.555	102.44
407.778	86.44
408.002	86.44
408.226	82.44
408.449	93.44
408.673	97.44
408.896	89.44
409.12	87.44
409.344	99.44
409.567	89.44
409.791	86.44
410.014	83.44
410.238	97.44
410.461	82.44
410.685	86.44
410.908	110.44
411.132	106.44
411.355	97.44
411.578	91.44
411.802	82.44
412.025	83.44
412.249	94.44
412.472	106.44
412.695	121.44
412.919	109.44
413.142	93.44
413.365	84.44
413.589	85.44
413.812	77.44
414.035	82.44
414.258	95.44
414.482	85.44
414.705	104.44
414.928	91.44
415.151	81.44
415.374	78.44
415.597	86.44
415.821	94.44
416.044	76.44
416.267	90.44
416.49	96.44
416.713	97.44
416.936	82.44
417.159	93.44
417.382	80.44
417.605	93.44
417.828	104.44
418.051	94.44
418.274	92.44
418.497	85.44
418.72	84.44
418.943	87.44
419.166	80.44
419.389	84.44
419.611	90.44
419.834	82.44
420.057	90.44
420.28	82.44
420.503	86.44
420.726	81.44
420.948	87.44
421.171	98.44
421.394	97.44
421.617	86.44
421.839	93.44
422.062	71.44
422.285	85.44
422.507	94.44
422.73	95.44
422.953	93.44
423.175	89.44
423.398	83.44
423.621	98.44
423.843	81.44
424.066	91.44
424.288	85.44
424.511	81.44
424.733	90.44
424.956	102.44
425.178	102.44
425.401	103.44
425.623	105.44
425.846	88.44
426.068	84.44
426.291	94.44
426.513	91.44
426.735	79.44
426.958	93.44
427.18	118.44
427.402	148.44
427.625	189.44
427.847	179.44
428.069	175.44
428.292	118.44
428.514	100.44
428.736	89.44
428.958	84.44
429.181	85.44
429.403	61.44
429.625	82.44
429.847	89.44
430.069	80.44
430.292	97.44
430.514	92.44
430.736	84.44
430.958	86.44
431.18	82.44
431.402	78.44
431.624	73.44
431.846	88.44
432.068	76.44
432.29	81.44
432.512	78.44
432.734	89.44
432.956	104.44
433.178	112.44
433.4	89.44
433.622	96.44
433.844	93.44
434.066	83.44
434.287	86.44
434.509	84.44
434.731	72.44
434.953	77.44
435.175	79.44
435.397	90.44
435.618	87.44
435.84	103.44
436.062	118.44
436.284	126.44
436.505	117.44
436.727	101.44
436.949	83.44
437.17	95.44
437.392	72.44
437.614	87.44
437.835	102.44
438.057	127.44
438.278	110.44
438.5	117.44
438.721	136.44
438.943	101.44
439.165	95.44
439.386	98.44
439.608	83.44
439.829	106.44
440.05	129.44
440.272	152.44
440.493	98.44
440.715	88.44
440.936	96.44
441.158	88.44
441.379	94.44
441.6	99.44
441.822	96.44
442.043	101.44
442.264	102.44
442.486	109.44
442.707	91.44
442.928	99.44
443.149	133.44
443.371	148.44
443.592	112.44
443.813	110.44
444.034	106.44
444.255	92.44
444.476	93.44
444.698	82.44
444.919	75.44
445.14	115.44
445.361	120.44
445.582	106.44
445.803	150.44
446.024	144.44
446.245	141.44
446.466	106.44
446.687	88.44
446.908	85.44
447.129	81.44
447.35	78.44
447.571	100.44
447.792	91.44
448.013	108.44
448.234	100.44
448.455	102.44
448.675	126.44
448.896	130.44
449.117	99.44
449.338	91.44
449.559	121.44
449.779	125.44
450	95.44
450.221	104.44
450.442	98.44
450.662	103.44
450.883	104.44
451.104	141.44
451.324	87.44
451.545	81.44
451.766	87.44
451.986	94.44
452.207	90.44
452.428	68.44
452.648	102.44
452.869	111.44
453.089	110.44
453.31	112.44
453.53	86.44
453.751	94.44
453.971	103.44
454.192	119.44
454.412	91.44
454.633	86.44
454.853	97.44
455.073	84.44
455.294	86.44
455.514	97.44
455.734	86.44
455.955	80.44
456.175	82.44
456.395	76.44
456.616	80.44
456.836	81.44
457.056	85.44
457.276	85.44
457.497	94.44
457.717	86.44
457.937	70.44
458.157	91.44
458.377	90.44
458.598	112.44
458.818	156.44
459.038	180.44
459.258	111.44
459.478	94.44
459.698	88.44
459.918	91.44
460.138	89.44
460.358	69.44
460.578	78.44
460.798	97.44
461.018	100.44
461.238	86.44
461.458	87.44
461.678	75.44
461.898	86.44
462.118	81.44
462.338	94.44
462.558	66.44
462.777	85.44
462.997	83.44
463.217	98.44
463.437	85.44
463.657	87.44
463.876	58.44
464.096	82.44
464.316	107.44
464.536	97.44
464.755	87.44
464.975	114.44
465.195	192.44
465.414	189.44
465.634	92.44
465.854	87.44
466.073	75.44
466.293	95.44
466.512	90.44
466.732	98.44
466.951	86.44
467.171	102.44
467.391	101.44
467.61	121.44
467.829	155.44
468.049	324.44
468.268	461.44
468.488	140.44
468.707	93.44
468.927	98.44
469.146	77.44
469.365	86.44
469.585	92.44
469.804	95.44
470.023	96.44
470.243	89.44
470.462	109.44
470.681	135.44
470.901	106.44
471.12	95.44
471.339	84.44
471.558	91.44
471.777	111.44
471.997	195.44
472.216	625.44
472.435	1251.44
472.654	310.44
472.873	111.44
473.092	89.44
473.311	94.44
473.53	71.44
473.749	97.44
473.968	81.44
474.187	126.44
474.406	105.44
474.625	91.44
474.844	84.44
475.063	84.44
475.282	90.44
475.501	82.44
475.72	93.44
475.939	86.44
476.158	85.44
476.377	86.44
476.596	97.44
476.814	99.44
477.033	96.44
477.252	91.44
477.471	85.44
477.69	79.44
477.908	83.44
478.127	94.44
478.346	88.44
478.564	102.44
478.783	95.44
479.002	98.44
479.22	89.44
479.439	106.44
479.658	124.44
479.876	103.44
480.095	106.44
480.313	125.44
480.532	129.44
480.751	172.44
480.969	573.44
481.188	2179.44
481.406	1281.44
481.624	208.44
481.843	97.44
482.061	99.44
482.28	98.44
482.498	97.44
482.717	82.44
482.935	101.44
483.153	97.44
483.372	90.44
483.59	106.44
483.808	93.44
484.027	79.44
484.245	96.44
484.463	99.44
484.681	90.44
484.9	91.44
485.118	84.44
485.336	90.44
485.554	94.44
485.772	91.44
485.99	93.44
486.209	108.44
486.427	114.44
486.645	105.44
486.863	119.44
487.081	109.44
487.299	97.44
487.517	101.44
487.735	93.44
487.953	97.44
488.171	94.44
488.389	83.44
488.607	96.44
488.825	95.44
489.043	81.44
489.261	95.44
489.479	90.44
489.696	87.44
489.914	91.44
490.132	102.44
490.35	89.44
490.568	90.44
490.786	96.44
491.003	88.44
491.221	90.44
491.439	91.44
491.657	83.44
491.874	91.44
492.092	83.44
492.31	80.44
492.527	83.44
492.745	105.44
492.963	100.44
493.18	96.44
493.398	96.44
493.615	95.44
493.833	106.44
494.05	96.44
494.268	79.44
494.485	79.44
494.703	90.44
494.92	95.44
495.138	89.44
495.355	84.44
495.573	76.44
495.79	86.44
496.008	82.44
496.225	96.44
496.442	86.44
496.66	77.44
496.877	97.44
497.094	96.44
497.312	87.44
497.529	98.44
497.746	82.44
497.963	88.44
498.181	94.44
498.398	98.44
498.615	120.44
498.832	101.44
499.049	95.44
499.267	80.44
499.484	94.44
499.701	92.44
499.918	100.44
500.135	94.44
500.352	89.44
500.569	87.44
500.786	82.44
501.003	94.44
501.22	104.44
501.437	90.44
501.654	98.44
501.871	102.44
502.088	93.44
502.305	83.44
502.522	87.44
502.739	88.44
502.956	90.44
503.172	93.44
503.389	89.44
503.606	104.44
503.823	98.44
504.04	93.44
504.256	97.44
504.473	90.44
504.69	89.44
504.907	90.44
505.123	95.44
505.34	89.44
505.557	89.44
505.773	96.44
505.99	89.44
506.207	77.44
506.423	104.44
506.64	85.44
506.856	95.44
507.073	83.44
507.289	94.44
507.506	88.44
507.722	112.44
507.939	121.44
508.155	87.44
508.372	91.44
508.588	88.44
508.805	103.44
509.021	91.44
509.238	106.44
509.454	106.44
509.67	92.44
509.887	105.44
510.103	146.44
510.319	209.44
510.536	730.44
510.752	2439.44
510.968	697.44
511.184	149.44
511.401	113.44
511.617	87.44
511.833	100.44
512.049	91.44
512.265	83.44
512.481	91.44
512.698	85.44
512.914	94.44
513.13	103.44
513.346	97.44
513.562	97.44
513.778	86.44
513.994	97.44
514.21	109.44
514.426	109.44
514.642	125.44
514.858	127.44
515.074	186.44
