Data from Circ_2001_H10_HRD10591_00018.txt Node
Date: Wed Jan 03 10:45:42 EST 2024
User: Yrep
Spectrometer: HR+D1059
Trigger mode: 1
Integration Time (sec): 1.000000E-1
Scans to average: 1
Electric dark correction enabled: true
Nonlinearity correction enabled: false
Boxcar width: 0
XAxis mode: Wavelengths
Number of Pixels in Spectrum: 2048
>>>>>Begin Spectral Data<<<<<
223.165	-5.25
223.4	-5.25
223.635	-5.25
223.869	-14.25
224.104	-14.25
224.338	-11.25
224.573	-30.25
224.808	-19.25
225.042	-6.25
225.277	-13.25
225.511	5.75
225.746	-6.25
225.98	11.75
226.215	7.75
226.449	15.75
226.683	30.75
226.918	26.75
227.152	21.75
227.387	26.75
227.621	51.75
227.856	46.75
228.09	53.75
228.324	48.75
228.559	47.75
228.793	56.75
229.027	66.75
229.262	69.75
229.496	67.75
229.73	80.75
229.964	81.75
230.199	63.75
230.433	74.75
230.667	85.75
230.901	75.75
231.136	70.75
231.37	64.75
231.604	82.75
231.838	84.75
232.072	80.75
232.306	79.75
232.541	80.75
232.775	73.75
233.009	79.75
233.243	81.75
233.477	83.75
233.711	97.75
233.945	76.75
234.179	72.75
234.413	81.75
234.647	68.75
234.881	77.75
235.115	83.75
235.349	83.75
235.583	72.75
235.817	76.75
236.051	85.75
236.285	72.75
236.519	94.75
236.753	83.75
236.987	69.75
237.221	65.75
237.455	92.75
237.689	67.75
237.922	76.75
238.156	67.75
238.39	82.75
238.624	76.75
238.858	65.75
239.091	74.75
239.325	75.75
239.559	82.75
239.793	64.75
240.027	79.75
240.26	80.75
240.494	64.75
240.728	81.75
240.961	92.75
241.195	77.75
241.429	82.75
241.662	74.75
241.896	71.75
242.13	70.75
242.363	83.75
242.597	55.75
242.83	82.75
243.064	82.75
243.298	68.75
243.531	71.75
243.765	64.75
243.998	87.75
244.232	85.75
244.465	85.75
244.699	81.75
244.932	72.75
245.166	79.75
245.399	88.75
245.633	73.75
245.866	85.75
246.099	64.75
246.333	73.75
246.566	90.75
246.8	78.75
247.033	70.75
247.266	79.75
247.5	80.75
247.733	84.75
247.966	75.75
248.2	80.75
248.433	85.75
248.666	76.75
248.899	86.75
249.133	69.75
249.366	112.75
249.599	97.75
249.832	74.75
250.066	86.75
250.299	88.75
250.532	83.75
250.765	72.75
250.998	82.75
251.231	73.75
251.465	91.75
251.698	79.75
251.931	79.75
252.164	60.75
252.397	72.75
252.63	79.75
252.863	74.75
253.096	76.75
253.329	79.75
253.562	68.75
253.795	78.75
254.028	88.75
254.261	85.75
254.494	88.75
254.727	82.75
254.96	85.75
255.193	68.75
255.426	71.75
255.659	73.75
255.892	87.75
256.124	81.75
256.357	71.75
256.59	79.75
256.823	72.75
257.056	82.75
257.289	84.75
257.521	76.75
257.754	85.75
257.987	60.75
258.22	76.75
258.452	88.75
258.685	69.75
258.918	66.75
259.151	90.75
259.383	88.75
259.616	86.75
259.849	83.75
260.081	87.75
260.314	84.75
260.547	87.75
260.779	87.75
261.012	96.75
261.244	78.75
261.477	100.75
261.71	100.75
261.942	102.75
262.175	113.75
262.407	91.75
262.64	54.75
262.872	92.75
263.105	76.75
263.337	86.75
263.57	92.75
263.802	91.75
264.035	80.75
264.267	84.75
264.499	93.75
264.732	71.75
264.964	95.75
265.197	95.75
265.429	84.75
265.661	88.75
265.894	83.75
266.126	76.75
266.358	84.75
266.591	85.75
266.823	79.75
267.055	87.75
267.287	86.75
267.52	81.75
267.752	84.75
267.984	84.75
268.216	72.75
268.448	97.75
268.681	85.75
268.913	87.75
269.145	85.75
269.377	84.75
269.609	93.75
269.841	76.75
270.073	97.75
270.306	94.75
270.538	71.75
270.77	82.75
271.002	94.75
271.234	78.75
271.466	96.75
271.698	63.75
271.93	80.75
272.162	83.75
272.394	72.75
272.626	79.75
272.858	75.75
273.09	80.75
273.322	82.75
273.553	74.75
273.785	83.75
274.017	88.75
274.249	86.75
274.481	77.75
274.713	72.75
274.945	84.75
275.176	89.75
275.408	82.75
275.64	93.75
275.872	90.75
276.104	96.75
276.335	88.75
276.567	93.75
276.799	103.75
277.031	111.75
277.262	102.75
277.494	113.75
277.726	96.75
277.957	85.75
278.189	81.75
278.421	95.75
278.652	92.75
278.884	94.75
279.115	88.75
279.347	103.75
279.579	91.75
279.81	106.75
280.042	125.75
280.273	147.75
280.505	108.75
280.736	96.75
280.968	74.75
281.199	87.75
281.431	94.75
281.662	89.75
281.894	90.75
282.125	93.75
282.356	100.75
282.588	135.75
282.819	108.75
283.051	91.75
283.282	80.75
283.513	71.75
283.745	80.75
283.976	78.75
284.207	91.75
284.439	96.75
284.67	87.75
284.901	82.75
285.132	90.75
285.364	81.75
285.595	96.75
285.826	84.75
286.057	97.75
286.288	74.75
286.52	72.75
286.751	79.75
286.982	77.75
287.213	75.75
287.444	84.75
287.675	92.75
287.906	86.75
288.138	89.75
288.369	86.75
288.6	85.75
288.831	73.75
289.062	84.75
289.293	90.75
289.524	85.75
289.755	87.75
289.986	80.75
290.217	98.75
290.448	93.75
290.679	85.75
290.91	82.75
291.141	94.75
291.371	92.75
291.602	87.75
291.833	89.75
292.064	99.75
292.295	87.75
292.526	83.75
292.757	84.75
292.987	73.75
293.218	87.75
293.449	93.75
293.68	71.75
293.91	86.75
294.141	101.75
294.372	87.75
294.603	83.75
294.833	83.75
295.064	89.75
295.295	82.75
295.525	100.75
295.756	112.75
295.987	115.75
296.217	143.75
296.448	114.75
296.679	88.75
296.909	81.75
297.14	95.75
297.37	80.75
297.601	70.75
297.831	93.75
298.062	73.75
298.292	81.75
298.523	87.75
298.753	91.75
298.984	99.75
299.214	82.75
299.445	95.75
299.675	95.75
299.905	95.75
300.136	103.75
300.366	98.75
300.597	72.75
300.827	95.75
301.057	95.75
301.288	97.75
301.518	89.75
301.748	91.75
301.979	93.75
302.209	94.75
302.439	86.75
302.669	99.75
302.9	92.75
303.13	86.75
303.36	77.75
303.59	109.75
303.82	101.75
304.051	89.75
304.281	84.75
304.511	97.75
304.741	91.75
304.971	100.75
305.201	97.75
305.431	90.75
305.661	79.75
305.891	99.75
306.121	98.75
306.352	96.75
306.582	116.75
306.812	87.75
307.042	89.75
307.272	104.75
307.502	135.75
307.731	108.75
307.961	101.75
308.191	86.75
308.421	95.75
308.651	101.75
308.881	94.75
309.111	89.75
309.341	103.75
309.571	104.75
309.8	108.75
310.03	102.75
310.26	113.75
310.49	98.75
310.72	100.75
310.949	104.75
311.179	104.75
311.409	84.75
311.639	103.75
311.868	91.75
312.098	85.75
312.328	101.75
312.557	97.75
312.787	112.75
313.017	111.75
313.246	91.75
313.476	94.75
313.706	100.75
313.935	101.75
314.165	111.75
314.394	108.75
314.624	87.75
314.853	90.75
315.083	87.75
315.312	83.75
315.542	84.75
315.771	85.75
316.001	88.75
316.23	85.75
316.46	84.75
316.689	93.75
316.919	100.75
317.148	107.75
317.377	93.75
317.607	86.75
317.836	113.75
318.065	91.75
318.295	100.75
318.524	85.75
318.753	92.75
318.983	77.75
319.212	94.75
319.441	97.75
319.67	105.75
319.9	89.75
320.129	99.75
320.358	61.75
320.587	90.75
320.816	89.75
321.046	109.75
321.275	95.75
321.504	91.75
321.733	103.75
321.962	92.75
322.191	109.75
322.42	98.75
322.649	95.75
322.878	106.75
323.108	116.75
323.337	130.75
323.566	122.75
323.795	145.75
324.024	209.75
324.253	398.75
324.482	778.75
324.71	1553.75
324.939	2007.75
325.168	743.75
325.397	217.75
325.626	157.75
325.855	138.75
326.084	119.75
326.313	127.75
326.542	161.75
326.77	226.75
326.999	438.75
327.228	885.75
327.457	1555.75
327.686	1267.75
327.914	400.75
328.143	304.75
328.372	321.75
328.6	212.75
328.829	143.75
329.058	125.75
329.287	141.75
329.515	132.75
329.744	162.75
329.972	240.75
330.201	408.75
330.43	569.75
330.658	293.75
330.887	169.75
331.115	125.75
331.344	115.75
331.572	104.75
331.801	114.75
332.03	110.75
332.258	92.75
332.486	97.75
332.715	99.75
332.943	79.75
333.172	110.75
333.4	110.75
333.629	137.75
333.857	164.75
334.085	253.75
334.314	459.75
334.542	738.75
334.771	683.75
334.999	208.75
335.227	116.75
335.455	106.75
335.684	93.75
335.912	95.75
336.14	107.75
336.369	100.75
336.597	115.75
336.825	101.75
337.053	80.75
337.281	97.75
337.51	101.75
337.738	104.75
337.966	90.75
338.194	99.75
338.422	99.75
338.65	103.75
338.878	95.75
339.106	96.75
339.334	85.75
339.562	89.75
339.79	96.75
340.018	93.75
340.246	95.75
340.474	106.75
340.702	101.75
340.93	98.75
341.158	87.75
341.386	84.75
341.614	101.75
341.842	71.75
342.07	103.75
342.298	97.75
342.526	89.75
342.754	96.75
342.981	65.75
343.209	79.75
343.437	96.75
343.665	86.75
343.893	84.75
344.12	91.75
344.348	76.75
344.576	88.75
344.804	88.75
345.031	98.75
345.259	101.75
345.487	95.75
345.714	91.75
345.942	77.75
346.17	99.75
346.397	110.75
346.625	95.75
346.853	84.75
347.08	101.75
347.308	95.75
347.535	100.75
347.763	101.75
347.99	94.75
348.218	87.75
348.445	108.75
348.673	100.75
348.9	99.75
349.128	104.75
349.355	91.75
349.583	100.75
349.81	77.75
350.037	87.75
350.265	94.75
350.492	104.75
350.72	93.75
350.947	116.75
351.174	108.75
351.402	96.75
351.629	106.75
351.856	102.75
352.083	104.75
352.311	106.75
352.538	109.75
352.765	112.75
352.992	108.75
353.22	109.75
353.447	102.75
353.674	91.75
353.901	94.75
354.128	107.75
354.355	105.75
354.583	87.75
354.81	91.75
355.037	82.75
355.264	70.75
355.491	106.75
355.718	89.75
355.945	97.75
356.172	101.75
356.399	97.75
356.626	79.75
356.853	105.75
357.08	104.75
357.307	102.75
357.534	99.75
357.761	90.75
357.988	95.75
358.215	93.75
358.441	114.75
358.668	99.75
358.895	97.75
359.122	90.75
359.349	96.75
359.576	96.75
359.802	95.75
360.029	102.75
360.256	111.75
360.483	84.75
360.709	85.75
360.936	91.75
361.163	84.75
361.39	99.75
361.616	94.75
361.843	92.75
362.07	97.75
362.296	77.75
362.523	88.75
362.749	89.75
362.976	88.75
363.203	102.75
363.429	87.75
363.656	97.75
363.882	95.75
364.109	93.75
364.335	91.75
364.562	99.75
364.788	81.75
365.015	97.75
365.241	104.75
365.468	108.75
365.694	107.75
365.92	108.75
366.147	100.75
366.373	97.75
366.599	104.75
366.826	90.75
367.052	91.75
367.278	96.75
367.505	87.75
367.731	90.75
367.957	103.75
368.184	93.75
368.41	85.75
368.636	98.75
368.862	113.75
369.089	105.75
369.315	106.75
369.541	99.75
369.767	90.75
369.993	84.75
370.219	98.75
370.445	77.75
370.672	88.75
370.898	100.75
371.124	81.75
371.35	83.75
371.576	89.75
371.802	87.75
372.028	96.75
372.254	83.75
372.48	92.75
372.706	88.75
372.932	95.75
373.158	88.75
373.384	89.75
373.61	98.75
373.835	87.75
374.061	103.75
374.287	108.75
374.513	92.75
374.739	77.75
374.965	94.75
375.191	88.75
375.416	91.75
375.642	95.75
375.868	84.75
376.094	97.75
376.319	98.75
376.545	92.75
376.771	94.75
376.997	107.75
377.222	89.75
377.448	89.75
377.674	97.75
377.899	82.75
378.125	87.75
378.35	79.75
378.576	95.75
378.802	93.75
379.027	97.75
379.253	111.75
379.478	98.75
379.704	104.75
379.929	86.75
380.155	90.75
380.38	105.75
380.606	82.75
380.831	89.75
381.057	104.75
381.282	104.75
381.507	96.75
381.733	91.75
381.958	104.75
382.184	82.75
382.409	96.75
382.634	105.75
382.86	91.75
383.085	105.75
383.31	112.75
383.535	105.75
383.761	105.75
383.986	88.75
384.211	80.75
384.436	100.75
384.662	108.75
384.887	124.75
385.112	111.75
385.337	112.75
385.562	107.75
385.787	115.75
386.013	111.75
386.238	122.75
386.463	109.75
386.688	100.75
386.913	111.75
387.138	103.75
387.363	109.75
387.588	107.75
387.813	96.75
388.038	115.75
388.263	120.75
388.488	127.75
388.713	93.75
388.938	110.75
389.163	96.75
389.387	114.75
389.612	90.75
389.837	82.75
390.062	97.75
390.287	85.75
390.512	87.75
390.736	103.75
390.961	64.75
391.186	86.75
391.411	106.75
391.636	104.75
391.86	98.75
392.085	84.75
392.31	88.75
392.534	75.75
392.759	87.75
392.984	81.75
393.208	90.75
393.433	112.75
393.658	101.75
393.882	85.75
394.107	87.75
394.331	84.75
394.556	101.75
394.78	72.75
395.005	81.75
395.229	71.75
395.454	88.75
395.678	77.75
395.903	90.75
396.127	80.75
396.352	94.75
396.576	88.75
396.801	91.75
397.025	98.75
397.249	84.75
397.474	94.75
397.698	71.75
397.922	93.75
398.147	87.75
398.371	80.75
398.595	86.75
398.82	92.75
399.044	89.75
399.268	87.75
399.492	81.75
399.717	80.75
399.941	87.75
400.165	79.75
400.389	91.75
400.613	84.75
400.837	79.75
401.062	92.75
401.286	83.75
401.51	80.75
401.734	86.75
401.958	93.75
402.182	113.75
402.406	139.75
402.63	123.75
402.854	91.75
403.078	98.75
403.302	91.75
403.526	84.75
403.75	84.75
403.974	88.75
404.198	103.75
404.422	90.75
404.645	83.75
404.869	91.75
405.093	100.75
405.317	98.75
405.541	113.75
405.765	92.75
405.988	117.75
406.212	157.75
406.436	224.75
406.66	167.75
406.883	111.75
407.107	106.75
407.331	99.75
407.555	93.75
407.778	102.75
408.002	85.75
408.226	90.75
408.449	89.75
408.673	92.75
408.896	98.75
409.12	86.75
409.344	80.75
409.567	87.75
409.791	91.75
410.014	95.75
410.238	100.75
410.461	88.75
410.685	95.75
410.908	100.75
411.132	123.75
411.355	102.75
411.578	92.75
411.802	90.75
412.025	77.75
412.249	83.75
412.472	99.75
412.695	109.75
412.919	93.75
413.142	77.75
413.365	78.75
413.589	70.75
413.812	104.75
414.035	99.75
414.258	79.75
414.482	88.75
414.705	97.75
414.928	89.75
415.151	104.75
415.374	94.75
415.597	96.75
415.821	90.75
416.044	92.75
416.267	95.75
416.49	84.75
416.713	89.75
416.936	91.75
417.159	95.75
417.382	89.75
417.605	104.75
417.828	92.75
418.051	85.75
418.274	102.75
418.497	82.75
418.72	86.75
418.943	100.75
419.166	91.75
419.389	93.75
419.611	90.75
419.834	88.75
420.057	105.75
420.28	103.75
420.503	98.75
420.726	91.75
420.948	93.75
421.171	86.75
421.394	81.75
421.617	101.75
421.839	101.75
422.062	98.75
422.285	92.75
422.507	93.75
422.73	117.75
422.953	99.75
423.175	92.75
423.398	75.75
423.621	111.75
423.843	87.75
424.066	83.75
424.288	80.75
424.511	97.75
424.733	97.75
424.956	108.75
425.178	84.75
425.401	91.75
425.623	96.75
425.846	104.75
426.068	108.75
426.291	88.75
426.513	99.75
426.735	103.75
426.958	97.75
427.18	108.75
427.402	138.75
427.625	184.75
427.847	179.75
428.069	152.75
428.292	95.75
428.514	90.75
428.736	85.75
428.958	95.75
429.181	86.75
429.403	89.75
429.625	85.75
429.847	91.75
430.069	88.75
430.292	100.75
430.514	79.75
430.736	75.75
430.958	87.75
431.18	77.75
431.402	90.75
431.624	90.75
431.846	76.75
432.068	78.75
432.29	86.75
432.512	89.75
432.734	93.75
432.956	95.75
433.178	79.75
433.4	89.75
433.622	94.75
433.844	75.75
434.066	76.75
434.287	100.75
434.509	86.75
434.731	86.75
434.953	73.75
435.175	87.75
435.397	103.75
435.618	92.75
435.84	103.75
436.062	131.75
436.284	124.75
436.505	95.75
436.727	99.75
436.949	87.75
437.17	92.75
437.392	72.75
437.614	88.75
437.835	89.75
438.057	128.75
438.278	107.75
438.5	101.75
438.721	134.75
438.943	101.75
439.165	92.75
439.386	96.75
439.608	95.75
439.829	98.75
440.05	120.75
440.272	121.75
440.493	109.75
440.715	83.75
440.936	74.75
441.158	67.75
441.379	103.75
441.6	104.75
441.822	98.75
442.043	92.75
442.264	101.75
442.486	106.75
442.707	92.75
442.928	109.75
443.149	147.75
443.371	142.75
443.592	101.75
443.813	99.75
444.034	111.75
444.255	99.75
444.476	87.75
444.698	76.75
444.919	89.75
445.14	148.75
445.361	122.75
445.582	107.75
445.803	128.75
446.024	136.75
446.245	137.75
446.466	124.75
446.687	98.75
446.908	79.75
447.129	86.75
447.35	104.75
447.571	89.75
447.792	92.75
448.013	94.75
448.234	106.75
448.455	101.75
448.675	114.75
448.896	116.75
449.117	101.75
449.338	111.75
449.559	112.75
449.779	123.75
450	85.75
450.221	90.75
450.442	84.75
450.662	99.75
450.883	111.75
451.104	108.75
451.324	100.75
451.545	86.75
451.766	90.75
451.986	83.75
452.207	80.75
452.428	103.75
452.648	93.75
452.869	123.75
453.089	109.75
453.31	108.75
453.53	90.75
453.751	82.75
453.971	100.75
454.192	99.75
454.412	94.75
454.633	106.75
454.853	77.75
455.073	93.75
455.294	78.75
455.514	93.75
455.734	81.75
455.955	91.75
456.175	93.75
456.395	97.75
456.616	78.75
456.836	89.75
457.056	85.75
457.276	91.75
457.497	87.75
457.717	71.75
457.937	85.75
458.157	88.75
458.377	80.75
458.598	105.75
458.818	146.75
459.038	165.75
459.258	102.75
459.478	77.75
459.698	72.75
459.918	64.75
460.138	84.75
460.358	84.75
460.578	70.75
460.798	81.75
461.018	88.75
461.238	89.75
461.458	82.75
461.678	85.75
461.898	99.75
462.118	89.75
462.338	85.75
462.558	82.75
462.777	88.75
462.997	83.75
463.217	89.75
463.437	89.75
463.657	93.75
463.876	77.75
464.096	86.75
464.316	83.75
464.536	93.75
464.755	116.75
464.975	108.75
465.195	161.75
465.414	154.75
465.634	91.75
465.854	90.75
466.073	90.75
466.293	94.75
466.512	100.75
466.732	92.75
466.951	85.75
467.171	90.75
467.391	97.75
467.61	111.75
467.829	138.75
468.049	276.75
468.268	359.75
468.488	147.75
468.707	93.75
468.927	95.75
469.146	85.75
469.365	88.75
469.585	70.75
469.804	93.75
470.023	85.75
470.243	99.75
470.462	107.75
470.681	104.75
470.901	90.75
471.12	90.75
471.339	83.75
471.558	99.75
471.777	125.75
471.997	171.75
472.216	505.75
472.435	1027.75
472.654	270.75
472.873	119.75
473.092	83.75
473.311	82.75
473.53	83.75
473.749	89.75
473.968	91.75
474.187	113.75
474.406	108.75
474.625	91.75
474.844	85.75
475.063	84.75
475.282	88.75
475.501	96.75
475.72	87.75
475.939	81.75
476.158	101.75
476.377	91.75
476.596	86.75
476.814	82.75
477.033	110.75
477.252	80.75
477.471	84.75
477.69	87.75
477.908	92.75
478.127	87.75
478.346	87.75
478.564	88.75
478.783	103.75
479.002	84.75
479.22	90.75
479.439	116.75
479.658	112.75
479.876	99.75
480.095	109.75
480.313	102.75
480.532	101.75
480.751	183.75
480.969	479.75
481.188	1726.75
481.406	1008.75
481.624	193.75
481.843	96.75
482.061	103.75
482.28	91.75
482.498	97.75
482.717	73.75
482.935	92.75
483.153	92.75
483.372	86.75
483.59	88.75
483.808	98.75
484.027	89.75
484.245	92.75
484.463	82.75
484.681	98.75
484.9	87.75
485.118	84.75
485.336	104.75
485.554	104.75
485.772	106.75
485.99	101.75
486.209	111.75
486.427	113.75
486.645	116.75
486.863	115.75
487.081	88.75
487.299	89.75
487.517	90.75
487.735	91.75
487.953	92.75
488.171	96.75
488.389	88.75
488.607	96.75
488.825	94.75
489.043	95.75
489.261	86.75
489.479	86.75
489.696	91.75
489.914	88.75
490.132	84.75
490.35	83.75
490.568	83.75
490.786	92.75
491.003	83.75
491.221	91.75
491.439	90.75
491.657	89.75
491.874	82.75
492.092	77.75
492.31	92.75
492.527	73.75
492.745	102.75
492.963	91.75
493.18	97.75
493.398	93.75
493.615	95.75
493.833	84.75
494.05	85.75
494.268	88.75
494.485	82.75
494.703	79.75
494.92	93.75
495.138	97.75
495.355	93.75
495.573	91.75
495.79	88.75
496.008	96.75
496.225	85.75
496.442	84.75
496.66	75.75
496.877	89.75
497.094	97.75
497.312	85.75
497.529	74.75
497.746	87.75
497.963	85.75
498.181	95.75
498.398	108.75
498.615	93.75
498.832	103.75
499.049	92.75
499.267	90.75
499.484	85.75
499.701	89.75
499.918	91.75
500.135	84.75
500.352	93.75
500.569	83.75
500.786	95.75
501.003	101.75
501.22	78.75
501.437	82.75
501.654	99.75
501.871	100.75
502.088	83.75
502.305	87.75
502.522	98.75
502.739	100.75
502.956	97.75
503.172	100.75
503.389	79.75
503.606	103.75
503.823	101.75
504.04	96.75
504.256	89.75
504.473	86.75
504.69	84.75
504.907	88.75
505.123	84.75
505.34	79.75
505.557	85.75
505.773	81.75
505.99	103.75
506.207	92.75
506.423	89.75
506.64	88.75
506.856	101.75
507.073	81.75
507.289	94.75
507.506	92.75
507.722	114.75
507.939	124.75
508.155	88.75
508.372	109.75
508.588	83.75
508.805	93.75
509.021	97.75
509.238	102.75
509.454	93.75
509.67	107.75
509.887	101.75
510.103	129.75
510.319	196.75
510.536	674.75
510.752	2110.75
510.968	609.75
511.184	147.75
511.401	106.75
511.617	99.75
511.833	105.75
512.049	105.75
512.265	85.75
512.481	84.75
512.698	96.75
512.914	90.75
513.13	86.75
513.346	89.75
513.562	89.75
513.778	83.75
513.994	95.75
514.21	102.75
514.426	117.75
514.642	138.75
514.858	113.75
