Data from Circ_2001_H10_HRD10591_00078.txt Node
Date: Wed Jan 03 10:45:54 EST 2024
User: Yrep
Spectrometer: HR+D1059
Trigger mode: 1
Integration Time (sec): 1.000000E-1
Scans to average: 1
Electric dark correction enabled: true
Nonlinearity correction enabled: false
Boxcar width: 0
XAxis mode: Wavelengths
Number of Pixels in Spectrum: 2048
>>>>>Begin Spectral Data<<<<<
223.165	-20.94
223.4	-20.94
223.635	-20.94
223.869	-24.94
224.104	-23.94
224.338	-15.94
224.573	1.06
224.808	-17.94
225.042	-21.94
225.277	0.06
225.511	-13.94
225.746	14.06
225.98	18.06
226.215	16.06
226.449	8.06
226.683	28.06
226.918	20.06
227.152	34.06
227.387	31.06
227.621	42.06
227.856	51.06
228.09	50.06
228.324	57.06
228.559	81.06
228.793	68.06
229.027	64.06
229.262	76.06
229.496	71.06
229.73	75.06
229.964	85.06
230.199	75.06
230.433	73.06
230.667	80.06
230.901	84.06
231.136	81.06
231.37	77.06
231.604	69.06
231.838	81.06
232.072	81.06
232.306	81.06
232.541	97.06
232.775	83.06
233.009	98.06
233.243	93.06
233.477	76.06
233.711	81.06
233.945	75.06
234.179	78.06
234.413	69.06
234.647	89.06
234.881	83.06
235.115	81.06
235.349	72.06
235.583	83.06
235.817	93.06
236.051	74.06
236.285	64.06
236.519	89.06
236.753	91.06
236.987	72.06
237.221	88.06
237.455	85.06
237.689	85.06
237.922	89.06
238.156	82.06
238.39	84.06
238.624	69.06
238.858	74.06
239.091	80.06
239.325	69.06
239.559	77.06
239.793	75.06
240.027	79.06
240.26	70.06
240.494	94.06
240.728	86.06
240.961	81.06
241.195	80.06
241.429	70.06
241.662	86.06
241.896	79.06
242.13	68.06
242.363	77.06
242.597	68.06
242.83	88.06
243.064	81.06
243.298	74.06
243.531	80.06
243.765	83.06
243.998	82.06
244.232	86.06
244.465	93.06
244.699	96.06
244.932	83.06
245.166	80.06
245.399	64.06
245.633	81.06
245.866	98.06
246.099	79.06
246.333	83.06
246.566	75.06
246.8	82.06
247.033	91.06
247.266	82.06
247.5	91.06
247.733	69.06
247.966	80.06
248.2	73.06
248.433	85.06
248.666	79.06
248.899	77.06
249.133	80.06
249.366	99.06
249.599	101.06
249.832	81.06
250.066	80.06
250.299	86.06
250.532	66.06
250.765	82.06
250.998	82.06
251.231	95.06
251.465	89.06
251.698	78.06
251.931	80.06
252.164	69.06
252.397	98.06
252.63	93.06
252.863	88.06
253.096	80.06
253.329	86.06
253.562	71.06
253.795	76.06
254.028	86.06
254.261	74.06
254.494	87.06
254.727	78.06
254.96	89.06
255.193	76.06
255.426	89.06
255.659	91.06
255.892	91.06
256.124	96.06
256.357	82.06
256.59	92.06
256.823	84.06
257.056	89.06
257.289	84.06
257.521	80.06
257.754	79.06
257.987	76.06
258.22	100.06
258.452	95.06
258.685	84.06
258.918	99.06
259.151	89.06
259.383	92.06
259.616	66.06
259.849	76.06
260.081	88.06
260.314	81.06
260.547	87.06
260.779	87.06
261.012	100.06
261.244	99.06
261.477	104.06
261.71	104.06
261.942	107.06
262.175	109.06
262.407	94.06
262.64	87.06
262.872	84.06
263.105	101.06
263.337	78.06
263.57	74.06
263.802	78.06
264.035	88.06
264.267	76.06
264.499	83.06
264.732	97.06
264.964	83.06
265.197	73.06
265.429	92.06
265.661	73.06
265.894	87.06
266.126	66.06
266.358	86.06
266.591	86.06
266.823	81.06
267.055	84.06
267.287	84.06
267.52	88.06
267.752	66.06
267.984	79.06
268.216	57.06
268.448	86.06
268.681	95.06
268.913	91.06
269.145	98.06
269.377	90.06
269.609	72.06
269.841	80.06
270.073	70.06
270.306	89.06
270.538	88.06
270.77	86.06
271.002	92.06
271.234	76.06
271.466	98.06
271.698	106.06
271.93	95.06
272.162	100.06
272.394	92.06
272.626	84.06
272.858	91.06
273.09	93.06
273.322	81.06
273.553	93.06
273.785	84.06
274.017	86.06
274.249	90.06
274.481	78.06
274.713	81.06
274.945	90.06
275.176	100.06
275.408	99.06
275.64	87.06
275.872	108.06
276.104	95.06
276.335	95.06
276.567	101.06
276.799	106.06
277.031	141.06
277.262	148.06
277.494	123.06
277.726	92.06
277.957	92.06
278.189	100.06
278.421	98.06
278.652	89.06
278.884	90.06
279.115	88.06
279.347	99.06
279.579	90.06
279.81	115.06
280.042	152.06
280.273	182.06
280.505	138.06
280.736	96.06
280.968	92.06
281.199	96.06
281.431	91.06
281.662	101.06
281.894	89.06
282.125	95.06
282.356	120.06
282.588	151.06
282.819	114.06
283.051	95.06
283.282	69.06
283.513	92.06
283.745	88.06
283.976	98.06
284.207	98.06
284.439	74.06
284.67	85.06
284.901	87.06
285.132	90.06
285.364	81.06
285.595	84.06
285.826	88.06
286.057	91.06
286.288	73.06
286.52	77.06
286.751	88.06
286.982	90.06
287.213	89.06
287.444	88.06
287.675	101.06
287.906	83.06
288.138	82.06
288.369	96.06
288.6	86.06
288.831	82.06
289.062	89.06
289.293	83.06
289.524	81.06
289.755	82.06
289.986	93.06
290.217	72.06
290.448	85.06
290.679	100.06
290.91	98.06
291.141	84.06
291.371	97.06
291.602	90.06
291.833	74.06
292.064	94.06
292.295	74.06
292.526	95.06
292.757	94.06
292.987	92.06
293.218	83.06
293.449	92.06
293.68	81.06
293.91	91.06
294.141	89.06
294.372	96.06
294.603	78.06
294.833	94.06
295.064	92.06
295.295	100.06
295.525	103.06
295.756	89.06
295.987	120.06
296.217	137.06
296.448	114.06
296.679	88.06
296.909	103.06
297.14	97.06
297.37	98.06
297.601	106.06
297.831	88.06
298.062	104.06
298.292	94.06
298.523	81.06
298.753	93.06
298.984	92.06
299.214	94.06
299.445	110.06
299.675	90.06
299.905	108.06
300.136	90.06
300.366	108.06
300.597	81.06
300.827	84.06
301.057	94.06
301.288	110.06
301.518	90.06
301.748	90.06
301.979	104.06
302.209	102.06
302.439	98.06
302.669	91.06
302.9	100.06
303.13	93.06
303.36	99.06
303.59	121.06
303.82	124.06
304.051	109.06
304.281	77.06
304.511	83.06
304.741	98.06
304.971	85.06
305.201	85.06
305.431	74.06
305.661	89.06
305.891	84.06
306.121	100.06
306.352	97.06
306.582	100.06
306.812	108.06
307.042	98.06
307.272	127.06
307.502	140.06
307.731	142.06
307.961	121.06
308.191	98.06
308.421	81.06
308.651	87.06
308.881	80.06
309.111	80.06
309.341	93.06
309.571	92.06
309.8	99.06
310.03	93.06
310.26	86.06
310.49	102.06
310.72	98.06
310.949	116.06
311.179	107.06
311.409	81.06
311.639	95.06
311.868	91.06
312.098	84.06
312.328	89.06
312.557	105.06
312.787	88.06
313.017	103.06
313.246	92.06
313.476	105.06
313.706	81.06
313.935	93.06
314.165	96.06
314.394	106.06
314.624	97.06
314.853	85.06
315.083	74.06
315.312	92.06
315.542	87.06
315.771	68.06
316.001	103.06
316.23	98.06
316.46	85.06
316.689	99.06
316.919	93.06
317.148	104.06
317.377	98.06
317.607	89.06
317.836	90.06
318.065	88.06
318.295	97.06
318.524	86.06
318.753	108.06
318.983	95.06
319.212	100.06
319.441	109.06
319.67	102.06
319.9	98.06
320.129	89.06
320.358	96.06
320.587	100.06
320.816	117.06
321.046	114.06
321.275	88.06
321.504	84.06
321.733	92.06
321.962	82.06
322.191	90.06
322.42	91.06
322.649	122.06
322.878	94.06
323.108	113.06
323.337	120.06
323.566	145.06
323.795	161.06
324.024	211.06
324.253	407.06
324.482	871.06
324.71	1782.06
324.939	2258.06
325.168	861.06
325.397	266.06
325.626	142.06
325.855	138.06
326.084	128.06
326.313	135.06
326.542	153.06
326.77	242.06
326.999	466.06
327.228	986.06
327.457	1757.06
327.686	1371.06
327.914	453.06
328.143	385.06
328.372	440.06
328.6	254.06
328.829	148.06
329.058	135.06
329.287	161.06
329.515	133.06
329.744	179.06
329.972	332.06
330.201	618.06
330.43	888.06
330.658	417.06
330.887	212.06
331.115	164.06
331.344	115.06
331.572	113.06
331.801	109.06
332.03	95.06
332.258	93.06
332.486	98.06
332.715	107.06
332.943	117.06
333.172	120.06
333.4	128.06
333.629	143.06
333.857	196.06
334.085	315.06
334.314	601.06
334.542	1127.06
334.771	1074.06
334.999	304.06
335.227	140.06
335.455	113.06
335.684	119.06
335.912	98.06
336.14	102.06
336.369	107.06
336.597	85.06
336.825	102.06
337.053	109.06
337.281	97.06
337.51	76.06
337.738	107.06
337.966	100.06
338.194	101.06
338.422	91.06
338.65	98.06
338.878	94.06
339.106	107.06
339.334	97.06
339.562	102.06
339.79	96.06
340.018	86.06
340.246	116.06
340.474	116.06
340.702	103.06
340.93	87.06
341.158	100.06
341.386	102.06
341.614	97.06
341.842	86.06
342.07	93.06
342.298	89.06
342.526	97.06
342.754	95.06
342.981	91.06
343.209	94.06
343.437	100.06
343.665	98.06
343.893	89.06
344.12	76.06
344.348	92.06
344.576	100.06
344.804	90.06
345.031	88.06
345.259	91.06
345.487	102.06
345.714	93.06
345.942	93.06
346.17	89.06
346.397	101.06
346.625	94.06
346.853	78.06
347.08	97.06
347.308	102.06
347.535	103.06
347.763	91.06
347.99	94.06
348.218	102.06
348.445	113.06
348.673	108.06
348.9	87.06
349.128	83.06
349.355	91.06
349.583	88.06
349.81	91.06
350.037	116.06
350.265	93.06
350.492	80.06
350.72	86.06
350.947	107.06
351.174	117.06
351.402	116.06
351.629	105.06
351.856	96.06
352.083	104.06
352.311	94.06
352.538	106.06
352.765	111.06
352.992	107.06
353.22	108.06
353.447	97.06
353.674	92.06
353.901	84.06
354.128	87.06
354.355	86.06
354.583	86.06
354.81	113.06
355.037	103.06
355.264	101.06
355.491	97.06
355.718	84.06
355.945	86.06
356.172	89.06
356.399	89.06
356.626	86.06
356.853	106.06
357.08	92.06
357.307	84.06
357.534	76.06
357.761	86.06
357.988	98.06
358.215	88.06
358.441	93.06
358.668	82.06
358.895	85.06
359.122	87.06
359.349	79.06
359.576	78.06
359.802	102.06
360.029	113.06
360.256	121.06
360.483	105.06
360.709	88.06
360.936	86.06
361.163	103.06
361.39	96.06
361.616	80.06
361.843	92.06
362.07	90.06
362.296	109.06
362.523	105.06
362.749	90.06
362.976	87.06
363.203	88.06
363.429	90.06
363.656	97.06
363.882	89.06
364.109	86.06
364.335	85.06
364.562	86.06
364.788	86.06
365.015	87.06
365.241	98.06
365.468	108.06
365.694	100.06
365.92	102.06
366.147	89.06
366.373	89.06
366.599	98.06
366.826	86.06
367.052	81.06
367.278	92.06
367.505	89.06
367.731	86.06
367.957	92.06
368.184	91.06
368.41	85.06
368.636	103.06
368.862	140.06
369.089	106.06
369.315	93.06
369.541	93.06
369.767	90.06
369.993	89.06
370.219	92.06
370.445	89.06
370.672	83.06
370.898	94.06
371.124	93.06
371.35	81.06
371.576	84.06
371.802	76.06
372.028	84.06
372.254	76.06
372.48	86.06
372.706	88.06
372.932	97.06
373.158	86.06
373.384	83.06
373.61	96.06
373.835	86.06
374.061	84.06
374.287	93.06
374.513	95.06
374.739	96.06
374.965	80.06
375.191	77.06
375.416	71.06
375.642	90.06
375.868	91.06
376.094	94.06
376.319	94.06
376.545	84.06
376.771	95.06
376.997	83.06
377.222	91.06
377.448	93.06
377.674	99.06
377.899	85.06
378.125	89.06
378.35	97.06
378.576	89.06
378.802	82.06
379.027	86.06
379.253	86.06
379.478	100.06
379.704	87.06
379.929	92.06
380.155	100.06
380.38	102.06
380.606	87.06
380.831	100.06
381.057	95.06
381.282	78.06
381.507	105.06
381.733	97.06
381.958	105.06
382.184	101.06
382.409	94.06
382.634	105.06
382.86	101.06
383.085	107.06
383.31	102.06
383.535	106.06
383.761	82.06
383.986	103.06
384.211	98.06
384.436	95.06
384.662	97.06
384.887	90.06
385.112	100.06
385.337	104.06
385.562	104.06
385.787	88.06
386.013	110.06
386.238	121.06
386.463	113.06
386.688	101.06
386.913	99.06
387.138	105.06
387.363	91.06
387.588	92.06
387.813	108.06
388.038	104.06
388.263	115.06
388.488	111.06
388.713	99.06
388.938	104.06
389.163	81.06
389.387	92.06
389.612	84.06
389.837	92.06
390.062	83.06
390.287	91.06
390.512	82.06
390.736	81.06
390.961	85.06
391.186	80.06
391.411	85.06
391.636	85.06
391.86	75.06
392.085	81.06
392.31	83.06
392.534	73.06
392.759	77.06
392.984	95.06
393.208	88.06
393.433	88.06
393.658	90.06
393.882	82.06
394.107	97.06
394.331	94.06
394.556	100.06
394.78	106.06
395.005	82.06
395.229	101.06
395.454	92.06
395.678	97.06
395.903	92.06
396.127	84.06
396.352	96.06
396.576	90.06
396.801	101.06
397.025	94.06
397.249	73.06
397.474	82.06
397.698	93.06
397.922	89.06
398.147	84.06
398.371	102.06
398.595	87.06
398.82	99.06
399.044	90.06
399.268	79.06
399.492	74.06
399.717	91.06
399.941	90.06
400.165	88.06
400.389	81.06
400.613	90.06
400.837	90.06
401.062	86.06
401.286	91.06
401.51	74.06
401.734	86.06
401.958	101.06
402.182	123.06
402.406	164.06
402.63	113.06
402.854	95.06
403.078	86.06
403.302	80.06
403.526	88.06
403.75	98.06
403.974	98.06
404.198	86.06
404.422	89.06
404.645	84.06
404.869	103.06
405.093	100.06
405.317	117.06
405.541	114.06
405.765	113.06
405.988	120.06
406.212	173.06
406.436	226.06
406.66	153.06
406.883	110.06
407.107	94.06
407.331	107.06
407.555	109.06
407.778	90.06
408.002	96.06
408.226	88.06
408.449	88.06
408.673	100.06
408.896	88.06
409.12	85.06
409.344	81.06
409.567	99.06
409.791	102.06
410.014	101.06
410.238	100.06
410.461	93.06
410.685	102.06
410.908	94.06
411.132	89.06
411.355	99.06
411.578	100.06
411.802	84.06
412.025	83.06
412.249	93.06
412.472	92.06
412.695	129.06
412.919	118.06
413.142	82.06
413.365	85.06
413.589	94.06
413.812	86.06
414.035	94.06
414.258	89.06
414.482	84.06
414.705	99.06
414.928	95.06
415.151	84.06
415.374	89.06
415.597	94.06
415.821	94.06
416.044	94.06
416.267	109.06
416.49	104.06
416.713	90.06
416.936	92.06
417.159	90.06
417.382	102.06
417.605	90.06
417.828	115.06
418.051	78.06
418.274	102.06
418.497	78.06
418.72	93.06
418.943	86.06
419.166	94.06
419.389	84.06
419.611	73.06
419.834	92.06
420.057	90.06
420.28	91.06
420.503	91.06
420.726	93.06
420.948	94.06
421.171	92.06
421.394	104.06
421.617	91.06
421.839	80.06
422.062	75.06
422.285	91.06
422.507	109.06
422.73	98.06
422.953	93.06
423.175	105.06
423.398	95.06
423.621	76.06
423.843	92.06
424.066	83.06
424.288	84.06
424.511	91.06
424.733	90.06
424.956	98.06
425.178	106.06
425.401	111.06
425.623	100.06
425.846	94.06
426.068	88.06
426.291	95.06
426.513	96.06
426.735	90.06
426.958	94.06
427.18	117.06
427.402	139.06
427.625	206.06
427.847	200.06
428.069	184.06
428.292	102.06
428.514	92.06
428.736	84.06
428.958	101.06
429.181	102.06
429.403	93.06
429.625	91.06
429.847	79.06
430.069	102.06
430.292	94.06
430.514	99.06
430.736	84.06
430.958	86.06
431.18	93.06
431.402	94.06
431.624	87.06
431.846	86.06
432.068	83.06
432.29	86.06
432.512	89.06
432.734	93.06
432.956	99.06
433.178	102.06
433.4	100.06
433.622	102.06
433.844	112.06
434.066	95.06
434.287	107.06
434.509	97.06
434.731	103.06
434.953	93.06
435.175	86.06
435.397	86.06
435.618	85.06
435.84	102.06
436.062	109.06
436.284	108.06
436.505	113.06
436.727	110.06
436.949	92.06
437.17	94.06
437.392	94.06
437.614	101.06
437.835	94.06
438.057	120.06
438.278	116.06
438.5	112.06
438.721	118.06
438.943	101.06
439.165	85.06
439.386	89.06
439.608	104.06
439.829	118.06
440.05	122.06
440.272	147.06
440.493	117.06
440.715	101.06
440.936	93.06
441.158	103.06
441.379	98.06
441.6	85.06
441.822	98.06
442.043	105.06
442.264	107.06
442.486	116.06
442.707	107.06
442.928	112.06
443.149	140.06
443.371	140.06
443.592	128.06
443.813	120.06
444.034	102.06
444.255	98.06
444.476	101.06
444.698	89.06
444.919	96.06
445.14	132.06
445.361	124.06
445.582	123.06
445.803	146.06
446.024	149.06
446.245	155.06
446.466	115.06
446.687	92.06
446.908	76.06
447.129	92.06
447.35	83.06
447.571	99.06
447.792	109.06
448.013	112.06
448.234	110.06
448.455	114.06
448.675	128.06
448.896	116.06
449.117	95.06
449.338	122.06
449.559	124.06
449.779	125.06
450	108.06
450.221	90.06
450.442	97.06
450.662	96.06
450.883	102.06
451.104	112.06
451.324	113.06
451.545	103.06
451.766	99.06
451.986	80.06
452.207	85.06
452.428	82.06
452.648	95.06
452.869	130.06
453.089	120.06
453.31	133.06
453.53	95.06
453.751	106.06
453.971	106.06
454.192	136.06
454.412	100.06
454.633	104.06
454.853	89.06
455.073	86.06
455.294	87.06
455.514	92.06
455.734	108.06
455.955	88.06
456.175	83.06
456.395	91.06
456.616	77.06
456.836	103.06
457.056	88.06
457.276	94.06
457.497	93.06
457.717	98.06
457.937	87.06
458.157	96.06
458.377	89.06
458.598	108.06
458.818	170.06
459.038	183.06
459.258	140.06
459.478	94.06
459.698	92.06
459.918	94.06
460.138	93.06
460.358	92.06
460.578	101.06
460.798	90.06
461.018	92.06
461.238	80.06
461.458	92.06
461.678	93.06
461.898	91.06
462.118	91.06
462.338	97.06
462.558	95.06
462.777	87.06
462.997	94.06
463.217	99.06
463.437	102.06
463.657	100.06
463.876	102.06
464.096	96.06
464.316	92.06
464.536	97.06
464.755	104.06
464.975	116.06
465.195	197.06
465.414	176.06
465.634	110.06
465.854	90.06
466.073	93.06
466.293	99.06
466.512	91.06
466.732	86.06
466.951	87.06
467.171	95.06
467.391	106.06
467.61	120.06
467.829	163.06
468.049	407.06
468.268	553.06
468.488	154.06
468.707	95.06
468.927	94.06
469.146	83.06
469.365	95.06
469.585	102.06
469.804	98.06
470.023	105.06
470.243	104.06
470.462	105.06
470.681	131.06
470.901	100.06
471.12	104.06
471.339	113.06
471.558	112.06
471.777	122.06
471.997	216.06
472.216	784.06
472.435	1640.06
472.654	406.06
472.873	135.06
473.092	105.06
473.311	94.06
473.53	102.06
473.749	105.06
473.968	106.06
474.187	121.06
474.406	117.06
474.625	88.06
474.844	94.06
475.063	88.06
475.282	90.06
475.501	85.06
475.72	99.06
475.939	71.06
476.158	81.06
476.377	75.06
476.596	91.06
476.814	100.06
477.033	102.06
477.252	100.06
477.471	106.06
477.69	96.06
477.908	86.06
478.127	97.06
478.346	92.06
478.564	86.06
478.783	103.06
479.002	114.06
479.22	103.06
479.439	113.06
479.658	127.06
479.876	112.06
480.095	115.06
480.313	130.06
480.532	132.06
480.751	220.06
480.969	757.06
481.188	2780.06
481.406	1587.06
481.624	269.06
481.843	118.06
482.061	103.06
482.28	95.06
482.498	95.06
482.717	93.06
482.935	102.06
483.153	98.06
483.372	100.06
483.59	92.06
483.808	88.06
484.027	95.06
484.245	102.06
484.463	103.06
484.681	106.06
484.9	102.06
485.118	90.06
485.336	84.06
485.554	102.06
485.772	107.06
485.99	98.06
486.209	107.06
486.427	117.06
486.645	128.06
486.863	117.06
487.081	104.06
487.299	100.06
487.517	102.06
487.735	93.06
487.953	100.06
488.171	93.06
488.389	91.06
488.607	100.06
488.825	90.06
489.043	94.06
489.261	62.06
489.479	104.06
489.696	81.06
489.914	89.06
490.132	89.06
490.35	103.06
490.568	89.06
490.786	89.06
491.003	89.06
491.221	98.06
491.439	92.06
491.657	92.06
491.874	97.06
492.092	98.06
492.31	103.06
492.527	105.06
492.745	92.06
492.963	100.06
493.18	111.06
493.398	92.06
493.615	102.06
493.833	100.06
494.05	100.06
494.268	92.06
494.485	98.06
494.703	93.06
494.92	93.06
495.138	91.06
495.355	95.06
495.573	93.06
495.79	88.06
496.008	76.06
496.225	93.06
496.442	86.06
496.66	86.06
496.877	81.06
497.094	93.06
497.312	95.06
497.529	99.06
497.746	83.06
497.963	91.06
498.181	109.06
498.398	93.06
498.615	109.06
498.832	95.06
499.049	97.06
499.267	82.06
499.484	98.06
499.701	89.06
499.918	85.06
500.135	92.06
500.352	85.06
500.569	98.06
500.786	110.06
501.003	116.06
501.22	93.06
501.437	93.06
501.654	102.06
501.871	98.06
502.088	104.06
502.305	100.06
502.522	100.06
502.739	100.06
502.956	105.06
503.172	99.06
503.389	96.06
503.606	102.06
503.823	98.06
504.04	97.06
504.256	92.06
504.473	89.06
504.69	99.06
504.907	82.06
505.123	89.06
505.34	92.06
505.557	104.06
505.773	91.06
505.99	98.06
506.207	80.06
506.423	90.06
506.64	104.06
506.856	94.06
507.073	82.06
507.289	96.06
507.506	88.06
507.722	122.06
507.939	107.06
508.155	100.06
508.372	71.06
508.588	90.06
508.805	93.06
509.021	99.06
509.238	88.06
509.454	96.06
509.67	93.06
509.887	96.06
510.103	132.06
510.319	204.06
510.536	689.06
510.752	2292.06
510.968	631.06
511.184	152.06
511.401	124.06
511.617	93.06
511.833	111.06
512.049	96.06
512.265	94.06
512.481	97.06
512.698	93.06
512.914	91.06
513.13	92.06
513.346	96.06
513.562	99.06
513.778	104.06
513.994	94.06
