Data from Circ_2001_H10_HRD10591_00088.txt Node
Date: Wed Jan 03 10:45:56 EST 2024
User: Yrep
Spectrometer: HR+D1059
Trigger mode: 1
Integration Time (sec): 1.000000E-1
Scans to average: 1
Electric dark correction enabled: true
Nonlinearity correction enabled: false
Boxcar width: 0
XAxis mode: Wavelengths
Number of Pixels in Spectrum: 2048
>>>>>Begin Spectral Data<<<<<
223.165	-13.94
223.4	-13.94
223.635	-13.94
223.869	-19.94
224.104	-6.94
224.338	-19.94
224.573	-20.94
224.808	-17.94
225.042	2.06
225.277	-10.94
225.511	2.06
225.746	12.06
225.98	-1.94
226.215	11.06
226.449	26.06
226.683	11.06
226.918	25.06
227.152	23.06
227.387	34.06
227.621	41.06
227.856	52.06
228.09	37.06
228.324	49.06
228.559	60.06
228.793	63.06
229.027	71.06
229.262	80.06
229.496	73.06
229.73	89.06
229.964	87.06
230.199	71.06
230.433	92.06
230.667	83.06
230.901	90.06
231.136	93.06
231.37	78.06
231.604	74.06
231.838	84.06
232.072	86.06
232.306	71.06
232.541	72.06
232.775	88.06
233.009	83.06
233.243	86.06
233.477	87.06
233.711	79.06
233.945	73.06
234.179	85.06
234.413	73.06
234.647	91.06
234.881	76.06
235.115	80.06
235.349	89.06
235.583	95.06
235.817	68.06
236.051	66.06
236.285	68.06
236.519	79.06
236.753	64.06
236.987	76.06
237.221	93.06
237.455	93.06
237.689	80.06
237.922	85.06
238.156	72.06
238.39	81.06
238.624	84.06
238.858	70.06
239.091	81.06
239.325	73.06
239.559	92.06
239.793	75.06
240.027	85.06
240.26	71.06
240.494	67.06
240.728	72.06
240.961	68.06
241.195	81.06
241.429	81.06
241.662	81.06
241.896	76.06
242.13	69.06
242.363	92.06
242.597	89.06
242.83	80.06
243.064	82.06
243.298	70.06
243.531	82.06
243.765	76.06
243.998	76.06
244.232	95.06
244.465	86.06
244.699	82.06
244.932	90.06
245.166	71.06
245.399	80.06
245.633	84.06
245.866	77.06
246.099	67.06
246.333	82.06
246.566	82.06
246.8	76.06
247.033	75.06
247.266	80.06
247.5	86.06
247.733	86.06
247.966	90.06
248.2	86.06
248.433	90.06
248.666	81.06
248.899	89.06
249.133	101.06
249.366	109.06
249.599	95.06
249.832	87.06
250.066	80.06
250.299	66.06
250.532	79.06
250.765	88.06
250.998	87.06
251.231	88.06
251.465	86.06
251.698	80.06
251.931	76.06
252.164	91.06
252.397	75.06
252.63	90.06
252.863	85.06
253.096	82.06
253.329	75.06
253.562	76.06
253.795	72.06
254.028	82.06
254.261	87.06
254.494	75.06
254.727	77.06
254.96	78.06
255.193	81.06
255.426	84.06
255.659	90.06
255.892	97.06
256.124	87.06
256.357	87.06
256.59	76.06
256.823	73.06
257.056	83.06
257.289	73.06
257.521	85.06
257.754	88.06
257.987	85.06
258.22	86.06
258.452	107.06
258.685	98.06
258.918	76.06
259.151	65.06
259.383	88.06
259.616	78.06
259.849	77.06
260.081	88.06
260.314	75.06
260.547	92.06
260.779	106.06
261.012	111.06
261.244	92.06
261.477	85.06
261.71	98.06
261.942	113.06
262.175	110.06
262.407	91.06
262.64	84.06
262.872	93.06
263.105	85.06
263.337	76.06
263.57	93.06
263.802	94.06
264.035	65.06
264.267	77.06
264.499	83.06
264.732	83.06
264.964	79.06
265.197	84.06
265.429	101.06
265.661	90.06
265.894	99.06
266.126	79.06
266.358	87.06
266.591	90.06
266.823	92.06
267.055	93.06
267.287	90.06
267.52	90.06
267.752	75.06
267.984	84.06
268.216	85.06
268.448	93.06
268.681	74.06
268.913	83.06
269.145	69.06
269.377	75.06
269.609	85.06
269.841	88.06
270.073	103.06
270.306	88.06
270.538	84.06
270.77	92.06
271.002	85.06
271.234	89.06
271.466	89.06
271.698	95.06
271.93	93.06
272.162	90.06
272.394	75.06
272.626	97.06
272.858	95.06
273.09	86.06
273.322	99.06
273.553	86.06
273.785	93.06
274.017	95.06
274.249	87.06
274.481	74.06
274.713	87.06
274.945	90.06
275.176	90.06
275.408	115.06
275.64	102.06
275.872	98.06
276.104	86.06
276.335	99.06
276.567	107.06
276.799	104.06
277.031	136.06
277.262	149.06
277.494	127.06
277.726	112.06
277.957	107.06
278.189	87.06
278.421	87.06
278.652	81.06
278.884	82.06
279.115	84.06
279.347	88.06
279.579	89.06
279.81	122.06
280.042	162.06
280.273	190.06
280.505	141.06
280.736	81.06
280.968	96.06
281.199	82.06
281.431	93.06
281.662	86.06
281.894	99.06
282.125	105.06
282.356	119.06
282.588	146.06
282.819	117.06
283.051	95.06
283.282	85.06
283.513	89.06
283.745	93.06
283.976	87.06
284.207	99.06
284.439	99.06
284.67	98.06
284.901	80.06
285.132	88.06
285.364	75.06
285.595	91.06
285.826	88.06
286.057	99.06
286.288	82.06
286.52	89.06
286.751	89.06
286.982	91.06
287.213	72.06
287.444	102.06
287.675	93.06
287.906	96.06
288.138	95.06
288.369	90.06
288.6	91.06
288.831	93.06
289.062	90.06
289.293	91.06
289.524	89.06
289.755	97.06
289.986	84.06
290.217	94.06
290.448	92.06
290.679	84.06
290.91	91.06
291.141	90.06
291.371	84.06
291.602	83.06
291.833	85.06
292.064	86.06
292.295	84.06
292.526	92.06
292.757	93.06
292.987	89.06
293.218	102.06
293.449	87.06
293.68	92.06
293.91	113.06
294.141	96.06
294.372	88.06
294.603	97.06
294.833	84.06
295.064	79.06
295.295	80.06
295.525	87.06
295.756	113.06
295.987	127.06
296.217	149.06
296.448	113.06
296.679	100.06
296.909	85.06
297.14	91.06
297.37	86.06
297.601	104.06
297.831	99.06
298.062	87.06
298.292	92.06
298.523	79.06
298.753	84.06
298.984	91.06
299.214	100.06
299.445	100.06
299.675	102.06
299.905	108.06
300.136	88.06
300.366	99.06
300.597	92.06
300.827	102.06
301.057	100.06
301.288	104.06
301.518	90.06
301.748	96.06
301.979	93.06
302.209	88.06
302.439	84.06
302.669	80.06
302.9	86.06
303.13	98.06
303.36	110.06
303.59	115.06
303.82	120.06
304.051	93.06
304.281	86.06
304.511	81.06
304.741	87.06
304.971	90.06
305.201	87.06
305.431	101.06
305.661	71.06
305.891	85.06
306.121	96.06
306.352	113.06
306.582	114.06
306.812	104.06
307.042	124.06
307.272	134.06
307.502	143.06
307.731	156.06
307.961	114.06
308.191	92.06
308.421	98.06
308.651	91.06
308.881	91.06
309.111	96.06
309.341	105.06
309.571	109.06
309.8	89.06
310.03	101.06
310.26	102.06
310.49	100.06
310.72	96.06
310.949	107.06
311.179	105.06
311.409	92.06
311.639	84.06
311.868	100.06
312.098	99.06
312.328	90.06
312.557	95.06
312.787	116.06
313.017	103.06
313.246	110.06
313.476	94.06
313.706	91.06
313.935	91.06
314.165	98.06
314.394	104.06
314.624	96.06
314.853	99.06
315.083	88.06
315.312	88.06
315.542	72.06
315.771	92.06
316.001	92.06
316.23	95.06
316.46	84.06
316.689	87.06
316.919	98.06
317.148	83.06
317.377	89.06
317.607	96.06
317.836	96.06
318.065	89.06
318.295	87.06
318.524	87.06
318.753	92.06
318.983	105.06
319.212	110.06
319.441	116.06
319.67	98.06
319.9	114.06
320.129	90.06
320.358	92.06
320.587	95.06
320.816	107.06
321.046	98.06
321.275	96.06
321.504	90.06
321.733	93.06
321.962	108.06
322.191	102.06
322.42	99.06
322.649	96.06
322.878	108.06
323.108	120.06
323.337	129.06
323.566	138.06
323.795	157.06
324.024	210.06
324.253	428.06
324.482	890.06
324.71	1823.06
324.939	2372.06
325.168	900.06
325.397	264.06
325.626	164.06
325.855	147.06
326.084	141.06
326.313	125.06
326.542	155.06
326.77	266.06
326.999	469.06
327.228	967.06
327.457	1809.06
327.686	1455.06
327.914	452.06
328.143	397.06
328.372	469.06
328.6	284.06
328.829	154.06
329.058	154.06
329.287	163.06
329.515	146.06
329.744	201.06
329.972	371.06
330.201	707.06
330.43	975.06
330.658	453.06
330.887	219.06
331.115	154.06
331.344	104.06
331.572	99.06
331.801	106.06
332.03	125.06
332.258	92.06
332.486	111.06
332.715	95.06
332.943	105.06
333.172	107.06
333.4	107.06
333.629	132.06
333.857	173.06
334.085	311.06
334.314	640.06
334.542	1220.06
334.771	1113.06
334.999	321.06
335.227	163.06
335.455	115.06
335.684	120.06
335.912	120.06
336.14	115.06
336.369	81.06
336.597	111.06
336.825	98.06
337.053	88.06
337.281	94.06
337.51	99.06
337.738	92.06
337.966	86.06
338.194	104.06
338.422	99.06
338.65	108.06
338.878	95.06
339.106	87.06
339.334	96.06
339.562	92.06
339.79	83.06
340.018	84.06
340.246	105.06
340.474	85.06
340.702	90.06
340.93	83.06
341.158	85.06
341.386	107.06
341.614	94.06
341.842	98.06
342.07	102.06
342.298	87.06
342.526	99.06
342.754	89.06
342.981	92.06
343.209	102.06
343.437	97.06
343.665	91.06
343.893	91.06
344.12	97.06
344.348	95.06
344.576	80.06
344.804	87.06
345.031	106.06
345.259	111.06
345.487	88.06
345.714	102.06
345.942	99.06
346.17	86.06
346.397	93.06
346.625	102.06
346.853	87.06
347.08	97.06
347.308	100.06
347.535	96.06
347.763	108.06
347.99	105.06
348.218	101.06
348.445	115.06
348.673	111.06
348.9	96.06
349.128	100.06
349.355	91.06
349.583	88.06
349.81	87.06
350.037	93.06
350.265	91.06
350.492	110.06
350.72	91.06
350.947	103.06
351.174	110.06
351.402	107.06
351.629	101.06
351.856	108.06
352.083	106.06
352.311	107.06
352.538	108.06
352.765	123.06
352.992	126.06
353.22	112.06
353.447	105.06
353.674	96.06
353.901	102.06
354.128	95.06
354.355	98.06
354.583	89.06
354.81	109.06
355.037	95.06
355.264	109.06
355.491	98.06
355.718	91.06
355.945	99.06
356.172	90.06
356.399	94.06
356.626	84.06
356.853	94.06
357.08	85.06
357.307	101.06
357.534	96.06
357.761	93.06
357.988	85.06
358.215	105.06
358.441	102.06
358.668	82.06
358.895	97.06
359.122	107.06
359.349	96.06
359.576	87.06
359.802	97.06
360.029	116.06
360.256	119.06
360.483	111.06
360.709	91.06
360.936	95.06
361.163	103.06
361.39	105.06
361.616	97.06
361.843	101.06
362.07	99.06
362.296	103.06
362.523	88.06
362.749	94.06
362.976	79.06
363.203	98.06
363.429	84.06
363.656	91.06
363.882	99.06
364.109	84.06
364.335	100.06
364.562	85.06
364.788	105.06
365.015	103.06
365.241	91.06
365.468	102.06
365.694	117.06
365.92	99.06
366.147	98.06
366.373	92.06
366.599	85.06
366.826	79.06
367.052	91.06
367.278	88.06
367.505	88.06
367.731	93.06
367.957	85.06
368.184	91.06
368.41	97.06
368.636	104.06
368.862	120.06
369.089	108.06
369.315	98.06
369.541	97.06
369.767	85.06
369.993	105.06
370.219	84.06
370.445	97.06
370.672	83.06
370.898	95.06
371.124	91.06
371.35	100.06
371.576	89.06
371.802	90.06
372.028	92.06
372.254	93.06
372.48	84.06
372.706	86.06
372.932	91.06
373.158	85.06
373.384	82.06
373.61	85.06
373.835	92.06
374.061	87.06
374.287	102.06
374.513	86.06
374.739	101.06
374.965	93.06
375.191	91.06
375.416	96.06
375.642	89.06
375.868	94.06
376.094	79.06
376.319	96.06
376.545	87.06
376.771	91.06
376.997	93.06
377.222	88.06
377.448	95.06
377.674	104.06
377.899	92.06
378.125	97.06
378.35	83.06
378.576	103.06
378.802	87.06
379.027	98.06
379.253	87.06
379.478	83.06
379.704	102.06
379.929	85.06
380.155	89.06
380.38	102.06
380.606	87.06
380.831	91.06
381.057	99.06
381.282	91.06
381.507	97.06
381.733	83.06
381.958	90.06
382.184	95.06
382.409	94.06
382.634	104.06
382.86	96.06
383.085	110.06
383.31	102.06
383.535	107.06
383.761	107.06
383.986	97.06
384.211	92.06
384.436	89.06
384.662	92.06
384.887	100.06
385.112	90.06
385.337	97.06
385.562	102.06
385.787	109.06
386.013	119.06
386.238	116.06
386.463	106.06
386.688	115.06
386.913	103.06
387.138	121.06
387.363	107.06
387.588	114.06
387.813	114.06
388.038	94.06
388.263	103.06
388.488	112.06
388.713	94.06
388.938	88.06
389.163	97.06
389.387	91.06
389.612	95.06
389.837	105.06
390.062	93.06
390.287	90.06
390.512	92.06
390.736	93.06
390.961	93.06
391.186	97.06
391.411	100.06
391.636	93.06
391.86	90.06
392.085	83.06
392.31	86.06
392.534	85.06
392.759	95.06
392.984	77.06
393.208	88.06
393.433	74.06
393.658	80.06
393.882	90.06
394.107	67.06
394.331	90.06
394.556	97.06
394.78	85.06
395.005	95.06
395.229	91.06
395.454	90.06
395.678	81.06
395.903	74.06
396.127	93.06
396.352	92.06
396.576	84.06
396.801	83.06
397.025	88.06
397.249	91.06
397.474	88.06
397.698	77.06
397.922	91.06
398.147	98.06
398.371	87.06
398.595	79.06
398.82	68.06
399.044	106.06
399.268	88.06
399.492	84.06
399.717	85.06
399.941	84.06
400.165	83.06
400.389	100.06
400.613	89.06
400.837	81.06
401.062	85.06
401.286	86.06
401.51	81.06
401.734	84.06
401.958	110.06
402.182	124.06
402.406	172.06
402.63	118.06
402.854	97.06
403.078	89.06
403.302	89.06
403.526	92.06
403.75	88.06
403.974	90.06
404.198	92.06
404.422	95.06
404.645	84.06
404.869	79.06
405.093	84.06
405.317	109.06
405.541	132.06
405.765	101.06
405.988	116.06
406.212	179.06
406.436	251.06
406.66	161.06
406.883	103.06
407.107	94.06
407.331	90.06
407.555	98.06
407.778	95.06
408.002	77.06
408.226	85.06
408.449	99.06
408.673	85.06
408.896	75.06
409.12	96.06
409.344	87.06
409.567	94.06
409.791	87.06
410.014	83.06
410.238	95.06
410.461	98.06
410.685	87.06
410.908	104.06
411.132	102.06
411.355	96.06
411.578	96.06
411.802	93.06
412.025	83.06
412.249	92.06
412.472	111.06
412.695	114.06
412.919	104.06
413.142	89.06
413.365	89.06
413.589	93.06
413.812	79.06
414.035	88.06
414.258	69.06
414.482	106.06
414.705	82.06
414.928	73.06
415.151	91.06
415.374	85.06
415.597	76.06
415.821	85.06
416.044	94.06
416.267	98.06
416.49	84.06
416.713	104.06
416.936	96.06
417.159	89.06
417.382	104.06
417.605	92.06
417.828	95.06
418.051	95.06
418.274	91.06
418.497	90.06
418.72	88.06
418.943	75.06
419.166	84.06
419.389	79.06
419.611	111.06
419.834	92.06
420.057	85.06
420.28	93.06
420.503	91.06
420.726	86.06
420.948	94.06
421.171	100.06
421.394	96.06
421.617	92.06
421.839	69.06
422.062	88.06
422.285	87.06
422.507	97.06
422.73	103.06
422.953	103.06
423.175	73.06
423.398	95.06
423.621	97.06
423.843	92.06
424.066	109.06
424.288	84.06
424.511	87.06
424.733	83.06
424.956	103.06
425.178	99.06
425.401	87.06
425.623	100.06
425.846	90.06
426.068	85.06
426.291	103.06
426.513	77.06
426.735	90.06
426.958	113.06
427.18	103.06
427.402	152.06
427.625	217.06
427.847	199.06
428.069	188.06
428.292	115.06
428.514	80.06
428.736	100.06
428.958	85.06
429.181	79.06
429.403	73.06
429.625	96.06
429.847	107.06
430.069	92.06
430.292	105.06
430.514	95.06
430.736	95.06
430.958	92.06
431.18	96.06
431.402	80.06
431.624	74.06
431.846	92.06
432.068	81.06
432.29	85.06
432.512	75.06
432.734	98.06
432.956	94.06
433.178	99.06
433.4	91.06
433.622	87.06
433.844	91.06
434.066	96.06
434.287	77.06
434.509	95.06
434.731	87.06
434.953	89.06
435.175	95.06
435.397	95.06
435.618	95.06
435.84	90.06
436.062	134.06
436.284	107.06
436.505	91.06
436.727	103.06
436.949	98.06
437.17	91.06
437.392	101.06
437.614	83.06
437.835	102.06
438.057	112.06
438.278	123.06
438.5	104.06
438.721	118.06
438.943	111.06
439.165	86.06
439.386	96.06
439.608	107.06
439.829	109.06
440.05	144.06
440.272	160.06
440.493	101.06
440.715	89.06
440.936	90.06
441.158	89.06
441.379	85.06
441.6	87.06
441.822	95.06
442.043	96.06
442.264	105.06
442.486	105.06
442.707	99.06
442.928	104.06
443.149	142.06
443.371	146.06
443.592	120.06
443.813	105.06
444.034	104.06
444.255	106.06
444.476	77.06
444.698	90.06
444.919	93.06
445.14	154.06
445.361	123.06
445.582	136.06
445.803	165.06
446.024	148.06
446.245	140.06
446.466	109.06
446.687	98.06
446.908	81.06
447.129	88.06
447.35	105.06
447.571	90.06
447.792	97.06
448.013	105.06
448.234	124.06
448.455	109.06
448.675	131.06
448.896	108.06
449.117	116.06
449.338	107.06
449.559	124.06
449.779	145.06
450	97.06
450.221	91.06
450.442	89.06
450.662	91.06
450.883	108.06
451.104	111.06
451.324	103.06
451.545	86.06
451.766	90.06
451.986	82.06
452.207	85.06
452.428	96.06
452.648	87.06
452.869	116.06
453.089	124.06
453.31	115.06
453.53	95.06
453.751	98.06
453.971	108.06
454.192	117.06
454.412	102.06
454.633	90.06
454.853	85.06
455.073	87.06
455.294	81.06
455.514	98.06
455.734	73.06
455.955	83.06
456.175	93.06
456.395	90.06
456.616	86.06
456.836	73.06
457.056	90.06
457.276	87.06
457.497	94.06
457.717	92.06
457.937	87.06
458.157	72.06
458.377	92.06
458.598	113.06
458.818	177.06
459.038	179.06
459.258	120.06
459.478	98.06
459.698	78.06
459.918	85.06
460.138	88.06
460.358	87.06
460.578	79.06
460.798	93.06
461.018	85.06
461.238	77.06
461.458	86.06
461.678	97.06
461.898	75.06
462.118	79.06
462.338	91.06
462.558	80.06
462.777	87.06
462.997	99.06
463.217	92.06
463.437	102.06
463.657	87.06
463.876	95.06
464.096	112.06
464.316	86.06
464.536	94.06
464.755	87.06
464.975	107.06
465.195	162.06
465.414	179.06
465.634	97.06
465.854	87.06
466.073	103.06
466.293	91.06
466.512	87.06
466.732	86.06
466.951	88.06
467.171	112.06
467.391	100.06
467.61	123.06
467.829	171.06
468.049	435.06
468.268	606.06
468.488	189.06
468.707	108.06
468.927	93.06
469.146	85.06
469.365	87.06
469.585	98.06
469.804	105.06
470.023	100.06
470.243	99.06
470.462	93.06
470.681	122.06
470.901	95.06
471.12	86.06
471.339	104.06
471.558	104.06
471.777	136.06
471.997	240.06
472.216	809.06
472.435	1775.06
472.654	434.06
472.873	149.06
473.092	91.06
473.311	99.06
473.53	87.06
473.749	93.06
473.968	102.06
474.187	92.06
474.406	93.06
474.625	84.06
474.844	96.06
475.063	92.06
475.282	89.06
475.501	98.06
475.72	90.06
475.939	80.06
476.158	80.06
476.377	76.06
476.596	81.06
476.814	93.06
477.033	96.06
477.252	99.06
477.471	96.06
477.69	94.06
477.908	82.06
478.127	103.06
478.346	83.06
478.564	100.06
478.783	91.06
479.002	109.06
479.22	104.06
479.439	134.06
479.658	104.06
479.876	120.06
480.095	115.06
480.313	127.06
480.532	126.06
480.751	244.06
480.969	733.06
481.188	3023.06
481.406	1738.06
481.624	267.06
481.843	116.06
482.061	104.06
482.28	114.06
482.498	90.06
482.717	98.06
482.935	90.06
483.153	99.06
483.372	97.06
483.59	99.06
483.808	96.06
484.027	84.06
484.245	85.06
484.463	87.06
484.681	85.06
484.9	91.06
485.118	88.06
485.336	93.06
485.554	88.06
485.772	100.06
485.99	110.06
486.209	94.06
486.427	101.06
486.645	127.06
486.863	119.06
487.081	107.06
487.299	107.06
487.517	101.06
487.735	90.06
487.953	85.06
488.171	94.06
488.389	88.06
488.607	109.06
488.825	97.06
489.043	97.06
489.261	96.06
489.479	89.06
489.696	89.06
489.914	80.06
490.132	88.06
490.35	96.06
490.568	87.06
490.786	84.06
491.003	89.06
491.221	87.06
491.439	100.06
491.657	97.06
491.874	95.06
492.092	99.06
492.31	103.06
492.527	89.06
492.745	87.06
492.963	87.06
493.18	84.06
493.398	90.06
493.615	85.06
493.833	93.06
494.05	97.06
494.268	91.06
494.485	96.06
494.703	110.06
494.92	92.06
495.138	93.06
495.355	97.06
495.573	101.06
495.79	77.06
496.008	95.06
496.225	90.06
496.442	87.06
496.66	85.06
496.877	90.06
497.094	100.06
497.312	98.06
497.529	100.06
497.746	94.06
497.963	89.06
498.181	100.06
498.398	104.06
498.615	109.06
498.832	113.06
499.049	89.06
499.267	96.06
499.484	92.06
499.701	90.06
499.918	88.06
500.135	86.06
500.352	106.06
500.569	97.06
500.786	84.06
501.003	84.06
501.22	94.06
501.437	100.06
501.654	83.06
501.871	112.06
502.088	101.06
502.305	91.06
502.522	103.06
502.739	100.06
502.956	99.06
503.172	96.06
503.389	110.06
503.606	122.06
503.823	93.06
504.04	103.06
504.256	101.06
504.473	93.06
504.69	85.06
504.907	80.06
505.123	88.06
505.34	85.06
505.557	94.06
505.773	93.06
505.99	87.06
506.207	83.06
506.423	75.06
506.64	88.06
506.856	70.06
507.073	97.06
507.289	88.06
507.506	100.06
507.722	128.06
507.939	109.06
508.155	93.06
508.372	96.06
508.588	92.06
508.805	89.06
509.021	91.06
509.238	87.06
509.454	92.06
509.67	100.06
509.887	99.06
510.103	135.06
510.319	218.06
510.536	757.06
510.752	2403.06
510.968	670.06
511.184	170.06
511.401	106.06
511.617	96.06
511.833	91.06
512.049	90.06
512.265	92.06
512.481	93.06
512.698	93.06
512.914	103.06
513.13	87.06
513.346	90.06
513.562	98.06
513.778	94.06
513.994	97.06
514.21	100.06
514.426	126.06
