Data from Circ_2001_H10_HRD10591_00061.txt Node
Date: Wed Jan 03 10:45:51 EST 2024
User: Yrep
Spectrometer: HR+D1059
Trigger mode: 1
Integration Time (sec): 1.000000E-1
Scans to average: 1
Electric dark correction enabled: true
Nonlinearity correction enabled: false
Boxcar width: 0
XAxis mode: Wavelengths
Number of Pixels in Spectrum: 2048
>>>>>Begin Spectral Data<<<<<
223.165	-23.5
223.4	-23.5
223.635	-23.5
223.869	-20.5
224.104	-18.5
224.338	-19.5
224.573	-15.5
224.808	-4.5
225.042	7.5
225.277	-12.5
225.511	0.5
225.746	-3.5
225.98	6.5
226.215	13.5
226.449	20.5
226.683	24.5
226.918	17.5
227.152	27.5
227.387	38.5
227.621	26.5
227.856	53.5
228.09	45.5
228.324	49.5
228.559	51.5
228.793	64.5
229.027	70.5
229.262	77.5
229.496	77.5
229.73	87.5
229.964	84.5
230.199	71.5
230.433	75.5
230.667	91.5
230.901	79.5
231.136	83.5
231.37	74.5
231.604	85.5
231.838	74.5
232.072	83.5
232.306	85.5
232.541	85.5
232.775	83.5
233.009	88.5
233.243	74.5
233.477	83.5
233.711	74.5
233.945	91.5
234.179	87.5
234.413	82.5
234.647	86.5
234.881	67.5
235.115	80.5
235.349	75.5
235.583	93.5
235.817	86.5
236.051	88.5
236.285	73.5
236.519	81.5
236.753	92.5
236.987	83.5
237.221	76.5
237.455	82.5
237.689	86.5
237.922	74.5
238.156	74.5
238.39	68.5
238.624	94.5
238.858	83.5
239.091	84.5
239.325	82.5
239.559	87.5
239.793	81.5
240.027	88.5
240.26	73.5
240.494	77.5
240.728	75.5
240.961	87.5
241.195	80.5
241.429	74.5
241.662	62.5
241.896	83.5
242.13	87.5
242.363	93.5
242.597	80.5
242.83	74.5
243.064	73.5
243.298	88.5
243.531	94.5
243.765	90.5
243.998	81.5
244.232	96.5
244.465	81.5
244.699	85.5
244.932	76.5
245.166	88.5
245.399	61.5
245.633	85.5
245.866	86.5
246.099	80.5
246.333	91.5
246.566	72.5
246.8	67.5
247.033	85.5
247.266	71.5
247.5	66.5
247.733	96.5
247.966	75.5
248.2	82.5
248.433	92.5
248.666	86.5
248.899	80.5
249.133	79.5
249.366	85.5
249.599	92.5
249.832	79.5
250.066	80.5
250.299	92.5
250.532	80.5
250.765	88.5
250.998	67.5
251.231	86.5
251.465	59.5
251.698	101.5
251.931	92.5
252.164	85.5
252.397	91.5
252.63	82.5
252.863	86.5
253.096	83.5
253.329	88.5
253.562	78.5
253.795	91.5
254.028	84.5
254.261	89.5
254.494	86.5
254.727	88.5
254.96	83.5
255.193	93.5
255.426	80.5
255.659	76.5
255.892	98.5
256.124	90.5
256.357	86.5
256.59	94.5
256.823	73.5
257.056	80.5
257.289	84.5
257.521	92.5
257.754	74.5
257.987	82.5
258.22	89.5
258.452	81.5
258.685	90.5
258.918	84.5
259.151	70.5
259.383	81.5
259.616	67.5
259.849	79.5
260.081	90.5
260.314	94.5
260.547	98.5
260.779	104.5
261.012	99.5
261.244	101.5
261.477	100.5
261.71	105.5
261.942	136.5
262.175	123.5
262.407	89.5
262.64	96.5
262.872	76.5
263.105	91.5
263.337	86.5
263.57	66.5
263.802	91.5
264.035	80.5
264.267	84.5
264.499	92.5
264.732	96.5
264.964	89.5
265.197	85.5
265.429	76.5
265.661	80.5
265.894	88.5
266.126	73.5
266.358	85.5
266.591	85.5
266.823	99.5
267.055	74.5
267.287	81.5
267.52	87.5
267.752	86.5
267.984	88.5
268.216	74.5
268.448	91.5
268.681	89.5
268.913	83.5
269.145	87.5
269.377	89.5
269.609	72.5
269.841	64.5
270.073	95.5
270.306	81.5
270.538	84.5
270.77	81.5
271.002	77.5
271.234	91.5
271.466	88.5
271.698	93.5
271.93	99.5
272.162	79.5
272.394	87.5
272.626	82.5
272.858	92.5
273.09	84.5
273.322	82.5
273.553	85.5
273.785	85.5
274.017	93.5
274.249	100.5
274.481	87.5
274.713	90.5
274.945	101.5
275.176	97.5
275.408	101.5
275.64	104.5
275.872	103.5
276.104	92.5
276.335	98.5
276.567	108.5
276.799	135.5
277.031	152.5
277.262	172.5
277.494	131.5
277.726	94.5
277.957	90.5
278.189	89.5
278.421	83.5
278.652	91.5
278.884	91.5
279.115	91.5
279.347	100.5
279.579	101.5
279.81	126.5
280.042	163.5
280.273	208.5
280.505	159.5
280.736	105.5
280.968	85.5
281.199	88.5
281.431	91.5
281.662	84.5
281.894	90.5
282.125	108.5
282.356	123.5
282.588	162.5
282.819	116.5
283.051	97.5
283.282	83.5
283.513	97.5
283.745	84.5
283.976	90.5
284.207	83.5
284.439	79.5
284.67	83.5
284.901	86.5
285.132	79.5
285.364	78.5
285.595	83.5
285.826	77.5
286.057	101.5
286.288	99.5
286.52	95.5
286.751	85.5
286.982	85.5
287.213	74.5
287.444	82.5
287.675	93.5
287.906	91.5
288.138	96.5
288.369	110.5
288.6	98.5
288.831	86.5
289.062	92.5
289.293	84.5
289.524	72.5
289.755	80.5
289.986	80.5
290.217	87.5
290.448	81.5
290.679	91.5
290.91	85.5
291.141	82.5
291.371	88.5
291.602	83.5
291.833	83.5
292.064	94.5
292.295	72.5
292.526	83.5
292.757	83.5
292.987	97.5
293.218	90.5
293.449	101.5
293.68	98.5
293.91	94.5
294.141	92.5
294.372	95.5
294.603	89.5
294.833	91.5
295.064	94.5
295.295	77.5
295.525	105.5
295.756	103.5
295.987	115.5
296.217	154.5
296.448	123.5
296.679	93.5
296.909	92.5
297.14	86.5
297.37	83.5
297.601	91.5
297.831	89.5
298.062	83.5
298.292	89.5
298.523	91.5
298.753	97.5
298.984	107.5
299.214	90.5
299.445	86.5
299.675	103.5
299.905	90.5
300.136	104.5
300.366	84.5
300.597	89.5
300.827	94.5
301.057	94.5
301.288	115.5
301.518	106.5
301.748	90.5
301.979	105.5
302.209	95.5
302.439	88.5
302.669	83.5
302.9	101.5
303.13	94.5
303.36	103.5
303.59	111.5
303.82	130.5
304.051	94.5
304.281	87.5
304.511	83.5
304.741	83.5
304.971	79.5
305.201	89.5
305.431	93.5
305.661	92.5
305.891	97.5
306.121	92.5
306.352	108.5
306.582	110.5
306.812	93.5
307.042	128.5
307.272	132.5
307.502	155.5
307.731	144.5
307.961	120.5
308.191	90.5
308.421	100.5
308.651	84.5
308.881	94.5
309.111	84.5
309.341	90.5
309.571	105.5
309.8	92.5
310.03	114.5
310.26	95.5
310.49	97.5
310.72	104.5
310.949	108.5
311.179	112.5
311.409	91.5
311.639	90.5
311.868	100.5
312.098	96.5
312.328	90.5
312.557	114.5
312.787	116.5
313.017	127.5
313.246	101.5
313.476	101.5
313.706	105.5
313.935	101.5
314.165	93.5
314.394	121.5
314.624	95.5
314.853	102.5
315.083	106.5
315.312	91.5
315.542	93.5
315.771	107.5
316.001	100.5
316.23	83.5
316.46	105.5
316.689	93.5
316.919	106.5
317.148	100.5
317.377	94.5
317.607	111.5
317.836	77.5
318.065	90.5
318.295	87.5
318.524	91.5
318.753	98.5
318.983	100.5
319.212	110.5
319.441	111.5
319.67	111.5
319.9	109.5
320.129	88.5
320.358	75.5
320.587	102.5
320.816	108.5
321.046	112.5
321.275	90.5
321.504	98.5
321.733	111.5
321.962	94.5
322.191	93.5
322.42	98.5
322.649	114.5
322.878	116.5
323.108	116.5
323.337	142.5
323.566	139.5
323.795	171.5
324.024	251.5
324.253	431.5
324.482	922.5
324.71	1913.5
324.939	2516.5
325.168	913.5
325.397	269.5
325.626	163.5
325.855	136.5
326.084	138.5
326.313	130.5
326.542	155.5
326.77	235.5
326.999	477.5
327.228	1018.5
327.457	1863.5
327.686	1517.5
327.914	537.5
328.143	441.5
328.372	517.5
328.6	318.5
328.829	169.5
329.058	176.5
329.287	176.5
329.515	169.5
329.744	236.5
329.972	403.5
330.201	791.5
330.43	1061.5
330.658	527.5
330.887	258.5
331.115	149.5
331.344	115.5
331.572	124.5
331.801	117.5
332.03	118.5
332.258	92.5
332.486	114.5
332.715	120.5
332.943	125.5
333.172	122.5
333.4	124.5
333.629	138.5
333.857	209.5
334.085	363.5
334.314	759.5
334.542	1362.5
334.771	1242.5
334.999	345.5
335.227	152.5
335.455	132.5
335.684	120.5
335.912	106.5
336.14	102.5
336.369	105.5
336.597	89.5
336.825	114.5
337.053	110.5
337.281	90.5
337.51	97.5
337.738	113.5
337.966	99.5
338.194	110.5
338.422	90.5
338.65	98.5
338.878	104.5
339.106	95.5
339.334	92.5
339.562	76.5
339.79	94.5
340.018	93.5
340.246	96.5
340.474	100.5
340.702	99.5
340.93	104.5
341.158	90.5
341.386	82.5
341.614	98.5
341.842	103.5
342.07	94.5
342.298	90.5
342.526	97.5
342.754	94.5
342.981	73.5
343.209	91.5
343.437	105.5
343.665	89.5
343.893	78.5
344.12	94.5
344.348	84.5
344.576	97.5
344.804	85.5
345.031	93.5
345.259	111.5
345.487	88.5
345.714	96.5
345.942	92.5
346.17	105.5
346.397	90.5
346.625	91.5
346.853	98.5
347.08	84.5
347.308	100.5
347.535	118.5
347.763	106.5
347.99	105.5
348.218	99.5
348.445	119.5
348.673	87.5
348.9	87.5
349.128	97.5
349.355	117.5
349.583	82.5
349.81	86.5
350.037	96.5
350.265	89.5
350.492	106.5
350.72	97.5
350.947	102.5
351.174	111.5
351.402	117.5
351.629	115.5
351.856	107.5
352.083	113.5
352.311	103.5
352.538	114.5
352.765	108.5
352.992	120.5
353.22	108.5
353.447	112.5
353.674	91.5
353.901	84.5
354.128	104.5
354.355	97.5
354.583	90.5
354.81	92.5
355.037	101.5
355.264	92.5
355.491	88.5
355.718	99.5
355.945	107.5
356.172	93.5
356.399	111.5
356.626	89.5
356.853	94.5
357.08	98.5
357.307	66.5
357.534	82.5
357.761	105.5
357.988	95.5
358.215	92.5
358.441	91.5
358.668	89.5
358.895	92.5
359.122	81.5
359.349	94.5
359.576	97.5
359.802	121.5
360.029	131.5
360.256	149.5
360.483	117.5
360.709	94.5
360.936	112.5
361.163	101.5
361.39	105.5
361.616	94.5
361.843	95.5
362.07	95.5
362.296	100.5
362.523	108.5
362.749	98.5
362.976	90.5
363.203	89.5
363.429	95.5
363.656	97.5
363.882	101.5
364.109	96.5
364.335	100.5
364.562	81.5
364.788	84.5
365.015	94.5
365.241	106.5
365.468	116.5
365.694	118.5
365.92	103.5
366.147	106.5
366.373	82.5
366.599	107.5
366.826	93.5
367.052	89.5
367.278	93.5
367.505	90.5
367.731	101.5
367.957	86.5
368.184	104.5
368.41	95.5
368.636	117.5
368.862	139.5
369.089	121.5
369.315	94.5
369.541	100.5
369.767	91.5
369.993	103.5
370.219	96.5
370.445	91.5
370.672	103.5
370.898	101.5
371.124	89.5
371.35	90.5
371.576	96.5
371.802	72.5
372.028	88.5
372.254	90.5
372.48	94.5
372.706	91.5
372.932	98.5
373.158	88.5
373.384	83.5
373.61	102.5
373.835	83.5
374.061	84.5
374.287	92.5
374.513	78.5
374.739	87.5
374.965	89.5
375.191	85.5
375.416	79.5
375.642	79.5
375.868	100.5
376.094	84.5
376.319	99.5
376.545	96.5
376.771	74.5
376.997	87.5
377.222	98.5
377.448	94.5
377.674	87.5
377.899	99.5
378.125	97.5
378.35	96.5
378.576	98.5
378.802	85.5
379.027	91.5
379.253	92.5
379.478	90.5
379.704	104.5
379.929	82.5
380.155	97.5
380.38	82.5
380.606	94.5
380.831	83.5
381.057	113.5
381.282	89.5
381.507	91.5
381.733	99.5
381.958	97.5
382.184	97.5
382.409	107.5
382.634	97.5
382.86	101.5
383.085	107.5
383.31	109.5
383.535	104.5
383.761	100.5
383.986	86.5
384.211	101.5
384.436	96.5
384.662	106.5
384.887	102.5
385.112	94.5
385.337	113.5
385.562	101.5
385.787	90.5
386.013	111.5
386.238	122.5
386.463	89.5
386.688	91.5
386.913	100.5
387.138	110.5
387.363	118.5
387.588	101.5
387.813	97.5
388.038	100.5
388.263	118.5
388.488	109.5
388.713	105.5
388.938	74.5
389.163	96.5
389.387	104.5
389.612	97.5
389.837	88.5
390.062	83.5
390.287	93.5
390.512	76.5
390.736	85.5
390.961	100.5
391.186	93.5
391.411	82.5
391.636	93.5
391.86	82.5
392.085	90.5
392.31	95.5
392.534	77.5
392.759	97.5
392.984	87.5
393.208	84.5
393.433	99.5
393.658	92.5
393.882	85.5
394.107	91.5
394.331	82.5
394.556	86.5
394.78	82.5
395.005	91.5
395.229	86.5
395.454	89.5
395.678	75.5
395.903	88.5
396.127	80.5
396.352	102.5
396.576	78.5
396.801	89.5
397.025	94.5
397.249	96.5
397.474	95.5
397.698	93.5
397.922	98.5
398.147	98.5
398.371	98.5
398.595	91.5
398.82	91.5
399.044	98.5
399.268	80.5
399.492	87.5
399.717	94.5
399.941	94.5
400.165	85.5
400.389	92.5
400.613	96.5
400.837	90.5
401.062	93.5
401.286	101.5
401.51	97.5
401.734	89.5
401.958	108.5
402.182	146.5
402.406	189.5
402.63	145.5
402.854	108.5
403.078	96.5
403.302	94.5
403.526	89.5
403.75	85.5
403.974	94.5
404.198	95.5
404.422	94.5
404.645	97.5
404.869	80.5
405.093	94.5
405.317	123.5
405.541	124.5
405.765	114.5
405.988	145.5
406.212	204.5
406.436	281.5
406.66	171.5
406.883	103.5
407.107	117.5
407.331	111.5
407.555	98.5
407.778	119.5
408.002	86.5
408.226	108.5
408.449	98.5
408.673	100.5
408.896	103.5
409.12	93.5
409.344	98.5
409.567	90.5
409.791	93.5
410.014	100.5
410.238	106.5
410.461	104.5
410.685	85.5
410.908	123.5
411.132	121.5
411.355	108.5
411.578	99.5
411.802	84.5
412.025	88.5
412.249	97.5
412.472	132.5
412.695	124.5
412.919	85.5
413.142	105.5
413.365	82.5
413.589	85.5
413.812	93.5
414.035	108.5
414.258	90.5
414.482	95.5
414.705	102.5
414.928	87.5
415.151	93.5
415.374	92.5
415.597	101.5
415.821	86.5
416.044	92.5
416.267	83.5
416.49	108.5
416.713	87.5
416.936	93.5
417.159	86.5
417.382	85.5
417.605	90.5
417.828	92.5
418.051	113.5
418.274	97.5
418.497	97.5
418.72	86.5
418.943	82.5
419.166	89.5
419.389	86.5
419.611	78.5
419.834	96.5
420.057	96.5
420.28	90.5
420.503	102.5
420.726	89.5
420.948	81.5
421.171	98.5
421.394	95.5
421.617	94.5
421.839	77.5
422.062	96.5
422.285	90.5
422.507	90.5
422.73	105.5
422.953	106.5
423.175	94.5
423.398	105.5
423.621	100.5
423.843	93.5
424.066	94.5
424.288	84.5
424.511	108.5
424.733	105.5
424.956	112.5
425.178	109.5
425.401	102.5
425.623	111.5
425.846	99.5
426.068	97.5
426.291	108.5
426.513	91.5
426.735	77.5
426.958	99.5
427.18	115.5
427.402	170.5
427.625	234.5
427.847	213.5
428.069	183.5
428.292	103.5
428.514	98.5
428.736	89.5
428.958	84.5
429.181	84.5
429.403	73.5
429.625	89.5
429.847	98.5
430.069	113.5
430.292	93.5
430.514	97.5
430.736	76.5
430.958	73.5
431.18	86.5
431.402	74.5
431.624	96.5
431.846	83.5
432.068	89.5
432.29	87.5
432.512	104.5
432.734	81.5
432.956	84.5
433.178	112.5
433.4	121.5
433.622	102.5
433.844	96.5
434.066	91.5
434.287	90.5
434.509	86.5
434.731	96.5
434.953	89.5
435.175	95.5
435.397	92.5
435.618	93.5
435.84	106.5
436.062	137.5
436.284	132.5
436.505	116.5
436.727	109.5
436.949	98.5
437.17	100.5
437.392	91.5
437.614	105.5
437.835	118.5
438.057	146.5
438.278	133.5
438.5	119.5
438.721	128.5
438.943	110.5
439.165	94.5
439.386	94.5
439.608	93.5
439.829	103.5
440.05	143.5
440.272	192.5
440.493	116.5
440.715	82.5
440.936	81.5
441.158	97.5
441.379	101.5
441.6	111.5
441.822	114.5
442.043	107.5
442.264	106.5
442.486	104.5
442.707	107.5
442.928	97.5
443.149	141.5
443.371	155.5
443.592	124.5
443.813	120.5
444.034	118.5
444.255	98.5
444.476	93.5
444.698	96.5
444.919	91.5
445.14	133.5
445.361	130.5
445.582	124.5
445.803	168.5
446.024	154.5
446.245	157.5
446.466	110.5
446.687	104.5
446.908	83.5
447.129	76.5
447.35	93.5
447.571	113.5
447.792	107.5
448.013	106.5
448.234	113.5
448.455	107.5
448.675	118.5
448.896	145.5
449.117	112.5
449.338	110.5
449.559	136.5
449.779	137.5
450	98.5
450.221	96.5
450.442	95.5
450.662	116.5
450.883	121.5
451.104	146.5
451.324	112.5
451.545	98.5
451.766	108.5
451.986	102.5
452.207	93.5
452.428	96.5
452.648	104.5
452.869	121.5
453.089	120.5
453.31	129.5
453.53	92.5
453.751	103.5
453.971	101.5
454.192	136.5
454.412	104.5
454.633	90.5
454.853	92.5
455.073	78.5
455.294	108.5
455.514	113.5
455.734	85.5
455.955	94.5
456.175	95.5
456.395	85.5
456.616	75.5
456.836	88.5
457.056	92.5
457.276	94.5
457.497	88.5
457.717	92.5
457.937	96.5
458.157	89.5
458.377	98.5
458.598	132.5
458.818	181.5
459.038	200.5
459.258	138.5
459.478	102.5
459.698	78.5
459.918	77.5
460.138	74.5
460.358	98.5
460.578	98.5
460.798	84.5
461.018	76.5
461.238	91.5
461.458	77.5
461.678	94.5
461.898	99.5
462.118	95.5
462.338	97.5
462.558	84.5
462.777	86.5
462.997	95.5
463.217	117.5
463.437	98.5
463.657	96.5
463.876	84.5
464.096	98.5
464.316	96.5
464.536	101.5
464.755	110.5
464.975	113.5
465.195	217.5
465.414	205.5
465.634	93.5
465.854	75.5
466.073	95.5
466.293	97.5
466.512	99.5
466.732	90.5
466.951	100.5
467.171	94.5
467.391	100.5
467.61	131.5
467.829	194.5
468.049	478.5
468.268	656.5
468.488	202.5
468.707	104.5
468.927	111.5
469.146	100.5
469.365	86.5
469.585	93.5
469.804	115.5
470.023	111.5
470.243	102.5
470.462	113.5
470.681	125.5
470.901	105.5
471.12	88.5
471.339	112.5
471.558	113.5
471.777	146.5
471.997	270.5
472.216	906.5
472.435	1893.5
472.654	466.5
472.873	137.5
473.092	96.5
473.311	98.5
473.53	101.5
473.749	93.5
473.968	105.5
474.187	108.5
474.406	104.5
474.625	78.5
474.844	73.5
475.063	78.5
475.282	111.5
475.501	84.5
475.72	98.5
475.939	99.5
476.158	92.5
476.377	84.5
476.596	99.5
476.814	92.5
477.033	96.5
477.252	100.5
477.471	90.5
477.69	110.5
477.908	105.5
478.127	95.5
478.346	93.5
478.564	99.5
478.783	109.5
479.002	108.5
479.22	93.5
479.439	117.5
479.658	131.5
479.876	120.5
480.095	122.5
480.313	123.5
480.532	150.5
480.751	237.5
480.969	806.5
481.188	3322.5
481.406	1899.5
481.624	296.5
481.843	136.5
482.061	103.5
482.28	102.5
482.498	111.5
482.717	72.5
482.935	88.5
483.153	98.5
483.372	90.5
483.59	81.5
483.808	99.5
484.027	92.5
484.245	104.5
484.463	97.5
484.681	106.5
484.9	90.5
485.118	104.5
485.336	104.5
485.554	101.5
485.772	91.5
485.99	106.5
486.209	106.5
486.427	100.5
486.645	112.5
486.863	123.5
487.081	103.5
487.299	108.5
487.517	94.5
487.735	95.5
487.953	103.5
488.171	94.5
488.389	103.5
488.607	105.5
488.825	87.5
489.043	84.5
489.261	104.5
489.479	91.5
489.696	89.5
489.914	99.5
490.132	102.5
490.35	98.5
490.568	95.5
490.786	101.5
491.003	93.5
491.221	88.5
491.439	104.5
491.657	105.5
491.874	119.5
492.092	76.5
492.31	99.5
492.527	90.5
492.745	94.5
492.963	110.5
493.18	87.5
493.398	106.5
493.615	99.5
493.833	105.5
494.05	86.5
494.268	85.5
494.485	97.5
494.703	83.5
494.92	95.5
495.138	91.5
495.355	95.5
495.573	99.5
495.79	89.5
496.008	93.5
496.225	92.5
496.442	94.5
496.66	100.5
496.877	86.5
497.094	93.5
497.312	89.5
497.529	84.5
497.746	71.5
497.963	84.5
498.181	91.5
498.398	95.5
498.615	108.5
498.832	118.5
499.049	97.5
499.267	100.5
499.484	80.5
499.701	83.5
499.918	85.5
500.135	91.5
500.352	93.5
500.569	93.5
500.786	92.5
501.003	84.5
501.22	88.5
501.437	90.5
501.654	107.5
501.871	133.5
502.088	113.5
502.305	106.5
502.522	92.5
502.739	92.5
502.956	96.5
503.172	92.5
503.389	106.5
503.606	122.5
503.823	106.5
504.04	91.5
504.256	79.5
504.473	89.5
504.69	92.5
504.907	104.5
505.123	105.5
505.34	93.5
505.557	92.5
505.773	84.5
505.99	91.5
506.207	98.5
506.423	100.5
506.64	103.5
506.856	97.5
507.073	87.5
507.289	100.5
507.506	105.5
507.722	125.5
507.939	128.5
508.155	100.5
508.372	112.5
508.588	92.5
508.805	89.5
509.021	97.5
509.238	105.5
509.454	105.5
509.67	103.5
509.887	94.5
510.103	131.5
510.319	216.5
510.536	821.5
510.752	2744.5
510.968	754.5
511.184	166.5
511.401	125.5
511.617	102.5
511.833	108.5
512.049	92.5
512.265	76.5
512.481	98.5
512.698	114.5
512.914	104.5
513.13	85.5
513.346	92.5
513.562	99.5
513.778	104.5
513.994	105.5
514.21	116.5
514.426	136.5
514.642	168.5
514.858	149.5
515.074	188.5
515.29	632.5
515.506	2177.5
515.721	784.5
515.937	194.5
516.153	124.5
516.369	108.5
516.585	103.5
516.801	105.5
517.016	98.5
517.232	89.5
517.448	94.5
517.664	105.5
517.879	91.5
518.095	98.5
518.311	106.5
518.527	100.5
518.742	97.5
518.958	99.5
519.173	103.5
519.389	92.5
519.605	106.5
519.82	109.5
520.036	108.5
520.251	142.5
520.467	128.5
520.682	112.5
520.898	120.5
521.113	118.5
521.329	158.5
521.544	267.5
521.76	800.5
521.975	3684.5
522.19	2144.5
522.406	431.5
522.621	158.5
522.836	112.5
523.052	100.5
523.267	90.5
523.482	102.5
523.698	104.5
523.913	144.5
524.128	109.5
524.343	85.5
524.559	93.5
524.774	88.5
524.989	92.5
525.204	120.5
525.419	104.5
525.634	83.5
525.849	98.5
526.064	107.5
526.28	88.5
526.495	99.5
526.71	101.5
526.925	97.5
527.14	86.5
527.355	100.5
527.57	90.5
527.785	84.5
527.999	87.5
528.214	82.5
528.429	83.5
528.644	91.5
528.859	93.5
529.074	104.5
529.289	154.5
529.503	238.5
529.718	124.5
529.933	93.5
530.148	84.5
530.363	110.5
530.577	92.5
530.792	94.5
531.007	90.5
531.221	105.5
531.436	101.5
531.651	101.5
531.865	93.5
532.08	88.5
532.295	84.5
