Data from Circ_2001_H10_HRD10591_00008.txt Node
Date: Wed Jan 03 10:45:40 EST 2024
User: Yrep
Spectrometer: HR+D1059
Trigger mode: 1
Integration Time (sec): 1.000000E-1
Scans to average: 1
Electric dark correction enabled: true
Nonlinearity correction enabled: false
Boxcar width: 0
XAxis mode: Wavelengths
Number of Pixels in Spectrum: 2048
>>>>>Begin Spectral Data<<<<<
223.165	-13.12
223.4	-13.12
223.635	-13.12
223.869	-15.12
224.104	-36.12
224.338	-15.12
224.573	-27.12
224.808	-22.12
225.042	-14.12
225.277	-7.12
225.511	-11.12
225.746	14.88
225.98	7.88
226.215	23.88
226.449	11.88
226.683	32.88
226.918	37.88
227.152	31.88
227.387	38.88
227.621	38.88
227.856	49.88
228.09	45.88
228.324	51.88
228.559	52.88
228.793	163.88
229.027	432.88
229.262	504.88
229.496	590.88
229.73	801.88
229.964	803.88
230.199	528.88
230.433	472.88
230.667	486.88
230.901	465.88
231.136	424.88
231.37	438.88
231.604	449.88
231.838	462.88
232.072	467.88
232.306	487.88
232.541	469.88
232.775	488.88
233.009	479.88
233.243	482.88
233.477	493.88
233.711	488.88
233.945	517.88
234.179	525.88
234.413	500.88
234.647	520.88
234.881	518.88
235.115	527.88
235.349	528.88
235.583	557.88
235.817	603.88
236.051	615.88
236.285	596.88
236.519	605.88
236.753	685.88
236.987	889.88
237.221	1359.88
237.455	1433.88
237.689	860.88
237.922	748.88
238.156	708.88
238.39	662.88
238.624	653.88
238.858	662.88
239.091	656.88
239.325	704.88
239.559	693.88
239.793	706.88
240.027	780.88
240.26	894.88
240.494	956.88
240.728	912.88
240.961	886.88
241.195	829.88
241.429	798.88
241.662	775.88
241.896	782.88
242.13	796.88
242.363	799.88
242.597	843.88
242.83	847.88
243.064	839.88
243.298	864.88
243.531	857.88
243.765	861.88
243.998	879.88
244.232	904.88
244.465	921.88
244.699	963.88
244.932	929.88
245.166	959.88
245.399	960.88
245.633	973.88
245.866	956.88
246.099	971.88
246.333	1000.88
246.566	1019.88
246.8	1011.88
247.033	1054.88
247.266	1083.88
247.5	1119.88
247.733	1166.88
247.966	1198.88
248.2	1192.88
248.433	1199.88
248.666	1251.88
248.899	1385.88
249.133	1476.88
249.366	1533.88
249.599	1463.88
249.832	1419.88
250.066	1579.88
250.299	2025.88
250.532	2591.88
250.765	2433.88
250.998	2085.88
251.231	1817.88
251.465	1603.88
251.698	1519.88
251.931	1472.88
252.164	1472.88
252.397	1475.88
252.63	1486.88
252.863	1608.88
253.096	1680.88
253.329	1695.88
253.562	1652.88
253.795	1607.88
254.028	1604.88
254.261	1675.88
254.494	1871.88
254.727	2150.88
254.96	2214.88
255.193	2075.88
255.426	2079.88
255.659	2458.88
255.892	3554.88
256.124	4435.88
256.357	3571.88
256.59	2614.88
256.823	2151.88
257.056	1997.88
257.289	1869.88
257.521	1811.88
257.754	1761.88
257.987	1735.88
258.22	1739.88
258.452	1699.88
258.685	1679.88
258.918	1689.88
259.151	1727.88
259.383	1772.88
259.616	1773.88
259.849	1828.88
260.081	1982.88
260.314	2112.88
260.547	1995.88
260.779	1880.88
261.012	1814.88
261.244	1822.88
261.477	1769.88
261.71	1771.88
261.942	1863.88
262.175	1879.88
262.407	1800.88
262.64	1747.88
262.872	1768.88
263.105	1761.88
263.337	1725.88
263.57	1715.88
263.802	1751.88
264.035	1684.88
264.267	1755.88
264.499	1743.88
264.732	1753.88
264.964	1779.88
265.197	1747.88
265.429	1767.88
265.661	1818.88
265.894	1797.88
266.126	1859.88
266.358	1842.88
266.591	1858.88
266.823	1955.88
267.055	1931.88
267.287	1939.88
267.52	1878.88
267.752	1889.88
267.984	1967.88
268.216	1908.88
268.448	1971.88
268.681	2051.88
268.913	2165.88
269.145	2397.88
269.377	2339.88
269.609	2305.88
269.841	2221.88
270.073	2385.88
270.306	2600.88
270.538	2703.88
270.77	2564.88
271.002	2459.88
271.234	2438.88
271.466	2578.88
271.698	2665.88
271.93	2671.88
272.162	2715.88
272.394	2596.88
272.626	2489.88
272.858	2375.88
273.09	2356.88
273.322	2308.88
273.553	2300.88
273.785	2294.88
274.017	2301.88
274.249	2325.88
274.481	2418.88
274.713	2407.88
274.945	2425.88
275.176	2447.88
275.408	2434.88
275.64	2473.88
275.872	2508.88
276.104	2523.88
276.335	2577.88
276.567	2727.88
276.799	2918.88
277.031	3247.88
277.262	3364.88
277.494	3114.88
277.726	2881.88
277.957	2715.88
278.189	2672.88
278.421	2625.88
278.652	2663.88
278.884	2576.88
279.115	2582.88
279.347	2674.88
279.579	2692.88
279.81	2759.88
280.042	2957.88
280.273	3098.88
280.505	3040.88
280.736	2887.88
280.968	2699.88
281.199	2661.88
281.431	2629.88
281.662	2714.88
281.894	2687.88
282.125	2774.88
282.356	2919.88
282.588	3019.88
282.819	2831.88
283.051	2707.88
283.282	2657.88
283.513	2703.88
283.745	2695.88
283.976	2795.88
284.207	2749.88
284.439	2726.88
284.67	2733.88
284.901	2766.88
285.132	2702.88
285.364	2781.88
285.595	2774.88
285.826	2753.88
286.057	2795.88
286.288	2803.88
286.52	2787.88
286.751	2824.88
286.982	2813.88
287.213	2822.88
287.444	2849.88
287.675	2965.88
287.906	3035.88
288.138	3065.88
288.369	3005.88
288.6	3032.88
288.831	2935.88
289.062	2917.88
289.293	2913.88
289.524	2969.88
289.755	2949.88
289.986	2933.88
290.217	2925.88
290.448	2949.88
290.679	2914.88
290.91	2889.88
291.141	2885.88
291.371	2923.88
291.602	2873.88
291.833	2915.88
292.064	2918.88
292.295	2902.88
292.526	2895.88
292.757	2919.88
292.987	2910.88
293.218	2965.88
293.449	2929.88
293.68	2869.88
293.91	2919.88
294.141	2930.88
294.372	2937.88
294.603	2942.88
294.833	2967.88
295.064	2962.88
295.295	2986.88
295.525	2975.88
295.756	3076.88
295.987	3094.88
296.217	3292.88
296.448	3232.88
296.679	3012.88
296.909	3035.88
297.14	3017.88
297.37	3094.88
297.601	3131.88
297.831	3155.88
298.062	3144.88
298.292	3218.88
298.523	3197.88
298.753	3163.88
298.984	3194.88
299.214	3192.88
299.445	3153.88
299.675	3171.88
299.905	3303.88
300.136	3229.88
300.366	3224.88
300.597	3259.88
300.827	3337.88
301.057	3445.88
301.288	3500.88
301.518	3467.88
301.748	3452.88
301.979	3529.88
302.209	3533.88
302.439	3549.88
302.669	3477.88
302.9	3435.88
303.13	3427.88
303.36	3515.88
303.59	3605.88
303.82	3683.88
304.051	3510.88
304.281	3458.88
304.511	3337.88
304.741	3453.88
304.971	3405.88
305.201	3384.88
305.431	3364.88
305.661	3391.88
305.891	3424.88
306.121	3378.88
306.352	3486.88
306.582	3490.88
306.812	3403.88
307.042	3521.88
307.272	3618.88
307.502	3621.88
307.731	3626.88
307.961	3517.88
308.191	3430.88
308.421	3426.88
308.651	3468.88
308.881	3421.88
309.111	3477.88
309.341	3472.88
309.571	3645.88
309.8	3664.88
310.03	3752.88
310.26	3727.88
310.49	3694.88
310.72	3877.88
310.949	3988.88
311.179	3920.88
311.409	3741.88
311.639	3706.88
311.868	3751.88
312.098	3722.88
312.328	3936.88
312.557	4031.88
312.787	4150.88
313.017	4044.88
313.246	3921.88
313.476	3843.88
313.706	3919.88
313.935	4025.88
314.165	4112.88
314.394	4091.88
314.624	4077.88
314.853	3979.88
315.083	3873.88
315.312	3877.88
315.542	3809.88
315.771	3816.88
316.001	3805.88
316.23	3805.88
316.46	3785.88
316.689	3886.88
316.919	3892.88
317.148	3928.88
317.377	3941.88
317.607	3918.88
317.836	3947.88
318.065	3814.88
318.295	3835.88
318.524	3864.88
318.753	3814.88
318.983	3851.88
319.212	3829.88
319.441	3934.88
319.67	3943.88
319.9	3829.88
320.129	3856.88
320.358	3868.88
320.587	3895.88
320.816	4021.88
321.046	4069.88
321.275	3977.88
321.504	4038.88
321.733	4074.88
321.962	4103.88
322.191	4198.88
322.42	4390.88
322.649	4487.88
322.878	4536.88
323.108	4589.88
323.337	4864.88
323.566	5045.88
323.795	5405.88
324.024	6097.88
324.253	8158.88
324.482	12396.88
324.71	15609.88
324.939	15609.88
325.168	13573.88
325.397	6878.88
325.626	5559.88
325.855	5244.88
326.084	5166.88
326.313	5181.88
326.542	5475.88
326.77	6255.88
326.999	8127.88
327.228	11890.88
327.457	15476.88
327.686	14734.88
327.914	9313.88
328.143	8819.88
328.372	9220.88
328.6	7567.88
328.829	6671.88
329.058	6859.88
329.287	6923.88
329.515	6912.88
329.744	7693.88
329.972	9624.88
330.201	12510.88
330.43	13583.88
330.658	10123.88
330.887	8069.88
331.115	6880.88
331.344	6163.88
331.572	5919.88
331.801	5960.88
332.03	5970.88
332.258	5761.88
332.486	5881.88
332.715	5917.88
332.943	6218.88
333.172	6552.88
333.4	7089.88
333.629	7656.88
333.857	8891.88
334.085	10939.88
334.314	13914.88
334.542	15609.88
334.771	14877.88
334.999	9526.88
335.227	7564.88
335.455	6606.88
335.684	6203.88
335.912	5799.88
336.14	5726.88
336.369	5585.88
336.597	5559.88
336.825	5451.88
337.053	5238.88
337.281	5121.88
337.51	5123.88
337.738	5064.88
337.966	5013.88
338.194	5044.88
338.422	5015.88
338.65	4791.88
338.878	4773.88
339.106	4766.88
339.334	4741.88
339.562	4676.88
339.79	4590.88
340.018	4614.88
340.246	4652.88
340.474	4598.88
340.702	4553.88
340.93	4627.88
341.158	4627.88
341.386	4630.88
341.614	4655.88
341.842	4539.88
342.07	4496.88
342.298	4469.88
342.526	4429.88
342.754	4440.88
342.981	4454.88
343.209	4526.88
343.437	4685.88
343.665	5003.88
343.893	5302.88
344.12	5213.88
344.348	5084.88
344.576	4925.88
344.804	4828.88
345.031	4867.88
345.259	4790.88
345.487	4633.88
345.714	4463.88
345.942	4407.88
346.17	4362.88
346.397	4363.88
346.625	4264.88
346.853	4339.88
347.08	4276.88
347.308	4341.88
347.535	4453.88
347.763	4455.88
347.99	4409.88
348.218	4497.88
348.445	4559.88
348.673	4472.88
348.9	4277.88
349.128	4221.88
349.355	4238.88
349.583	4230.88
349.81	4187.88
350.037	4171.88
350.265	4198.88
350.492	4127.88
350.72	4147.88
350.947	4272.88
351.174	4325.88
351.402	4446.88
351.629	4322.88
351.856	4313.88
352.083	4422.88
352.311	4396.88
352.538	4483.88
352.765	4405.88
352.992	4297.88
353.22	4273.88
353.447	4231.88
353.674	4209.88
353.901	4107.88
354.128	4072.88
354.355	4069.88
354.583	4117.88
354.81	4120.88
355.037	4116.88
355.264	4036.88
355.491	4022.88
355.718	3977.88
355.945	4016.88
356.172	4088.88
356.399	4011.88
356.626	4024.88
356.853	4033.88
357.08	3998.88
357.307	4060.88
357.534	4040.88
357.761	4051.88
357.988	4097.88
358.215	4049.88
358.441	4098.88
358.668	4123.88
358.895	4131.88
359.122	4169.88
359.349	4221.88
359.576	4432.88
359.802	4696.88
360.029	4903.88
360.256	4791.88
360.483	4550.88
360.709	4347.88
360.936	4319.88
361.163	4406.88
361.39	4382.88
361.616	4326.88
361.843	4356.88
362.07	4363.88
362.296	4385.88
362.523	4327.88
362.749	4312.88
362.976	4231.88
363.203	4189.88
363.429	4195.88
363.656	4215.88
363.882	4174.88
364.109	4155.88
364.335	4101.88
364.562	4196.88
364.788	4125.88
365.015	4136.88
365.241	4212.88
365.468	4172.88
365.694	4278.88
365.92	4285.88
366.147	4157.88
366.373	4100.88
366.599	4130.88
366.826	4126.88
367.052	4084.88
367.278	4172.88
367.505	4176.88
367.731	4271.88
367.957	4242.88
368.184	4209.88
368.41	4319.88
368.636	4369.88
368.862	4389.88
369.089	4332.88
369.315	4265.88
369.541	4244.88
369.767	4343.88
369.993	4274.88
370.219	4274.88
370.445	4281.88
370.672	4361.88
370.898	4353.88
371.124	4405.88
371.35	4468.88
371.576	4390.88
371.802	4354.88
372.028	4395.88
372.254	4445.88
372.48	4381.88
372.706	4520.88
372.932	4543.88
373.158	4513.88
373.384	4453.88
373.61	4408.88
373.835	4436.88
374.061	4463.88
374.287	4533.88
374.513	4526.88
374.739	4676.88
374.965	4765.88
375.191	4734.88
375.416	4678.88
375.642	4570.88
375.868	4576.88
376.094	4525.88
376.319	4525.88
376.545	4471.88
376.771	4445.88
376.997	4401.88
377.222	4461.88
377.448	4333.88
377.674	4362.88
377.899	4335.88
378.125	4308.88
378.35	4280.88
378.576	4323.88
378.802	4259.88
379.027	4339.88
379.253	4331.88
379.478	4274.88
379.704	4364.88
379.929	4383.88
380.155	4404.88
380.38	4424.88
380.606	4446.88
380.831	4382.88
381.057	4412.88
381.282	4400.88
381.507	4461.88
381.733	4430.88
381.958	4524.88
382.184	4562.88
382.409	4597.88
382.634	4628.88
382.86	4637.88
383.085	4623.88
383.31	4741.88
383.535	4888.88
383.761	4911.88
383.986	4930.88
384.211	5087.88
384.436	5120.88
384.662	5179.88
384.887	5271.88
385.112	5219.88
385.337	5289.88
385.562	5239.88
385.787	5351.88
386.013	5402.88
386.238	5339.88
386.463	5417.88
386.688	5317.88
386.913	5253.88
387.138	5285.88
387.363	5228.88
387.588	5168.88
387.813	5250.88
388.038	5179.88
388.263	5294.88
388.488	5321.88
388.713	5217.88
388.938	5250.88
389.163	5151.88
389.387	5155.88
389.612	5136.88
389.837	5129.88
390.062	5096.88
390.287	5141.88
390.512	5065.88
390.736	5198.88
390.961	5285.88
391.186	5307.88
391.411	5537.88
391.636	5643.88
391.86	5778.88
392.085	5920.88
392.31	5721.88
392.534	5596.88
392.759	5558.88
392.984	5470.88
393.208	5440.88
393.433	5494.88
393.658	5443.88
393.882	5399.88
394.107	5473.88
394.331	5479.88
394.556	5436.88
394.78	5518.88
395.005	5599.88
395.229	5526.88
395.454	5765.88
395.678	5924.88
395.903	5863.88
396.127	5881.88
396.352	5697.88
396.576	5552.88
396.801	5575.88
397.025	5694.88
397.249	5739.88
397.474	5893.88
397.698	5900.88
397.922	6026.88
398.147	6115.88
398.371	6162.88
398.595	6335.88
398.82	6731.88
399.044	7178.88
399.268	7865.88
399.492	8985.88
399.717	9536.88
399.941	9251.88
400.165	8667.88
400.389	8070.88
400.613	7366.88
400.837	6853.88
401.062	6739.88
401.286	6600.88
401.51	6630.88
401.734	6496.88
401.958	6832.88
402.182	6781.88
402.406	6962.88
402.63	6979.88
402.854	7120.88
403.078	7132.88
403.302	7247.88
403.526	7438.88
403.75	7372.88
403.974	7609.88
404.198	7567.88
404.422	7805.88
404.645	7923.88
404.869	8087.88
405.093	8605.88
405.317	9245.88
405.541	9027.88
405.765	8139.88
405.988	7720.88
406.212	7770.88
406.436	7899.88
406.66	7963.88
406.883	7834.88
407.107	8453.88
407.331	8931.88
407.555	9409.88
407.778	9057.88
408.002	8302.88
408.226	7927.88
408.449	7829.88
408.673	7756.88
408.896	7841.88
409.12	7991.88
409.344	7487.88
409.567	7210.88
409.791	7243.88
410.014	7148.88
410.238	7090.88
410.461	7070.88
410.685	7083.88
410.908	7211.88
411.132	7471.88
411.355	7531.88
411.578	7112.88
411.802	6947.88
412.025	7244.88
412.249	7752.88
412.472	8358.88
412.695	8930.88
412.919	8211.88
413.142	7627.88
413.365	7295.88
413.589	7025.88
413.812	6635.88
414.035	6622.88
414.258	6752.88
414.482	6682.88
414.705	6666.88
414.928	6594.88
415.151	6574.88
415.374	6497.88
415.597	6486.88
415.821	6418.88
416.044	6469.88
416.267	6388.88
416.49	6369.88
416.713	6308.88
416.936	6466.88
417.159	6495.88
417.382	6678.88
417.605	6725.88
417.828	6946.88
418.051	6819.88
418.274	6660.88
418.497	6542.88
418.72	6666.88
418.943	6687.88
419.166	6975.88
419.389	7536.88
419.611	7469.88
419.834	7361.88
420.057	7649.88
420.28	7920.88
420.503	7651.88
420.726	7377.88
420.948	7264.88
421.171	7465.88
421.394	7259.88
421.617	6746.88
421.839	6635.88
422.062	6713.88
422.285	6873.88
422.507	7489.88
422.73	8076.88
422.953	7413.88
423.175	7036.88
423.398	7074.88
423.621	7078.88
423.843	7299.88
424.066	7230.88
424.288	7138.88
424.511	7315.88
424.733	7831.88
424.956	8197.88
425.178	7694.88
425.401	7858.88
425.623	7727.88
425.846	6734.88
426.068	6770.88
426.291	6654.88
426.513	6631.88
426.735	6699.88
426.958	7205.88
427.18	8043.88
427.402	9387.88
427.625	9834.88
427.847	9013.88
428.069	8639.88
428.292	7307.88
428.514	6390.88
428.736	6159.88
428.958	6150.88
429.181	5919.88
429.403	5895.88
429.625	6059.88
429.847	6343.88
430.069	6933.88
430.292	6432.88
430.514	5906.88
430.736	5802.88
430.958	5744.88
431.18	5668.88
431.402	5670.88
431.624	5678.88
431.846	5779.88
432.068	5775.88
432.29	5888.88
432.512	5782.88
432.734	5870.88
432.956	5779.88
433.178	5836.88
433.4	5889.88
433.622	5771.88
433.844	5861.88
434.066	5836.88
434.287	5851.88
434.509	6193.88
434.731	6378.88
434.953	6475.88
435.175	6633.88
435.397	6628.88
435.618	6654.88
435.84	7041.88
436.062	7946.88
436.284	7728.88
436.505	6519.88
436.727	6180.88
436.949	5912.88
437.17	5889.88
437.392	5828.88
437.614	5983.88
437.835	6448.88
438.057	7369.88
438.278	7959.88
438.5	7895.88
438.721	8699.88
438.943	7517.88
439.165	6324.88
439.386	6191.88
439.608	6217.88
439.829	6454.88
440.05	6873.88
440.272	7246.88
440.493	6475.88
440.715	6146.88
440.936	6099.88
441.158	6096.88
441.379	6259.88
441.6	6652.88
441.822	6788.88
442.043	7343.88
442.264	7997.88
442.486	7705.88
442.707	6856.88
442.928	6721.88
443.149	6940.88
443.371	7301.88
443.592	7652.88
443.813	8679.88
444.034	8580.88
444.255	7332.88
444.476	7289.88
444.698	7548.88
444.919	7535.88
445.14	7447.88
445.361	7329.88
445.582	7503.88
445.803	8186.88
446.024	8791.88
446.245	8389.88
446.466	7453.88
446.687	6427.88
446.908	6183.88
447.129	5816.88
447.35	5745.88
447.571	5698.88
447.792	5505.88
448.013	5591.88
448.234	5873.88
448.455	6464.88
448.675	7758.88
448.896	8135.88
449.117	6618.88
449.338	6887.88
449.559	8322.88
449.779	8413.88
450	6312.88
450.221	5718.88
450.442	5550.88
450.662	5544.88
450.883	5642.88
451.104	5792.88
451.324	5523.88
451.545	5382.88
451.766	5233.88
451.986	5125.88
452.207	5023.88
452.428	5090.88
452.648	5156.88
452.869	5148.88
453.089	5223.88
453.31	5359.88
453.53	5094.88
453.751	5080.88
453.971	5121.88
454.192	5261.88
454.412	5007.88
454.633	4942.88
454.853	4863.88
455.073	5003.88
455.294	5372.88
455.514	5872.88
455.734	5364.88
455.955	4855.88
456.175	4778.88
456.395	4661.88
456.616	4625.88
456.836	4680.88
457.056	4713.88
457.276	4636.88
457.497	4795.88
457.717	4831.88
457.937	4875.88
458.157	4984.88
458.377	5113.88
458.598	5413.88
458.818	6303.88
459.038	7035.88
459.258	6735.88
459.478	6019.88
459.698	5833.88
459.918	6012.88
460.138	6140.88
460.358	6331.88
460.578	6354.88
460.798	6468.88
461.018	6430.88
461.238	6262.88
461.458	6285.88
461.678	6252.88
461.898	6360.88
462.118	6408.88
462.338	6772.88
462.558	6919.88
462.777	7235.88
462.997	7733.88
463.217	8054.88
463.437	7969.88
463.657	7398.88
463.876	7111.88
464.096	7244.88
464.316	7241.88
464.536	7309.88
464.755	7126.88
464.975	6986.88
465.195	7365.88
465.414	7490.88
465.634	6353.88
465.854	6043.88
466.073	5744.88
466.293	5637.88
466.512	5515.88
466.732	5282.88
466.951	5311.88
467.171	5372.88
467.391	5533.88
467.61	5654.88
467.829	5857.88
468.049	6776.88
468.268	7803.88
468.488	6291.88
468.707	5678.88
468.927	5510.88
469.146	5353.88
469.365	5385.88
469.585	5337.88
469.804	5579.88
470.023	5681.88
470.243	5693.88
470.462	5776.88
470.681	5998.88
470.901	5775.88
471.12	5619.88
471.339	5635.88
471.558	5713.88
471.777	5765.88
471.997	6286.88
472.216	8778.88
472.435	13040.88
472.654	9331.88
472.873	6996.88
473.092	6163.88
473.311	5894.88
473.53	5738.88
473.749	5705.88
473.968	6112.88
474.187	7122.88
474.406	6485.88
474.625	5635.88
474.844	5288.88
475.063	5333.88
475.282	5257.88
475.501	5399.88
475.72	5342.88
475.939	5289.88
476.158	5471.88
476.377	5480.88
476.596	5489.88
476.814	5636.88
477.033	5626.88
477.252	5753.88
477.471	5833.88
477.69	5886.88
477.908	6023.88
478.127	6126.88
478.346	6159.88
478.564	6228.88
478.783	6477.88
479.002	6574.88
479.22	6617.88
479.439	6911.88
479.658	6987.88
479.876	7076.88
480.095	7210.88
480.313	7835.88
480.532	7881.88
480.751	8321.88
480.969	10805.88
481.188	15609.88
481.406	15609.88
481.624	11231.88
481.843	8885.88
482.061	7960.88
482.28	7390.88
482.498	6980.88
482.717	6833.88
482.935	6711.88
483.153	6635.88
483.372	6538.88
483.59	6423.88
483.808	6389.88
484.027	6427.88
484.245	6467.88
484.463	6472.88
484.681	6460.88
484.9	6469.88
485.118	6593.88
485.336	6639.88
485.554	6601.88
485.772	6664.88
485.99	6718.88
486.209	6741.88
486.427	6702.88
486.645	6864.88
486.863	7016.88
487.081	6923.88
487.299	6768.88
487.517	6888.88
487.735	6782.88
