Data from Circ_2001_H10_HRD10591_00074.txt Node
Date: Wed Jan 03 10:45:53 EST 2024
User: Yrep
Spectrometer: HR+D1059
Trigger mode: 1
Integration Time (sec): 1.000000E-1
Scans to average: 1
Electric dark correction enabled: true
Nonlinearity correction enabled: false
Boxcar width: 0
XAxis mode: Wavelengths
Number of Pixels in Spectrum: 2048
>>>>>Begin Spectral Data<<<<<
223.165	-23.69
223.4	-23.69
223.635	-23.69
223.869	-11.69
224.104	-11.69
224.338	-26.69
224.573	-13.69
224.808	-15.69
225.042	-9.69
225.277	3.31
225.511	4.31
225.746	11.31
225.98	17.31
226.215	9.31
226.449	14.31
226.683	-2.69
226.918	28.31
227.152	27.31
227.387	37.31
227.621	39.31
227.856	49.31
228.09	38.31
228.324	61.31
228.559	51.31
228.793	65.31
229.027	63.31
229.262	71.31
229.496	69.31
229.73	81.31
229.964	94.31
230.199	80.31
230.433	70.31
230.667	77.31
230.901	92.31
231.136	76.31
231.37	72.31
231.604	72.31
231.838	78.31
232.072	91.31
232.306	87.31
232.541	90.31
232.775	88.31
233.009	85.31
233.243	78.31
233.477	69.31
233.711	74.31
233.945	82.31
234.179	69.31
234.413	81.31
234.647	93.31
234.881	80.31
235.115	67.31
235.349	82.31
235.583	69.31
235.817	84.31
236.051	82.31
236.285	81.31
236.519	92.31
236.753	76.31
236.987	74.31
237.221	89.31
237.455	68.31
237.689	76.31
237.922	76.31
238.156	77.31
238.39	80.31
238.624	80.31
238.858	74.31
239.091	70.31
239.325	87.31
239.559	81.31
239.793	87.31
240.027	92.31
240.26	68.31
240.494	89.31
240.728	79.31
240.961	73.31
241.195	58.31
241.429	76.31
241.662	64.31
241.896	83.31
242.13	73.31
242.363	90.31
242.597	80.31
242.83	76.31
243.064	98.31
243.298	77.31
243.531	73.31
243.765	71.31
243.998	66.31
244.232	89.31
244.465	89.31
244.699	72.31
244.932	81.31
245.166	83.31
245.399	79.31
245.633	54.31
245.866	83.31
246.099	74.31
246.333	86.31
246.566	90.31
246.8	80.31
247.033	89.31
247.266	70.31
247.5	74.31
247.733	70.31
247.966	75.31
248.2	79.31
248.433	96.31
248.666	82.31
248.899	88.31
249.133	81.31
249.366	102.31
249.599	86.31
249.832	69.31
250.066	89.31
250.299	93.31
250.532	77.31
250.765	75.31
250.998	80.31
251.231	75.31
251.465	86.31
251.698	85.31
251.931	90.31
252.164	79.31
252.397	93.31
252.63	93.31
252.863	73.31
253.096	84.31
253.329	74.31
253.562	77.31
253.795	71.31
254.028	90.31
254.261	74.31
254.494	82.31
254.727	82.31
254.96	89.31
255.193	77.31
255.426	89.31
255.659	75.31
255.892	92.31
256.124	86.31
256.357	93.31
256.59	90.31
256.823	90.31
257.056	77.31
257.289	92.31
257.521	86.31
257.754	82.31
257.987	100.31
258.22	82.31
258.452	89.31
258.685	97.31
258.918	83.31
259.151	76.31
259.383	92.31
259.616	82.31
259.849	96.31
260.081	74.31
260.314	75.31
260.547	83.31
260.779	85.31
261.012	93.31
261.244	93.31
261.477	82.31
261.71	91.31
261.942	117.31
262.175	118.31
262.407	80.31
262.64	80.31
262.872	81.31
263.105	98.31
263.337	91.31
263.57	86.31
263.802	74.31
264.035	92.31
264.267	85.31
264.499	80.31
264.732	81.31
264.964	82.31
265.197	86.31
265.429	83.31
265.661	84.31
265.894	77.31
266.126	90.31
266.358	74.31
266.591	80.31
266.823	94.31
267.055	76.31
267.287	73.31
267.52	75.31
267.752	99.31
267.984	85.31
268.216	83.31
268.448	93.31
268.681	85.31
268.913	79.31
269.145	93.31
269.377	93.31
269.609	79.31
269.841	72.31
270.073	79.31
270.306	74.31
270.538	94.31
270.77	85.31
271.002	83.31
271.234	74.31
271.466	93.31
271.698	105.31
271.93	87.31
272.162	96.31
272.394	90.31
272.626	94.31
272.858	88.31
273.09	98.31
273.322	82.31
273.553	89.31
273.785	87.31
274.017	79.31
274.249	78.31
274.481	87.31
274.713	92.31
274.945	95.31
275.176	91.31
275.408	89.31
275.64	99.31
275.872	96.31
276.104	103.31
276.335	93.31
276.567	94.31
276.799	129.31
277.031	133.31
277.262	132.31
277.494	125.31
277.726	95.31
277.957	84.31
278.189	92.31
278.421	84.31
278.652	92.31
278.884	94.31
279.115	96.31
279.347	82.31
279.579	95.31
279.81	107.31
280.042	142.31
280.273	191.31
280.505	131.31
280.736	86.31
280.968	100.31
281.199	93.31
281.431	76.31
281.662	101.31
281.894	84.31
282.125	96.31
282.356	118.31
282.588	144.31
282.819	112.31
283.051	97.31
283.282	98.31
283.513	81.31
283.745	105.31
283.976	90.31
284.207	92.31
284.439	81.31
284.67	88.31
284.901	93.31
285.132	77.31
285.364	81.31
285.595	92.31
285.826	86.31
286.057	85.31
286.288	89.31
286.52	73.31
286.751	89.31
286.982	85.31
287.213	83.31
287.444	95.31
287.675	105.31
287.906	100.31
288.138	86.31
288.369	101.31
288.6	101.31
288.831	87.31
289.062	93.31
289.293	85.31
289.524	91.31
289.755	96.31
289.986	76.31
290.217	89.31
290.448	92.31
290.679	100.31
290.91	75.31
291.141	82.31
291.371	83.31
291.602	100.31
291.833	66.31
292.064	91.31
292.295	85.31
292.526	97.31
292.757	105.31
292.987	96.31
293.218	96.31
293.449	91.31
293.68	73.31
293.91	103.31
294.141	94.31
294.372	87.31
294.603	89.31
294.833	93.31
295.064	96.31
295.295	96.31
295.525	97.31
295.756	97.31
295.987	109.31
296.217	145.31
296.448	131.31
296.679	104.31
296.909	95.31
297.14	86.31
297.37	99.31
297.601	95.31
297.831	103.31
298.062	88.31
298.292	107.31
298.523	99.31
298.753	83.31
298.984	71.31
299.214	84.31
299.445	92.31
299.675	99.31
299.905	97.31
300.136	74.31
300.366	90.31
300.597	91.31
300.827	94.31
301.057	102.31
301.288	99.31
301.518	97.31
301.748	94.31
301.979	106.31
302.209	97.31
302.439	90.31
302.669	81.31
302.9	89.31
303.13	81.31
303.36	101.31
303.59	118.31
303.82	117.31
304.051	103.31
304.281	83.31
304.511	92.31
304.741	94.31
304.971	93.31
305.201	78.31
305.431	91.31
305.661	86.31
305.891	83.31
306.121	104.31
306.352	104.31
306.582	104.31
306.812	90.31
307.042	128.31
307.272	146.31
307.502	158.31
307.731	137.31
307.961	94.31
308.191	73.31
308.421	81.31
308.651	101.31
308.881	92.31
309.111	96.31
309.341	92.31
309.571	93.31
309.8	92.31
310.03	89.31
310.26	94.31
310.49	94.31
310.72	99.31
310.949	111.31
311.179	113.31
311.409	105.31
311.639	111.31
311.868	98.31
312.098	90.31
312.328	97.31
312.557	106.31
312.787	113.31
313.017	94.31
313.246	92.31
313.476	102.31
313.706	91.31
313.935	100.31
314.165	107.31
314.394	113.31
314.624	103.31
314.853	99.31
315.083	106.31
315.312	103.31
315.542	83.31
315.771	80.31
316.001	92.31
316.23	88.31
316.46	85.31
316.689	78.31
316.919	82.31
317.148	105.31
317.377	110.31
317.607	106.31
317.836	91.31
318.065	89.31
318.295	89.31
318.524	104.31
318.753	94.31
318.983	89.31
319.212	118.31
319.441	94.31
319.67	117.31
319.9	89.31
320.129	92.31
320.358	77.31
320.587	91.31
320.816	86.31
321.046	116.31
321.275	118.31
321.504	93.31
321.733	88.31
321.962	87.31
322.191	88.31
322.42	114.31
322.649	107.31
322.878	115.31
323.108	123.31
323.337	125.31
323.566	135.31
323.795	155.31
324.024	227.31
324.253	401.31
324.482	827.31
324.71	1689.31
324.939	2178.31
325.168	803.31
325.397	251.31
325.626	146.31
325.855	138.31
326.084	112.31
326.313	121.31
326.542	148.31
326.77	223.31
326.999	433.31
327.228	910.31
327.457	1615.31
327.686	1280.31
327.914	431.31
328.143	366.31
328.372	446.31
328.6	251.31
328.829	154.31
329.058	155.31
329.287	158.31
329.515	153.31
329.744	191.31
329.972	321.31
330.201	630.31
330.43	883.31
330.658	396.31
330.887	186.31
331.115	148.31
331.344	122.31
331.572	108.31
331.801	97.31
332.03	116.31
332.258	117.31
332.486	101.31
332.715	99.31
332.943	98.31
333.172	110.31
333.4	120.31
333.629	146.31
333.857	187.31
334.085	302.31
334.314	581.31
334.542	1090.31
334.771	1002.31
334.999	293.31
335.227	149.31
335.455	126.31
335.684	89.31
335.912	105.31
336.14	96.31
336.369	95.31
336.597	101.31
336.825	110.31
337.053	89.31
337.281	93.31
337.51	99.31
337.738	108.31
337.966	88.31
338.194	91.31
338.422	102.31
338.65	103.31
338.878	94.31
339.106	88.31
339.334	100.31
339.562	91.31
339.79	94.31
340.018	87.31
340.246	89.31
340.474	103.31
340.702	96.31
340.93	105.31
341.158	94.31
341.386	90.31
341.614	92.31
341.842	96.31
342.07	93.31
342.298	86.31
342.526	99.31
342.754	91.31
342.981	83.31
343.209	88.31
343.437	101.31
343.665	91.31
343.893	87.31
344.12	88.31
344.348	90.31
344.576	90.31
344.804	90.31
345.031	108.31
345.259	97.31
345.487	92.31
345.714	98.31
345.942	77.31
346.17	93.31
346.397	94.31
346.625	87.31
346.853	94.31
347.08	93.31
347.308	113.31
347.535	101.31
347.763	86.31
347.99	98.31
348.218	104.31
348.445	107.31
348.673	104.31
348.9	95.31
349.128	107.31
349.355	95.31
349.583	88.31
349.81	92.31
350.037	100.31
350.265	84.31
350.492	77.31
350.72	101.31
350.947	119.31
351.174	121.31
351.402	115.31
351.629	110.31
351.856	108.31
352.083	94.31
352.311	104.31
352.538	100.31
352.765	109.31
352.992	125.31
353.22	115.31
353.447	100.31
353.674	107.31
353.901	86.31
354.128	92.31
354.355	82.31
354.583	96.31
354.81	89.31
355.037	95.31
355.264	90.31
355.491	80.31
355.718	97.31
355.945	90.31
356.172	97.31
356.399	104.31
356.626	107.31
356.853	104.31
357.08	92.31
357.307	93.31
357.534	93.31
357.761	90.31
357.988	84.31
358.215	86.31
358.441	95.31
358.668	108.31
358.895	96.31
359.122	93.31
359.349	84.31
359.576	69.31
359.802	114.31
360.029	113.31
360.256	120.31
360.483	103.31
360.709	104.31
360.936	92.31
361.163	85.31
361.39	89.31
361.616	110.31
361.843	92.31
362.07	106.31
362.296	91.31
362.523	94.31
362.749	78.31
362.976	102.31
363.203	105.31
363.429	73.31
363.656	80.31
363.882	102.31
364.109	83.31
364.335	91.31
364.562	97.31
364.788	101.31
365.015	101.31
365.241	105.31
365.468	108.31
365.694	104.31
365.92	98.31
366.147	84.31
366.373	84.31
366.599	97.31
366.826	92.31
367.052	90.31
367.278	94.31
367.505	98.31
367.731	93.31
367.957	107.31
368.184	105.31
368.41	101.31
368.636	108.31
368.862	121.31
369.089	110.31
369.315	100.31
369.541	93.31
369.767	88.31
369.993	85.31
370.219	83.31
370.445	86.31
370.672	83.31
370.898	100.31
371.124	78.31
371.35	85.31
371.576	96.31
371.802	90.31
372.028	83.31
372.254	96.31
372.48	99.31
372.706	87.31
372.932	93.31
373.158	94.31
373.384	96.31
373.61	90.31
373.835	67.31
374.061	84.31
374.287	92.31
374.513	95.31
374.739	88.31
374.965	92.31
375.191	94.31
375.416	77.31
375.642	99.31
375.868	91.31
376.094	97.31
376.319	98.31
376.545	102.31
376.771	89.31
376.997	79.31
377.222	84.31
377.448	87.31
377.674	92.31
377.899	86.31
378.125	82.31
378.35	83.31
378.576	84.31
378.802	90.31
379.027	92.31
379.253	93.31
379.478	98.31
379.704	108.31
379.929	96.31
380.155	97.31
380.38	99.31
380.606	97.31
380.831	88.31
381.057	91.31
381.282	90.31
381.507	97.31
381.733	88.31
381.958	94.31
382.184	84.31
382.409	100.31
382.634	106.31
382.86	90.31
383.085	90.31
383.31	111.31
383.535	84.31
383.761	105.31
383.986	106.31
384.211	86.31
384.436	101.31
384.662	98.31
384.887	94.31
385.112	98.31
385.337	107.31
385.562	107.31
385.787	107.31
386.013	121.31
386.238	133.31
386.463	116.31
386.688	116.31
386.913	99.31
387.138	98.31
387.363	102.31
387.588	90.31
387.813	119.31
388.038	97.31
388.263	111.31
388.488	103.31
388.713	99.31
388.938	94.31
389.163	108.31
389.387	89.31
389.612	88.31
389.837	75.31
390.062	93.31
390.287	87.31
390.512	82.31
390.736	95.31
390.961	85.31
391.186	81.31
391.411	94.31
391.636	91.31
391.86	87.31
392.085	101.31
392.31	83.31
392.534	76.31
392.759	85.31
392.984	84.31
393.208	89.31
393.433	89.31
393.658	100.31
393.882	82.31
394.107	81.31
394.331	92.31
394.556	86.31
394.78	84.31
395.005	83.31
395.229	84.31
395.454	81.31
395.678	89.31
395.903	87.31
396.127	85.31
396.352	93.31
396.576	76.31
396.801	89.31
397.025	91.31
397.249	77.31
397.474	93.31
397.698	84.31
397.922	84.31
398.147	86.31
398.371	85.31
398.595	82.31
398.82	81.31
399.044	101.31
399.268	80.31
399.492	86.31
399.717	84.31
399.941	82.31
400.165	93.31
400.389	88.31
400.613	83.31
400.837	81.31
401.062	87.31
401.286	100.31
401.51	98.31
401.734	90.31
401.958	102.31
402.182	132.31
402.406	177.31
402.63	124.31
402.854	92.31
403.078	82.31
403.302	89.31
403.526	80.31
403.75	108.31
403.974	92.31
404.198	80.31
404.422	101.31
404.645	97.31
404.869	84.31
405.093	96.31
405.317	115.31
405.541	120.31
405.765	89.31
405.988	136.31
406.212	182.31
406.436	236.31
406.66	162.31
406.883	98.31
407.107	97.31
407.331	106.31
407.555	114.31
407.778	102.31
408.002	100.31
408.226	88.31
408.449	90.31
408.673	98.31
408.896	94.31
409.12	99.31
409.344	87.31
409.567	94.31
409.791	92.31
410.014	91.31
410.238	78.31
410.461	99.31
410.685	89.31
410.908	112.31
411.132	99.31
411.355	110.31
411.578	92.31
411.802	85.31
412.025	98.31
412.249	104.31
412.472	100.31
412.695	104.31
412.919	93.31
413.142	84.31
413.365	80.31
413.589	96.31
413.812	82.31
414.035	100.31
414.258	84.31
414.482	84.31
414.705	94.31
414.928	93.31
415.151	86.31
415.374	115.31
415.597	77.31
415.821	92.31
416.044	98.31
416.267	86.31
416.49	89.31
416.713	94.31
416.936	86.31
417.159	88.31
417.382	100.31
417.605	99.31
417.828	99.31
418.051	100.31
418.274	80.31
418.497	86.31
418.72	91.31
418.943	84.31
419.166	75.31
419.389	105.31
419.611	107.31
419.834	85.31
420.057	88.31
420.28	80.31
420.503	95.31
420.726	83.31
420.948	92.31
421.171	108.31
421.394	93.31
421.617	88.31
421.839	86.31
422.062	86.31
422.285	93.31
422.507	95.31
422.73	106.31
422.953	79.31
423.175	88.31
423.398	97.31
423.621	88.31
423.843	94.31
424.066	92.31
424.288	93.31
424.511	81.31
424.733	89.31
424.956	96.31
425.178	97.31
425.401	97.31
425.623	97.31
425.846	90.31
426.068	100.31
426.291	93.31
426.513	80.31
426.735	89.31
426.958	113.31
427.18	106.31
427.402	154.31
427.625	180.31
427.847	183.31
428.069	161.31
428.292	97.31
428.514	89.31
428.736	90.31
428.958	76.31
429.181	71.31
429.403	92.31
429.625	86.31
429.847	84.31
430.069	106.31
430.292	107.31
430.514	88.31
430.736	87.31
430.958	84.31
431.18	101.31
431.402	78.31
431.624	94.31
431.846	89.31
432.068	72.31
432.29	84.31
432.512	82.31
432.734	87.31
432.956	91.31
433.178	96.31
433.4	98.31
433.622	75.31
433.844	90.31
434.066	86.31
434.287	77.31
434.509	88.31
434.731	82.31
434.953	93.31
435.175	96.31
435.397	93.31
435.618	99.31
435.84	93.31
436.062	121.31
436.284	116.31
436.505	98.31
436.727	94.31
436.949	87.31
437.17	102.31
437.392	77.31
437.614	99.31
437.835	114.31
438.057	118.31
438.278	122.31
438.5	104.31
438.721	111.31
438.943	108.31
439.165	97.31
439.386	93.31
439.608	99.31
439.829	110.31
440.05	117.31
440.272	138.31
440.493	98.31
440.715	90.31
440.936	87.31
441.158	90.31
441.379	95.31
441.6	101.31
441.822	99.31
442.043	90.31
442.264	108.31
442.486	103.31
442.707	97.31
442.928	109.31
443.149	146.31
443.371	148.31
443.592	117.31
443.813	103.31
444.034	108.31
444.255	93.31
444.476	100.31
444.698	85.31
444.919	95.31
445.14	132.31
445.361	121.31
445.582	116.31
445.803	148.31
446.024	126.31
446.245	139.31
446.466	116.31
446.687	85.31
446.908	84.31
447.129	82.31
447.35	106.31
447.571	92.31
447.792	96.31
448.013	101.31
448.234	105.31
448.455	96.31
448.675	123.31
448.896	117.31
449.117	101.31
449.338	105.31
449.559	118.31
449.779	147.31
450	93.31
450.221	95.31
450.442	91.31
450.662	97.31
450.883	116.31
451.104	121.31
451.324	103.31
451.545	89.31
451.766	90.31
451.986	71.31
452.207	79.31
452.428	98.31
452.648	89.31
452.869	131.31
453.089	119.31
453.31	122.31
453.53	84.31
453.751	107.31
453.971	107.31
454.192	123.31
454.412	100.31
454.633	94.31
454.853	97.31
455.073	68.31
455.294	100.31
455.514	94.31
455.734	86.31
455.955	84.31
456.175	74.31
456.395	98.31
456.616	89.31
456.836	77.31
457.056	93.31
457.276	94.31
457.497	74.31
457.717	89.31
457.937	80.31
458.157	82.31
458.377	86.31
458.598	115.31
458.818	164.31
459.038	184.31
459.258	116.31
459.478	102.31
459.698	96.31
459.918	77.31
460.138	84.31
460.358	97.31
460.578	81.31
460.798	82.31
461.018	84.31
461.238	77.31
461.458	82.31
461.678	93.31
461.898	91.31
462.118	102.31
462.338	97.31
462.558	83.31
462.777	90.31
462.997	86.31
463.217	94.31
463.437	83.31
463.657	93.31
463.876	85.31
464.096	105.31
464.316	98.31
464.536	83.31
464.755	98.31
464.975	134.31
465.195	197.31
465.414	188.31
465.634	96.31
465.854	94.31
466.073	79.31
466.293	91.31
466.512	83.31
466.732	90.31
466.951	93.31
467.171	99.31
467.391	104.31
467.61	140.31
467.829	168.31
468.049	395.31
468.268	552.31
468.488	144.31
468.707	109.31
468.927	86.31
469.146	98.31
469.365	91.31
469.585	107.31
469.804	96.31
470.023	104.31
470.243	104.31
470.462	102.31
470.681	113.31
470.901	107.31
471.12	95.31
471.339	93.31
471.558	115.31
471.777	115.31
471.997	229.31
472.216	775.31
472.435	1575.31
472.654	402.31
472.873	135.31
473.092	97.31
473.311	94.31
473.53	99.31
473.749	89.31
473.968	103.31
474.187	123.31
474.406	105.31
474.625	88.31
474.844	86.31
475.063	82.31
475.282	91.31
475.501	103.31
475.72	93.31
475.939	83.31
476.158	103.31
476.377	94.31
476.596	96.31
476.814	97.31
477.033	97.31
477.252	96.31
477.471	86.31
477.69	92.31
477.908	89.31
478.127	87.31
478.346	93.31
478.564	103.31
478.783	106.31
479.002	105.31
479.22	91.31
479.439	117.31
479.658	130.31
479.876	101.31
480.095	109.31
480.313	132.31
480.532	146.31
480.751	213.31
480.969	683.31
481.188	2794.31
481.406	1537.31
481.624	257.31
481.843	125.31
482.061	108.31
482.28	98.31
482.498	94.31
482.717	95.31
482.935	97.31
483.153	86.31
483.372	98.31
483.59	86.31
483.808	78.31
484.027	97.31
484.245	84.31
484.463	97.31
484.681	92.31
484.9	103.31
485.118	97.31
485.336	107.31
485.554	96.31
485.772	104.31
485.99	94.31
486.209	96.31
486.427	116.31
486.645	116.31
486.863	111.31
487.081	92.31
487.299	92.31
487.517	86.31
487.735	83.31
487.953	110.31
488.171	111.31
488.389	96.31
488.607	100.31
488.825	87.31
489.043	83.31
489.261	100.31
489.479	92.31
489.696	99.31
489.914	99.31
490.132	107.31
490.35	88.31
490.568	85.31
490.786	85.31
491.003	94.31
491.221	90.31
491.439	101.31
491.657	92.31
491.874	97.31
492.092	87.31
492.31	97.31
492.527	94.31
492.745	96.31
492.963	105.31
493.18	99.31
493.398	86.31
493.615	96.31
493.833	91.31
494.05	93.31
494.268	93.31
494.485	100.31
494.703	86.31
494.92	91.31
495.138	91.31
495.355	100.31
495.573	90.31
495.79	104.31
496.008	96.31
496.225	104.31
496.442	88.31
496.66	91.31
496.877	87.31
497.094	91.31
497.312	96.31
497.529	92.31
497.746	94.31
497.963	96.31
498.181	82.31
498.398	98.31
498.615	120.31
498.832	102.31
499.049	93.31
499.267	89.31
499.484	87.31
499.701	81.31
499.918	90.31
500.135	86.31
500.352	95.31
500.569	105.31
500.786	90.31
501.003	77.31
501.22	86.31
501.437	84.31
501.654	98.31
501.871	113.31
502.088	97.31
502.305	81.31
502.522	98.31
502.739	100.31
502.956	91.31
503.172	94.31
503.389	114.31
503.606	111.31
503.823	97.31
504.04	87.31
504.256	83.31
504.473	76.31
504.69	91.31
504.907	92.31
505.123	86.31
505.34	83.31
505.557	104.31
505.773	97.31
505.99	97.31
506.207	105.31
506.423	90.31
506.64	108.31
506.856	93.31
507.073	98.31
507.289	85.31
507.506	90.31
507.722	126.31
507.939	100.31
508.155	98.31
508.372	82.31
508.588	99.31
508.805	104.31
509.021	91.31
509.238	115.31
509.454	101.31
509.67	102.31
509.887	105.31
510.103	119.31
510.319	209.31
510.536	767.31
510.752	2460.31
510.968	683.31
511.184	171.31
511.401	107.31
511.617	90.31
511.833	107.31
512.049	106.31
512.265	83.31
512.481	100.31
512.698	99.31
512.914	94.31
513.13	102.31
513.346	94.31
513.562	91.31
513.778	99.31
513.994	108.31
514.21	97.31
514.426	134.31
