Data from Circ_2001_H10_HRD10591_00056.txt Node
Date: Wed Jan 03 10:45:50 EST 2024
User: Yrep
Spectrometer: HR+D1059
Trigger mode: 1
Integration Time (sec): 1.000000E-1
Scans to average: 1
Electric dark correction enabled: true
Nonlinearity correction enabled: false
Boxcar width: 0
XAxis mode: Wavelengths
Number of Pixels in Spectrum: 2048
>>>>>Begin Spectral Data<<<<<
223.165	-32.56
223.4	-32.56
223.635	-32.56
223.869	-25.56
224.104	-22.56
224.338	-27.56
224.573	-7.56
224.808	-11.56
225.042	-11.56
225.277	-5.56
225.511	4.44
225.746	12.44
225.98	14.44
226.215	16.44
226.449	10.44
226.683	31.44
226.918	27.44
227.152	27.44
227.387	36.44
227.621	31.44
227.856	40.44
228.09	46.44
228.324	55.44
228.559	55.44
228.793	53.44
229.027	70.44
229.262	60.44
229.496	76.44
229.73	100.44
229.964	82.44
230.199	74.44
230.433	89.44
230.667	80.44
230.901	82.44
231.136	88.44
231.37	74.44
231.604	69.44
231.838	81.44
232.072	75.44
232.306	87.44
232.541	91.44
232.775	75.44
233.009	83.44
233.243	75.44
233.477	69.44
233.711	83.44
233.945	91.44
234.179	73.44
234.413	68.44
234.647	82.44
234.881	92.44
235.115	80.44
235.349	83.44
235.583	69.44
235.817	69.44
236.051	85.44
236.285	83.44
236.519	82.44
236.753	84.44
236.987	86.44
237.221	77.44
237.455	87.44
237.689	79.44
237.922	66.44
238.156	75.44
238.39	77.44
238.624	86.44
238.858	78.44
239.091	88.44
239.325	92.44
239.559	91.44
239.793	74.44
240.027	85.44
240.26	75.44
240.494	73.44
240.728	78.44
240.961	84.44
241.195	87.44
241.429	79.44
241.662	75.44
241.896	81.44
242.13	84.44
242.363	88.44
242.597	75.44
242.83	76.44
243.064	75.44
243.298	86.44
243.531	74.44
243.765	73.44
243.998	78.44
244.232	81.44
244.465	80.44
244.699	80.44
244.932	82.44
245.166	76.44
245.399	88.44
245.633	85.44
245.866	86.44
246.099	83.44
246.333	84.44
246.566	74.44
246.8	74.44
247.033	85.44
247.266	80.44
247.5	86.44
247.733	88.44
247.966	77.44
248.2	63.44
248.433	81.44
248.666	77.44
248.899	75.44
249.133	85.44
249.366	100.44
249.599	95.44
249.832	79.44
250.066	87.44
250.299	71.44
250.532	88.44
250.765	85.44
250.998	88.44
251.231	80.44
251.465	83.44
251.698	83.44
251.931	85.44
252.164	73.44
252.397	77.44
252.63	82.44
252.863	86.44
253.096	79.44
253.329	82.44
253.562	86.44
253.795	86.44
254.028	85.44
254.261	85.44
254.494	74.44
254.727	88.44
254.96	78.44
255.193	88.44
255.426	89.44
255.659	80.44
255.892	81.44
256.124	85.44
256.357	93.44
256.59	97.44
256.823	94.44
257.056	77.44
257.289	93.44
257.521	85.44
257.754	77.44
257.987	82.44
258.22	88.44
258.452	96.44
258.685	82.44
258.918	88.44
259.151	89.44
259.383	89.44
259.616	85.44
259.849	76.44
260.081	85.44
260.314	82.44
260.547	94.44
260.779	98.44
261.012	108.44
261.244	108.44
261.477	88.44
261.71	107.44
261.942	98.44
262.175	132.44
262.407	97.44
262.64	89.44
262.872	81.44
263.105	99.44
263.337	84.44
263.57	76.44
263.802	90.44
264.035	93.44
264.267	74.44
264.499	88.44
264.732	100.44
264.964	93.44
265.197	90.44
265.429	90.44
265.661	83.44
265.894	90.44
266.126	103.44
266.358	96.44
266.591	76.44
266.823	94.44
267.055	99.44
267.287	87.44
267.52	81.44
267.752	62.44
267.984	88.44
268.216	69.44
268.448	87.44
268.681	82.44
268.913	91.44
269.145	84.44
269.377	70.44
269.609	77.44
269.841	66.44
270.073	92.44
270.306	83.44
270.538	85.44
270.77	83.44
271.002	86.44
271.234	89.44
271.466	97.44
271.698	79.44
271.93	84.44
272.162	80.44
272.394	89.44
272.626	93.44
272.858	94.44
273.09	89.44
273.322	88.44
273.553	80.44
273.785	90.44
274.017	82.44
274.249	88.44
274.481	91.44
274.713	85.44
274.945	92.44
275.176	88.44
275.408	94.44
275.64	97.44
275.872	102.44
276.104	101.44
276.335	93.44
276.567	113.44
276.799	123.44
277.031	133.44
277.262	160.44
277.494	124.44
277.726	90.44
277.957	87.44
278.189	88.44
278.421	94.44
278.652	83.44
278.884	102.44
279.115	92.44
279.347	86.44
279.579	97.44
279.81	102.44
280.042	155.44
280.273	178.44
280.505	144.44
280.736	110.44
280.968	92.44
281.199	83.44
281.431	92.44
281.662	81.44
281.894	93.44
282.125	105.44
282.356	118.44
282.588	155.44
282.819	111.44
283.051	81.44
283.282	92.44
283.513	98.44
283.745	85.44
283.976	81.44
284.207	83.44
284.439	89.44
284.67	83.44
284.901	79.44
285.132	93.44
285.364	78.44
285.595	90.44
285.826	93.44
286.057	91.44
286.288	88.44
286.52	74.44
286.751	84.44
286.982	90.44
287.213	98.44
287.444	100.44
287.675	83.44
287.906	88.44
288.138	96.44
288.369	99.44
288.6	100.44
288.831	91.44
289.062	95.44
289.293	93.44
289.524	92.44
289.755	88.44
289.986	89.44
290.217	84.44
290.448	84.44
290.679	94.44
290.91	91.44
291.141	83.44
291.371	77.44
291.602	104.44
291.833	88.44
292.064	83.44
292.295	89.44
292.526	80.44
292.757	92.44
292.987	87.44
293.218	87.44
293.449	90.44
293.68	86.44
293.91	81.44
294.141	84.44
294.372	101.44
294.603	90.44
294.833	86.44
295.064	91.44
295.295	82.44
295.525	101.44
295.756	92.44
295.987	106.44
296.217	144.44
296.448	135.44
296.679	105.44
296.909	100.44
297.14	91.44
297.37	100.44
297.601	90.44
297.831	91.44
298.062	87.44
298.292	92.44
298.523	88.44
298.753	92.44
298.984	91.44
299.214	97.44
299.445	76.44
299.675	77.44
299.905	102.44
300.136	80.44
300.366	95.44
300.597	90.44
300.827	83.44
301.057	101.44
301.288	108.44
301.518	90.44
301.748	84.44
301.979	112.44
302.209	85.44
302.439	104.44
302.669	95.44
302.9	100.44
303.13	96.44
303.36	107.44
303.59	111.44
303.82	123.44
304.051	94.44
304.281	86.44
304.511	102.44
304.741	99.44
304.971	109.44
305.201	88.44
305.431	93.44
305.661	78.44
305.891	97.44
306.121	90.44
306.352	113.44
306.582	92.44
306.812	93.44
307.042	113.44
307.272	123.44
307.502	157.44
307.731	135.44
307.961	88.44
308.191	86.44
308.421	107.44
308.651	99.44
308.881	99.44
309.111	96.44
309.341	108.44
309.571	96.44
309.8	101.44
310.03	102.44
310.26	108.44
310.49	110.44
310.72	108.44
310.949	95.44
311.179	91.44
311.409	93.44
311.639	91.44
311.868	91.44
312.098	106.44
312.328	98.44
312.557	110.44
312.787	115.44
313.017	104.44
313.246	104.44
313.476	93.44
313.706	89.44
313.935	103.44
314.165	95.44
314.394	106.44
314.624	102.44
314.853	108.44
315.083	96.44
315.312	100.44
315.542	92.44
315.771	85.44
316.001	82.44
316.23	100.44
316.46	85.44
316.689	80.44
316.919	99.44
317.148	94.44
317.377	95.44
317.607	90.44
317.836	102.44
318.065	97.44
318.295	76.44
318.524	107.44
318.753	96.44
318.983	96.44
319.212	94.44
319.441	102.44
319.67	103.44
319.9	94.44
320.129	108.44
320.358	98.44
320.587	98.44
320.816	110.44
321.046	103.44
321.275	93.44
321.504	94.44
321.733	101.44
321.962	87.44
322.191	108.44
322.42	119.44
322.649	119.44
322.878	106.44
323.108	119.44
323.337	135.44
323.566	142.44
323.795	183.44
324.024	251.44
324.253	483.44
324.482	1013.44
324.71	2107.44
324.939	2785.44
325.168	997.44
325.397	296.44
325.626	174.44
325.855	146.44
326.084	144.44
326.313	136.44
326.542	166.44
326.77	268.44
326.999	538.44
327.228	1159.44
327.457	2109.44
327.686	1655.44
327.914	514.44
328.143	372.44
328.372	438.44
328.6	287.44
328.829	167.44
329.058	172.44
329.287	161.44
329.515	150.44
329.744	182.44
329.972	353.44
330.201	636.44
330.43	884.44
330.658	414.44
330.887	228.44
331.115	146.44
331.344	107.44
331.572	110.44
331.801	107.44
332.03	117.44
332.258	100.44
332.486	102.44
332.715	111.44
332.943	120.44
333.172	122.44
333.4	114.44
333.629	124.44
333.857	182.44
334.085	326.44
334.314	610.44
334.542	1126.44
334.771	1028.44
334.999	303.44
335.227	141.44
335.455	113.44
335.684	100.44
335.912	98.44
336.14	108.44
336.369	105.44
336.597	87.44
336.825	98.44
337.053	99.44
337.281	88.44
337.51	99.44
337.738	92.44
337.966	100.44
338.194	112.44
338.422	109.44
338.65	97.44
338.878	87.44
339.106	95.44
339.334	93.44
339.562	97.44
339.79	99.44
340.018	91.44
340.246	88.44
340.474	77.44
340.702	89.44
340.93	93.44
341.158	78.44
341.386	95.44
341.614	104.44
341.842	97.44
342.07	86.44
342.298	88.44
342.526	99.44
342.754	94.44
342.981	97.44
343.209	96.44
343.437	86.44
343.665	85.44
343.893	78.44
344.12	88.44
344.348	90.44
344.576	108.44
344.804	82.44
345.031	90.44
345.259	97.44
345.487	97.44
345.714	90.44
345.942	80.44
346.17	106.44
346.397	96.44
346.625	97.44
346.853	92.44
347.08	93.44
347.308	99.44
347.535	95.44
347.763	93.44
347.99	117.44
348.218	103.44
348.445	112.44
348.673	100.44
348.9	88.44
349.128	94.44
349.355	98.44
349.583	106.44
349.81	92.44
350.037	100.44
350.265	97.44
350.492	100.44
350.72	108.44
350.947	114.44
351.174	114.44
351.402	110.44
351.629	118.44
351.856	111.44
352.083	97.44
352.311	114.44
352.538	108.44
352.765	108.44
352.992	122.44
353.22	117.44
353.447	104.44
353.674	97.44
353.901	101.44
354.128	93.44
354.355	95.44
354.583	112.44
354.81	105.44
355.037	112.44
355.264	91.44
355.491	94.44
355.718	94.44
355.945	92.44
356.172	93.44
356.399	97.44
356.626	120.44
356.853	109.44
357.08	100.44
357.307	96.44
357.534	88.44
357.761	81.44
357.988	95.44
358.215	91.44
358.441	92.44
358.668	92.44
358.895	93.44
359.122	100.44
359.349	89.44
359.576	80.44
359.802	107.44
360.029	125.44
360.256	121.44
360.483	111.44
360.709	105.44
360.936	98.44
361.163	103.44
361.39	104.44
361.616	96.44
361.843	100.44
362.07	102.44
362.296	90.44
362.523	94.44
362.749	98.44
362.976	105.44
363.203	93.44
363.429	85.44
363.656	94.44
363.882	96.44
364.109	104.44
364.335	91.44
364.562	92.44
364.788	94.44
365.015	93.44
365.241	109.44
365.468	122.44
365.694	102.44
365.92	102.44
366.147	100.44
366.373	83.44
366.599	88.44
366.826	93.44
367.052	97.44
367.278	97.44
367.505	99.44
367.731	85.44
367.957	93.44
368.184	93.44
368.41	103.44
368.636	124.44
368.862	134.44
369.089	111.44
369.315	103.44
369.541	88.44
369.767	90.44
369.993	93.44
370.219	113.44
370.445	94.44
370.672	86.44
370.898	95.44
371.124	95.44
371.35	98.44
371.576	86.44
371.802	82.44
372.028	83.44
372.254	93.44
372.48	91.44
372.706	98.44
372.932	90.44
373.158	97.44
373.384	78.44
373.61	93.44
373.835	96.44
374.061	100.44
374.287	98.44
374.513	91.44
374.739	83.44
374.965	85.44
375.191	89.44
375.416	85.44
375.642	94.44
375.868	102.44
376.094	98.44
376.319	89.44
376.545	88.44
376.771	80.44
376.997	99.44
377.222	99.44
377.448	101.44
377.674	86.44
377.899	92.44
378.125	94.44
378.35	104.44
378.576	100.44
378.802	92.44
379.027	94.44
379.253	93.44
379.478	90.44
379.704	96.44
379.929	98.44
380.155	97.44
380.38	93.44
380.606	89.44
380.831	101.44
381.057	99.44
381.282	102.44
381.507	92.44
381.733	84.44
381.958	102.44
382.184	84.44
382.409	92.44
382.634	94.44
382.86	97.44
383.085	97.44
383.31	100.44
383.535	109.44
383.761	103.44
383.986	99.44
384.211	108.44
384.436	89.44
384.662	104.44
384.887	113.44
385.112	102.44
385.337	103.44
385.562	99.44
385.787	107.44
386.013	113.44
386.238	112.44
386.463	105.44
386.688	115.44
386.913	99.44
387.138	109.44
387.363	102.44
387.588	107.44
387.813	97.44
388.038	108.44
388.263	103.44
388.488	100.44
388.713	87.44
388.938	91.44
389.163	91.44
389.387	99.44
389.612	90.44
389.837	99.44
390.062	91.44
390.287	91.44
390.512	90.44
390.736	97.44
390.961	92.44
391.186	91.44
391.411	80.44
391.636	83.44
391.86	94.44
392.085	84.44
392.31	94.44
392.534	82.44
392.759	94.44
392.984	95.44
393.208	89.44
393.433	96.44
393.658	87.44
393.882	92.44
394.107	80.44
394.331	97.44
394.556	89.44
394.78	81.44
395.005	89.44
395.229	78.44
395.454	94.44
395.678	89.44
395.903	96.44
396.127	93.44
396.352	94.44
396.576	85.44
396.801	87.44
397.025	82.44
397.249	91.44
397.474	86.44
397.698	91.44
397.922	78.44
398.147	87.44
398.371	103.44
398.595	89.44
398.82	99.44
399.044	78.44
399.268	101.44
399.492	92.44
399.717	92.44
399.941	86.44
400.165	102.44
400.389	92.44
400.613	85.44
400.837	69.44
401.062	92.44
401.286	89.44
401.51	101.44
401.734	105.44
401.958	118.44
402.182	129.44
402.406	164.44
402.63	131.44
402.854	93.44
403.078	89.44
403.302	90.44
403.526	90.44
403.75	89.44
403.974	89.44
404.198	87.44
404.422	93.44
404.645	86.44
404.869	103.44
405.093	113.44
405.317	120.44
405.541	124.44
405.765	102.44
405.988	128.44
406.212	172.44
406.436	263.44
406.66	169.44
406.883	111.44
407.107	90.44
407.331	102.44
407.555	112.44
407.778	114.44
408.002	97.44
408.226	86.44
408.449	77.44
408.673	82.44
408.896	108.44
409.12	104.44
409.344	98.44
409.567	94.44
409.791	90.44
410.014	94.44
410.238	92.44
410.461	80.44
410.685	92.44
410.908	110.44
411.132	102.44
411.355	103.44
411.578	97.44
411.802	84.44
412.025	102.44
412.249	97.44
412.472	118.44
412.695	114.44
412.919	99.44
413.142	86.44
413.365	70.44
413.589	89.44
413.812	87.44
414.035	92.44
414.258	95.44
414.482	92.44
414.705	91.44
414.928	101.44
415.151	93.44
415.374	107.44
415.597	89.44
415.821	93.44
416.044	83.44
416.267	96.44
416.49	94.44
416.713	85.44
416.936	78.44
417.159	79.44
417.382	93.44
417.605	92.44
417.828	108.44
418.051	75.44
418.274	101.44
418.497	83.44
418.72	82.44
418.943	97.44
419.166	90.44
419.389	85.44
419.611	97.44
419.834	96.44
420.057	87.44
420.28	85.44
420.503	80.44
420.726	98.44
420.948	85.44
421.171	88.44
421.394	93.44
421.617	83.44
421.839	98.44
422.062	71.44
422.285	101.44
422.507	93.44
422.73	110.44
422.953	92.44
423.175	95.44
423.398	105.44
423.621	94.44
423.843	90.44
424.066	83.44
424.288	83.44
424.511	91.44
424.733	114.44
424.956	90.44
425.178	90.44
425.401	102.44
425.623	107.44
425.846	89.44
426.068	94.44
426.291	107.44
426.513	95.44
426.735	89.44
426.958	103.44
427.18	108.44
427.402	174.44
427.625	205.44
427.847	216.44
428.069	195.44
428.292	118.44
428.514	112.44
428.736	97.44
428.958	87.44
429.181	87.44
429.403	93.44
429.625	91.44
429.847	100.44
430.069	108.44
430.292	89.44
430.514	97.44
430.736	92.44
430.958	96.44
431.18	68.44
431.402	89.44
431.624	93.44
431.846	80.44
432.068	78.44
432.29	85.44
432.512	93.44
432.734	84.44
432.956	99.44
433.178	106.44
433.4	104.44
433.622	101.44
433.844	90.44
434.066	92.44
434.287	97.44
434.509	90.44
434.731	104.44
434.953	89.44
435.175	97.44
435.397	94.44
435.618	85.44
435.84	112.44
436.062	129.44
436.284	125.44
436.505	102.44
436.727	112.44
436.949	93.44
437.17	86.44
437.392	88.44
437.614	82.44
437.835	120.44
438.057	129.44
438.278	117.44
438.5	121.44
438.721	112.44
438.943	94.44
439.165	84.44
439.386	99.44
439.608	100.44
439.829	94.44
440.05	141.44
440.272	158.44
440.493	101.44
440.715	97.44
440.936	86.44
441.158	91.44
441.379	86.44
441.6	103.44
441.822	93.44
442.043	106.44
442.264	96.44
442.486	97.44
442.707	106.44
442.928	111.44
443.149	140.44
443.371	149.44
443.592	115.44
443.813	121.44
444.034	110.44
444.255	88.44
444.476	87.44
444.698	100.44
444.919	106.44
445.14	137.44
445.361	129.44
445.582	132.44
445.803	156.44
446.024	168.44
446.245	133.44
446.466	107.44
446.687	94.44
446.908	88.44
447.129	102.44
447.35	93.44
447.571	77.44
447.792	105.44
448.013	102.44
448.234	119.44
448.455	92.44
448.675	119.44
448.896	122.44
449.117	106.44
449.338	114.44
449.559	127.44
449.779	140.44
450	109.44
450.221	97.44
450.442	91.44
450.662	92.44
450.883	116.44
451.104	103.44
451.324	103.44
451.545	102.44
451.766	91.44
451.986	81.44
452.207	95.44
452.428	111.44
452.648	101.44
452.869	120.44
453.089	113.44
453.31	128.44
453.53	89.44
453.751	85.44
453.971	95.44
454.192	107.44
454.412	96.44
454.633	79.44
454.853	100.44
455.073	80.44
455.294	87.44
455.514	94.44
455.734	95.44
455.955	93.44
456.175	77.44
456.395	85.44
456.616	87.44
456.836	94.44
457.056	82.44
457.276	96.44
457.497	101.44
457.717	82.44
457.937	99.44
458.157	99.44
458.377	102.44
458.598	118.44
458.818	179.44
459.038	195.44
459.258	120.44
459.478	93.44
459.698	95.44
459.918	94.44
460.138	78.44
460.358	74.44
460.578	86.44
460.798	86.44
461.018	93.44
461.238	90.44
461.458	90.44
461.678	78.44
461.898	92.44
462.118	90.44
462.338	64.44
462.558	75.44
462.777	90.44
462.997	102.44
463.217	108.44
463.437	97.44
463.657	92.44
463.876	82.44
464.096	81.44
464.316	89.44
464.536	92.44
464.755	99.44
464.975	109.44
465.195	191.44
465.414	176.44
465.634	103.44
465.854	101.44
466.073	99.44
466.293	108.44
466.512	92.44
466.732	101.44
466.951	86.44
467.171	102.44
467.391	110.44
467.61	131.44
467.829	177.44
468.049	406.44
468.268	578.44
468.488	173.44
468.707	97.44
468.927	92.44
469.146	101.44
469.365	98.44
469.585	90.44
469.804	91.44
470.023	94.44
470.243	106.44
470.462	112.44
470.681	125.44
470.901	96.44
471.12	93.44
471.339	105.44
471.558	107.44
471.777	129.44
471.997	236.44
472.216	752.44
472.435	1536.44
472.654	401.44
472.873	135.44
473.092	102.44
473.311	94.44
473.53	85.44
473.749	89.44
473.968	82.44
474.187	94.44
474.406	83.44
474.625	94.44
474.844	97.44
475.063	94.44
475.282	102.44
475.501	82.44
475.72	91.44
475.939	87.44
476.158	96.44
476.377	93.44
476.596	72.44
476.814	119.44
477.033	105.44
477.252	96.44
477.471	89.44
477.69	78.44
477.908	98.44
478.127	93.44
478.346	106.44
478.564	106.44
478.783	104.44
479.002	114.44
479.22	100.44
479.439	123.44
479.658	114.44
479.876	114.44
480.095	99.44
480.313	118.44
480.532	143.44
480.751	235.44
480.969	709.44
481.188	2792.44
481.406	1571.44
481.624	268.44
481.843	107.44
482.061	102.44
482.28	95.44
482.498	100.44
482.717	87.44
482.935	95.44
483.153	77.44
483.372	88.44
483.59	102.44
483.808	91.44
484.027	89.44
484.245	93.44
484.463	78.44
484.681	102.44
484.9	92.44
485.118	92.44
485.336	93.44
485.554	99.44
485.772	108.44
485.99	110.44
486.209	116.44
486.427	117.44
486.645	104.44
486.863	119.44
487.081	105.44
487.299	86.44
487.517	93.44
487.735	95.44
487.953	93.44
488.171	89.44
488.389	105.44
488.607	90.44
488.825	98.44
489.043	93.44
489.261	100.44
489.479	74.44
489.696	93.44
489.914	94.44
490.132	94.44
490.35	93.44
490.568	102.44
490.786	84.44
491.003	104.44
491.221	98.44
491.439	96.44
491.657	105.44
491.874	81.44
492.092	97.44
492.31	82.44
492.527	89.44
492.745	94.44
492.963	110.44
493.18	86.44
493.398	96.44
493.615	99.44
493.833	101.44
494.05	95.44
494.268	104.44
494.485	91.44
494.703	100.44
494.92	98.44
495.138	92.44
495.355	98.44
495.573	91.44
495.79	81.44
496.008	90.44
496.225	77.44
496.442	97.44
496.66	103.44
496.877	88.44
497.094	98.44
497.312	77.44
497.529	95.44
497.746	103.44
497.963	97.44
498.181	85.44
498.398	98.44
498.615	111.44
498.832	114.44
499.049	99.44
499.267	83.44
499.484	98.44
499.701	98.44
499.918	94.44
500.135	83.44
500.352	85.44
500.569	83.44
500.786	100.44
501.003	81.44
501.22	88.44
501.437	85.44
501.654	115.44
501.871	114.44
502.088	108.44
502.305	90.44
502.522	103.44
502.739	85.44
502.956	85.44
503.172	100.44
503.389	91.44
503.606	118.44
503.823	90.44
504.04	95.44
504.256	91.44
504.473	85.44
504.69	80.44
504.907	81.44
505.123	105.44
505.34	98.44
505.557	97.44
505.773	84.44
505.99	86.44
506.207	82.44
506.423	94.44
506.64	91.44
506.856	91.44
507.073	90.44
507.289	73.44
507.506	89.44
507.722	121.44
507.939	133.44
508.155	87.44
508.372	94.44
508.588	97.44
508.805	112.44
509.021	107.44
509.238	110.44
509.454	93.44
509.67	103.44
509.887	97.44
510.103	141.44
510.319	215.44
510.536	825.44
510.752	2549.44
510.968	697.44
511.184	168.44
511.401	110.44
511.617	108.44
511.833	91.44
512.049	105.44
512.265	92.44
512.481	99.44
512.698	97.44
512.914	95.44
513.13	95.44
513.346	85.44
513.562	111.44
513.778	86.44
