Data from Circ_2001_H10_HRD10591_00079.txt Node
Date: Wed Jan 03 10:45:54 EST 2024
User: Yrep
Spectrometer: HR+D1059
Trigger mode: 1
Integration Time (sec): 1.000000E-1
Scans to average: 1
Electric dark correction enabled: true
Nonlinearity correction enabled: false
Boxcar width: 0
XAxis mode: Wavelengths
Number of Pixels in Spectrum: 2048
>>>>>Begin Spectral Data<<<<<
223.165	-0.88
223.4	-0.88
223.635	-0.88
223.869	-19.88
224.104	-33.88
224.338	-16.88
224.573	-22.88
224.808	-3.88
225.042	-3.88
225.277	2.12
225.511	-3.88
225.746	16.12
225.98	2.12
226.215	9.12
226.449	18.12
226.683	23.12
226.918	15.12
227.152	20.12
227.387	38.12
227.621	27.12
227.856	33.12
228.09	55.12
228.324	42.12
228.559	57.12
228.793	54.12
229.027	81.12
229.262	57.12
229.496	73.12
229.73	79.12
229.964	93.12
230.199	76.12
230.433	63.12
230.667	58.12
230.901	77.12
231.136	77.12
231.37	77.12
231.604	89.12
231.838	91.12
232.072	72.12
232.306	79.12
232.541	86.12
232.775	87.12
233.009	63.12
233.243	84.12
233.477	87.12
233.711	76.12
233.945	92.12
234.179	84.12
234.413	87.12
234.647	78.12
234.881	82.12
235.115	75.12
235.349	86.12
235.583	79.12
235.817	79.12
236.051	65.12
236.285	76.12
236.519	84.12
236.753	79.12
236.987	85.12
237.221	71.12
237.455	85.12
237.689	79.12
237.922	80.12
238.156	72.12
238.39	74.12
238.624	80.12
238.858	89.12
239.091	84.12
239.325	75.12
239.559	72.12
239.793	86.12
240.027	82.12
240.26	87.12
240.494	83.12
240.728	73.12
240.961	80.12
241.195	70.12
241.429	85.12
241.662	64.12
241.896	77.12
242.13	73.12
242.363	69.12
242.597	84.12
242.83	74.12
243.064	84.12
243.298	84.12
243.531	96.12
243.765	76.12
243.998	86.12
244.232	87.12
244.465	85.12
244.699	75.12
244.932	80.12
245.166	85.12
245.399	95.12
245.633	80.12
245.866	73.12
246.099	89.12
246.333	82.12
246.566	82.12
246.8	70.12
247.033	80.12
247.266	80.12
247.5	84.12
247.733	74.12
247.966	76.12
248.2	81.12
248.433	88.12
248.666	84.12
248.899	80.12
249.133	84.12
249.366	82.12
249.599	108.12
249.832	85.12
250.066	91.12
250.299	81.12
250.532	92.12
250.765	73.12
250.998	78.12
251.231	92.12
251.465	89.12
251.698	78.12
251.931	84.12
252.164	93.12
252.397	84.12
252.63	88.12
252.863	84.12
253.096	60.12
253.329	88.12
253.562	80.12
253.795	77.12
254.028	88.12
254.261	88.12
254.494	87.12
254.727	96.12
254.96	88.12
255.193	81.12
255.426	80.12
255.659	95.12
255.892	86.12
256.124	82.12
256.357	91.12
256.59	90.12
256.823	89.12
257.056	79.12
257.289	83.12
257.521	85.12
257.754	89.12
257.987	77.12
258.22	89.12
258.452	84.12
258.685	89.12
258.918	78.12
259.151	87.12
259.383	73.12
259.616	75.12
259.849	79.12
260.081	79.12
260.314	97.12
260.547	81.12
260.779	84.12
261.012	96.12
261.244	88.12
261.477	81.12
261.71	106.12
261.942	118.12
262.175	116.12
262.407	93.12
262.64	92.12
262.872	88.12
263.105	80.12
263.337	93.12
263.57	84.12
263.802	89.12
264.035	91.12
264.267	83.12
264.499	95.12
264.732	69.12
264.964	73.12
265.197	72.12
265.429	85.12
265.661	83.12
265.894	90.12
266.126	84.12
266.358	89.12
266.591	76.12
266.823	87.12
267.055	85.12
267.287	89.12
267.52	73.12
267.752	82.12
267.984	86.12
268.216	80.12
268.448	73.12
268.681	83.12
268.913	84.12
269.145	87.12
269.377	70.12
269.609	93.12
269.841	76.12
270.073	96.12
270.306	81.12
270.538	82.12
270.77	99.12
271.002	84.12
271.234	76.12
271.466	80.12
271.698	87.12
271.93	95.12
272.162	84.12
272.394	81.12
272.626	89.12
272.858	75.12
273.09	92.12
273.322	88.12
273.553	79.12
273.785	80.12
274.017	81.12
274.249	70.12
274.481	82.12
274.713	77.12
274.945	103.12
275.176	97.12
275.408	94.12
275.64	89.12
275.872	116.12
276.104	90.12
276.335	96.12
276.567	95.12
276.799	128.12
277.031	128.12
277.262	144.12
277.494	109.12
277.726	87.12
277.957	94.12
278.189	87.12
278.421	93.12
278.652	105.12
278.884	90.12
279.115	74.12
279.347	85.12
279.579	91.12
279.81	122.12
280.042	146.12
280.273	171.12
280.505	141.12
280.736	104.12
280.968	92.12
281.199	79.12
281.431	90.12
281.662	91.12
281.894	83.12
282.125	95.12
282.356	121.12
282.588	147.12
282.819	117.12
283.051	101.12
283.282	85.12
283.513	83.12
283.745	81.12
283.976	101.12
284.207	80.12
284.439	80.12
284.67	74.12
284.901	89.12
285.132	80.12
285.364	76.12
285.595	77.12
285.826	92.12
286.057	83.12
286.288	79.12
286.52	85.12
286.751	91.12
286.982	85.12
287.213	99.12
287.444	88.12
287.675	91.12
287.906	85.12
288.138	91.12
288.369	100.12
288.6	91.12
288.831	90.12
289.062	89.12
289.293	83.12
289.524	90.12
289.755	80.12
289.986	84.12
290.217	101.12
290.448	85.12
290.679	97.12
290.91	96.12
291.141	88.12
291.371	106.12
291.602	93.12
291.833	82.12
292.064	72.12
292.295	84.12
292.526	75.12
292.757	95.12
292.987	89.12
293.218	94.12
293.449	90.12
293.68	94.12
293.91	84.12
294.141	90.12
294.372	75.12
294.603	92.12
294.833	77.12
295.064	91.12
295.295	95.12
295.525	91.12
295.756	99.12
295.987	123.12
296.217	134.12
296.448	125.12
296.679	103.12
296.909	102.12
297.14	101.12
297.37	92.12
297.601	84.12
297.831	83.12
298.062	78.12
298.292	98.12
298.523	96.12
298.753	89.12
298.984	86.12
299.214	83.12
299.445	87.12
299.675	72.12
299.905	104.12
300.136	91.12
300.366	81.12
300.597	96.12
300.827	94.12
301.057	95.12
301.288	110.12
301.518	88.12
301.748	99.12
301.979	127.12
302.209	99.12
302.439	75.12
302.669	88.12
302.9	101.12
303.13	104.12
303.36	98.12
303.59	105.12
303.82	118.12
304.051	90.12
304.281	83.12
304.511	88.12
304.741	90.12
304.971	84.12
305.201	97.12
305.431	90.12
305.661	65.12
305.891	91.12
306.121	92.12
306.352	104.12
306.582	116.12
306.812	91.12
307.042	106.12
307.272	129.12
307.502	143.12
307.731	137.12
307.961	100.12
308.191	77.12
308.421	92.12
308.651	92.12
308.881	91.12
309.111	93.12
309.341	105.12
309.571	114.12
309.8	87.12
310.03	105.12
310.26	100.12
310.49	106.12
310.72	105.12
310.949	112.12
311.179	106.12
311.409	83.12
311.639	91.12
311.868	92.12
312.098	106.12
312.328	84.12
312.557	100.12
312.787	105.12
313.017	105.12
313.246	105.12
313.476	78.12
313.706	79.12
313.935	97.12
314.165	101.12
314.394	102.12
314.624	93.12
314.853	107.12
315.083	92.12
315.312	91.12
315.542	89.12
315.771	91.12
316.001	91.12
316.23	92.12
316.46	97.12
316.689	86.12
316.919	102.12
317.148	98.12
317.377	107.12
317.607	93.12
317.836	100.12
318.065	105.12
318.295	73.12
318.524	94.12
318.753	85.12
318.983	103.12
319.212	93.12
319.441	113.12
319.67	105.12
319.9	82.12
320.129	103.12
320.358	100.12
320.587	98.12
320.816	97.12
321.046	100.12
321.275	108.12
321.504	95.12
321.733	103.12
321.962	96.12
322.191	104.12
322.42	110.12
322.649	112.12
322.878	124.12
323.108	127.12
323.337	117.12
323.566	127.12
323.795	152.12
324.024	207.12
324.253	402.12
324.482	829.12
324.71	1714.12
324.939	2221.12
325.168	837.12
325.397	254.12
325.626	141.12
325.855	121.12
326.084	128.12
326.313	136.12
326.542	164.12
326.77	240.12
326.999	459.12
327.228	931.12
327.457	1695.12
327.686	1319.12
327.914	439.12
328.143	359.12
328.372	419.12
328.6	238.12
328.829	140.12
329.058	137.12
329.287	163.12
329.515	159.12
329.744	202.12
329.972	317.12
330.201	618.12
330.43	834.12
330.658	409.12
330.887	205.12
331.115	147.12
331.344	107.12
331.572	112.12
331.801	92.12
332.03	102.12
332.258	103.12
332.486	102.12
332.715	113.12
332.943	106.12
333.172	109.12
333.4	107.12
333.629	133.12
333.857	182.12
334.085	292.12
334.314	564.12
334.542	1062.12
334.771	966.12
334.999	284.12
335.227	129.12
335.455	122.12
335.684	114.12
335.912	105.12
336.14	111.12
336.369	105.12
336.597	89.12
336.825	100.12
337.053	92.12
337.281	96.12
337.51	85.12
337.738	93.12
337.966	89.12
338.194	83.12
338.422	102.12
338.65	107.12
338.878	97.12
339.106	84.12
339.334	98.12
339.562	92.12
339.79	90.12
340.018	83.12
340.246	88.12
340.474	99.12
340.702	88.12
340.93	97.12
341.158	96.12
341.386	101.12
341.614	87.12
341.842	103.12
342.07	86.12
342.298	92.12
342.526	93.12
342.754	100.12
342.981	91.12
343.209	86.12
343.437	82.12
343.665	72.12
343.893	86.12
344.12	96.12
344.348	98.12
344.576	76.12
344.804	101.12
345.031	93.12
345.259	107.12
345.487	103.12
345.714	99.12
345.942	86.12
346.17	99.12
346.397	97.12
346.625	90.12
346.853	98.12
347.08	95.12
347.308	85.12
347.535	99.12
347.763	101.12
347.99	88.12
348.218	120.12
348.445	108.12
348.673	98.12
348.9	103.12
349.128	90.12
349.355	75.12
349.583	87.12
349.81	98.12
350.037	85.12
350.265	95.12
350.492	95.12
350.72	100.12
350.947	104.12
351.174	114.12
351.402	113.12
351.629	102.12
351.856	89.12
352.083	105.12
352.311	100.12
352.538	105.12
352.765	98.12
352.992	111.12
353.22	99.12
353.447	107.12
353.674	104.12
353.901	102.12
354.128	92.12
354.355	80.12
354.583	99.12
354.81	97.12
355.037	111.12
355.264	90.12
355.491	79.12
355.718	98.12
355.945	89.12
356.172	87.12
356.399	96.12
356.626	90.12
356.853	88.12
357.08	97.12
357.307	93.12
357.534	89.12
357.761	91.12
357.988	93.12
358.215	88.12
358.441	85.12
358.668	81.12
358.895	90.12
359.122	82.12
359.349	87.12
359.576	92.12
359.802	113.12
360.029	112.12
360.256	104.12
360.483	121.12
360.709	103.12
360.936	97.12
361.163	95.12
361.39	97.12
361.616	92.12
361.843	81.12
362.07	104.12
362.296	105.12
362.523	88.12
362.749	88.12
362.976	93.12
363.203	111.12
363.429	103.12
363.656	91.12
363.882	83.12
364.109	104.12
364.335	84.12
364.562	87.12
364.788	89.12
365.015	100.12
365.241	88.12
365.468	108.12
365.694	96.12
365.92	115.12
366.147	92.12
366.373	96.12
366.599	83.12
366.826	93.12
367.052	93.12
367.278	76.12
367.505	88.12
367.731	92.12
367.957	106.12
368.184	90.12
368.41	96.12
368.636	106.12
368.862	115.12
369.089	97.12
369.315	84.12
369.541	87.12
369.767	77.12
369.993	81.12
370.219	88.12
370.445	99.12
370.672	100.12
370.898	89.12
371.124	85.12
371.35	85.12
371.576	99.12
371.802	76.12
372.028	81.12
372.254	86.12
372.48	89.12
372.706	88.12
372.932	82.12
373.158	110.12
373.384	93.12
373.61	92.12
373.835	103.12
374.061	95.12
374.287	83.12
374.513	83.12
374.739	78.12
374.965	70.12
375.191	84.12
375.416	75.12
375.642	77.12
375.868	99.12
376.094	96.12
376.319	73.12
376.545	86.12
376.771	85.12
376.997	93.12
377.222	99.12
377.448	95.12
377.674	87.12
377.899	94.12
378.125	95.12
378.35	97.12
378.576	95.12
378.802	97.12
379.027	83.12
379.253	86.12
379.478	99.12
379.704	83.12
379.929	88.12
380.155	98.12
380.38	99.12
380.606	84.12
380.831	82.12
381.057	89.12
381.282	82.12
381.507	91.12
381.733	96.12
381.958	93.12
382.184	92.12
382.409	104.12
382.634	99.12
382.86	108.12
383.085	88.12
383.31	91.12
383.535	73.12
383.761	98.12
383.986	77.12
384.211	99.12
384.436	100.12
384.662	90.12
384.887	96.12
385.112	83.12
385.337	92.12
385.562	86.12
385.787	89.12
386.013	97.12
386.238	97.12
386.463	86.12
386.688	90.12
386.913	105.12
387.138	97.12
387.363	103.12
387.588	100.12
387.813	95.12
388.038	96.12
388.263	108.12
388.488	111.12
388.713	93.12
388.938	100.12
389.163	84.12
389.387	84.12
389.612	96.12
389.837	91.12
390.062	91.12
390.287	95.12
390.512	97.12
390.736	91.12
390.961	86.12
391.186	89.12
391.411	106.12
391.636	90.12
391.86	90.12
392.085	89.12
392.31	88.12
392.534	83.12
392.759	80.12
392.984	75.12
393.208	88.12
393.433	89.12
393.658	91.12
393.882	81.12
394.107	87.12
394.331	96.12
394.556	85.12
394.78	83.12
395.005	79.12
395.229	92.12
395.454	101.12
395.678	87.12
395.903	101.12
396.127	91.12
396.352	81.12
396.576	92.12
396.801	87.12
397.025	88.12
397.249	86.12
397.474	101.12
397.698	85.12
397.922	82.12
398.147	94.12
398.371	90.12
398.595	92.12
398.82	79.12
399.044	88.12
399.268	85.12
399.492	81.12
399.717	94.12
399.941	89.12
400.165	80.12
400.389	90.12
400.613	84.12
400.837	96.12
401.062	80.12
401.286	90.12
401.51	93.12
401.734	80.12
401.958	97.12
402.182	124.12
402.406	158.12
402.63	120.12
402.854	103.12
403.078	72.12
403.302	74.12
403.526	91.12
403.75	98.12
403.974	99.12
404.198	93.12
404.422	84.12
404.645	82.12
404.869	99.12
405.093	108.12
405.317	112.12
405.541	111.12
405.765	105.12
405.988	136.12
406.212	169.12
406.436	227.12
406.66	171.12
406.883	98.12
407.107	102.12
407.331	115.12
407.555	95.12
407.778	101.12
408.002	90.12
408.226	87.12
408.449	89.12
408.673	87.12
408.896	104.12
409.12	103.12
409.344	84.12
409.567	99.12
409.791	75.12
410.014	94.12
410.238	81.12
410.461	89.12
410.685	99.12
410.908	93.12
411.132	98.12
411.355	91.12
411.578	85.12
411.802	76.12
412.025	91.12
412.249	84.12
412.472	104.12
412.695	127.12
412.919	109.12
413.142	93.12
413.365	93.12
413.589	81.12
413.812	85.12
414.035	87.12
414.258	102.12
414.482	99.12
414.705	102.12
414.928	109.12
415.151	95.12
415.374	83.12
415.597	100.12
415.821	80.12
416.044	97.12
416.267	97.12
416.49	90.12
416.713	73.12
416.936	74.12
417.159	86.12
417.382	76.12
417.605	89.12
417.828	104.12
418.051	88.12
418.274	84.12
418.497	84.12
418.72	68.12
418.943	87.12
419.166	97.12
419.389	89.12
419.611	90.12
419.834	86.12
420.057	75.12
420.28	91.12
420.503	99.12
420.726	88.12
420.948	85.12
421.171	98.12
421.394	87.12
421.617	104.12
421.839	81.12
422.062	96.12
422.285	87.12
422.507	97.12
422.73	92.12
422.953	97.12
423.175	89.12
423.398	97.12
423.621	88.12
423.843	81.12
424.066	101.12
424.288	90.12
424.511	92.12
424.733	88.12
424.956	102.12
425.178	108.12
425.401	107.12
425.623	105.12
425.846	82.12
426.068	96.12
426.291	99.12
426.513	99.12
426.735	82.12
426.958	104.12
427.18	101.12
427.402	149.12
427.625	180.12
427.847	177.12
428.069	188.12
428.292	117.12
428.514	97.12
428.736	93.12
428.958	93.12
429.181	81.12
429.403	84.12
429.625	97.12
429.847	99.12
430.069	93.12
430.292	110.12
430.514	89.12
430.736	101.12
430.958	89.12
431.18	82.12
431.402	92.12
431.624	83.12
431.846	85.12
432.068	101.12
432.29	86.12
432.512	92.12
432.734	83.12
432.956	89.12
433.178	102.12
433.4	101.12
433.622	89.12
433.844	95.12
434.066	97.12
434.287	91.12
434.509	86.12
434.731	100.12
434.953	89.12
435.175	81.12
435.397	83.12
435.618	93.12
435.84	119.12
436.062	111.12
436.284	109.12
436.505	92.12
436.727	98.12
436.949	82.12
437.17	100.12
437.392	98.12
437.614	104.12
437.835	102.12
438.057	98.12
438.278	119.12
438.5	101.12
438.721	129.12
438.943	109.12
439.165	91.12
439.386	98.12
439.608	99.12
439.829	93.12
440.05	116.12
440.272	157.12
440.493	99.12
440.715	103.12
440.936	91.12
441.158	98.12
441.379	85.12
441.6	93.12
441.822	92.12
442.043	100.12
442.264	103.12
442.486	95.12
442.707	100.12
442.928	91.12
443.149	140.12
443.371	137.12
443.592	106.12
443.813	115.12
444.034	102.12
444.255	86.12
444.476	101.12
444.698	93.12
444.919	85.12
445.14	132.12
445.361	128.12
445.582	105.12
445.803	149.12
446.024	138.12
446.245	127.12
446.466	115.12
446.687	89.12
446.908	101.12
447.129	82.12
447.35	89.12
447.571	88.12
447.792	101.12
448.013	112.12
448.234	105.12
448.455	91.12
448.675	101.12
448.896	117.12
449.117	88.12
449.338	90.12
449.559	113.12
449.779	124.12
450	82.12
450.221	96.12
450.442	93.12
450.662	83.12
450.883	104.12
451.104	121.12
451.324	98.12
451.545	87.12
451.766	98.12
451.986	86.12
452.207	99.12
452.428	75.12
452.648	105.12
452.869	102.12
453.089	111.12
453.31	96.12
453.53	85.12
453.751	99.12
453.971	108.12
454.192	111.12
454.412	97.12
454.633	88.12
454.853	74.12
455.073	94.12
455.294	76.12
455.514	96.12
455.734	76.12
455.955	95.12
456.175	83.12
456.395	81.12
456.616	70.12
456.836	87.12
457.056	85.12
457.276	86.12
457.497	90.12
457.717	89.12
457.937	100.12
458.157	84.12
458.377	85.12
458.598	104.12
458.818	160.12
459.038	168.12
459.258	114.12
459.478	77.12
459.698	81.12
459.918	86.12
460.138	88.12
460.358	78.12
460.578	85.12
460.798	87.12
461.018	84.12
461.238	91.12
461.458	76.12
461.678	103.12
461.898	87.12
462.118	89.12
462.338	81.12
462.558	87.12
462.777	84.12
462.997	94.12
463.217	93.12
463.437	91.12
463.657	88.12
463.876	91.12
464.096	83.12
464.316	107.12
464.536	88.12
464.755	102.12
464.975	107.12
465.195	197.12
465.414	178.12
465.634	122.12
465.854	99.12
466.073	92.12
466.293	82.12
466.512	100.12
466.732	103.12
466.951	76.12
467.171	102.12
467.391	105.12
467.61	129.12
467.829	153.12
468.049	384.12
468.268	545.12
468.488	171.12
468.707	99.12
468.927	90.12
469.146	84.12
469.365	85.12
469.585	85.12
469.804	85.12
470.023	93.12
470.243	84.12
470.462	107.12
470.681	123.12
470.901	103.12
471.12	80.12
471.339	111.12
471.558	100.12
471.777	134.12
471.997	227.12
472.216	738.12
472.435	1548.12
472.654	393.12
472.873	119.12
473.092	95.12
473.311	95.12
473.53	90.12
473.749	95.12
473.968	76.12
474.187	122.12
474.406	81.12
474.625	81.12
474.844	86.12
475.063	92.12
475.282	92.12
475.501	93.12
475.72	86.12
475.939	89.12
476.158	79.12
476.377	90.12
476.596	77.12
476.814	96.12
477.033	96.12
477.252	84.12
477.471	88.12
477.69	91.12
477.908	95.12
478.127	89.12
478.346	90.12
478.564	99.12
478.783	105.12
479.002	115.12
479.22	103.12
479.439	111.12
479.658	108.12
479.876	99.12
480.095	118.12
480.313	123.12
480.532	129.12
480.751	213.12
480.969	671.12
481.188	2716.12
481.406	1522.12
481.624	260.12
481.843	122.12
482.061	102.12
482.28	107.12
482.498	96.12
482.717	97.12
482.935	93.12
483.153	92.12
483.372	87.12
483.59	88.12
483.808	86.12
484.027	89.12
484.245	94.12
484.463	84.12
484.681	94.12
484.9	92.12
485.118	90.12
485.336	95.12
485.554	100.12
485.772	92.12
485.99	116.12
486.209	108.12
486.427	90.12
486.645	127.12
486.863	106.12
487.081	99.12
487.299	105.12
487.517	105.12
487.735	106.12
487.953	90.12
488.171	90.12
488.389	95.12
488.607	103.12
488.825	86.12
489.043	70.12
489.261	89.12
489.479	89.12
489.696	103.12
489.914	80.12
490.132	92.12
490.35	89.12
490.568	96.12
490.786	92.12
491.003	83.12
491.221	83.12
491.439	90.12
491.657	94.12
491.874	91.12
492.092	99.12
492.31	96.12
492.527	98.12
492.745	90.12
492.963	102.12
493.18	94.12
493.398	89.12
493.615	101.12
493.833	112.12
494.05	98.12
494.268	93.12
494.485	80.12
494.703	83.12
494.92	91.12
495.138	88.12
495.355	91.12
495.573	95.12
495.79	91.12
496.008	101.12
496.225	87.12
496.442	88.12
496.66	82.12
496.877	95.12
497.094	92.12
497.312	84.12
497.529	88.12
497.746	112.12
497.963	93.12
498.181	87.12
498.398	102.12
498.615	105.12
498.832	96.12
499.049	84.12
499.267	89.12
499.484	88.12
499.701	85.12
499.918	92.12
500.135	80.12
500.352	89.12
500.569	96.12
500.786	85.12
501.003	90.12
501.22	81.12
501.437	87.12
501.654	96.12
501.871	116.12
502.088	88.12
502.305	96.12
502.522	90.12
502.739	91.12
502.956	82.12
503.172	82.12
503.389	104.12
503.606	99.12
503.823	95.12
504.04	102.12
504.256	86.12
504.473	89.12
504.69	84.12
504.907	95.12
505.123	97.12
505.34	91.12
505.557	89.12
505.773	110.12
505.99	97.12
506.207	112.12
506.423	93.12
506.64	92.12
506.856	98.12
507.073	97.12
507.289	93.12
507.506	94.12
507.722	113.12
507.939	117.12
508.155	98.12
508.372	92.12
508.588	86.12
508.805	84.12
509.021	102.12
509.238	101.12
509.454	96.12
509.67	93.12
509.887	97.12
510.103	127.12
510.319	196.12
510.536	706.12
510.752	2266.12
510.968	631.12
511.184	152.12
511.401	123.12
511.617	104.12
511.833	99.12
512.049	99.12
512.265	97.12
512.481	88.12
512.698	95.12
512.914	81.12
513.13	93.12
513.346	101.12
513.562	104.12
513.778	99.12
513.994	93.12
514.21	105.12
514.426	120.12
514.642	143.12
514.858	116.12
