Data from Circ_2001_H10_HRD10591_00057.txt Node
Date: Wed Jan 03 10:45:50 EST 2024
User: Yrep
Spectrometer: HR+D1059
Trigger mode: 1
Integration Time (sec): 1.000000E-1
Scans to average: 1
Electric dark correction enabled: true
Nonlinearity correction enabled: false
Boxcar width: 0
XAxis mode: Wavelengths
Number of Pixels in Spectrum: 2048
>>>>>Begin Spectral Data<<<<<
223.165	-24.06
223.4	-24.06
223.635	-24.06
223.869	-28.06
224.104	-33.06
224.338	-21.06
224.573	-15.06
224.808	-10.06
225.042	0.94
225.277	-6.06
225.511	-7.06
225.746	11.94
225.98	7.94
226.215	16.94
226.449	18.94
226.683	25.94
226.918	19.94
227.152	41.94
227.387	29.94
227.621	25.94
227.856	55.94
228.09	40.94
228.324	48.94
228.559	50.94
228.793	57.94
229.027	52.94
229.262	70.94
229.496	80.94
229.73	90.94
229.964	81.94
230.199	85.94
230.433	57.94
230.667	88.94
230.901	83.94
231.136	82.94
231.37	88.94
231.604	76.94
231.838	79.94
232.072	79.94
232.306	98.94
232.541	85.94
232.775	74.94
233.009	82.94
233.243	77.94
233.477	91.94
233.711	87.94
233.945	69.94
234.179	77.94
234.413	76.94
234.647	83.94
234.881	76.94
235.115	71.94
235.349	88.94
235.583	70.94
235.817	83.94
236.051	79.94
236.285	85.94
236.519	79.94
236.753	85.94
236.987	86.94
237.221	74.94
237.455	93.94
237.689	82.94
237.922	83.94
238.156	70.94
238.39	85.94
238.624	58.94
238.858	85.94
239.091	78.94
239.325	73.94
239.559	61.94
239.793	91.94
240.027	80.94
240.26	65.94
240.494	75.94
240.728	79.94
240.961	76.94
241.195	59.94
241.429	87.94
241.662	88.94
241.896	79.94
242.13	99.94
242.363	69.94
242.597	70.94
242.83	79.94
243.064	85.94
243.298	87.94
243.531	82.94
243.765	71.94
243.998	73.94
244.232	88.94
244.465	74.94
244.699	77.94
244.932	85.94
245.166	80.94
245.399	85.94
245.633	71.94
245.866	80.94
246.099	76.94
246.333	87.94
246.566	68.94
246.8	64.94
247.033	80.94
247.266	68.94
247.5	74.94
247.733	86.94
247.966	72.94
248.2	81.94
248.433	77.94
248.666	72.94
248.899	75.94
249.133	91.94
249.366	115.94
249.599	107.94
249.832	85.94
250.066	81.94
250.299	82.94
250.532	72.94
250.765	90.94
250.998	89.94
251.231	81.94
251.465	75.94
251.698	87.94
251.931	68.94
252.164	70.94
252.397	71.94
252.63	84.94
252.863	83.94
253.096	82.94
253.329	79.94
253.562	79.94
253.795	81.94
254.028	85.94
254.261	92.94
254.494	81.94
254.727	74.94
254.96	79.94
255.193	91.94
255.426	77.94
255.659	94.94
255.892	85.94
256.124	98.94
256.357	79.94
256.59	95.94
256.823	85.94
257.056	95.94
257.289	82.94
257.521	78.94
257.754	86.94
257.987	69.94
258.22	103.94
258.452	78.94
258.685	79.94
258.918	83.94
259.151	79.94
259.383	81.94
259.616	71.94
259.849	73.94
260.081	92.94
260.314	71.94
260.547	95.94
260.779	96.94
261.012	89.94
261.244	96.94
261.477	86.94
261.71	98.94
261.942	116.94
262.175	121.94
262.407	72.94
262.64	71.94
262.872	71.94
263.105	82.94
263.337	73.94
263.57	74.94
263.802	87.94
264.035	73.94
264.267	77.94
264.499	80.94
264.732	80.94
264.964	76.94
265.197	76.94
265.429	81.94
265.661	71.94
265.894	79.94
266.126	76.94
266.358	81.94
266.591	69.94
266.823	86.94
267.055	84.94
267.287	84.94
267.52	79.94
267.752	82.94
267.984	77.94
268.216	75.94
268.448	77.94
268.681	74.94
268.913	78.94
269.145	79.94
269.377	84.94
269.609	84.94
269.841	90.94
270.073	86.94
270.306	86.94
270.538	96.94
270.77	81.94
271.002	81.94
271.234	91.94
271.466	88.94
271.698	73.94
271.93	87.94
272.162	78.94
272.394	87.94
272.626	84.94
272.858	80.94
273.09	85.94
273.322	93.94
273.553	78.94
273.785	90.94
274.017	77.94
274.249	96.94
274.481	83.94
274.713	87.94
274.945	91.94
275.176	81.94
275.408	96.94
275.64	102.94
275.872	112.94
276.104	103.94
276.335	95.94
276.567	84.94
276.799	112.94
277.031	141.94
277.262	149.94
277.494	123.94
277.726	85.94
277.957	75.94
278.189	102.94
278.421	98.94
278.652	100.94
278.884	98.94
279.115	83.94
279.347	99.94
279.579	103.94
279.81	112.94
280.042	150.94
280.273	171.94
280.505	129.94
280.736	90.94
280.968	86.94
281.199	88.94
281.431	90.94
281.662	93.94
281.894	96.94
282.125	111.94
282.356	115.94
282.588	144.94
282.819	115.94
283.051	84.94
283.282	81.94
283.513	86.94
283.745	74.94
283.976	95.94
284.207	79.94
284.439	93.94
284.67	86.94
284.901	96.94
285.132	71.94
285.364	75.94
285.595	85.94
285.826	85.94
286.057	94.94
286.288	79.94
286.52	89.94
286.751	88.94
286.982	87.94
287.213	93.94
287.444	104.94
287.675	78.94
287.906	81.94
288.138	98.94
288.369	93.94
288.6	95.94
288.831	90.94
289.062	90.94
289.293	77.94
289.524	91.94
289.755	86.94
289.986	85.94
290.217	76.94
290.448	72.94
290.679	83.94
290.91	87.94
291.141	93.94
291.371	88.94
291.602	89.94
291.833	92.94
292.064	85.94
292.295	89.94
292.526	87.94
292.757	91.94
292.987	91.94
293.218	86.94
293.449	90.94
293.68	94.94
293.91	94.94
294.141	89.94
294.372	83.94
294.603	87.94
294.833	79.94
295.064	89.94
295.295	103.94
295.525	87.94
295.756	86.94
295.987	136.94
296.217	142.94
296.448	112.94
296.679	98.94
296.909	88.94
297.14	90.94
297.37	76.94
297.601	84.94
297.831	89.94
298.062	99.94
298.292	106.94
298.523	103.94
298.753	99.94
298.984	96.94
299.214	93.94
299.445	100.94
299.675	97.94
299.905	102.94
300.136	97.94
300.366	88.94
300.597	75.94
300.827	90.94
301.057	78.94
301.288	102.94
301.518	87.94
301.748	91.94
301.979	105.94
302.209	104.94
302.439	82.94
302.669	90.94
302.9	85.94
303.13	95.94
303.36	97.94
303.59	106.94
303.82	113.94
304.051	98.94
304.281	84.94
304.511	82.94
304.741	77.94
304.971	89.94
305.201	86.94
305.431	94.94
305.661	85.94
305.891	92.94
306.121	97.94
306.352	100.94
306.582	106.94
306.812	102.94
307.042	104.94
307.272	114.94
307.502	147.94
307.731	134.94
307.961	115.94
308.191	103.94
308.421	83.94
308.651	80.94
308.881	72.94
309.111	95.94
309.341	103.94
309.571	94.94
309.8	103.94
310.03	92.94
310.26	85.94
310.49	98.94
310.72	109.94
310.949	93.94
311.179	104.94
311.409	97.94
311.639	88.94
311.868	111.94
312.098	90.94
312.328	108.94
312.557	101.94
312.787	102.94
313.017	99.94
313.246	80.94
313.476	98.94
313.706	90.94
313.935	104.94
314.165	83.94
314.394	100.94
314.624	88.94
314.853	103.94
315.083	99.94
315.312	83.94
315.542	83.94
315.771	100.94
316.001	94.94
316.23	90.94
316.46	83.94
316.689	103.94
316.919	98.94
317.148	103.94
317.377	97.94
317.607	100.94
317.836	112.94
318.065	92.94
318.295	96.94
318.524	88.94
318.753	93.94
318.983	88.94
319.212	105.94
319.441	108.94
319.67	104.94
319.9	103.94
320.129	85.94
320.358	81.94
320.587	91.94
320.816	95.94
321.046	88.94
321.275	109.94
321.504	92.94
321.733	113.94
321.962	94.94
322.191	102.94
322.42	108.94
322.649	109.94
322.878	120.94
323.108	119.94
323.337	124.94
323.566	143.94
323.795	151.94
324.024	233.94
324.253	461.94
324.482	970.94
324.71	2040.94
324.939	2631.94
325.168	947.94
325.397	259.94
325.626	149.94
325.855	136.94
326.084	127.94
326.313	138.94
326.542	169.94
326.77	263.94
326.999	561.94
327.228	1123.94
327.457	2066.94
327.686	1573.94
327.914	489.94
328.143	385.94
328.372	440.94
328.6	245.94
328.829	147.94
329.058	159.94
329.287	152.94
329.515	147.94
329.744	196.94
329.972	347.94
330.201	658.94
330.43	875.94
330.658	420.94
330.887	203.94
331.115	143.94
331.344	125.94
331.572	107.94
331.801	123.94
332.03	119.94
332.258	99.94
332.486	101.94
332.715	105.94
332.943	97.94
333.172	123.94
333.4	114.94
333.629	156.94
333.857	202.94
334.085	330.94
334.314	627.94
334.542	1156.94
334.771	1020.94
334.999	291.94
335.227	156.94
335.455	128.94
335.684	106.94
335.912	99.94
336.14	111.94
336.369	96.94
336.597	105.94
336.825	105.94
337.053	100.94
337.281	88.94
337.51	94.94
337.738	110.94
337.966	107.94
338.194	104.94
338.422	104.94
338.65	90.94
338.878	75.94
339.106	97.94
339.334	106.94
339.562	81.94
339.79	91.94
340.018	99.94
340.246	101.94
340.474	95.94
340.702	96.94
340.93	85.94
341.158	75.94
341.386	93.94
341.614	93.94
341.842	78.94
342.07	87.94
342.298	78.94
342.526	75.94
342.754	92.94
342.981	85.94
343.209	95.94
343.437	102.94
343.665	87.94
343.893	100.94
344.12	84.94
344.348	86.94
344.576	92.94
344.804	96.94
345.031	91.94
345.259	96.94
345.487	93.94
345.714	95.94
345.942	98.94
346.17	100.94
346.397	104.94
346.625	88.94
346.853	74.94
347.08	76.94
347.308	88.94
347.535	99.94
347.763	107.94
347.99	101.94
348.218	100.94
348.445	94.94
348.673	99.94
348.9	84.94
349.128	103.94
349.355	84.94
349.583	85.94
349.81	94.94
350.037	89.94
350.265	89.94
350.492	96.94
350.72	96.94
350.947	101.94
351.174	103.94
351.402	104.94
351.629	115.94
351.856	114.94
352.083	106.94
352.311	106.94
352.538	112.94
352.765	114.94
352.992	120.94
353.22	107.94
353.447	111.94
353.674	98.94
353.901	103.94
354.128	94.94
354.355	93.94
354.583	101.94
354.81	97.94
355.037	98.94
355.264	104.94
355.491	79.94
355.718	96.94
355.945	92.94
356.172	88.94
356.399	91.94
356.626	93.94
356.853	93.94
357.08	79.94
357.307	89.94
357.534	101.94
357.761	93.94
357.988	90.94
358.215	100.94
358.441	87.94
358.668	92.94
358.895	75.94
359.122	87.94
359.349	83.94
359.576	90.94
359.802	107.94
360.029	128.94
360.256	106.94
360.483	113.94
360.709	87.94
360.936	83.94
361.163	103.94
361.39	95.94
361.616	100.94
361.843	97.94
362.07	99.94
362.296	93.94
362.523	92.94
362.749	96.94
362.976	108.94
363.203	88.94
363.429	89.94
363.656	79.94
363.882	91.94
364.109	86.94
364.335	82.94
364.562	92.94
364.788	83.94
365.015	106.94
365.241	99.94
365.468	117.94
365.694	100.94
365.92	103.94
366.147	99.94
366.373	96.94
366.599	78.94
366.826	92.94
367.052	89.94
367.278	84.94
367.505	91.94
367.731	102.94
367.957	105.94
368.184	82.94
368.41	109.94
368.636	107.94
368.862	120.94
369.089	107.94
369.315	102.94
369.541	89.94
369.767	82.94
369.993	95.94
370.219	81.94
370.445	81.94
370.672	89.94
370.898	84.94
371.124	89.94
371.35	80.94
371.576	101.94
371.802	88.94
372.028	94.94
372.254	74.94
372.48	99.94
372.706	79.94
372.932	79.94
373.158	85.94
373.384	86.94
373.61	92.94
373.835	82.94
374.061	92.94
374.287	96.94
374.513	96.94
374.739	106.94
374.965	92.94
375.191	95.94
375.416	90.94
375.642	80.94
375.868	92.94
376.094	93.94
376.319	84.94
376.545	85.94
376.771	89.94
376.997	96.94
377.222	89.94
377.448	87.94
377.674	90.94
377.899	84.94
378.125	85.94
378.35	92.94
378.576	94.94
378.802	89.94
379.027	90.94
379.253	106.94
379.478	97.94
379.704	91.94
379.929	84.94
380.155	92.94
380.38	89.94
380.606	94.94
380.831	96.94
381.057	95.94
381.282	85.94
381.507	88.94
381.733	101.94
381.958	97.94
382.184	117.94
382.409	92.94
382.634	103.94
382.86	105.94
383.085	99.94
383.31	105.94
383.535	100.94
383.761	89.94
383.986	99.94
384.211	100.94
384.436	100.94
384.662	95.94
384.887	99.94
385.112	111.94
385.337	101.94
385.562	100.94
385.787	99.94
386.013	92.94
386.238	111.94
386.463	97.94
386.688	102.94
386.913	100.94
387.138	99.94
387.363	102.94
387.588	103.94
387.813	98.94
388.038	101.94
388.263	106.94
388.488	110.94
388.713	91.94
388.938	88.94
389.163	72.94
389.387	104.94
389.612	78.94
389.837	87.94
390.062	88.94
390.287	90.94
390.512	104.94
390.736	97.94
390.961	82.94
391.186	83.94
391.411	99.94
391.636	72.94
391.86	96.94
392.085	92.94
392.31	76.94
392.534	85.94
392.759	80.94
392.984	102.94
393.208	87.94
393.433	98.94
393.658	90.94
393.882	90.94
394.107	80.94
394.331	91.94
394.556	92.94
394.78	94.94
395.005	80.94
395.229	82.94
395.454	95.94
395.678	90.94
395.903	90.94
396.127	90.94
396.352	99.94
396.576	89.94
396.801	93.94
397.025	94.94
397.249	75.94
397.474	95.94
397.698	97.94
397.922	93.94
398.147	90.94
398.371	95.94
398.595	87.94
398.82	79.94
399.044	86.94
399.268	83.94
399.492	84.94
399.717	101.94
399.941	88.94
400.165	89.94
400.389	72.94
400.613	87.94
400.837	79.94
401.062	82.94
401.286	79.94
401.51	81.94
401.734	87.94
401.958	100.94
402.182	138.94
402.406	163.94
402.63	124.94
402.854	95.94
403.078	82.94
403.302	76.94
403.526	74.94
403.75	103.94
403.974	101.94
404.198	82.94
404.422	108.94
404.645	75.94
404.869	97.94
405.093	119.94
405.317	130.94
405.541	136.94
405.765	119.94
405.988	124.94
406.212	180.94
406.436	261.94
406.66	175.94
406.883	108.94
407.107	119.94
407.331	97.94
407.555	105.94
407.778	99.94
408.002	89.94
408.226	87.94
408.449	112.94
408.673	77.94
408.896	112.94
409.12	90.94
409.344	91.94
409.567	76.94
409.791	99.94
410.014	95.94
410.238	79.94
410.461	87.94
410.685	88.94
410.908	93.94
411.132	107.94
411.355	100.94
411.578	87.94
411.802	79.94
412.025	83.94
412.249	100.94
412.472	101.94
412.695	118.94
412.919	99.94
413.142	77.94
413.365	91.94
413.589	90.94
413.812	93.94
414.035	89.94
414.258	95.94
414.482	85.94
414.705	100.94
414.928	90.94
415.151	83.94
415.374	90.94
415.597	84.94
415.821	90.94
416.044	86.94
416.267	96.94
416.49	89.94
416.713	88.94
416.936	75.94
417.159	90.94
417.382	96.94
417.605	89.94
417.828	104.94
418.051	109.94
418.274	86.94
418.497	83.94
418.72	86.94
418.943	93.94
419.166	82.94
419.389	90.94
419.611	93.94
419.834	104.94
420.057	93.94
420.28	99.94
420.503	89.94
420.726	95.94
420.948	83.94
421.171	88.94
421.394	101.94
421.617	82.94
421.839	87.94
422.062	97.94
422.285	100.94
422.507	108.94
422.73	95.94
422.953	100.94
423.175	81.94
423.398	85.94
423.621	89.94
423.843	77.94
424.066	87.94
424.288	77.94
424.511	82.94
424.733	100.94
424.956	108.94
425.178	107.94
425.401	94.94
425.623	98.94
425.846	89.94
426.068	97.94
426.291	106.94
426.513	83.94
426.735	84.94
426.958	101.94
427.18	121.94
427.402	180.94
427.625	219.94
427.847	182.94
428.069	198.94
428.292	111.94
428.514	82.94
428.736	91.94
428.958	87.94
429.181	93.94
429.403	103.94
429.625	96.94
429.847	79.94
430.069	100.94
430.292	93.94
430.514	95.94
430.736	78.94
430.958	90.94
431.18	92.94
431.402	89.94
431.624	98.94
431.846	85.94
432.068	90.94
432.29	86.94
432.512	105.94
432.734	76.94
432.956	83.94
433.178	110.94
433.4	91.94
433.622	96.94
433.844	90.94
434.066	89.94
434.287	88.94
434.509	79.94
434.731	72.94
434.953	92.94
435.175	95.94
435.397	87.94
435.618	92.94
435.84	115.94
436.062	124.94
436.284	120.94
436.505	103.94
436.727	85.94
436.949	103.94
437.17	91.94
437.392	91.94
437.614	101.94
437.835	98.94
438.057	133.94
438.278	135.94
438.5	113.94
438.721	138.94
438.943	112.94
439.165	92.94
439.386	109.94
439.608	107.94
439.829	97.94
440.05	156.94
440.272	159.94
440.493	99.94
440.715	85.94
440.936	89.94
441.158	89.94
441.379	89.94
441.6	109.94
441.822	98.94
442.043	103.94
442.264	101.94
442.486	114.94
442.707	101.94
442.928	116.94
443.149	144.94
443.371	147.94
443.592	108.94
443.813	113.94
444.034	99.94
444.255	105.94
444.476	93.94
444.698	95.94
444.919	84.94
445.14	138.94
445.361	128.94
445.582	139.94
445.803	143.94
446.024	146.94
446.245	162.94
446.466	134.94
446.687	91.94
446.908	85.94
447.129	82.94
447.35	87.94
447.571	97.94
447.792	98.94
448.013	98.94
448.234	109.94
448.455	110.94
448.675	114.94
448.896	141.94
449.117	105.94
449.338	101.94
449.559	132.94
449.779	149.94
450	96.94
450.221	93.94
450.442	88.94
450.662	101.94
450.883	108.94
451.104	131.94
451.324	100.94
451.545	77.94
451.766	89.94
451.986	89.94
452.207	95.94
452.428	105.94
452.648	97.94
452.869	101.94
453.089	111.94
453.31	114.94
453.53	83.94
453.751	81.94
453.971	108.94
454.192	120.94
454.412	81.94
454.633	94.94
454.853	93.94
455.073	84.94
455.294	99.94
455.514	100.94
455.734	88.94
455.955	88.94
456.175	77.94
456.395	77.94
456.616	79.94
456.836	86.94
457.056	87.94
457.276	98.94
457.497	90.94
457.717	67.94
457.937	68.94
458.157	71.94
458.377	93.94
458.598	127.94
458.818	161.94
459.038	180.94
459.258	117.94
459.478	95.94
459.698	88.94
459.918	89.94
460.138	92.94
460.358	89.94
460.578	89.94
460.798	101.94
461.018	105.94
461.238	90.94
461.458	88.94
461.678	78.94
461.898	95.94
462.118	93.94
462.338	93.94
462.558	81.94
462.777	84.94
462.997	91.94
463.217	96.94
463.437	83.94
463.657	83.94
463.876	64.94
464.096	92.94
464.316	89.94
464.536	99.94
464.755	101.94
464.975	128.94
465.195	176.94
465.414	200.94
465.634	104.94
465.854	79.94
466.073	93.94
466.293	83.94
466.512	104.94
466.732	91.94
466.951	86.94
467.171	95.94
467.391	100.94
467.61	126.94
467.829	169.94
468.049	383.94
468.268	520.94
468.488	162.94
468.707	107.94
468.927	87.94
469.146	88.94
469.365	96.94
469.585	101.94
469.804	93.94
470.023	106.94
470.243	97.94
470.462	116.94
470.681	130.94
470.901	98.94
471.12	96.94
471.339	92.94
471.558	98.94
471.777	145.94
471.997	243.94
472.216	721.94
472.435	1548.94
472.654	393.94
472.873	129.94
473.092	107.94
473.311	99.94
473.53	84.94
473.749	84.94
473.968	103.94
474.187	115.94
474.406	96.94
474.625	96.94
474.844	90.94
475.063	93.94
475.282	88.94
475.501	87.94
475.72	92.94
475.939	89.94
476.158	100.94
476.377	81.94
476.596	99.94
476.814	97.94
477.033	86.94
477.252	90.94
477.471	89.94
477.69	82.94
477.908	78.94
478.127	98.94
478.346	89.94
478.564	100.94
478.783	105.94
479.002	90.94
479.22	92.94
479.439	112.94
479.658	110.94
479.876	132.94
480.095	115.94
480.313	119.94
480.532	146.94
480.751	213.94
480.969	690.94
481.188	2708.94
481.406	1561.94
481.624	249.94
481.843	92.94
482.061	106.94
482.28	95.94
482.498	94.94
482.717	95.94
482.935	92.94
483.153	88.94
483.372	90.94
483.59	89.94
483.808	84.94
484.027	89.94
484.245	91.94
484.463	97.94
484.681	112.94
484.9	73.94
485.118	90.94
485.336	85.94
485.554	85.94
485.772	98.94
485.99	97.94
486.209	115.94
486.427	108.94
486.645	110.94
486.863	108.94
487.081	95.94
487.299	97.94
487.517	85.94
487.735	88.94
487.953	96.94
488.171	84.94
488.389	93.94
488.607	115.94
488.825	96.94
489.043	81.94
489.261	108.94
489.479	84.94
489.696	71.94
489.914	89.94
490.132	88.94
490.35	101.94
490.568	87.94
490.786	104.94
491.003	74.94
491.221	98.94
491.439	102.94
491.657	83.94
491.874	98.94
492.092	96.94
492.31	92.94
492.527	96.94
492.745	89.94
492.963	86.94
493.18	89.94
493.398	85.94
493.615	81.94
493.833	101.94
494.05	88.94
494.268	91.94
494.485	97.94
494.703	89.94
494.92	86.94
495.138	82.94
495.355	91.94
495.573	93.94
495.79	88.94
496.008	91.94
496.225	90.94
496.442	98.94
496.66	96.94
496.877	78.94
497.094	85.94
497.312	96.94
497.529	85.94
497.746	80.94
497.963	97.94
498.181	93.94
498.398	88.94
498.615	116.94
498.832	102.94
499.049	98.94
499.267	93.94
499.484	90.94
499.701	87.94
499.918	75.94
500.135	92.94
500.352	87.94
500.569	100.94
500.786	93.94
501.003	98.94
501.22	98.94
501.437	90.94
501.654	85.94
501.871	108.94
502.088	99.94
502.305	95.94
502.522	92.94
502.739	79.94
502.956	83.94
503.172	90.94
503.389	84.94
503.606	104.94
503.823	86.94
504.04	100.94
504.256	76.94
504.473	81.94
504.69	93.94
504.907	100.94
505.123	93.94
505.34	91.94
505.557	96.94
505.773	95.94
505.99	89.94
506.207	90.94
506.423	79.94
506.64	93.94
506.856	92.94
507.073	92.94
507.289	96.94
507.506	95.94
507.722	120.94
507.939	109.94
508.155	98.94
508.372	92.94
508.588	90.94
508.805	92.94
509.021	96.94
509.238	94.94
509.454	85.94
509.67	100.94
509.887	100.94
510.103	134.94
510.319	219.94
510.536	708.94
510.752	2281.94
510.968	645.94
511.184	158.94
511.401	113.94
511.617	92.94
511.833	101.94
512.049	107.94
512.265	91.94
512.481	91.94
512.698	92.94
512.914	85.94
513.13	111.94
513.346	81.94
513.562	90.94
513.778	112.94
513.994	109.94
514.21	106.94
514.426	121.94
