Data from Circ_2001_H10_HRD10591_00067.txt Node
Date: Wed Jan 03 10:45:52 EST 2024
User: Yrep
Spectrometer: HR+D1059
Trigger mode: 1
Integration Time (sec): 1.000000E-1
Scans to average: 1
Electric dark correction enabled: true
Nonlinearity correction enabled: false
Boxcar width: 0
XAxis mode: Wavelengths
Number of Pixels in Spectrum: 2048
>>>>>Begin Spectral Data<<<<<
223.165	-17.75
223.4	-17.75
223.635	-17.75
223.869	-9.75
224.104	-25.75
224.338	-14.75
224.573	-12.75
224.808	-15.75
225.042	-17.75
225.277	3.25
225.511	-3.75
225.746	-0.75
225.98	8.25
226.215	13.25
226.449	15.25
226.683	21.25
226.918	23.25
227.152	34.25
227.387	29.25
227.621	41.25
227.856	38.25
228.09	35.25
228.324	43.25
228.559	51.25
228.793	47.25
229.027	61.25
229.262	62.25
229.496	73.25
229.73	85.25
229.964	94.25
230.199	71.25
230.433	77.25
230.667	69.25
230.901	67.25
231.136	80.25
231.37	66.25
231.604	69.25
231.838	76.25
232.072	80.25
232.306	69.25
232.541	81.25
232.775	69.25
233.009	97.25
233.243	71.25
233.477	62.25
233.711	81.25
233.945	64.25
234.179	76.25
234.413	86.25
234.647	68.25
234.881	72.25
235.115	66.25
235.349	67.25
235.583	69.25
235.817	80.25
236.051	75.25
236.285	73.25
236.519	75.25
236.753	77.25
236.987	79.25
237.221	99.25
237.455	85.25
237.689	63.25
237.922	71.25
238.156	55.25
238.39	95.25
238.624	79.25
238.858	71.25
239.091	63.25
239.325	69.25
239.559	71.25
239.793	72.25
240.027	85.25
240.26	76.25
240.494	76.25
240.728	80.25
240.961	76.25
241.195	75.25
241.429	71.25
241.662	69.25
241.896	70.25
242.13	67.25
242.363	83.25
242.597	80.25
242.83	69.25
243.064	85.25
243.298	92.25
243.531	66.25
243.765	76.25
243.998	75.25
244.232	72.25
244.465	87.25
244.699	77.25
244.932	72.25
245.166	76.25
245.399	80.25
245.633	73.25
245.866	65.25
246.099	83.25
246.333	76.25
246.566	83.25
246.8	84.25
247.033	86.25
247.266	66.25
247.5	81.25
247.733	86.25
247.966	77.25
248.2	86.25
248.433	86.25
248.666	86.25
248.899	76.25
249.133	88.25
249.366	88.25
249.599	80.25
249.832	84.25
250.066	88.25
250.299	77.25
250.532	82.25
250.765	85.25
250.998	77.25
251.231	74.25
251.465	75.25
251.698	85.25
251.931	88.25
252.164	88.25
252.397	78.25
252.63	89.25
252.863	95.25
253.096	69.25
253.329	84.25
253.562	80.25
253.795	71.25
254.028	73.25
254.261	80.25
254.494	77.25
254.727	82.25
254.96	80.25
255.193	68.25
255.426	74.25
255.659	78.25
255.892	79.25
256.124	86.25
256.357	69.25
256.59	74.25
256.823	68.25
257.056	65.25
257.289	84.25
257.521	80.25
257.754	88.25
257.987	76.25
258.22	89.25
258.452	82.25
258.685	85.25
258.918	78.25
259.151	85.25
259.383	87.25
259.616	75.25
259.849	86.25
260.081	84.25
260.314	79.25
260.547	82.25
260.779	84.25
261.012	86.25
261.244	94.25
261.477	80.25
261.71	89.25
261.942	97.25
262.175	99.25
262.407	89.25
262.64	80.25
262.872	88.25
263.105	87.25
263.337	75.25
263.57	83.25
263.802	78.25
264.035	77.25
264.267	78.25
264.499	89.25
264.732	84.25
264.964	89.25
265.197	85.25
265.429	84.25
265.661	80.25
265.894	85.25
266.126	92.25
266.358	86.25
266.591	86.25
266.823	78.25
267.055	79.25
267.287	95.25
267.52	92.25
267.752	93.25
267.984	79.25
268.216	75.25
268.448	90.25
268.681	86.25
268.913	80.25
269.145	80.25
269.377	73.25
269.609	72.25
269.841	73.25
270.073	72.25
270.306	77.25
270.538	85.25
270.77	76.25
271.002	82.25
271.234	71.25
271.466	86.25
271.698	88.25
271.93	87.25
272.162	83.25
272.394	80.25
272.626	89.25
272.858	93.25
273.09	81.25
273.322	75.25
273.553	67.25
273.785	77.25
274.017	92.25
274.249	82.25
274.481	71.25
274.713	88.25
274.945	85.25
275.176	84.25
275.408	82.25
275.64	96.25
275.872	84.25
276.104	101.25
276.335	102.25
276.567	115.25
276.799	103.25
277.031	135.25
277.262	144.25
277.494	110.25
277.726	94.25
277.957	63.25
278.189	74.25
278.421	77.25
278.652	84.25
278.884	83.25
279.115	85.25
279.347	79.25
279.579	93.25
279.81	101.25
280.042	142.25
280.273	166.25
280.505	128.25
280.736	105.25
280.968	88.25
281.199	90.25
281.431	83.25
281.662	98.25
281.894	84.25
282.125	92.25
282.356	127.25
282.588	133.25
282.819	116.25
283.051	79.25
283.282	95.25
283.513	89.25
283.745	72.25
283.976	78.25
284.207	72.25
284.439	86.25
284.67	91.25
284.901	83.25
285.132	68.25
285.364	85.25
285.595	89.25
285.826	87.25
286.057	81.25
286.288	104.25
286.52	93.25
286.751	78.25
286.982	72.25
287.213	88.25
287.444	74.25
287.675	84.25
287.906	70.25
288.138	88.25
288.369	88.25
288.6	83.25
288.831	91.25
289.062	84.25
289.293	95.25
289.524	81.25
289.755	73.25
289.986	65.25
290.217	76.25
290.448	82.25
290.679	69.25
290.91	80.25
291.141	93.25
291.371	94.25
291.602	69.25
291.833	77.25
292.064	78.25
292.295	75.25
292.526	68.25
292.757	71.25
292.987	92.25
293.218	101.25
293.449	75.25
293.68	81.25
293.91	83.25
294.141	86.25
294.372	89.25
294.603	88.25
294.833	89.25
295.064	91.25
295.295	89.25
295.525	101.25
295.756	85.25
295.987	111.25
296.217	132.25
296.448	121.25
296.679	95.25
296.909	83.25
297.14	91.25
297.37	91.25
297.601	87.25
297.831	90.25
298.062	83.25
298.292	92.25
298.523	85.25
298.753	84.25
298.984	95.25
299.214	86.25
299.445	80.25
299.675	88.25
299.905	85.25
300.136	77.25
300.366	84.25
300.597	84.25
300.827	80.25
301.057	100.25
301.288	102.25
301.518	92.25
301.748	81.25
301.979	87.25
302.209	79.25
302.439	97.25
302.669	79.25
302.9	105.25
303.13	107.25
303.36	104.25
303.59	103.25
303.82	129.25
304.051	108.25
304.281	97.25
304.511	90.25
304.741	83.25
304.971	76.25
305.201	87.25
305.431	91.25
305.661	63.25
305.891	96.25
306.121	92.25
306.352	96.25
306.582	99.25
306.812	104.25
307.042	121.25
307.272	146.25
307.502	125.25
307.731	142.25
307.961	108.25
308.191	91.25
308.421	93.25
308.651	84.25
308.881	94.25
309.111	88.25
309.341	95.25
309.571	81.25
309.8	104.25
310.03	85.25
310.26	88.25
310.49	86.25
310.72	97.25
310.949	102.25
311.179	99.25
311.409	94.25
311.639	102.25
311.868	102.25
312.098	107.25
312.328	85.25
312.557	93.25
312.787	107.25
313.017	102.25
313.246	94.25
313.476	98.25
313.706	87.25
313.935	81.25
314.165	87.25
314.394	102.25
314.624	99.25
314.853	95.25
315.083	87.25
315.312	72.25
315.542	91.25
315.771	93.25
316.001	83.25
316.23	85.25
316.46	89.25
316.689	84.25
316.919	94.25
317.148	85.25
317.377	79.25
317.607	93.25
317.836	84.25
318.065	93.25
318.295	90.25
318.524	95.25
318.753	72.25
318.983	101.25
319.212	97.25
319.441	112.25
319.67	107.25
319.9	91.25
320.129	93.25
320.358	85.25
320.587	87.25
320.816	100.25
321.046	106.25
321.275	98.25
321.504	98.25
321.733	112.25
321.962	98.25
322.191	93.25
322.42	115.25
322.649	125.25
322.878	119.25
323.108	115.25
323.337	113.25
323.566	143.25
323.795	165.25
324.024	202.25
324.253	411.25
324.482	913.25
324.71	1911.25
324.939	2475.25
325.168	886.25
325.397	261.25
325.626	168.25
325.855	129.25
326.084	127.25
326.313	147.25
326.542	151.25
326.77	251.25
326.999	497.25
327.228	1048.25
327.457	1910.25
327.686	1483.25
327.914	459.25
328.143	372.25
328.372	409.25
328.6	259.25
328.829	160.25
329.058	157.25
329.287	151.25
329.515	145.25
329.744	200.25
329.972	314.25
330.201	637.25
330.43	871.25
330.658	410.25
330.887	213.25
331.115	139.25
331.344	94.25
331.572	116.25
331.801	96.25
332.03	106.25
332.258	99.25
332.486	90.25
332.715	98.25
332.943	99.25
333.172	97.25
333.4	113.25
333.629	131.25
333.857	185.25
334.085	305.25
334.314	612.25
334.542	1094.25
334.771	1040.25
334.999	293.25
335.227	132.25
335.455	99.25
335.684	107.25
335.912	100.25
336.14	83.25
336.369	96.25
336.597	106.25
336.825	81.25
337.053	87.25
337.281	104.25
337.51	99.25
337.738	90.25
337.966	99.25
338.194	88.25
338.422	89.25
338.65	99.25
338.878	86.25
339.106	91.25
339.334	95.25
339.562	78.25
339.79	82.25
340.018	93.25
340.246	86.25
340.474	97.25
340.702	88.25
340.93	95.25
341.158	93.25
341.386	87.25
341.614	92.25
341.842	99.25
342.07	80.25
342.298	92.25
342.526	79.25
342.754	87.25
342.981	79.25
343.209	70.25
343.437	103.25
343.665	86.25
343.893	82.25
344.12	104.25
344.348	86.25
344.576	89.25
344.804	87.25
345.031	105.25
345.259	88.25
345.487	99.25
345.714	99.25
345.942	87.25
346.17	97.25
346.397	97.25
346.625	89.25
346.853	91.25
347.08	103.25
347.308	83.25
347.535	86.25
347.763	104.25
347.99	100.25
348.218	108.25
348.445	94.25
348.673	89.25
348.9	104.25
349.128	99.25
349.355	98.25
349.583	99.25
349.81	87.25
350.037	89.25
350.265	105.25
350.492	93.25
350.72	93.25
350.947	105.25
351.174	104.25
351.402	104.25
351.629	97.25
351.856	109.25
352.083	100.25
352.311	91.25
352.538	128.25
352.765	99.25
352.992	110.25
353.22	126.25
353.447	109.25
353.674	82.25
353.901	96.25
354.128	84.25
354.355	97.25
354.583	97.25
354.81	91.25
355.037	89.25
355.264	83.25
355.491	100.25
355.718	89.25
355.945	85.25
356.172	86.25
356.399	104.25
356.626	96.25
356.853	101.25
357.08	103.25
357.307	87.25
357.534	78.25
357.761	74.25
357.988	87.25
358.215	91.25
358.441	87.25
358.668	84.25
358.895	84.25
359.122	88.25
359.349	83.25
359.576	109.25
359.802	91.25
360.029	123.25
360.256	102.25
360.483	103.25
360.709	96.25
360.936	92.25
361.163	97.25
361.39	98.25
361.616	92.25
361.843	96.25
362.07	75.25
362.296	78.25
362.523	73.25
362.749	103.25
362.976	77.25
363.203	90.25
363.429	82.25
363.656	94.25
363.882	96.25
364.109	90.25
364.335	95.25
364.562	91.25
364.788	104.25
365.015	88.25
365.241	101.25
365.468	113.25
365.694	87.25
365.92	97.25
366.147	85.25
366.373	88.25
366.599	93.25
366.826	95.25
367.052	88.25
367.278	80.25
367.505	93.25
367.731	82.25
367.957	82.25
368.184	98.25
368.41	97.25
368.636	110.25
368.862	105.25
369.089	110.25
369.315	104.25
369.541	95.25
369.767	88.25
369.993	92.25
370.219	96.25
370.445	85.25
370.672	78.25
370.898	84.25
371.124	90.25
371.35	91.25
371.576	83.25
371.802	77.25
372.028	97.25
372.254	95.25
372.48	95.25
372.706	104.25
372.932	76.25
373.158	91.25
373.384	79.25
373.61	89.25
373.835	103.25
374.061	95.25
374.287	100.25
374.513	95.25
374.739	80.25
374.965	82.25
375.191	82.25
375.416	89.25
375.642	84.25
375.868	81.25
376.094	84.25
376.319	99.25
376.545	92.25
376.771	87.25
376.997	85.25
377.222	78.25
377.448	81.25
377.674	88.25
377.899	98.25
378.125	92.25
378.35	82.25
378.576	86.25
378.802	78.25
379.027	88.25
379.253	97.25
379.478	93.25
379.704	85.25
379.929	88.25
380.155	84.25
380.38	88.25
380.606	97.25
380.831	88.25
381.057	105.25
381.282	91.25
381.507	84.25
381.733	91.25
381.958	84.25
382.184	94.25
382.409	92.25
382.634	91.25
382.86	102.25
383.085	88.25
383.31	85.25
383.535	97.25
383.761	89.25
383.986	93.25
384.211	84.25
384.436	102.25
384.662	96.25
384.887	89.25
385.112	107.25
385.337	86.25
385.562	99.25
385.787	104.25
386.013	100.25
386.238	109.25
386.463	108.25
386.688	111.25
386.913	89.25
387.138	97.25
387.363	93.25
387.588	87.25
387.813	96.25
388.038	107.25
388.263	94.25
388.488	96.25
388.713	89.25
388.938	93.25
389.163	89.25
389.387	89.25
389.612	84.25
389.837	97.25
390.062	94.25
390.287	107.25
390.512	84.25
390.736	104.25
390.961	105.25
391.186	95.25
391.411	72.25
391.636	95.25
391.86	89.25
392.085	74.25
392.31	90.25
392.534	91.25
392.759	80.25
392.984	81.25
393.208	89.25
393.433	102.25
393.658	88.25
393.882	87.25
394.107	93.25
394.331	87.25
394.556	84.25
394.78	85.25
395.005	83.25
395.229	67.25
395.454	76.25
395.678	88.25
395.903	84.25
396.127	89.25
396.352	92.25
396.576	93.25
396.801	83.25
397.025	86.25
397.249	80.25
397.474	71.25
397.698	90.25
397.922	93.25
398.147	84.25
398.371	87.25
398.595	90.25
398.82	86.25
399.044	88.25
399.268	80.25
399.492	90.25
399.717	77.25
399.941	88.25
400.165	90.25
400.389	80.25
400.613	78.25
400.837	79.25
401.062	83.25
401.286	68.25
401.51	78.25
401.734	99.25
401.958	102.25
402.182	133.25
402.406	164.25
402.63	113.25
402.854	92.25
403.078	87.25
403.302	77.25
403.526	99.25
403.75	83.25
403.974	80.25
404.198	87.25
404.422	85.25
404.645	101.25
404.869	99.25
405.093	112.25
405.317	123.25
405.541	120.25
405.765	101.25
405.988	116.25
406.212	166.25
406.436	231.25
406.66	148.25
406.883	107.25
407.107	77.25
407.331	84.25
407.555	103.25
407.778	96.25
408.002	89.25
408.226	80.25
408.449	90.25
408.673	82.25
408.896	85.25
409.12	87.25
409.344	84.25
409.567	88.25
409.791	87.25
410.014	110.25
410.238	83.25
410.461	110.25
410.685	91.25
410.908	94.25
411.132	109.25
411.355	95.25
411.578	88.25
411.802	84.25
412.025	91.25
412.249	88.25
412.472	105.25
412.695	107.25
412.919	85.25
413.142	93.25
413.365	80.25
413.589	88.25
413.812	96.25
414.035	80.25
414.258	95.25
414.482	85.25
414.705	94.25
414.928	74.25
415.151	89.25
415.374	90.25
415.597	68.25
415.821	77.25
416.044	76.25
416.267	87.25
416.49	83.25
416.713	83.25
416.936	77.25
417.159	90.25
417.382	91.25
417.605	96.25
417.828	103.25
418.051	87.25
418.274	84.25
418.497	78.25
418.72	85.25
418.943	77.25
419.166	99.25
419.389	88.25
419.611	93.25
419.834	93.25
420.057	84.25
420.28	77.25
420.503	81.25
420.726	93.25
420.948	88.25
421.171	93.25
421.394	95.25
421.617	73.25
421.839	70.25
422.062	86.25
422.285	88.25
422.507	84.25
422.73	116.25
422.953	81.25
423.175	82.25
423.398	99.25
423.621	84.25
423.843	74.25
424.066	83.25
424.288	86.25
424.511	77.25
424.733	115.25
424.956	122.25
425.178	88.25
425.401	91.25
425.623	89.25
425.846	77.25
426.068	94.25
426.291	85.25
426.513	95.25
426.735	84.25
426.958	101.25
427.18	107.25
427.402	163.25
427.625	194.25
427.847	184.25
428.069	185.25
428.292	124.25
428.514	85.25
428.736	87.25
428.958	88.25
429.181	91.25
429.403	87.25
429.625	87.25
429.847	73.25
430.069	105.25
430.292	104.25
430.514	74.25
430.736	72.25
430.958	78.25
431.18	82.25
431.402	89.25
431.624	75.25
431.846	71.25
432.068	83.25
432.29	87.25
432.512	86.25
432.734	87.25
432.956	93.25
433.178	92.25
433.4	92.25
433.622	91.25
433.844	86.25
434.066	93.25
434.287	87.25
434.509	94.25
434.731	88.25
434.953	78.25
435.175	93.25
435.397	96.25
435.618	80.25
435.84	95.25
436.062	117.25
436.284	118.25
436.505	107.25
436.727	109.25
436.949	65.25
437.17	77.25
437.392	76.25
437.614	105.25
437.835	103.25
438.057	120.25
438.278	105.25
438.5	101.25
438.721	111.25
438.943	114.25
439.165	94.25
439.386	77.25
439.608	110.25
439.829	95.25
440.05	114.25
440.272	163.25
440.493	89.25
440.715	96.25
440.936	83.25
441.158	84.25
441.379	83.25
441.6	111.25
441.822	89.25
442.043	89.25
442.264	96.25
442.486	93.25
442.707	95.25
442.928	108.25
443.149	135.25
443.371	135.25
443.592	111.25
443.813	126.25
444.034	125.25
444.255	83.25
444.476	81.25
444.698	92.25
444.919	89.25
445.14	123.25
445.361	116.25
445.582	126.25
445.803	141.25
446.024	147.25
446.245	138.25
446.466	126.25
446.687	104.25
446.908	66.25
447.129	87.25
447.35	83.25
447.571	108.25
447.792	89.25
448.013	92.25
448.234	100.25
448.455	92.25
448.675	107.25
448.896	137.25
449.117	95.25
449.338	102.25
449.559	115.25
449.779	152.25
450	108.25
450.221	88.25
450.442	96.25
450.662	95.25
450.883	101.25
451.104	116.25
451.324	88.25
451.545	81.25
451.766	88.25
451.986	88.25
452.207	82.25
452.428	79.25
452.648	103.25
452.869	102.25
453.089	103.25
453.31	107.25
453.53	95.25
453.751	87.25
453.971	95.25
454.192	104.25
454.412	94.25
454.633	83.25
454.853	94.25
455.073	79.25
455.294	80.25
455.514	84.25
455.734	97.25
455.955	80.25
456.175	77.25
456.395	80.25
456.616	80.25
456.836	91.25
457.056	77.25
457.276	72.25
457.497	77.25
457.717	83.25
457.937	78.25
458.157	91.25
458.377	80.25
458.598	111.25
458.818	148.25
459.038	167.25
459.258	122.25
459.478	88.25
459.698	74.25
459.918	88.25
460.138	77.25
460.358	94.25
460.578	85.25
460.798	98.25
461.018	99.25
461.238	93.25
461.458	76.25
461.678	85.25
461.898	89.25
462.118	85.25
462.338	78.25
462.558	81.25
462.777	87.25
462.997	96.25
463.217	100.25
463.437	94.25
463.657	101.25
463.876	76.25
464.096	95.25
464.316	91.25
464.536	91.25
464.755	98.25
464.975	113.25
465.195	175.25
465.414	165.25
465.634	95.25
465.854	96.25
466.073	99.25
466.293	83.25
466.512	84.25
466.732	70.25
466.951	76.25
467.171	90.25
467.391	104.25
467.61	140.25
467.829	165.25
468.049	385.25
468.268	525.25
468.488	158.25
468.707	91.25
468.927	89.25
469.146	87.25
469.365	88.25
469.585	85.25
469.804	89.25
470.023	88.25
470.243	95.25
470.462	109.25
470.681	103.25
470.901	96.25
471.12	91.25
471.339	99.25
471.558	108.25
471.777	134.25
471.997	207.25
472.216	726.25
472.435	1520.25
472.654	392.25
472.873	130.25
473.092	98.25
473.311	80.25
473.53	83.25
473.749	84.25
473.968	92.25
474.187	99.25
474.406	103.25
474.625	78.25
474.844	103.25
475.063	104.25
475.282	80.25
475.501	87.25
475.72	94.25
475.939	81.25
476.158	92.25
476.377	95.25
476.596	75.25
476.814	95.25
477.033	86.25
477.252	97.25
477.471	76.25
477.69	75.25
477.908	79.25
478.127	86.25
478.346	88.25
478.564	83.25
478.783	99.25
479.002	107.25
479.22	92.25
479.439	116.25
479.658	112.25
479.876	114.25
480.095	104.25
480.313	114.25
480.532	148.25
480.751	208.25
480.969	690.25
481.188	2721.25
481.406	1528.25
481.624	231.25
481.843	111.25
482.061	99.25
482.28	101.25
482.498	89.25
482.717	78.25
482.935	84.25
483.153	81.25
483.372	86.25
483.59	80.25
483.808	80.25
484.027	95.25
484.245	78.25
484.463	91.25
484.681	82.25
484.9	90.25
485.118	96.25
485.336	86.25
485.554	78.25
485.772	101.25
485.99	103.25
486.209	86.25
486.427	101.25
486.645	110.25
486.863	107.25
487.081	112.25
487.299	100.25
487.517	93.25
487.735	72.25
487.953	76.25
488.171	85.25
488.389	83.25
488.607	94.25
488.825	89.25
489.043	70.25
489.261	63.25
489.479	81.25
489.696	77.25
489.914	80.25
490.132	86.25
490.35	76.25
490.568	82.25
490.786	79.25
491.003	81.25
491.221	89.25
491.439	83.25
491.657	93.25
491.874	89.25
492.092	94.25
492.31	88.25
492.527	86.25
492.745	81.25
492.963	91.25
493.18	97.25
493.398	86.25
493.615	83.25
493.833	96.25
494.05	89.25
494.268	88.25
494.485	80.25
494.703	95.25
494.92	78.25
495.138	82.25
495.355	75.25
495.573	76.25
495.79	83.25
496.008	96.25
496.225	77.25
496.442	76.25
496.66	95.25
496.877	96.25
497.094	86.25
497.312	99.25
497.529	79.25
497.746	84.25
497.963	87.25
498.181	84.25
498.398	88.25
498.615	112.25
498.832	107.25
499.049	86.25
499.267	105.25
499.484	97.25
499.701	79.25
499.918	91.25
500.135	97.25
500.352	89.25
500.569	75.25
500.786	96.25
501.003	78.25
501.22	90.25
501.437	80.25
501.654	96.25
501.871	97.25
502.088	84.25
502.305	95.25
502.522	90.25
502.739	88.25
502.956	94.25
503.172	100.25
503.389	90.25
503.606	106.25
503.823	99.25
504.04	95.25
504.256	80.25
504.473	87.25
504.69	82.25
504.907	93.25
505.123	86.25
505.34	93.25
505.557	80.25
505.773	75.25
505.99	83.25
506.207	86.25
506.423	99.25
506.64	94.25
506.856	72.25
507.073	73.25
507.289	100.25
507.506	100.25
507.722	105.25
507.939	98.25
508.155	81.25
508.372	75.25
508.588	85.25
508.805	79.25
509.021	83.25
509.238	103.25
509.454	75.25
509.67	101.25
509.887	95.25
510.103	127.25
510.319	211.25
510.536	720.25
510.752	2278.25
510.968	639.25
511.184	152.25
511.401	101.25
511.617	89.25
511.833	103.25
512.049	83.25
512.265	97.25
512.481	74.25
512.698	76.25
512.914	94.25
513.13	87.25
513.346	91.25
513.562	81.25
513.778	89.25
513.994	91.25
514.21	77.25
514.426	116.25
514.642	150.25
514.858	126.25
515.074	171.25
515.29	502.25
515.506	1634.25
515.721	601.25
