Data from Circ_2001_H10_HRD10591_00064.txt Node
Date: Wed Jan 03 10:45:51 EST 2024
User: Yrep
Spectrometer: HR+D1059
Trigger mode: 1
Integration Time (sec): 1.000000E-1
Scans to average: 1
Electric dark correction enabled: true
Nonlinearity correction enabled: false
Boxcar width: 0
XAxis mode: Wavelengths
Number of Pixels in Spectrum: 2048
>>>>>Begin Spectral Data<<<<<
223.165	-15.06
223.4	-15.06
223.635	-15.06
223.869	-28.06
224.104	-24.06
224.338	-32.06
224.573	-7.06
224.808	-11.06
225.042	-13.06
225.277	-4.06
225.511	1.94
225.746	6.94
225.98	2.94
226.215	17.94
226.449	21.94
226.683	20.94
226.918	30.94
227.152	30.94
227.387	27.94
227.621	46.94
227.856	35.94
228.09	38.94
228.324	54.94
228.559	56.94
228.793	57.94
229.027	79.94
229.262	68.94
229.496	63.94
229.73	103.94
229.964	81.94
230.199	82.94
230.433	71.94
230.667	74.94
230.901	83.94
231.136	80.94
231.37	66.94
231.604	84.94
231.838	76.94
232.072	79.94
232.306	75.94
232.541	67.94
232.775	79.94
233.009	86.94
233.243	72.94
233.477	88.94
233.711	77.94
233.945	92.94
234.179	83.94
234.413	79.94
234.647	81.94
234.881	89.94
235.115	77.94
235.349	89.94
235.583	68.94
235.817	78.94
236.051	69.94
236.285	81.94
236.519	81.94
236.753	78.94
236.987	76.94
237.221	87.94
237.455	102.94
237.689	72.94
237.922	70.94
238.156	69.94
238.39	81.94
238.624	80.94
238.858	69.94
239.091	71.94
239.325	88.94
239.559	98.94
239.793	69.94
240.027	78.94
240.26	71.94
240.494	79.94
240.728	73.94
240.961	84.94
241.195	69.94
241.429	80.94
241.662	68.94
241.896	76.94
242.13	76.94
242.363	73.94
242.597	74.94
242.83	74.94
243.064	75.94
243.298	64.94
243.531	69.94
243.765	81.94
243.998	76.94
244.232	97.94
244.465	86.94
244.699	82.94
244.932	75.94
245.166	76.94
245.399	83.94
245.633	68.94
245.866	69.94
246.099	70.94
246.333	69.94
246.566	82.94
246.8	82.94
247.033	75.94
247.266	78.94
247.5	76.94
247.733	87.94
247.966	59.94
248.2	73.94
248.433	66.94
248.666	70.94
248.899	73.94
249.133	91.94
249.366	97.94
249.599	105.94
249.832	88.94
250.066	68.94
250.299	80.94
250.532	93.94
250.765	84.94
250.998	79.94
251.231	80.94
251.465	96.94
251.698	64.94
251.931	80.94
252.164	84.94
252.397	71.94
252.63	85.94
252.863	74.94
253.096	71.94
253.329	78.94
253.562	75.94
253.795	73.94
254.028	84.94
254.261	74.94
254.494	80.94
254.727	92.94
254.96	91.94
255.193	98.94
255.426	84.94
255.659	86.94
255.892	86.94
256.124	83.94
256.357	89.94
256.59	73.94
256.823	70.94
257.056	87.94
257.289	74.94
257.521	85.94
257.754	73.94
257.987	77.94
258.22	89.94
258.452	105.94
258.685	89.94
258.918	73.94
259.151	60.94
259.383	76.94
259.616	78.94
259.849	73.94
260.081	84.94
260.314	90.94
260.547	91.94
260.779	94.94
261.012	91.94
261.244	97.94
261.477	102.94
261.71	97.94
261.942	113.94
262.175	140.94
262.407	103.94
262.64	84.94
262.872	75.94
263.105	91.94
263.337	88.94
263.57	78.94
263.802	84.94
264.035	80.94
264.267	91.94
264.499	70.94
264.732	80.94
264.964	78.94
265.197	82.94
265.429	84.94
265.661	81.94
265.894	70.94
266.126	89.94
266.358	82.94
266.591	78.94
266.823	83.94
267.055	76.94
267.287	96.94
267.52	82.94
267.752	89.94
267.984	92.94
268.216	71.94
268.448	77.94
268.681	82.94
268.913	88.94
269.145	84.94
269.377	78.94
269.609	92.94
269.841	83.94
270.073	80.94
270.306	79.94
270.538	67.94
270.77	90.94
271.002	88.94
271.234	92.94
271.466	94.94
271.698	84.94
271.93	90.94
272.162	84.94
272.394	97.94
272.626	89.94
272.858	87.94
273.09	84.94
273.322	94.94
273.553	62.94
273.785	88.94
274.017	97.94
274.249	84.94
274.481	85.94
274.713	90.94
274.945	82.94
275.176	98.94
275.408	94.94
275.64	94.94
275.872	99.94
276.104	104.94
276.335	86.94
276.567	107.94
276.799	128.94
277.031	144.94
277.262	159.94
277.494	126.94
277.726	97.94
277.957	93.94
278.189	92.94
278.421	73.94
278.652	75.94
278.884	82.94
279.115	76.94
279.347	88.94
279.579	102.94
279.81	127.94
280.042	172.94
280.273	205.94
280.505	154.94
280.736	97.94
280.968	92.94
281.199	89.94
281.431	78.94
281.662	83.94
281.894	108.94
282.125	100.94
282.356	122.94
282.588	142.94
282.819	130.94
283.051	92.94
283.282	83.94
283.513	98.94
283.745	91.94
283.976	77.94
284.207	99.94
284.439	85.94
284.67	97.94
284.901	75.94
285.132	84.94
285.364	79.94
285.595	92.94
285.826	78.94
286.057	95.94
286.288	94.94
286.52	98.94
286.751	79.94
286.982	71.94
287.213	89.94
287.444	98.94
287.675	99.94
287.906	91.94
288.138	90.94
288.369	87.94
288.6	91.94
288.831	95.94
289.062	90.94
289.293	97.94
289.524	81.94
289.755	95.94
289.986	84.94
290.217	91.94
290.448	93.94
290.679	83.94
290.91	91.94
291.141	87.94
291.371	88.94
291.602	103.94
291.833	103.94
292.064	98.94
292.295	83.94
292.526	91.94
292.757	78.94
292.987	83.94
293.218	102.94
293.449	84.94
293.68	96.94
293.91	91.94
294.141	80.94
294.372	90.94
294.603	78.94
294.833	96.94
295.064	91.94
295.295	93.94
295.525	93.94
295.756	108.94
295.987	130.94
296.217	154.94
296.448	130.94
296.679	102.94
296.909	96.94
297.14	88.94
297.37	97.94
297.601	83.94
297.831	102.94
298.062	94.94
298.292	91.94
298.523	89.94
298.753	97.94
298.984	83.94
299.214	96.94
299.445	93.94
299.675	101.94
299.905	96.94
300.136	87.94
300.366	94.94
300.597	82.94
300.827	94.94
301.057	101.94
301.288	128.94
301.518	107.94
301.748	87.94
301.979	114.94
302.209	99.94
302.439	95.94
302.669	106.94
302.9	96.94
303.13	101.94
303.36	103.94
303.59	119.94
303.82	126.94
304.051	100.94
304.281	88.94
304.511	77.94
304.741	83.94
304.971	95.94
305.201	91.94
305.431	92.94
305.661	103.94
305.891	83.94
306.121	108.94
306.352	116.94
306.582	107.94
306.812	111.94
307.042	96.94
307.272	117.94
307.502	150.94
307.731	159.94
307.961	114.94
308.191	88.94
308.421	90.94
308.651	86.94
308.881	114.94
309.111	97.94
309.341	104.94
309.571	92.94
309.8	96.94
310.03	107.94
310.26	109.94
310.49	87.94
310.72	89.94
310.949	104.94
311.179	97.94
311.409	96.94
311.639	90.94
311.868	104.94
312.098	99.94
312.328	105.94
312.557	106.94
312.787	107.94
313.017	105.94
313.246	114.94
313.476	99.94
313.706	86.94
313.935	99.94
314.165	101.94
314.394	114.94
314.624	102.94
314.853	107.94
315.083	97.94
315.312	104.94
315.542	81.94
315.771	115.94
316.001	88.94
316.23	93.94
316.46	96.94
316.689	94.94
316.919	87.94
317.148	111.94
317.377	93.94
317.607	97.94
317.836	94.94
318.065	107.94
318.295	87.94
318.524	89.94
318.753	88.94
318.983	99.94
319.212	111.94
319.441	121.94
319.67	122.94
319.9	91.94
320.129	95.94
320.358	100.94
320.587	93.94
320.816	91.94
321.046	109.94
321.275	89.94
321.504	87.94
321.733	94.94
321.962	93.94
322.191	98.94
322.42	114.94
322.649	118.94
322.878	110.94
323.108	122.94
323.337	134.94
323.566	142.94
323.795	173.94
324.024	218.94
324.253	444.94
324.482	939.94
324.71	1907.94
324.939	2519.94
325.168	920.94
325.397	278.94
325.626	163.94
325.855	138.94
326.084	121.94
326.313	155.94
326.542	175.94
326.77	237.94
326.999	475.94
327.228	1034.94
327.457	1884.94
327.686	1513.94
327.914	512.94
328.143	429.94
328.372	526.94
328.6	304.94
328.829	185.94
329.058	178.94
329.287	185.94
329.515	162.94
329.744	204.94
329.972	400.94
330.201	758.94
330.43	1101.94
330.658	499.94
330.887	240.94
331.115	174.94
331.344	120.94
331.572	124.94
331.801	115.94
332.03	113.94
332.258	113.94
332.486	90.94
332.715	114.94
332.943	117.94
333.172	107.94
333.4	117.94
333.629	135.94
333.857	212.94
334.085	360.94
334.314	711.94
334.542	1337.94
334.771	1272.94
334.999	356.94
335.227	150.94
335.455	114.94
335.684	111.94
335.912	93.94
336.14	102.94
336.369	107.94
336.597	111.94
336.825	115.94
337.053	110.94
337.281	92.94
337.51	103.94
337.738	112.94
337.966	98.94
338.194	117.94
338.422	95.94
338.65	93.94
338.878	89.94
339.106	84.94
339.334	102.94
339.562	89.94
339.79	90.94
340.018	91.94
340.246	86.94
340.474	102.94
340.702	87.94
340.93	98.94
341.158	86.94
341.386	98.94
341.614	94.94
341.842	97.94
342.07	86.94
342.298	85.94
342.526	99.94
342.754	106.94
342.981	88.94
343.209	99.94
343.437	95.94
343.665	85.94
343.893	89.94
344.12	101.94
344.348	86.94
344.576	85.94
344.804	89.94
345.031	100.94
345.259	108.94
345.487	100.94
345.714	93.94
345.942	85.94
346.17	98.94
346.397	89.94
346.625	103.94
346.853	98.94
347.08	86.94
347.308	93.94
347.535	89.94
347.763	101.94
347.99	116.94
348.218	103.94
348.445	115.94
348.673	103.94
348.9	100.94
349.128	89.94
349.355	93.94
349.583	105.94
349.81	97.94
350.037	95.94
350.265	91.94
350.492	80.94
350.72	86.94
350.947	100.94
351.174	110.94
351.402	110.94
351.629	100.94
351.856	101.94
352.083	102.94
352.311	114.94
352.538	110.94
352.765	106.94
352.992	120.94
353.22	124.94
353.447	118.94
353.674	108.94
353.901	103.94
354.128	92.94
354.355	80.94
354.583	100.94
354.81	105.94
355.037	96.94
355.264	90.94
355.491	86.94
355.718	92.94
355.945	87.94
356.172	85.94
356.399	95.94
356.626	98.94
356.853	91.94
357.08	94.94
357.307	94.94
357.534	74.94
357.761	85.94
357.988	95.94
358.215	85.94
358.441	83.94
358.668	100.94
358.895	78.94
359.122	89.94
359.349	75.94
359.576	83.94
359.802	103.94
360.029	135.94
360.256	120.94
360.483	120.94
360.709	94.94
360.936	78.94
361.163	91.94
361.39	95.94
361.616	100.94
361.843	87.94
362.07	87.94
362.296	104.94
362.523	111.94
362.749	104.94
362.976	92.94
363.203	78.94
363.429	87.94
363.656	102.94
363.882	92.94
364.109	85.94
364.335	86.94
364.562	100.94
364.788	105.94
365.015	109.94
365.241	98.94
365.468	108.94
365.694	122.94
365.92	99.94
366.147	87.94
366.373	92.94
366.599	95.94
366.826	92.94
367.052	90.94
367.278	104.94
367.505	98.94
367.731	75.94
367.957	78.94
368.184	92.94
368.41	105.94
368.636	113.94
368.862	119.94
369.089	122.94
369.315	100.94
369.541	111.94
369.767	83.94
369.993	87.94
370.219	84.94
370.445	85.94
370.672	76.94
370.898	83.94
371.124	84.94
371.35	78.94
371.576	79.94
371.802	96.94
372.028	87.94
372.254	86.94
372.48	90.94
372.706	82.94
372.932	83.94
373.158	97.94
373.384	85.94
373.61	89.94
373.835	95.94
374.061	87.94
374.287	95.94
374.513	87.94
374.739	84.94
374.965	98.94
375.191	95.94
375.416	80.94
375.642	95.94
375.868	96.94
376.094	102.94
376.319	85.94
376.545	90.94
376.771	79.94
376.997	86.94
377.222	85.94
377.448	93.94
377.674	75.94
377.899	95.94
378.125	88.94
378.35	93.94
378.576	111.94
378.802	81.94
379.027	96.94
379.253	115.94
379.478	88.94
379.704	92.94
379.929	78.94
380.155	95.94
380.38	90.94
380.606	98.94
380.831	101.94
381.057	94.94
381.282	94.94
381.507	97.94
381.733	89.94
381.958	98.94
382.184	95.94
382.409	102.94
382.634	96.94
382.86	99.94
383.085	82.94
383.31	95.94
383.535	109.94
383.761	97.94
383.986	105.94
384.211	91.94
384.436	95.94
384.662	93.94
384.887	103.94
385.112	99.94
385.337	98.94
385.562	99.94
385.787	105.94
386.013	102.94
386.238	119.94
386.463	111.94
386.688	101.94
386.913	103.94
387.138	104.94
387.363	101.94
387.588	83.94
387.813	98.94
388.038	108.94
388.263	99.94
388.488	91.94
388.713	83.94
388.938	98.94
389.163	91.94
389.387	93.94
389.612	84.94
389.837	92.94
390.062	91.94
390.287	97.94
390.512	88.94
390.736	87.94
390.961	105.94
391.186	86.94
391.411	76.94
391.636	88.94
391.86	76.94
392.085	82.94
392.31	91.94
392.534	84.94
392.759	94.94
392.984	89.94
393.208	92.94
393.433	83.94
393.658	90.94
393.882	84.94
394.107	91.94
394.331	91.94
394.556	79.94
394.78	92.94
395.005	89.94
395.229	84.94
395.454	77.94
395.678	75.94
395.903	89.94
396.127	95.94
396.352	84.94
396.576	84.94
396.801	74.94
397.025	71.94
397.249	91.94
397.474	93.94
397.698	99.94
397.922	87.94
398.147	94.94
398.371	96.94
398.595	80.94
398.82	88.94
399.044	82.94
399.268	91.94
399.492	83.94
399.717	98.94
399.941	97.94
400.165	103.94
400.389	98.94
400.613	81.94
400.837	86.94
401.062	89.94
401.286	95.94
401.51	101.94
401.734	92.94
401.958	80.94
402.182	130.94
402.406	179.94
402.63	136.94
402.854	121.94
403.078	92.94
403.302	88.94
403.526	91.94
403.75	87.94
403.974	83.94
404.198	91.94
404.422	91.94
404.645	100.94
404.869	105.94
405.093	102.94
405.317	123.94
405.541	130.94
405.765	119.94
405.988	121.94
406.212	190.94
406.436	287.94
406.66	181.94
406.883	126.94
407.107	98.94
407.331	98.94
407.555	108.94
407.778	104.94
408.002	90.94
408.226	92.94
408.449	96.94
408.673	98.94
408.896	83.94
409.12	108.94
409.344	95.94
409.567	88.94
409.791	89.94
410.014	103.94
410.238	90.94
410.461	89.94
410.685	82.94
410.908	92.94
411.132	102.94
411.355	111.94
411.578	81.94
411.802	74.94
412.025	88.94
412.249	101.94
412.472	110.94
412.695	113.94
412.919	100.94
413.142	88.94
413.365	90.94
413.589	76.94
413.812	87.94
414.035	88.94
414.258	87.94
414.482	76.94
414.705	84.94
414.928	85.94
415.151	90.94
415.374	99.94
415.597	93.94
415.821	89.94
416.044	91.94
416.267	97.94
416.49	83.94
416.713	89.94
416.936	92.94
417.159	92.94
417.382	78.94
417.605	105.94
417.828	110.94
418.051	103.94
418.274	90.94
418.497	87.94
418.72	84.94
418.943	82.94
419.166	84.94
419.389	103.94
419.611	92.94
419.834	90.94
420.057	82.94
420.28	85.94
420.503	92.94
420.726	80.94
420.948	80.94
421.171	103.94
421.394	104.94
421.617	89.94
421.839	90.94
422.062	94.94
422.285	84.94
422.507	105.94
422.73	103.94
422.953	91.94
423.175	89.94
423.398	98.94
423.621	91.94
423.843	83.94
424.066	83.94
424.288	104.94
424.511	94.94
424.733	99.94
424.956	113.94
425.178	110.94
425.401	99.94
425.623	98.94
425.846	98.94
426.068	90.94
426.291	96.94
426.513	79.94
426.735	87.94
426.958	90.94
427.18	103.94
427.402	158.94
427.625	225.94
427.847	221.94
428.069	184.94
428.292	116.94
428.514	92.94
428.736	103.94
428.958	93.94
429.181	82.94
429.403	88.94
429.625	75.94
429.847	90.94
430.069	114.94
430.292	103.94
430.514	81.94
430.736	86.94
430.958	85.94
431.18	94.94
431.402	84.94
431.624	95.94
431.846	86.94
432.068	76.94
432.29	78.94
432.512	89.94
432.734	67.94
432.956	100.94
433.178	108.94
433.4	107.94
433.622	96.94
433.844	90.94
434.066	78.94
434.287	84.94
434.509	88.94
434.731	99.94
434.953	94.94
435.175	87.94
435.397	86.94
435.618	89.94
435.84	101.94
436.062	128.94
436.284	109.94
436.505	107.94
436.727	103.94
436.949	92.94
437.17	104.94
437.392	90.94
437.614	103.94
437.835	107.94
438.057	148.94
438.278	118.94
438.5	111.94
438.721	131.94
438.943	116.94
439.165	84.94
439.386	75.94
439.608	101.94
439.829	111.94
440.05	139.94
440.272	154.94
440.493	98.94
440.715	100.94
440.936	90.94
441.158	78.94
441.379	93.94
441.6	92.94
441.822	103.94
442.043	100.94
442.264	111.94
442.486	116.94
442.707	108.94
442.928	123.94
443.149	166.94
443.371	158.94
443.592	130.94
443.813	119.94
444.034	104.94
444.255	102.94
444.476	88.94
444.698	98.94
444.919	92.94
445.14	147.94
445.361	129.94
445.582	142.94
445.803	171.94
446.024	158.94
446.245	145.94
446.466	109.94
446.687	89.94
446.908	92.94
447.129	92.94
447.35	98.94
447.571	94.94
447.792	96.94
448.013	97.94
448.234	104.94
448.455	109.94
448.675	110.94
448.896	142.94
449.117	102.94
449.338	95.94
449.559	133.94
449.779	146.94
450	91.94
450.221	98.94
450.442	98.94
450.662	96.94
450.883	114.94
451.104	140.94
451.324	101.94
451.545	97.94
451.766	87.94
451.986	86.94
452.207	94.94
452.428	100.94
452.648	103.94
452.869	129.94
453.089	130.94
453.31	135.94
453.53	98.94
453.751	90.94
453.971	113.94
454.192	126.94
454.412	105.94
454.633	91.94
454.853	87.94
455.073	77.94
455.294	84.94
455.514	107.94
455.734	90.94
455.955	84.94
456.175	85.94
456.395	95.94
456.616	66.94
456.836	86.94
457.056	101.94
457.276	90.94
457.497	86.94
457.717	104.94
457.937	83.94
458.157	79.94
458.377	96.94
458.598	100.94
458.818	192.94
459.038	206.94
459.258	142.94
459.478	79.94
459.698	80.94
459.918	92.94
460.138	85.94
460.358	98.94
460.578	75.94
460.798	90.94
461.018	87.94
461.238	73.94
461.458	70.94
461.678	90.94
461.898	92.94
462.118	87.94
462.338	80.94
462.558	90.94
462.777	79.94
462.997	109.94
463.217	98.94
463.437	94.94
463.657	99.94
463.876	87.94
464.096	89.94
464.316	95.94
464.536	95.94
464.755	91.94
464.975	121.94
465.195	202.94
465.414	193.94
465.634	100.94
465.854	86.94
466.073	93.94
466.293	95.94
466.512	87.94
466.732	94.94
466.951	96.94
467.171	100.94
467.391	113.94
467.61	141.94
467.829	184.94
468.049	463.94
468.268	660.94
468.488	178.94
468.707	97.94
468.927	94.94
469.146	83.94
469.365	96.94
469.585	93.94
469.804	99.94
470.023	112.94
470.243	107.94
470.462	120.94
470.681	120.94
470.901	106.94
471.12	84.94
471.339	89.94
471.558	106.94
471.777	156.94
471.997	247.94
472.216	870.94
472.435	1905.94
472.654	478.94
472.873	133.94
473.092	104.94
473.311	82.94
473.53	98.94
473.749	104.94
473.968	98.94
474.187	129.94
474.406	102.94
474.625	95.94
474.844	77.94
475.063	90.94
475.282	87.94
475.501	70.94
475.72	106.94
475.939	84.94
476.158	96.94
476.377	80.94
476.596	96.94
476.814	97.94
477.033	88.94
477.252	105.94
477.471	96.94
477.69	92.94
477.908	96.94
478.127	83.94
478.346	91.94
478.564	100.94
478.783	89.94
479.002	84.94
479.22	92.94
479.439	117.94
479.658	138.94
479.876	115.94
480.095	114.94
480.313	110.94
480.532	151.94
480.751	239.94
480.969	834.94
481.188	3319.94
481.406	1888.94
481.624	310.94
481.843	129.94
482.061	106.94
482.28	105.94
482.498	84.94
482.717	89.94
482.935	86.94
483.153	104.94
483.372	87.94
483.59	81.94
483.808	106.94
484.027	82.94
484.245	107.94
484.463	87.94
484.681	95.94
484.9	99.94
485.118	107.94
485.336	103.94
485.554	101.94
485.772	107.94
485.99	88.94
486.209	91.94
486.427	113.94
486.645	119.94
486.863	140.94
487.081	102.94
487.299	94.94
487.517	99.94
487.735	91.94
487.953	103.94
488.171	95.94
488.389	110.94
488.607	98.94
488.825	92.94
489.043	94.94
489.261	91.94
489.479	95.94
489.696	87.94
489.914	80.94
490.132	91.94
490.35	99.94
490.568	89.94
490.786	103.94
491.003	88.94
491.221	92.94
491.439	95.94
491.657	99.94
491.874	93.94
492.092	97.94
492.31	104.94
492.527	102.94
492.745	100.94
492.963	109.94
493.18	99.94
493.398	85.94
493.615	92.94
493.833	108.94
494.05	81.94
494.268	99.94
494.485	89.94
494.703	78.94
494.92	91.94
495.138	88.94
495.355	93.94
495.573	100.94
495.79	88.94
496.008	111.94
496.225	96.94
496.442	96.94
496.66	100.94
496.877	94.94
497.094	83.94
497.312	88.94
497.529	91.94
497.746	98.94
497.963	89.94
498.181	92.94
498.398	104.94
498.615	102.94
498.832	100.94
499.049	103.94
499.267	86.94
499.484	97.94
499.701	89.94
499.918	99.94
500.135	94.94
500.352	101.94
500.569	103.94
500.786	89.94
501.003	81.94
501.22	90.94
501.437	95.94
501.654	92.94
501.871	126.94
502.088	86.94
502.305	94.94
502.522	84.94
502.739	91.94
502.956	94.94
503.172	92.94
503.389	92.94
503.606	118.94
503.823	95.94
504.04	102.94
504.256	83.94
504.473	90.94
504.69	89.94
504.907	75.94
505.123	87.94
505.34	92.94
505.557	95.94
505.773	84.94
505.99	99.94
506.207	83.94
506.423	102.94
506.64	97.94
506.856	98.94
507.073	93.94
507.289	94.94
507.506	90.94
507.722	128.94
507.939	112.94
508.155	98.94
508.372	91.94
508.588	98.94
508.805	85.94
509.021	96.94
509.238	90.94
509.454	96.94
509.67	107.94
509.887	103.94
510.103	130.94
510.319	204.94
510.536	825.94
510.752	2799.94
510.968	768.94
511.184	175.94
511.401	114.94
511.617	114.94
511.833	103.94
512.049	102.94
512.265	97.94
512.481	81.94
512.698	89.94
512.914	87.94
513.13	92.94
513.346	93.94
513.562	102.94
513.778	106.94
513.994	92.94
