Data from Circ_2001_H10_HRD10591_00058.txt Node
Date: Wed Jan 03 10:45:50 EST 2024
User: Yrep
Spectrometer: HR+D1059
Trigger mode: 1
Integration Time (sec): 1.000000E-1
Scans to average: 1
Electric dark correction enabled: true
Nonlinearity correction enabled: false
Boxcar width: 0
XAxis mode: Wavelengths
Number of Pixels in Spectrum: 2048
>>>>>Begin Spectral Data<<<<<
223.165	-25.69
223.4	-25.69
223.635	-25.69
223.869	-24.69
224.104	-13.69
224.338	-13.69
224.573	-18.69
224.808	-14.69
225.042	-9.69
225.277	0.31
225.511	-11.69
225.746	5.31
225.98	9.31
226.215	16.31
226.449	18.31
226.683	12.31
226.918	33.31
227.152	37.31
227.387	31.31
227.621	22.31
227.856	34.31
228.09	32.31
228.324	48.31
228.559	48.31
228.793	62.31
229.027	70.31
229.262	55.31
229.496	78.31
229.73	83.31
229.964	79.31
230.199	75.31
230.433	58.31
230.667	73.31
230.901	69.31
231.136	67.31
231.37	73.31
231.604	71.31
231.838	74.31
232.072	76.31
232.306	79.31
232.541	98.31
232.775	70.31
233.009	76.31
233.243	72.31
233.477	81.31
233.711	85.31
233.945	87.31
234.179	96.31
234.413	69.31
234.647	70.31
234.881	61.31
235.115	86.31
235.349	75.31
235.583	72.31
235.817	66.31
236.051	69.31
236.285	63.31
236.519	74.31
236.753	73.31
236.987	82.31
237.221	78.31
237.455	89.31
237.689	81.31
237.922	80.31
238.156	64.31
238.39	69.31
238.624	73.31
238.858	65.31
239.091	74.31
239.325	74.31
239.559	95.31
239.793	79.31
240.027	74.31
240.26	93.31
240.494	80.31
240.728	73.31
240.961	75.31
241.195	85.31
241.429	76.31
241.662	67.31
241.896	76.31
242.13	67.31
242.363	83.31
242.597	85.31
242.83	73.31
243.064	79.31
243.298	57.31
243.531	77.31
243.765	75.31
243.998	85.31
244.232	77.31
244.465	77.31
244.699	65.31
244.932	74.31
245.166	73.31
245.399	71.31
245.633	67.31
245.866	74.31
246.099	76.31
246.333	77.31
246.566	65.31
246.8	73.31
247.033	83.31
247.266	79.31
247.5	71.31
247.733	55.31
247.966	75.31
248.2	86.31
248.433	77.31
248.666	70.31
248.899	79.31
249.133	89.31
249.366	97.31
249.599	100.31
249.832	77.31
250.066	85.31
250.299	81.31
250.532	79.31
250.765	77.31
250.998	67.31
251.231	79.31
251.465	85.31
251.698	76.31
251.931	86.31
252.164	81.31
252.397	82.31
252.63	80.31
252.863	73.31
253.096	73.31
253.329	92.31
253.562	89.31
253.795	76.31
254.028	77.31
254.261	82.31
254.494	73.31
254.727	82.31
254.96	93.31
255.193	78.31
255.426	70.31
255.659	76.31
255.892	79.31
256.124	97.31
256.357	88.31
256.59	93.31
256.823	77.31
257.056	83.31
257.289	79.31
257.521	78.31
257.754	84.31
257.987	84.31
258.22	90.31
258.452	94.31
258.685	91.31
258.918	81.31
259.151	95.31
259.383	102.31
259.616	80.31
259.849	89.31
260.081	81.31
260.314	79.31
260.547	88.31
260.779	79.31
261.012	101.31
261.244	88.31
261.477	83.31
261.71	90.31
261.942	123.31
262.175	130.31
262.407	93.31
262.64	81.31
262.872	81.31
263.105	78.31
263.337	78.31
263.57	81.31
263.802	80.31
264.035	80.31
264.267	81.31
264.499	67.31
264.732	74.31
264.964	81.31
265.197	86.31
265.429	90.31
265.661	82.31
265.894	75.31
266.126	87.31
266.358	82.31
266.591	75.31
266.823	86.31
267.055	91.31
267.287	67.31
267.52	86.31
267.752	78.31
267.984	90.31
268.216	78.31
268.448	71.31
268.681	71.31
268.913	77.31
269.145	86.31
269.377	83.31
269.609	71.31
269.841	74.31
270.073	73.31
270.306	71.31
270.538	77.31
270.77	81.31
271.002	89.31
271.234	98.31
271.466	95.31
271.698	89.31
271.93	93.31
272.162	78.31
272.394	91.31
272.626	91.31
272.858	89.31
273.09	95.31
273.322	92.31
273.553	86.31
273.785	93.31
274.017	86.31
274.249	83.31
274.481	77.31
274.713	80.31
274.945	93.31
275.176	81.31
275.408	91.31
275.64	96.31
275.872	101.31
276.104	109.31
276.335	94.31
276.567	106.31
276.799	126.31
277.031	143.31
277.262	145.31
277.494	119.31
277.726	95.31
277.957	98.31
278.189	82.31
278.421	90.31
278.652	88.31
278.884	87.31
279.115	91.31
279.347	100.31
279.579	89.31
279.81	104.31
280.042	150.31
280.273	177.31
280.505	116.31
280.736	91.31
280.968	95.31
281.199	86.31
281.431	85.31
281.662	98.31
281.894	82.31
282.125	91.31
282.356	104.31
282.588	149.31
282.819	119.31
283.051	79.31
283.282	97.31
283.513	93.31
283.745	87.31
283.976	70.31
284.207	97.31
284.439	84.31
284.67	84.31
284.901	85.31
285.132	81.31
285.364	81.31
285.595	68.31
285.826	80.31
286.057	87.31
286.288	73.31
286.52	87.31
286.751	82.31
286.982	72.31
287.213	82.31
287.444	98.31
287.675	77.31
287.906	74.31
288.138	80.31
288.369	89.31
288.6	92.31
288.831	85.31
289.062	88.31
289.293	88.31
289.524	86.31
289.755	92.31
289.986	82.31
290.217	89.31
290.448	92.31
290.679	83.31
290.91	91.31
291.141	96.31
291.371	83.31
291.602	81.31
291.833	81.31
292.064	78.31
292.295	93.31
292.526	96.31
292.757	81.31
292.987	93.31
293.218	85.31
293.449	86.31
293.68	99.31
293.91	77.31
294.141	67.31
294.372	85.31
294.603	84.31
294.833	81.31
295.064	80.31
295.295	106.31
295.525	86.31
295.756	106.31
295.987	127.31
296.217	141.31
296.448	137.31
296.679	88.31
296.909	91.31
297.14	81.31
297.37	96.31
297.601	91.31
297.831	81.31
298.062	91.31
298.292	71.31
298.523	75.31
298.753	88.31
298.984	82.31
299.214	94.31
299.445	87.31
299.675	85.31
299.905	89.31
300.136	98.31
300.366	94.31
300.597	96.31
300.827	92.31
301.057	89.31
301.288	108.31
301.518	104.31
301.748	81.31
301.979	104.31
302.209	91.31
302.439	79.31
302.669	97.31
302.9	104.31
303.13	77.31
303.36	83.31
303.59	114.31
303.82	131.31
304.051	110.31
304.281	87.31
304.511	102.31
304.741	94.31
304.971	84.31
305.201	87.31
305.431	83.31
305.661	94.31
305.891	99.31
306.121	86.31
306.352	101.31
306.582	122.31
306.812	99.31
307.042	107.31
307.272	122.31
307.502	149.31
307.731	149.31
307.961	107.31
308.191	86.31
308.421	92.31
308.651	93.31
308.881	100.31
309.111	95.31
309.341	82.31
309.571	97.31
309.8	103.31
310.03	98.31
310.26	106.31
310.49	90.31
310.72	103.31
310.949	106.31
311.179	108.31
311.409	89.31
311.639	102.31
311.868	102.31
312.098	95.31
312.328	98.31
312.557	91.31
312.787	105.31
313.017	90.31
313.246	84.31
313.476	100.31
313.706	101.31
313.935	84.31
314.165	110.31
314.394	102.31
314.624	90.31
314.853	94.31
315.083	84.31
315.312	77.31
315.542	102.31
315.771	86.31
316.001	74.31
316.23	85.31
316.46	87.31
316.689	80.31
316.919	91.31
317.148	85.31
317.377	100.31
317.607	91.31
317.836	90.31
318.065	85.31
318.295	88.31
318.524	86.31
318.753	90.31
318.983	111.31
319.212	109.31
319.441	111.31
319.67	106.31
319.9	90.31
320.129	92.31
320.358	88.31
320.587	86.31
320.816	114.31
321.046	86.31
321.275	114.31
321.504	98.31
321.733	99.31
321.962	107.31
322.191	102.31
322.42	107.31
322.649	111.31
322.878	131.31
323.108	125.31
323.337	144.31
323.566	135.31
323.795	164.31
324.024	223.31
324.253	431.31
324.482	890.31
324.71	1828.31
324.939	2453.31
325.168	897.31
325.397	266.31
325.626	150.31
325.855	129.31
326.084	126.31
326.313	148.31
326.542	155.31
326.77	263.31
326.999	477.31
327.228	983.31
327.457	1771.31
327.686	1419.31
327.914	462.31
328.143	381.31
328.372	451.31
328.6	263.31
328.829	162.31
329.058	166.31
329.287	165.31
329.515	155.31
329.744	207.31
329.972	335.31
330.201	659.31
330.43	899.31
330.658	432.31
330.887	230.31
331.115	169.31
331.344	127.31
331.572	109.31
331.801	111.31
332.03	109.31
332.258	100.31
332.486	93.31
332.715	101.31
332.943	117.31
333.172	110.31
333.4	114.31
333.629	136.31
333.857	166.31
334.085	318.31
334.314	598.31
334.542	1159.31
334.771	1059.31
334.999	312.31
335.227	149.31
335.455	121.31
335.684	112.31
335.912	97.31
336.14	103.31
336.369	104.31
336.597	106.31
336.825	101.31
337.053	106.31
337.281	89.31
337.51	90.31
337.738	106.31
337.966	83.31
338.194	103.31
338.422	92.31
338.65	80.31
338.878	87.31
339.106	80.31
339.334	108.31
339.562	84.31
339.79	82.31
340.018	90.31
340.246	102.31
340.474	101.31
340.702	92.31
340.93	87.31
341.158	102.31
341.386	89.31
341.614	102.31
341.842	90.31
342.07	93.31
342.298	103.31
342.526	86.31
342.754	82.31
342.981	84.31
343.209	92.31
343.437	87.31
343.665	75.31
343.893	91.31
344.12	95.31
344.348	86.31
344.576	80.31
344.804	88.31
345.031	88.31
345.259	102.31
345.487	99.31
345.714	108.31
345.942	87.31
346.17	91.31
346.397	96.31
346.625	90.31
346.853	95.31
347.08	82.31
347.308	94.31
347.535	102.31
347.763	108.31
347.99	87.31
348.218	116.31
348.445	90.31
348.673	104.31
348.9	84.31
349.128	89.31
349.355	93.31
349.583	105.31
349.81	88.31
350.037	88.31
350.265	89.31
350.492	97.31
350.72	99.31
350.947	103.31
351.174	115.31
351.402	106.31
351.629	94.31
351.856	92.31
352.083	94.31
352.311	116.31
352.538	96.31
352.765	118.31
352.992	102.31
353.22	112.31
353.447	107.31
353.674	101.31
353.901	95.31
354.128	112.31
354.355	92.31
354.583	105.31
354.81	94.31
355.037	99.31
355.264	96.31
355.491	96.31
355.718	95.31
355.945	82.31
356.172	81.31
356.399	89.31
356.626	86.31
356.853	96.31
357.08	85.31
357.307	103.31
357.534	90.31
357.761	91.31
357.988	96.31
358.215	81.31
358.441	99.31
358.668	96.31
358.895	90.31
359.122	95.31
359.349	87.31
359.576	86.31
359.802	108.31
360.029	124.31
360.256	120.31
360.483	95.31
360.709	83.31
360.936	97.31
361.163	93.31
361.39	81.31
361.616	91.31
361.843	78.31
362.07	86.31
362.296	94.31
362.523	95.31
362.749	95.31
362.976	86.31
363.203	97.31
363.429	77.31
363.656	89.31
363.882	81.31
364.109	82.31
364.335	93.31
364.562	90.31
364.788	91.31
365.015	104.31
365.241	97.31
365.468	102.31
365.694	117.31
365.92	96.31
366.147	89.31
366.373	87.31
366.599	76.31
366.826	90.31
367.052	98.31
367.278	93.31
367.505	90.31
367.731	90.31
367.957	77.31
368.184	94.31
368.41	107.31
368.636	103.31
368.862	120.31
369.089	103.31
369.315	102.31
369.541	77.31
369.767	88.31
369.993	88.31
370.219	88.31
370.445	77.31
370.672	80.31
370.898	80.31
371.124	94.31
371.35	84.31
371.576	82.31
371.802	94.31
372.028	92.31
372.254	78.31
372.48	82.31
372.706	79.31
372.932	84.31
373.158	80.31
373.384	77.31
373.61	86.31
373.835	95.31
374.061	86.31
374.287	82.31
374.513	89.31
374.739	91.31
374.965	80.31
375.191	98.31
375.416	81.31
375.642	84.31
375.868	95.31
376.094	90.31
376.319	81.31
376.545	78.31
376.771	80.31
376.997	81.31
377.222	85.31
377.448	77.31
377.674	89.31
377.899	87.31
378.125	88.31
378.35	91.31
378.576	101.31
378.802	90.31
379.027	85.31
379.253	99.31
379.478	88.31
379.704	99.31
379.929	87.31
380.155	90.31
380.38	91.31
380.606	94.31
380.831	95.31
381.057	94.31
381.282	85.31
381.507	86.31
381.733	93.31
381.958	79.31
382.184	93.31
382.409	101.31
382.634	86.31
382.86	91.31
383.085	99.31
383.31	86.31
383.535	105.31
383.761	87.31
383.986	92.31
384.211	81.31
384.436	97.31
384.662	89.31
384.887	97.31
385.112	98.31
385.337	99.31
385.562	87.31
385.787	99.31
386.013	97.31
386.238	110.31
386.463	105.31
386.688	108.31
386.913	94.31
387.138	107.31
387.363	85.31
387.588	92.31
387.813	98.31
388.038	110.31
388.263	106.31
388.488	98.31
388.713	82.31
388.938	85.31
389.163	99.31
389.387	92.31
389.612	82.31
389.837	77.31
390.062	91.31
390.287	89.31
390.512	87.31
390.736	74.31
390.961	102.31
391.186	82.31
391.411	70.31
391.636	90.31
391.86	91.31
392.085	77.31
392.31	88.31
392.534	105.31
392.759	81.31
392.984	70.31
393.208	84.31
393.433	94.31
393.658	99.31
393.882	86.31
394.107	75.31
394.331	90.31
394.556	87.31
394.78	87.31
395.005	85.31
395.229	80.31
395.454	101.31
395.678	78.31
395.903	90.31
396.127	91.31
396.352	82.31
396.576	84.31
396.801	99.31
397.025	73.31
397.249	84.31
397.474	83.31
397.698	92.31
397.922	78.31
398.147	96.31
398.371	82.31
398.595	79.31
398.82	82.31
399.044	89.31
399.268	79.31
399.492	82.31
399.717	68.31
399.941	80.31
400.165	90.31
400.389	90.31
400.613	96.31
400.837	75.31
401.062	65.31
401.286	88.31
401.51	73.31
401.734	89.31
401.958	93.31
402.182	131.31
402.406	179.31
402.63	113.31
402.854	82.31
403.078	87.31
403.302	94.31
403.526	88.31
403.75	84.31
403.974	82.31
404.198	81.31
404.422	75.31
404.645	90.31
404.869	88.31
405.093	101.31
405.317	122.31
405.541	114.31
405.765	92.31
405.988	116.31
406.212	193.31
406.436	260.31
406.66	170.31
406.883	99.31
407.107	96.31
407.331	105.31
407.555	96.31
407.778	96.31
408.002	98.31
408.226	94.31
408.449	107.31
408.673	90.31
408.896	103.31
409.12	98.31
409.344	89.31
409.567	88.31
409.791	90.31
410.014	97.31
410.238	91.31
410.461	88.31
410.685	96.31
410.908	106.31
411.132	100.31
411.355	99.31
411.578	83.31
411.802	92.31
412.025	91.31
412.249	107.31
412.472	102.31
412.695	117.31
412.919	89.31
413.142	86.31
413.365	89.31
413.589	85.31
413.812	95.31
414.035	97.31
414.258	99.31
414.482	94.31
414.705	95.31
414.928	78.31
415.151	85.31
415.374	78.31
415.597	91.31
415.821	91.31
416.044	84.31
416.267	78.31
416.49	86.31
416.713	72.31
416.936	92.31
417.159	62.31
417.382	93.31
417.605	112.31
417.828	102.31
418.051	89.31
418.274	98.31
418.497	81.31
418.72	80.31
418.943	88.31
419.166	70.31
419.389	79.31
419.611	83.31
419.834	90.31
420.057	74.31
420.28	82.31
420.503	85.31
420.726	91.31
420.948	71.31
421.171	86.31
421.394	93.31
421.617	88.31
421.839	91.31
422.062	84.31
422.285	97.31
422.507	91.31
422.73	100.31
422.953	92.31
423.175	78.31
423.398	89.31
423.621	74.31
423.843	94.31
424.066	77.31
424.288	77.31
424.511	97.31
424.733	87.31
424.956	89.31
425.178	106.31
425.401	111.31
425.623	95.31
425.846	80.31
426.068	109.31
426.291	91.31
426.513	91.31
426.735	91.31
426.958	83.31
427.18	95.31
427.402	160.31
427.625	196.31
427.847	180.31
428.069	186.31
428.292	112.31
428.514	85.31
428.736	100.31
428.958	84.31
429.181	88.31
429.403	99.31
429.625	80.31
429.847	89.31
430.069	93.31
430.292	99.31
430.514	77.31
430.736	87.31
430.958	81.31
431.18	89.31
431.402	84.31
431.624	83.31
431.846	85.31
432.068	89.31
432.29	99.31
432.512	90.31
432.734	90.31
432.956	87.31
433.178	105.31
433.4	87.31
433.622	83.31
433.844	84.31
434.066	87.31
434.287	80.31
434.509	93.31
434.731	84.31
434.953	79.31
435.175	78.31
435.397	88.31
435.618	90.31
435.84	96.31
436.062	123.31
436.284	108.31
436.505	90.31
436.727	104.31
436.949	86.31
437.17	81.31
437.392	91.31
437.614	98.31
437.835	114.31
438.057	127.31
438.278	105.31
438.5	121.31
438.721	112.31
438.943	98.31
439.165	83.31
439.386	93.31
439.608	87.31
439.829	102.31
440.05	121.31
440.272	145.31
440.493	101.31
440.715	97.31
440.936	76.31
441.158	99.31
441.379	102.31
441.6	97.31
441.822	98.31
442.043	103.31
442.264	107.31
442.486	119.31
442.707	100.31
442.928	105.31
443.149	147.31
443.371	146.31
443.592	120.31
443.813	127.31
444.034	108.31
444.255	87.31
444.476	91.31
444.698	92.31
444.919	99.31
445.14	125.31
445.361	127.31
445.582	115.31
445.803	153.31
446.024	142.31
446.245	158.31
446.466	119.31
446.687	100.31
446.908	102.31
447.129	100.31
447.35	91.31
447.571	86.31
447.792	89.31
448.013	102.31
448.234	110.31
448.455	110.31
448.675	127.31
448.896	126.31
449.117	96.31
449.338	97.31
449.559	131.31
449.779	145.31
450	97.31
450.221	88.31
450.442	103.31
450.662	103.31
450.883	111.31
451.104	133.31
451.324	93.31
451.545	91.31
451.766	90.31
451.986	79.31
452.207	94.31
452.428	81.31
452.648	83.31
452.869	97.31
453.089	110.31
453.31	135.31
453.53	93.31
453.751	99.31
453.971	102.31
454.192	123.31
454.412	100.31
454.633	93.31
454.853	90.31
455.073	89.31
455.294	104.31
455.514	109.31
455.734	102.31
455.955	93.31
456.175	101.31
456.395	74.31
456.616	64.31
456.836	100.31
457.056	74.31
457.276	79.31
457.497	86.31
457.717	84.31
457.937	96.31
458.157	93.31
458.377	99.31
458.598	117.31
458.818	157.31
459.038	180.31
459.258	139.31
459.478	86.31
459.698	82.31
459.918	84.31
460.138	89.31
460.358	75.31
460.578	73.31
460.798	94.31
461.018	98.31
461.238	82.31
461.458	87.31
461.678	87.31
461.898	84.31
462.118	81.31
462.338	87.31
462.558	76.31
462.777	87.31
462.997	91.31
463.217	96.31
463.437	83.31
463.657	82.31
463.876	101.31
464.096	99.31
464.316	97.31
464.536	79.31
464.755	89.31
464.975	129.31
465.195	195.31
465.414	198.31
465.634	121.31
465.854	96.31
466.073	87.31
466.293	85.31
466.512	81.31
466.732	82.31
466.951	81.31
467.171	85.31
467.391	109.31
467.61	122.31
467.829	163.31
468.049	399.31
468.268	577.31
468.488	168.31
468.707	97.31
468.927	82.31
469.146	93.31
469.365	87.31
469.585	86.31
469.804	118.31
470.023	102.31
470.243	88.31
470.462	97.31
470.681	115.31
470.901	86.31
471.12	100.31
471.339	98.31
471.558	99.31
471.777	126.31
471.997	239.31
472.216	776.31
472.435	1679.31
472.654	423.31
472.873	142.31
473.092	86.31
473.311	102.31
473.53	101.31
473.749	86.31
473.968	91.31
474.187	102.31
474.406	107.31
474.625	89.31
474.844	85.31
475.063	92.31
475.282	96.31
475.501	83.31
475.72	87.31
475.939	90.31
476.158	78.31
476.377	91.31
476.596	88.31
476.814	105.31
477.033	104.31
477.252	90.31
477.471	90.31
477.69	94.31
477.908	100.31
478.127	95.31
478.346	88.31
478.564	93.31
478.783	95.31
479.002	96.31
479.22	91.31
479.439	112.31
479.658	106.31
479.876	114.31
480.095	105.31
480.313	117.31
480.532	139.31
480.751	212.31
480.969	704.31
481.188	2858.31
481.406	1670.31
481.624	254.31
481.843	111.31
482.061	106.31
482.28	94.31
482.498	92.31
482.717	76.31
482.935	84.31
483.153	94.31
483.372	91.31
483.59	86.31
483.808	94.31
484.027	82.31
484.245	103.31
484.463	105.31
484.681	95.31
484.9	81.31
485.118	94.31
485.336	93.31
485.554	84.31
485.772	105.31
485.99	112.31
486.209	97.31
486.427	109.31
486.645	115.31
486.863	110.31
487.081	114.31
487.299	99.31
487.517	96.31
487.735	86.31
487.953	99.31
488.171	97.31
488.389	104.31
488.607	97.31
488.825	77.31
489.043	72.31
489.261	81.31
489.479	87.31
489.696	96.31
489.914	87.31
490.132	92.31
490.35	102.31
490.568	88.31
490.786	98.31
491.003	91.31
491.221	94.31
491.439	77.31
491.657	90.31
491.874	95.31
492.092	105.31
492.31	89.31
492.527	82.31
492.745	79.31
492.963	88.31
493.18	97.31
493.398	97.31
493.615	96.31
493.833	97.31
494.05	91.31
494.268	89.31
494.485	102.31
494.703	93.31
494.92	87.31
495.138	77.31
495.355	94.31
495.573	98.31
495.79	89.31
496.008	91.31
496.225	101.31
496.442	84.31
496.66	78.31
496.877	84.31
497.094	90.31
497.312	84.31
497.529	98.31
497.746	93.31
497.963	95.31
498.181	103.31
498.398	83.31
498.615	105.31
498.832	108.31
499.049	95.31
499.267	87.31
499.484	80.31
499.701	84.31
499.918	99.31
500.135	97.31
500.352	90.31
500.569	101.31
500.786	85.31
501.003	83.31
501.22	79.31
501.437	86.31
501.654	96.31
501.871	95.31
502.088	98.31
502.305	96.31
502.522	102.31
502.739	85.31
502.956	97.31
503.172	92.31
503.389	110.31
503.606	103.31
503.823	95.31
504.04	104.31
504.256	88.31
504.473	90.31
504.69	83.31
504.907	99.31
505.123	87.31
505.34	79.31
505.557	78.31
505.773	105.31
505.99	105.31
506.207	77.31
506.423	95.31
506.64	85.31
506.856	91.31
507.073	113.31
507.289	103.31
507.506	104.31
507.722	106.31
507.939	121.31
508.155	100.31
508.372	82.31
508.588	85.31
508.805	96.31
509.021	108.31
509.238	95.31
509.454	98.31
509.67	110.31
509.887	86.31
510.103	127.31
510.319	223.31
510.536	791.31
510.752	2631.31
510.968	740.31
511.184	169.31
511.401	110.31
511.617	89.31
511.833	98.31
512.049	87.31
512.265	94.31
512.481	97.31
512.698	92.31
512.914	94.31
513.13	97.31
513.346	105.31
513.562	80.31
513.778	104.31
513.994	89.31
514.21	113.31
514.426	123.31
514.642	146.31
514.858	145.31
515.074	200.31
