Data from Circ_2001_H10_HRD10591_00015.txt Node
Date: Wed Jan 03 10:45:41 EST 2024
User: Yrep
Spectrometer: HR+D1059
Trigger mode: 1
Integration Time (sec): 1.000000E-1
Scans to average: 1
Electric dark correction enabled: true
Nonlinearity correction enabled: false
Boxcar width: 0
XAxis mode: Wavelengths
Number of Pixels in Spectrum: 2048
>>>>>Begin Spectral Data<<<<<
223.165	-18.62
223.4	-18.62
223.635	-18.62
223.869	-10.62
224.104	-9.62
224.338	-17.62
224.573	-14.62
224.808	-19.62
225.042	-16.62
225.277	-10.62
225.511	3.38
225.746	0.38
225.98	7.38
226.215	14.38
226.449	20.38
226.683	10.38
226.918	32.38
227.152	29.38
227.387	34.38
227.621	27.38
227.856	42.38
228.09	57.38
228.324	52.38
228.559	69.38
228.793	70.38
229.027	61.38
229.262	65.38
229.496	73.38
229.73	89.38
229.964	81.38
230.199	81.38
230.433	68.38
230.667	70.38
230.901	69.38
231.136	81.38
231.37	71.38
231.604	79.38
231.838	62.38
232.072	79.38
232.306	71.38
232.541	67.38
232.775	77.38
233.009	80.38
233.243	80.38
233.477	81.38
233.711	89.38
233.945	79.38
234.179	60.38
234.413	60.38
234.647	69.38
234.881	87.38
235.115	79.38
235.349	85.38
235.583	70.38
235.817	88.38
236.051	84.38
236.285	71.38
236.519	84.38
236.753	71.38
236.987	79.38
237.221	79.38
237.455	80.38
237.689	76.38
237.922	85.38
238.156	68.38
238.39	77.38
238.624	81.38
238.858	56.38
239.091	71.38
239.325	74.38
239.559	63.38
239.793	80.38
240.027	73.38
240.26	81.38
240.494	84.38
240.728	81.38
240.961	85.38
241.195	86.38
241.429	69.38
241.662	72.38
241.896	82.38
242.13	62.38
242.363	82.38
242.597	79.38
242.83	77.38
243.064	93.38
243.298	74.38
243.531	92.38
243.765	67.38
243.998	74.38
244.232	81.38
244.465	74.38
244.699	75.38
244.932	82.38
245.166	68.38
245.399	71.38
245.633	76.38
245.866	77.38
246.099	69.38
246.333	67.38
246.566	73.38
246.8	85.38
247.033	74.38
247.266	78.38
247.5	84.38
247.733	88.38
247.966	77.38
248.2	60.38
248.433	85.38
248.666	86.38
248.899	72.38
249.133	93.38
249.366	78.38
249.599	93.38
249.832	60.38
250.066	70.38
250.299	65.38
250.532	75.38
250.765	73.38
250.998	68.38
251.231	75.38
251.465	82.38
251.698	81.38
251.931	80.38
252.164	96.38
252.397	73.38
252.63	82.38
252.863	71.38
253.096	71.38
253.329	86.38
253.562	74.38
253.795	75.38
254.028	81.38
254.261	82.38
254.494	77.38
254.727	78.38
254.96	75.38
255.193	76.38
255.426	75.38
255.659	95.38
255.892	75.38
256.124	87.38
256.357	74.38
256.59	70.38
256.823	81.38
257.056	85.38
257.289	79.38
257.521	74.38
257.754	68.38
257.987	80.38
258.22	79.38
258.452	77.38
258.685	73.38
258.918	90.38
259.151	79.38
259.383	76.38
259.616	65.38
259.849	89.38
260.081	84.38
260.314	92.38
260.547	88.38
260.779	77.38
261.012	94.38
261.244	84.38
261.477	82.38
261.71	90.38
261.942	110.38
262.175	99.38
262.407	95.38
262.64	97.38
262.872	89.38
263.105	88.38
263.337	77.38
263.57	82.38
263.802	80.38
264.035	93.38
264.267	63.38
264.499	74.38
264.732	71.38
264.964	79.38
265.197	84.38
265.429	94.38
265.661	95.38
265.894	89.38
266.126	104.38
266.358	90.38
266.591	79.38
266.823	78.38
267.055	72.38
267.287	100.38
267.52	83.38
267.752	76.38
267.984	89.38
268.216	81.38
268.448	75.38
268.681	72.38
268.913	96.38
269.145	71.38
269.377	70.38
269.609	84.38
269.841	95.38
270.073	81.38
270.306	77.38
270.538	76.38
270.77	79.38
271.002	87.38
271.234	97.38
271.466	88.38
271.698	80.38
271.93	81.38
272.162	79.38
272.394	68.38
272.626	84.38
272.858	81.38
273.09	91.38
273.322	72.38
273.553	76.38
273.785	88.38
274.017	90.38
274.249	63.38
274.481	87.38
274.713	73.38
274.945	78.38
275.176	67.38
275.408	101.38
275.64	98.38
275.872	92.38
276.104	97.38
276.335	89.38
276.567	92.38
276.799	111.38
277.031	120.38
277.262	119.38
277.494	124.38
277.726	92.38
277.957	84.38
278.189	89.38
278.421	82.38
278.652	79.38
278.884	67.38
279.115	79.38
279.347	94.38
279.579	83.38
279.81	93.38
280.042	122.38
280.273	143.38
280.505	112.38
280.736	84.38
280.968	88.38
281.199	79.38
281.431	88.38
281.662	86.38
281.894	88.38
282.125	87.38
282.356	110.38
282.588	140.38
282.819	88.38
283.051	88.38
283.282	78.38
283.513	72.38
283.745	88.38
283.976	76.38
284.207	85.38
284.439	87.38
284.67	87.38
284.901	84.38
285.132	76.38
285.364	85.38
285.595	89.38
285.826	95.38
286.057	87.38
286.288	80.38
286.52	89.38
286.751	90.38
286.982	89.38
287.213	80.38
287.444	82.38
287.675	86.38
287.906	82.38
288.138	97.38
288.369	94.38
288.6	86.38
288.831	80.38
289.062	84.38
289.293	96.38
289.524	99.38
289.755	95.38
289.986	80.38
290.217	102.38
290.448	71.38
290.679	89.38
290.91	81.38
291.141	81.38
291.371	80.38
291.602	87.38
291.833	85.38
292.064	80.38
292.295	94.38
292.526	85.38
292.757	89.38
292.987	88.38
293.218	82.38
293.449	95.38
293.68	81.38
293.91	83.38
294.141	93.38
294.372	85.38
294.603	80.38
294.833	97.38
295.064	80.38
295.295	90.38
295.525	81.38
295.756	99.38
295.987	102.38
296.217	131.38
296.448	118.38
296.679	90.38
296.909	88.38
297.14	77.38
297.37	98.38
297.601	85.38
297.831	83.38
298.062	96.38
298.292	73.38
298.523	80.38
298.753	87.38
298.984	95.38
299.214	89.38
299.445	85.38
299.675	88.38
299.905	94.38
300.136	85.38
300.366	94.38
300.597	89.38
300.827	80.38
301.057	77.38
301.288	100.38
301.518	88.38
301.748	102.38
301.979	98.38
302.209	94.38
302.439	95.38
302.669	75.38
302.9	81.38
303.13	98.38
303.36	85.38
303.59	104.38
303.82	116.38
304.051	94.38
304.281	84.38
304.511	84.38
304.741	77.38
304.971	82.38
305.201	86.38
305.431	98.38
305.661	99.38
305.891	85.38
306.121	105.38
306.352	95.38
306.582	99.38
306.812	90.38
307.042	101.38
307.272	114.38
307.502	132.38
307.731	120.38
307.961	96.38
308.191	87.38
308.421	100.38
308.651	92.38
308.881	101.38
309.111	103.38
309.341	97.38
309.571	95.38
309.8	102.38
310.03	88.38
310.26	99.38
310.49	98.38
310.72	98.38
310.949	96.38
311.179	95.38
311.409	89.38
311.639	96.38
311.868	90.38
312.098	90.38
312.328	88.38
312.557	100.38
312.787	95.38
313.017	99.38
313.246	90.38
313.476	94.38
313.706	67.38
313.935	85.38
314.165	110.38
314.394	104.38
314.624	81.38
314.853	103.38
315.083	85.38
315.312	84.38
315.542	72.38
315.771	88.38
316.001	95.38
316.23	102.38
316.46	84.38
316.689	70.38
316.919	82.38
317.148	75.38
317.377	89.38
317.607	103.38
317.836	102.38
318.065	78.38
318.295	81.38
318.524	79.38
318.753	86.38
318.983	72.38
319.212	105.38
319.441	102.38
319.67	91.38
319.9	94.38
320.129	103.38
320.358	96.38
320.587	104.38
320.816	80.38
321.046	83.38
321.275	100.38
321.504	96.38
321.733	96.38
321.962	97.38
322.191	99.38
322.42	112.38
322.649	104.38
322.878	98.38
323.108	108.38
323.337	116.38
323.566	116.38
323.795	151.38
324.024	198.38
324.253	395.38
324.482	811.38
324.71	1693.38
324.939	2193.38
325.168	789.38
325.397	228.38
325.626	153.38
325.855	130.38
326.084	135.38
326.313	129.38
326.542	149.38
326.77	216.38
326.999	433.38
327.228	924.38
327.457	1689.38
327.686	1338.38
327.914	401.38
328.143	293.38
328.372	326.38
328.6	201.38
328.829	134.38
329.058	144.38
329.287	148.38
329.515	139.38
329.744	158.38
329.972	254.38
330.201	452.38
330.43	618.38
330.658	314.38
330.887	186.38
331.115	127.38
331.344	95.38
331.572	101.38
331.801	98.38
332.03	108.38
332.258	106.38
332.486	98.38
332.715	92.38
332.943	98.38
333.172	109.38
333.4	107.38
333.629	112.38
333.857	162.38
334.085	231.38
334.314	428.38
334.542	744.38
334.771	714.38
334.999	236.38
335.227	130.38
335.455	103.38
335.684	104.38
335.912	103.38
336.14	88.38
336.369	98.38
336.597	111.38
336.825	89.38
337.053	90.38
337.281	82.38
337.51	92.38
337.738	81.38
337.966	99.38
338.194	94.38
338.422	102.38
338.65	94.38
338.878	87.38
339.106	94.38
339.334	92.38
339.562	92.38
339.79	103.38
340.018	94.38
340.246	85.38
340.474	85.38
340.702	93.38
340.93	99.38
341.158	98.38
341.386	98.38
341.614	89.38
341.842	98.38
342.07	84.38
342.298	89.38
342.526	86.38
342.754	73.38
342.981	85.38
343.209	85.38
343.437	105.38
343.665	89.38
343.893	73.38
344.12	100.38
344.348	80.38
344.576	87.38
344.804	86.38
345.031	97.38
345.259	94.38
345.487	91.38
345.714	98.38
345.942	78.38
346.17	85.38
346.397	72.38
346.625	93.38
346.853	92.38
347.08	87.38
347.308	78.38
347.535	96.38
347.763	104.38
347.99	101.38
348.218	102.38
348.445	104.38
348.673	102.38
348.9	95.38
349.128	103.38
349.355	91.38
349.583	104.38
349.81	94.38
350.037	65.38
350.265	80.38
350.492	78.38
350.72	99.38
350.947	97.38
351.174	107.38
351.402	111.38
351.629	102.38
351.856	96.38
352.083	104.38
352.311	101.38
352.538	113.38
352.765	98.38
352.992	114.38
353.22	124.38
353.447	113.38
353.674	97.38
353.901	94.38
354.128	87.38
354.355	98.38
354.583	91.38
354.81	95.38
355.037	94.38
355.264	104.38
355.491	85.38
355.718	86.38
355.945	100.38
356.172	94.38
356.399	88.38
356.626	96.38
356.853	89.38
357.08	89.38
357.307	94.38
357.534	89.38
357.761	97.38
357.988	96.38
358.215	95.38
358.441	85.38
358.668	101.38
358.895	92.38
359.122	87.38
359.349	103.38
359.576	90.38
359.802	93.38
360.029	109.38
360.256	112.38
360.483	95.38
360.709	99.38
360.936	96.38
361.163	95.38
361.39	93.38
361.616	81.38
361.843	89.38
362.07	97.38
362.296	100.38
362.523	85.38
362.749	85.38
362.976	91.38
363.203	96.38
363.429	90.38
363.656	95.38
363.882	85.38
364.109	83.38
364.335	84.38
364.562	87.38
364.788	95.38
365.015	90.38
365.241	96.38
365.468	104.38
365.694	104.38
365.92	97.38
366.147	96.38
366.373	77.38
366.599	82.38
366.826	93.38
367.052	98.38
367.278	81.38
367.505	96.38
367.731	93.38
367.957	97.38
368.184	84.38
368.41	85.38
368.636	104.38
368.862	113.38
369.089	93.38
369.315	66.38
369.541	84.38
369.767	95.38
369.993	86.38
370.219	79.38
370.445	93.38
370.672	85.38
370.898	85.38
371.124	77.38
371.35	90.38
371.576	93.38
371.802	85.38
372.028	98.38
372.254	67.38
372.48	88.38
372.706	80.38
372.932	86.38
373.158	86.38
373.384	96.38
373.61	84.38
373.835	74.38
374.061	101.38
374.287	84.38
374.513	67.38
374.739	88.38
374.965	75.38
375.191	92.38
375.416	79.38
375.642	89.38
375.868	101.38
376.094	86.38
376.319	82.38
376.545	80.38
376.771	69.38
376.997	81.38
377.222	82.38
377.448	89.38
377.674	86.38
377.899	92.38
378.125	82.38
378.35	90.38
378.576	83.38
378.802	84.38
379.027	95.38
379.253	96.38
379.478	86.38
379.704	99.38
379.929	69.38
380.155	88.38
380.38	98.38
380.606	102.38
380.831	102.38
381.057	100.38
381.282	85.38
381.507	110.38
381.733	96.38
381.958	101.38
382.184	97.38
382.409	107.38
382.634	102.38
382.86	97.38
383.085	95.38
383.31	86.38
383.535	92.38
383.761	98.38
383.986	96.38
384.211	90.38
384.436	112.38
384.662	110.38
384.887	107.38
385.112	107.38
385.337	114.38
385.562	110.38
385.787	107.38
386.013	113.38
386.238	113.38
386.463	110.38
386.688	119.38
386.913	110.38
387.138	122.38
387.363	109.38
387.588	113.38
387.813	105.38
388.038	104.38
388.263	116.38
388.488	111.38
388.713	96.38
388.938	88.38
389.163	94.38
389.387	93.38
389.612	89.38
389.837	89.38
390.062	87.38
390.287	105.38
390.512	92.38
390.736	91.38
390.961	95.38
391.186	87.38
391.411	79.38
391.636	81.38
391.86	83.38
392.085	89.38
392.31	76.38
392.534	90.38
392.759	94.38
392.984	97.38
393.208	87.38
393.433	105.38
393.658	83.38
393.882	80.38
394.107	91.38
394.331	92.38
394.556	96.38
394.78	81.38
395.005	81.38
395.229	93.38
395.454	88.38
395.678	68.38
395.903	84.38
396.127	86.38
396.352	81.38
396.576	96.38
396.801	79.38
397.025	101.38
397.249	85.38
397.474	84.38
397.698	79.38
397.922	87.38
398.147	84.38
398.371	87.38
398.595	79.38
398.82	77.38
399.044	73.38
399.268	80.38
399.492	84.38
399.717	76.38
399.941	85.38
400.165	94.38
400.389	93.38
400.613	71.38
400.837	84.38
401.062	77.38
401.286	91.38
401.51	100.38
401.734	77.38
401.958	85.38
402.182	115.38
402.406	151.38
402.63	131.38
402.854	92.38
403.078	81.38
403.302	89.38
403.526	90.38
403.75	88.38
403.974	70.38
404.198	72.38
404.422	92.38
404.645	80.38
404.869	89.38
405.093	90.38
405.317	111.38
405.541	111.38
405.765	101.38
405.988	124.38
406.212	160.38
406.436	228.38
406.66	147.38
406.883	92.38
407.107	84.38
407.331	103.38
407.555	98.38
407.778	95.38
408.002	81.38
408.226	89.38
408.449	95.38
408.673	87.38
408.896	92.38
409.12	100.38
409.344	92.38
409.567	80.38
409.791	73.38
410.014	88.38
410.238	83.38
410.461	98.38
410.685	84.38
410.908	96.38
411.132	96.38
411.355	87.38
411.578	101.38
411.802	71.38
412.025	78.38
412.249	86.38
412.472	88.38
412.695	113.38
412.919	89.38
413.142	85.38
413.365	67.38
413.589	87.38
413.812	89.38
414.035	88.38
414.258	96.38
414.482	97.38
414.705	81.38
414.928	91.38
415.151	94.38
415.374	78.38
415.597	95.38
415.821	80.38
416.044	99.38
416.267	88.38
416.49	100.38
416.713	95.38
416.936	79.38
417.159	103.38
417.382	87.38
417.605	83.38
417.828	106.38
418.051	80.38
418.274	87.38
418.497	85.38
418.72	97.38
418.943	92.38
419.166	86.38
419.389	93.38
419.611	91.38
419.834	76.38
420.057	92.38
420.28	94.38
420.503	84.38
420.726	94.38
420.948	94.38
421.171	94.38
421.394	87.38
421.617	84.38
421.839	81.38
422.062	81.38
422.285	83.38
422.507	104.38
422.73	105.38
422.953	89.38
423.175	88.38
423.398	79.38
423.621	70.38
423.843	85.38
424.066	71.38
424.288	88.38
424.511	93.38
424.733	89.38
424.956	96.38
425.178	80.38
425.401	93.38
425.623	80.38
425.846	81.38
426.068	98.38
426.291	81.38
426.513	93.38
426.735	87.38
426.958	87.38
427.18	100.38
427.402	128.38
427.625	189.38
427.847	146.38
428.069	176.38
428.292	110.38
428.514	95.38
428.736	97.38
428.958	84.38
429.181	80.38
429.403	78.38
429.625	92.38
429.847	94.38
430.069	94.38
430.292	87.38
430.514	80.38
430.736	90.38
430.958	85.38
431.18	70.38
431.402	68.38
431.624	77.38
431.846	90.38
432.068	77.38
432.29	82.38
432.512	69.38
432.734	96.38
432.956	92.38
433.178	88.38
433.4	90.38
433.622	89.38
433.844	90.38
434.066	91.38
434.287	89.38
434.509	80.38
434.731	91.38
434.953	93.38
435.175	87.38
435.397	88.38
435.618	95.38
435.84	95.38
436.062	124.38
436.284	111.38
436.505	93.38
436.727	105.38
436.949	88.38
437.17	71.38
437.392	85.38
437.614	107.38
437.835	100.38
438.057	116.38
438.278	98.38
438.5	106.38
438.721	108.38
438.943	90.38
439.165	92.38
439.386	74.38
439.608	75.38
439.829	90.38
440.05	124.38
440.272	156.38
440.493	99.38
440.715	76.38
440.936	83.38
441.158	94.38
441.379	95.38
441.6	80.38
441.822	95.38
442.043	97.38
442.264	100.38
442.486	90.38
442.707	88.38
442.928	107.38
443.149	141.38
443.371	139.38
443.592	102.38
443.813	116.38
444.034	109.38
444.255	77.38
444.476	84.38
444.698	77.38
444.919	77.38
445.14	138.38
445.361	126.38
445.582	119.38
445.803	147.38
446.024	139.38
446.245	136.38
446.466	116.38
446.687	88.38
446.908	89.38
447.129	88.38
447.35	78.38
447.571	79.38
447.792	103.38
448.013	99.38
448.234	93.38
448.455	94.38
448.675	121.38
448.896	102.38
449.117	103.38
449.338	104.38
449.559	119.38
449.779	127.38
450	99.38
450.221	98.38
450.442	78.38
450.662	90.38
450.883	107.38
451.104	113.38
451.324	93.38
451.545	95.38
451.766	76.38
451.986	74.38
452.207	91.38
452.428	81.38
452.648	94.38
452.869	99.38
453.089	118.38
453.31	118.38
453.53	93.38
453.751	76.38
453.971	116.38
454.192	111.38
454.412	85.38
454.633	80.38
454.853	71.38
455.073	79.38
455.294	80.38
455.514	104.38
455.734	92.38
455.955	100.38
456.175	87.38
456.395	86.38
456.616	86.38
456.836	89.38
457.056	80.38
457.276	65.38
457.497	73.38
457.717	71.38
457.937	93.38
458.157	80.38
458.377	78.38
458.598	115.38
458.818	149.38
459.038	164.38
459.258	120.38
459.478	88.38
459.698	93.38
459.918	78.38
460.138	72.38
460.358	85.38
460.578	61.38
460.798	72.38
461.018	81.38
461.238	83.38
461.458	79.38
461.678	80.38
461.898	84.38
462.118	98.38
462.338	81.38
462.558	84.38
462.777	86.38
462.997	83.38
463.217	95.38
463.437	73.38
463.657	94.38
463.876	83.38
464.096	88.38
464.316	70.38
464.536	90.38
464.755	84.38
464.975	105.38
465.195	161.38
465.414	160.38
465.634	102.38
465.854	95.38
466.073	90.38
466.293	80.38
466.512	73.38
466.732	76.38
466.951	78.38
467.171	89.38
467.391	90.38
467.61	103.38
467.829	123.38
468.049	258.38
468.268	360.38
468.488	148.38
468.707	90.38
468.927	82.38
469.146	93.38
469.365	74.38
469.585	97.38
469.804	101.38
470.023	93.38
470.243	95.38
470.462	90.38
470.681	115.38
470.901	89.38
471.12	72.38
471.339	82.38
471.558	93.38
471.777	116.38
471.997	177.38
472.216	509.38
472.435	1084.38
472.654	282.38
472.873	109.38
473.092	87.38
473.311	98.38
473.53	92.38
473.749	97.38
473.968	96.38
474.187	88.38
474.406	86.38
474.625	93.38
474.844	95.38
475.063	98.38
475.282	88.38
475.501	76.38
475.72	93.38
475.939	77.38
476.158	87.38
476.377	89.38
476.596	75.38
476.814	87.38
477.033	84.38
477.252	86.38
477.471	84.38
477.69	99.38
477.908	96.38
478.127	87.38
478.346	87.38
478.564	83.38
478.783	102.38
479.002	84.38
479.22	100.38
479.439	97.38
479.658	105.38
479.876	109.38
480.095	109.38
480.313	105.38
480.532	122.38
480.751	155.38
480.969	484.38
481.188	1861.38
481.406	1094.38
481.624	212.38
481.843	108.38
482.061	83.38
482.28	62.38
482.498	96.38
482.717	96.38
482.935	79.38
483.153	80.38
483.372	89.38
483.59	83.38
483.808	80.38
484.027	89.38
484.245	97.38
484.463	93.38
484.681	99.38
484.9	88.38
485.118	92.38
485.336	97.38
485.554	108.38
485.772	109.38
485.99	106.38
486.209	105.38
486.427	93.38
486.645	89.38
486.863	103.38
487.081	106.38
487.299	102.38
487.517	92.38
487.735	79.38
487.953	75.38
488.171	95.38
488.389	94.38
488.607	94.38
488.825	102.38
489.043	89.38
489.261	90.38
489.479	90.38
489.696	78.38
489.914	76.38
490.132	73.38
490.35	101.38
490.568	88.38
490.786	87.38
491.003	83.38
491.221	79.38
491.439	82.38
491.657	74.38
491.874	82.38
492.092	84.38
492.31	93.38
492.527	75.38
492.745	89.38
492.963	75.38
493.18	93.38
493.398	100.38
493.615	86.38
493.833	78.38
494.05	89.38
494.268	75.38
494.485	89.38
494.703	78.38
494.92	86.38
495.138	96.38
495.355	93.38
495.573	82.38
495.79	82.38
496.008	76.38
496.225	89.38
496.442	96.38
496.66	84.38
496.877	87.38
497.094	101.38
497.312	86.38
497.529	109.38
497.746	87.38
497.963	86.38
498.181	91.38
498.398	80.38
498.615	115.38
498.832	109.38
499.049	90.38
499.267	73.38
499.484	94.38
499.701	86.38
499.918	93.38
500.135	88.38
500.352	90.38
500.569	97.38
500.786	90.38
501.003	102.38
501.22	89.38
501.437	85.38
501.654	93.38
501.871	103.38
502.088	95.38
502.305	72.38
502.522	85.38
502.739	82.38
502.956	89.38
503.172	97.38
503.389	94.38
503.606	103.38
503.823	86.38
504.04	105.38
504.256	74.38
504.473	81.38
504.69	94.38
504.907	91.38
505.123	95.38
505.34	93.38
505.557	82.38
505.773	86.38
505.99	89.38
506.207	85.38
506.423	83.38
506.64	86.38
506.856	96.38
507.073	86.38
507.289	95.38
507.506	96.38
507.722	108.38
507.939	122.38
508.155	85.38
508.372	98.38
508.588	92.38
508.805	90.38
509.021	92.38
509.238	98.38
509.454	89.38
509.67	93.38
509.887	105.38
510.103	127.38
510.319	198.38
510.536	725.38
510.752	2288.38
510.968	641.38
511.184	152.38
511.401	113.38
511.617	96.38
511.833	97.38
512.049	88.38
512.265	81.38
512.481	88.38
512.698	93.38
512.914	98.38
513.13	75.38
513.346	94.38
513.562	90.38
513.778	102.38
513.994	95.38
514.21	114.38
514.426	111.38
514.642	127.38
514.858	119.38
515.074	174.38
515.29	461.38
515.506	1583.38
515.721	600.38
