Data from Circ_2001_H10_HRD10591_00055.txt Node
Date: Wed Jan 03 10:45:49 EST 2024
User: Yrep
Spectrometer: HR+D1059
Trigger mode: 1
Integration Time (sec): 1.000000E-1
Scans to average: 1
Electric dark correction enabled: true
Nonlinearity correction enabled: false
Boxcar width: 0
XAxis mode: Wavelengths
Number of Pixels in Spectrum: 2048
>>>>>Begin Spectral Data<<<<<
223.165	-27.81
223.4	-27.81
223.635	-27.81
223.869	-14.81
224.104	-12.81
224.338	-13.81
224.573	-10.81
224.808	-16.81
225.042	-12.81
225.277	-7.81
225.511	-7.81
225.746	-4.81
225.98	17.19
226.215	28.19
226.449	21.19
226.683	23.19
226.918	20.19
227.152	20.19
227.387	20.19
227.621	39.19
227.856	39.19
228.09	56.19
228.324	55.19
228.559	66.19
228.793	68.19
229.027	59.19
229.262	69.19
229.496	75.19
229.73	105.19
229.964	90.19
230.199	76.19
230.433	65.19
230.667	80.19
230.901	86.19
231.136	74.19
231.37	73.19
231.604	76.19
231.838	80.19
232.072	82.19
232.306	91.19
232.541	93.19
232.775	84.19
233.009	78.19
233.243	90.19
233.477	81.19
233.711	89.19
233.945	76.19
234.179	83.19
234.413	81.19
234.647	84.19
234.881	81.19
235.115	83.19
235.349	77.19
235.583	89.19
235.817	82.19
236.051	77.19
236.285	81.19
236.519	85.19
236.753	80.19
236.987	96.19
237.221	91.19
237.455	80.19
237.689	65.19
237.922	88.19
238.156	86.19
238.39	66.19
238.624	79.19
238.858	82.19
239.091	76.19
239.325	82.19
239.559	81.19
239.793	74.19
240.027	83.19
240.26	88.19
240.494	91.19
240.728	81.19
240.961	86.19
241.195	80.19
241.429	71.19
241.662	80.19
241.896	65.19
242.13	80.19
242.363	80.19
242.597	75.19
242.83	87.19
243.064	73.19
243.298	86.19
243.531	80.19
243.765	72.19
243.998	71.19
244.232	75.19
244.465	78.19
244.699	80.19
244.932	83.19
245.166	71.19
245.399	87.19
245.633	76.19
245.866	76.19
246.099	79.19
246.333	94.19
246.566	79.19
246.8	76.19
247.033	83.19
247.266	74.19
247.5	82.19
247.733	80.19
247.966	78.19
248.2	62.19
248.433	69.19
248.666	69.19
248.899	76.19
249.133	88.19
249.366	103.19
249.599	100.19
249.832	70.19
250.066	94.19
250.299	72.19
250.532	83.19
250.765	80.19
250.998	82.19
251.231	77.19
251.465	90.19
251.698	77.19
251.931	88.19
252.164	71.19
252.397	74.19
252.63	85.19
252.863	72.19
253.096	74.19
253.329	70.19
253.562	61.19
253.795	84.19
254.028	81.19
254.261	80.19
254.494	86.19
254.727	75.19
254.96	83.19
255.193	71.19
255.426	74.19
255.659	95.19
255.892	89.19
256.124	79.19
256.357	99.19
256.59	91.19
256.823	89.19
257.056	92.19
257.289	87.19
257.521	82.19
257.754	77.19
257.987	86.19
258.22	96.19
258.452	81.19
258.685	84.19
258.918	75.19
259.151	76.19
259.383	82.19
259.616	74.19
259.849	84.19
260.081	80.19
260.314	87.19
260.547	77.19
260.779	96.19
261.012	109.19
261.244	97.19
261.477	100.19
261.71	90.19
261.942	115.19
262.175	129.19
262.407	95.19
262.64	87.19
262.872	85.19
263.105	89.19
263.337	82.19
263.57	94.19
263.802	82.19
264.035	84.19
264.267	91.19
264.499	78.19
264.732	100.19
264.964	99.19
265.197	95.19
265.429	82.19
265.661	75.19
265.894	87.19
266.126	73.19
266.358	87.19
266.591	93.19
266.823	85.19
267.055	81.19
267.287	81.19
267.52	79.19
267.752	72.19
267.984	87.19
268.216	81.19
268.448	83.19
268.681	90.19
268.913	84.19
269.145	76.19
269.377	77.19
269.609	80.19
269.841	90.19
270.073	91.19
270.306	92.19
270.538	72.19
270.77	80.19
271.002	80.19
271.234	80.19
271.466	91.19
271.698	60.19
271.93	76.19
272.162	91.19
272.394	89.19
272.626	91.19
272.858	98.19
273.09	77.19
273.322	90.19
273.553	78.19
273.785	73.19
274.017	91.19
274.249	91.19
274.481	70.19
274.713	86.19
274.945	88.19
275.176	72.19
275.408	90.19
275.64	91.19
275.872	98.19
276.104	92.19
276.335	97.19
276.567	92.19
276.799	126.19
277.031	129.19
277.262	159.19
277.494	119.19
277.726	80.19
277.957	90.19
278.189	83.19
278.421	85.19
278.652	80.19
278.884	80.19
279.115	94.19
279.347	96.19
279.579	95.19
279.81	104.19
280.042	145.19
280.273	191.19
280.505	137.19
280.736	102.19
280.968	91.19
281.199	95.19
281.431	84.19
281.662	67.19
281.894	92.19
282.125	107.19
282.356	117.19
282.588	149.19
282.819	119.19
283.051	93.19
283.282	75.19
283.513	93.19
283.745	84.19
283.976	90.19
284.207	94.19
284.439	82.19
284.67	91.19
284.901	88.19
285.132	90.19
285.364	94.19
285.595	91.19
285.826	79.19
286.057	90.19
286.288	91.19
286.52	84.19
286.751	73.19
286.982	105.19
287.213	85.19
287.444	68.19
287.675	69.19
287.906	96.19
288.138	98.19
288.369	79.19
288.6	98.19
288.831	88.19
289.062	90.19
289.293	90.19
289.524	78.19
289.755	80.19
289.986	89.19
290.217	92.19
290.448	87.19
290.679	83.19
290.91	85.19
291.141	93.19
291.371	87.19
291.602	84.19
291.833	88.19
292.064	92.19
292.295	91.19
292.526	93.19
292.757	96.19
292.987	90.19
293.218	102.19
293.449	85.19
293.68	84.19
293.91	83.19
294.141	99.19
294.372	83.19
294.603	90.19
294.833	96.19
295.064	100.19
295.295	91.19
295.525	91.19
295.756	97.19
295.987	116.19
296.217	147.19
296.448	131.19
296.679	99.19
296.909	92.19
297.14	99.19
297.37	99.19
297.601	91.19
297.831	98.19
298.062	91.19
298.292	86.19
298.523	91.19
298.753	93.19
298.984	86.19
299.214	106.19
299.445	89.19
299.675	83.19
299.905	97.19
300.136	98.19
300.366	76.19
300.597	90.19
300.827	88.19
301.057	94.19
301.288	92.19
301.518	110.19
301.748	104.19
301.979	104.19
302.209	111.19
302.439	91.19
302.669	101.19
302.9	96.19
303.13	97.19
303.36	109.19
303.59	116.19
303.82	140.19
304.051	103.19
304.281	99.19
304.511	94.19
304.741	93.19
304.971	79.19
305.201	83.19
305.431	75.19
305.661	77.19
305.891	89.19
306.121	107.19
306.352	98.19
306.582	110.19
306.812	98.19
307.042	109.19
307.272	142.19
307.502	155.19
307.731	154.19
307.961	119.19
308.191	99.19
308.421	91.19
308.651	93.19
308.881	113.19
309.111	106.19
309.341	96.19
309.571	106.19
309.8	84.19
310.03	104.19
310.26	91.19
310.49	102.19
310.72	98.19
310.949	119.19
311.179	93.19
311.409	100.19
311.639	96.19
311.868	112.19
312.098	81.19
312.328	105.19
312.557	101.19
312.787	108.19
313.017	112.19
313.246	94.19
313.476	97.19
313.706	93.19
313.935	93.19
314.165	116.19
314.394	112.19
314.624	100.19
314.853	106.19
315.083	93.19
315.312	95.19
315.542	88.19
315.771	81.19
316.001	84.19
316.23	79.19
316.46	74.19
316.689	90.19
316.919	97.19
317.148	93.19
317.377	91.19
317.607	99.19
317.836	80.19
318.065	89.19
318.295	91.19
318.524	97.19
318.753	91.19
318.983	108.19
319.212	96.19
319.441	97.19
319.67	95.19
319.9	91.19
320.129	93.19
320.358	100.19
320.587	111.19
320.816	103.19
321.046	92.19
321.275	92.19
321.504	99.19
321.733	114.19
321.962	106.19
322.191	92.19
322.42	114.19
322.649	124.19
322.878	130.19
323.108	127.19
323.337	134.19
323.566	148.19
323.795	171.19
324.024	234.19
324.253	456.19
324.482	1020.19
324.71	2087.19
324.939	2739.19
325.168	990.19
325.397	275.19
325.626	149.19
325.855	149.19
326.084	131.19
326.313	137.19
326.542	180.19
326.77	273.19
326.999	555.19
327.228	1129.19
327.457	2083.19
327.686	1632.19
327.914	513.19
328.143	421.19
328.372	463.19
328.6	285.19
328.829	184.19
329.058	157.19
329.287	166.19
329.515	163.19
329.744	203.19
329.972	354.19
330.201	693.19
330.43	951.19
330.658	457.19
330.887	228.19
331.115	153.19
331.344	111.19
331.572	117.19
331.801	122.19
332.03	117.19
332.258	89.19
332.486	104.19
332.715	85.19
332.943	110.19
333.172	117.19
333.4	118.19
333.629	143.19
333.857	204.19
334.085	336.19
334.314	688.19
334.542	1231.19
334.771	1127.19
334.999	301.19
335.227	153.19
335.455	107.19
335.684	118.19
335.912	106.19
336.14	115.19
336.369	107.19
336.597	111.19
336.825	104.19
337.053	98.19
337.281	91.19
337.51	87.19
337.738	98.19
337.966	84.19
338.194	99.19
338.422	106.19
338.65	94.19
338.878	91.19
339.106	95.19
339.334	100.19
339.562	81.19
339.79	91.19
340.018	79.19
340.246	103.19
340.474	85.19
340.702	99.19
340.93	98.19
341.158	95.19
341.386	100.19
341.614	90.19
341.842	108.19
342.07	88.19
342.298	84.19
342.526	84.19
342.754	96.19
342.981	86.19
343.209	83.19
343.437	100.19
343.665	93.19
343.893	90.19
344.12	103.19
344.348	84.19
344.576	89.19
344.804	88.19
345.031	104.19
345.259	90.19
345.487	90.19
345.714	99.19
345.942	99.19
346.17	77.19
346.397	83.19
346.625	93.19
346.853	102.19
347.08	92.19
347.308	101.19
347.535	106.19
347.763	96.19
347.99	96.19
348.218	95.19
348.445	94.19
348.673	113.19
348.9	100.19
349.128	88.19
349.355	91.19
349.583	89.19
349.81	84.19
350.037	86.19
350.265	88.19
350.492	79.19
350.72	92.19
350.947	82.19
351.174	117.19
351.402	108.19
351.629	103.19
351.856	107.19
352.083	108.19
352.311	108.19
352.538	103.19
352.765	125.19
352.992	131.19
353.22	117.19
353.447	108.19
353.674	91.19
353.901	80.19
354.128	78.19
354.355	105.19
354.583	100.19
354.81	98.19
355.037	94.19
355.264	101.19
355.491	109.19
355.718	84.19
355.945	89.19
356.172	93.19
356.399	97.19
356.626	92.19
356.853	81.19
357.08	101.19
357.307	105.19
357.534	91.19
357.761	97.19
357.988	84.19
358.215	99.19
358.441	86.19
358.668	95.19
358.895	89.19
359.122	80.19
359.349	103.19
359.576	98.19
359.802	130.19
360.029	117.19
360.256	119.19
360.483	98.19
360.709	97.19
360.936	92.19
361.163	96.19
361.39	97.19
361.616	87.19
361.843	82.19
362.07	103.19
362.296	112.19
362.523	104.19
362.749	91.19
362.976	96.19
363.203	100.19
363.429	84.19
363.656	91.19
363.882	103.19
364.109	73.19
364.335	101.19
364.562	96.19
364.788	88.19
365.015	92.19
365.241	96.19
365.468	107.19
365.694	105.19
365.92	104.19
366.147	84.19
366.373	104.19
366.599	89.19
366.826	76.19
367.052	91.19
367.278	90.19
367.505	85.19
367.731	98.19
367.957	104.19
368.184	105.19
368.41	113.19
368.636	117.19
368.862	116.19
369.089	128.19
369.315	115.19
369.541	99.19
369.767	100.19
369.993	92.19
370.219	101.19
370.445	83.19
370.672	92.19
370.898	85.19
371.124	91.19
371.35	96.19
371.576	85.19
371.802	83.19
372.028	93.19
372.254	90.19
372.48	82.19
372.706	95.19
372.932	80.19
373.158	86.19
373.384	91.19
373.61	87.19
373.835	95.19
374.061	88.19
374.287	85.19
374.513	83.19
374.739	91.19
374.965	85.19
375.191	82.19
375.416	87.19
375.642	90.19
375.868	102.19
376.094	81.19
376.319	98.19
376.545	73.19
376.771	93.19
376.997	95.19
377.222	91.19
377.448	88.19
377.674	76.19
377.899	79.19
378.125	98.19
378.35	95.19
378.576	96.19
378.802	64.19
379.027	87.19
379.253	82.19
379.478	100.19
379.704	85.19
379.929	96.19
380.155	104.19
380.38	104.19
380.606	92.19
380.831	107.19
381.057	91.19
381.282	89.19
381.507	89.19
381.733	104.19
381.958	89.19
382.184	92.19
382.409	91.19
382.634	96.19
382.86	85.19
383.085	93.19
383.31	104.19
383.535	90.19
383.761	116.19
383.986	95.19
384.211	90.19
384.436	103.19
384.662	89.19
384.887	92.19
385.112	103.19
385.337	124.19
385.562	89.19
385.787	111.19
386.013	108.19
386.238	113.19
386.463	101.19
386.688	119.19
386.913	84.19
387.138	100.19
387.363	99.19
387.588	93.19
387.813	99.19
388.038	97.19
388.263	113.19
388.488	99.19
388.713	87.19
388.938	94.19
389.163	91.19
389.387	104.19
389.612	84.19
389.837	110.19
390.062	93.19
390.287	90.19
390.512	82.19
390.736	81.19
390.961	92.19
391.186	93.19
391.411	85.19
391.636	85.19
391.86	86.19
392.085	89.19
392.31	92.19
392.534	89.19
392.759	92.19
392.984	84.19
393.208	79.19
393.433	83.19
393.658	106.19
393.882	94.19
394.107	76.19
394.331	85.19
394.556	82.19
394.78	97.19
395.005	85.19
395.229	87.19
395.454	91.19
395.678	84.19
395.903	88.19
396.127	100.19
396.352	91.19
396.576	84.19
396.801	94.19
397.025	95.19
397.249	84.19
397.474	98.19
397.698	86.19
397.922	87.19
398.147	87.19
398.371	85.19
398.595	90.19
398.82	84.19
399.044	84.19
399.268	86.19
399.492	88.19
399.717	88.19
399.941	82.19
400.165	93.19
400.389	95.19
400.613	100.19
400.837	99.19
401.062	103.19
401.286	89.19
401.51	86.19
401.734	83.19
401.958	88.19
402.182	135.19
402.406	184.19
402.63	124.19
402.854	88.19
403.078	85.19
403.302	96.19
403.526	96.19
403.75	87.19
403.974	84.19
404.198	103.19
404.422	79.19
404.645	99.19
404.869	91.19
405.093	106.19
405.317	117.19
405.541	128.19
405.765	104.19
405.988	134.19
406.212	195.19
406.436	287.19
406.66	165.19
406.883	100.19
407.107	99.19
407.331	103.19
407.555	89.19
407.778	104.19
408.002	79.19
408.226	78.19
408.449	88.19
408.673	92.19
408.896	101.19
409.12	103.19
409.344	82.19
409.567	74.19
409.791	86.19
410.014	98.19
410.238	84.19
410.461	107.19
410.685	92.19
410.908	91.19
411.132	102.19
411.355	93.19
411.578	94.19
411.802	82.19
412.025	95.19
412.249	90.19
412.472	120.19
412.695	116.19
412.919	103.19
413.142	87.19
413.365	84.19
413.589	81.19
413.812	96.19
414.035	94.19
414.258	91.19
414.482	89.19
414.705	84.19
414.928	84.19
415.151	86.19
415.374	106.19
415.597	107.19
415.821	93.19
416.044	93.19
416.267	87.19
416.49	87.19
416.713	87.19
416.936	83.19
417.159	83.19
417.382	100.19
417.605	89.19
417.828	89.19
418.051	85.19
418.274	81.19
418.497	84.19
418.72	82.19
418.943	90.19
419.166	82.19
419.389	86.19
419.611	104.19
419.834	93.19
420.057	88.19
420.28	98.19
420.503	90.19
420.726	100.19
420.948	104.19
421.171	96.19
421.394	98.19
421.617	90.19
421.839	82.19
422.062	98.19
422.285	81.19
422.507	100.19
422.73	127.19
422.953	93.19
423.175	97.19
423.398	93.19
423.621	82.19
423.843	81.19
424.066	90.19
424.288	90.19
424.511	91.19
424.733	104.19
424.956	115.19
425.178	90.19
425.401	103.19
425.623	97.19
425.846	81.19
426.068	85.19
426.291	102.19
426.513	98.19
426.735	87.19
426.958	102.19
427.18	104.19
427.402	160.19
427.625	212.19
427.847	203.19
428.069	202.19
428.292	117.19
428.514	88.19
428.736	85.19
428.958	105.19
429.181	79.19
429.403	93.19
429.625	92.19
429.847	92.19
430.069	97.19
430.292	82.19
430.514	100.19
430.736	89.19
430.958	92.19
431.18	84.19
431.402	71.19
431.624	83.19
431.846	82.19
432.068	86.19
432.29	88.19
432.512	95.19
432.734	96.19
432.956	90.19
433.178	95.19
433.4	98.19
433.622	98.19
433.844	96.19
434.066	80.19
434.287	83.19
434.509	81.19
434.731	85.19
434.953	97.19
435.175	100.19
435.397	99.19
435.618	96.19
435.84	114.19
436.062	133.19
436.284	112.19
436.505	96.19
436.727	103.19
436.949	88.19
437.17	79.19
437.392	75.19
437.614	107.19
437.835	119.19
438.057	125.19
438.278	109.19
438.5	115.19
438.721	148.19
438.943	119.19
439.165	93.19
439.386	86.19
439.608	85.19
439.829	100.19
440.05	144.19
440.272	167.19
440.493	117.19
440.715	88.19
440.936	83.19
441.158	81.19
441.379	99.19
441.6	98.19
441.822	100.19
442.043	91.19
442.264	103.19
442.486	106.19
442.707	91.19
442.928	110.19
443.149	151.19
443.371	138.19
443.592	128.19
443.813	136.19
444.034	108.19
444.255	89.19
444.476	99.19
444.698	85.19
444.919	95.19
445.14	136.19
445.361	133.19
445.582	132.19
445.803	166.19
446.024	149.19
446.245	147.19
446.466	120.19
446.687	94.19
446.908	90.19
447.129	90.19
447.35	93.19
447.571	80.19
447.792	90.19
448.013	102.19
448.234	112.19
448.455	100.19
448.675	139.19
448.896	117.19
449.117	109.19
449.338	98.19
449.559	146.19
449.779	142.19
450	91.19
450.221	96.19
450.442	98.19
450.662	86.19
450.883	115.19
451.104	131.19
451.324	96.19
451.545	72.19
451.766	75.19
451.986	85.19
452.207	97.19
452.428	89.19
452.648	98.19
452.869	128.19
453.089	127.19
453.31	128.19
453.53	99.19
453.751	106.19
453.971	97.19
454.192	124.19
454.412	111.19
454.633	105.19
454.853	84.19
455.073	77.19
455.294	88.19
455.514	113.19
455.734	106.19
455.955	87.19
456.175	93.19
456.395	92.19
456.616	88.19
456.836	81.19
457.056	87.19
457.276	91.19
457.497	97.19
457.717	83.19
457.937	88.19
458.157	87.19
458.377	95.19
458.598	114.19
458.818	159.19
459.038	180.19
459.258	143.19
459.478	98.19
459.698	93.19
459.918	96.19
460.138	104.19
460.358	90.19
460.578	99.19
460.798	84.19
461.018	83.19
461.238	86.19
461.458	76.19
461.678	83.19
461.898	87.19
462.118	68.19
462.338	75.19
462.558	86.19
462.777	82.19
462.997	87.19
463.217	105.19
463.437	106.19
463.657	88.19
463.876	95.19
464.096	90.19
464.316	92.19
464.536	91.19
464.755	107.19
464.975	117.19
465.195	208.19
465.414	199.19
465.634	100.19
465.854	98.19
466.073	76.19
466.293	95.19
466.512	96.19
466.732	94.19
466.951	94.19
467.171	112.19
467.391	101.19
467.61	125.19
467.829	175.19
468.049	426.19
468.268	587.19
468.488	161.19
468.707	93.19
468.927	93.19
469.146	87.19
469.365	98.19
469.585	95.19
469.804	98.19
470.023	111.19
470.243	95.19
470.462	117.19
470.681	127.19
470.901	108.19
471.12	99.19
471.339	100.19
471.558	108.19
471.777	127.19
471.997	240.19
472.216	815.19
472.435	1704.19
472.654	444.19
472.873	141.19
473.092	97.19
473.311	97.19
473.53	78.19
473.749	84.19
473.968	111.19
474.187	116.19
474.406	92.19
474.625	87.19
474.844	93.19
475.063	89.19
475.282	95.19
475.501	100.19
475.72	77.19
475.939	103.19
476.158	93.19
476.377	96.19
476.596	92.19
476.814	108.19
477.033	104.19
477.252	93.19
477.471	85.19
477.69	87.19
477.908	89.19
478.127	89.19
478.346	91.19
478.564	88.19
478.783	109.19
479.002	105.19
479.22	113.19
479.439	112.19
479.658	128.19
479.876	108.19
480.095	114.19
480.313	118.19
480.532	136.19
480.751	224.19
480.969	764.19
481.188	2998.19
481.406	1712.19
481.624	276.19
481.843	118.19
482.061	109.19
482.28	99.19
482.498	96.19
482.717	99.19
482.935	83.19
483.153	101.19
483.372	98.19
483.59	94.19
483.808	93.19
484.027	90.19
484.245	88.19
484.463	91.19
484.681	97.19
484.9	103.19
485.118	103.19
485.336	89.19
485.554	99.19
485.772	111.19
485.99	117.19
486.209	101.19
486.427	109.19
486.645	114.19
486.863	118.19
487.081	103.19
487.299	99.19
487.517	77.19
487.735	88.19
487.953	88.19
488.171	90.19
488.389	89.19
488.607	97.19
488.825	85.19
489.043	87.19
489.261	97.19
489.479	94.19
489.696	84.19
489.914	86.19
490.132	74.19
490.35	85.19
490.568	102.19
490.786	100.19
491.003	106.19
491.221	86.19
491.439	91.19
491.657	90.19
491.874	92.19
492.092	94.19
492.31	93.19
492.527	96.19
492.745	89.19
492.963	93.19
493.18	88.19
493.398	99.19
493.615	103.19
493.833	99.19
494.05	95.19
494.268	82.19
494.485	71.19
494.703	76.19
494.92	90.19
495.138	101.19
495.355	93.19
495.573	88.19
495.79	84.19
496.008	97.19
496.225	81.19
496.442	93.19
496.66	87.19
496.877	78.19
497.094	96.19
497.312	103.19
497.529	97.19
497.746	98.19
497.963	111.19
498.181	107.19
498.398	87.19
498.615	114.19
498.832	106.19
499.049	95.19
499.267	93.19
499.484	91.19
499.701	78.19
499.918	98.19
500.135	84.19
500.352	84.19
500.569	83.19
500.786	100.19
501.003	90.19
501.22	75.19
501.437	96.19
501.654	98.19
501.871	105.19
502.088	87.19
502.305	89.19
502.522	89.19
502.739	85.19
502.956	86.19
503.172	95.19
503.389	92.19
503.606	106.19
503.823	97.19
504.04	84.19
504.256	82.19
504.473	86.19
504.69	103.19
504.907	100.19
505.123	100.19
505.34	92.19
505.557	98.19
505.773	96.19
505.99	91.19
506.207	98.19
506.423	96.19
506.64	95.19
506.856	84.19
507.073	97.19
507.289	100.19
507.506	87.19
507.722	120.19
507.939	125.19
508.155	96.19
508.372	97.19
508.588	92.19
508.805	103.19
509.021	102.19
509.238	93.19
509.454	97.19
509.67	121.19
509.887	100.19
510.103	125.19
510.319	227.19
510.536	829.19
510.752	2636.19
510.968	746.19
511.184	157.19
511.401	114.19
511.617	105.19
511.833	96.19
512.049	103.19
512.265	104.19
512.481	99.19
512.698	80.19
512.914	85.19
513.13	85.19
513.346	97.19
513.562	106.19
513.778	97.19
513.994	113.19
514.21	119.19
