Data from Circ_2001_H10_HRD10591_00090.txt Node
Date: Wed Jan 03 10:45:56 EST 2024
User: Yrep
Spectrometer: HR+D1059
Trigger mode: 1
Integration Time (sec): 1.000000E-1
Scans to average: 1
Electric dark correction enabled: true
Nonlinearity correction enabled: false
Boxcar width: 0
XAxis mode: Wavelengths
Number of Pixels in Spectrum: 2048
>>>>>Begin Spectral Data<<<<<
223.165	-20.75
223.4	-20.75
223.635	-20.75
223.869	-22.75
224.104	-18.75
224.338	-13.75
224.573	-11.75
224.808	-19.75
225.042	-4.75
225.277	-9.75
225.511	3.25
225.746	14.25
225.98	5.25
226.215	16.25
226.449	16.25
226.683	25.25
226.918	16.25
227.152	25.25
227.387	49.25
227.621	39.25
227.856	52.25
228.09	49.25
228.324	46.25
228.559	67.25
228.793	65.25
229.027	75.25
229.262	68.25
229.496	61.25
229.73	88.25
229.964	89.25
230.199	78.25
230.433	78.25
230.667	81.25
230.901	85.25
231.136	76.25
231.37	84.25
231.604	81.25
231.838	78.25
232.072	77.25
232.306	93.25
232.541	95.25
232.775	88.25
233.009	81.25
233.243	93.25
233.477	89.25
233.711	93.25
233.945	87.25
234.179	93.25
234.413	97.25
234.647	85.25
234.881	82.25
235.115	72.25
235.349	87.25
235.583	94.25
235.817	79.25
236.051	90.25
236.285	86.25
236.519	85.25
236.753	85.25
236.987	78.25
237.221	94.25
237.455	72.25
237.689	63.25
237.922	72.25
238.156	89.25
238.39	69.25
238.624	84.25
238.858	76.25
239.091	79.25
239.325	73.25
239.559	99.25
239.793	87.25
240.027	94.25
240.26	91.25
240.494	79.25
240.728	82.25
240.961	80.25
241.195	76.25
241.429	85.25
241.662	75.25
241.896	80.25
242.13	83.25
242.363	79.25
242.597	87.25
242.83	74.25
243.064	71.25
243.298	88.25
243.531	85.25
243.765	82.25
243.998	88.25
244.232	78.25
244.465	81.25
244.699	76.25
244.932	88.25
245.166	92.25
245.399	96.25
245.633	100.25
245.866	73.25
246.099	88.25
246.333	85.25
246.566	80.25
246.8	71.25
247.033	83.25
247.266	92.25
247.5	71.25
247.733	78.25
247.966	78.25
248.2	88.25
248.433	89.25
248.666	82.25
248.899	89.25
249.133	96.25
249.366	90.25
249.599	83.25
249.832	93.25
250.066	86.25
250.299	82.25
250.532	75.25
250.765	88.25
250.998	79.25
251.231	94.25
251.465	81.25
251.698	87.25
251.931	95.25
252.164	96.25
252.397	80.25
252.63	79.25
252.863	95.25
253.096	87.25
253.329	84.25
253.562	88.25
253.795	98.25
254.028	79.25
254.261	87.25
254.494	85.25
254.727	94.25
254.96	85.25
255.193	88.25
255.426	83.25
255.659	92.25
255.892	83.25
256.124	94.25
256.357	95.25
256.59	87.25
256.823	86.25
257.056	92.25
257.289	92.25
257.521	81.25
257.754	89.25
257.987	86.25
258.22	88.25
258.452	97.25
258.685	90.25
258.918	93.25
259.151	96.25
259.383	98.25
259.616	92.25
259.849	82.25
260.081	96.25
260.314	84.25
260.547	94.25
260.779	94.25
261.012	97.25
261.244	98.25
261.477	88.25
261.71	97.25
261.942	114.25
262.175	111.25
262.407	97.25
262.64	84.25
262.872	98.25
263.105	92.25
263.337	84.25
263.57	88.25
263.802	92.25
264.035	85.25
264.267	100.25
264.499	73.25
264.732	87.25
264.964	92.25
265.197	87.25
265.429	95.25
265.661	89.25
265.894	87.25
266.126	102.25
266.358	84.25
266.591	90.25
266.823	91.25
267.055	94.25
267.287	87.25
267.52	86.25
267.752	79.25
267.984	79.25
268.216	94.25
268.448	94.25
268.681	92.25
268.913	96.25
269.145	85.25
269.377	96.25
269.609	83.25
269.841	84.25
270.073	74.25
270.306	80.25
270.538	94.25
270.77	76.25
271.002	92.25
271.234	92.25
271.466	86.25
271.698	85.25
271.93	84.25
272.162	103.25
272.394	98.25
272.626	86.25
272.858	94.25
273.09	81.25
273.322	87.25
273.553	86.25
273.785	86.25
274.017	89.25
274.249	88.25
274.481	107.25
274.713	90.25
274.945	107.25
275.176	98.25
275.408	109.25
275.64	102.25
275.872	110.25
276.104	94.25
276.335	93.25
276.567	110.25
276.799	119.25
277.031	127.25
277.262	136.25
277.494	124.25
277.726	101.25
277.957	89.25
278.189	104.25
278.421	94.25
278.652	80.25
278.884	88.25
279.115	98.25
279.347	96.25
279.579	94.25
279.81	109.25
280.042	132.25
280.273	184.25
280.505	142.25
280.736	100.25
280.968	96.25
281.199	84.25
281.431	90.25
281.662	87.25
281.894	92.25
282.125	93.25
282.356	125.25
282.588	166.25
282.819	108.25
283.051	82.25
283.282	95.25
283.513	95.25
283.745	96.25
283.976	79.25
284.207	97.25
284.439	90.25
284.67	93.25
284.901	93.25
285.132	78.25
285.364	97.25
285.595	92.25
285.826	79.25
286.057	98.25
286.288	84.25
286.52	91.25
286.751	91.25
286.982	103.25
287.213	98.25
287.444	88.25
287.675	99.25
287.906	88.25
288.138	93.25
288.369	100.25
288.6	104.25
288.831	93.25
289.062	97.25
289.293	90.25
289.524	93.25
289.755	91.25
289.986	89.25
290.217	86.25
290.448	89.25
290.679	88.25
290.91	84.25
291.141	93.25
291.371	84.25
291.602	93.25
291.833	86.25
292.064	96.25
292.295	90.25
292.526	105.25
292.757	88.25
292.987	95.25
293.218	88.25
293.449	89.25
293.68	78.25
293.91	90.25
294.141	114.25
294.372	70.25
294.603	96.25
294.833	74.25
295.064	88.25
295.295	93.25
295.525	95.25
295.756	100.25
295.987	119.25
296.217	136.25
296.448	115.25
296.679	88.25
296.909	90.25
297.14	101.25
297.37	98.25
297.601	99.25
297.831	108.25
298.062	90.25
298.292	94.25
298.523	90.25
298.753	96.25
298.984	91.25
299.214	86.25
299.445	98.25
299.675	106.25
299.905	92.25
300.136	84.25
300.366	92.25
300.597	93.25
300.827	95.25
301.057	95.25
301.288	108.25
301.518	99.25
301.748	97.25
301.979	113.25
302.209	86.25
302.439	105.25
302.669	104.25
302.9	106.25
303.13	94.25
303.36	105.25
303.59	113.25
303.82	116.25
304.051	105.25
304.281	94.25
304.511	83.25
304.741	94.25
304.971	103.25
305.201	97.25
305.431	89.25
305.661	105.25
305.891	92.25
306.121	95.25
306.352	97.25
306.582	94.25
306.812	100.25
307.042	101.25
307.272	131.25
307.502	137.25
307.731	135.25
307.961	113.25
308.191	106.25
308.421	94.25
308.651	94.25
308.881	88.25
309.111	101.25
309.341	110.25
309.571	110.25
309.8	97.25
310.03	95.25
310.26	102.25
310.49	89.25
310.72	110.25
310.949	115.25
311.179	121.25
311.409	87.25
311.639	97.25
311.868	117.25
312.098	102.25
312.328	97.25
312.557	114.25
312.787	114.25
313.017	123.25
313.246	107.25
313.476	91.25
313.706	92.25
313.935	99.25
314.165	108.25
314.394	105.25
314.624	105.25
314.853	106.25
315.083	90.25
315.312	96.25
315.542	90.25
315.771	87.25
316.001	98.25
316.23	93.25
316.46	112.25
316.689	89.25
316.919	102.25
317.148	96.25
317.377	94.25
317.607	106.25
317.836	106.25
318.065	92.25
318.295	89.25
318.524	106.25
318.753	103.25
318.983	91.25
319.212	117.25
319.441	85.25
319.67	115.25
319.9	92.25
320.129	95.25
320.358	122.25
320.587	91.25
320.816	102.25
321.046	100.25
321.275	110.25
321.504	97.25
321.733	109.25
321.962	113.25
322.191	111.25
322.42	100.25
322.649	125.25
322.878	117.25
323.108	124.25
323.337	115.25
323.566	119.25
323.795	152.25
324.024	205.25
324.253	411.25
324.482	879.25
324.71	1834.25
324.939	2301.25
325.168	826.25
325.397	262.25
325.626	166.25
325.855	139.25
326.084	135.25
326.313	143.25
326.542	160.25
326.77	261.25
326.999	465.25
327.228	984.25
327.457	1846.25
327.686	1440.25
327.914	454.25
328.143	371.25
328.372	407.25
328.6	229.25
328.829	144.25
329.058	148.25
329.287	145.25
329.515	142.25
329.744	204.25
329.972	307.25
330.201	572.25
330.43	823.25
330.658	405.25
330.887	198.25
331.115	156.25
331.344	121.25
331.572	114.25
331.801	125.25
332.03	115.25
332.258	115.25
332.486	103.25
332.715	111.25
332.943	112.25
333.172	133.25
333.4	106.25
333.629	141.25
333.857	175.25
334.085	280.25
334.314	557.25
334.542	1036.25
334.771	968.25
334.999	273.25
335.227	161.25
335.455	110.25
335.684	111.25
335.912	113.25
336.14	116.25
336.369	90.25
336.597	119.25
336.825	95.25
337.053	103.25
337.281	107.25
337.51	100.25
337.738	84.25
337.966	91.25
338.194	104.25
338.422	96.25
338.65	92.25
338.878	97.25
339.106	88.25
339.334	97.25
339.562	93.25
339.79	112.25
340.018	102.25
340.246	102.25
340.474	101.25
340.702	92.25
340.93	89.25
341.158	98.25
341.386	105.25
341.614	105.25
341.842	101.25
342.07	91.25
342.298	94.25
342.526	104.25
342.754	98.25
342.981	88.25
343.209	103.25
343.437	94.25
343.665	94.25
343.893	86.25
344.12	92.25
344.348	94.25
344.576	105.25
344.804	102.25
345.031	121.25
345.259	115.25
345.487	109.25
345.714	101.25
345.942	92.25
346.17	98.25
346.397	85.25
346.625	94.25
346.853	91.25
347.08	93.25
347.308	94.25
347.535	91.25
347.763	92.25
347.99	100.25
348.218	112.25
348.445	108.25
348.673	106.25
348.9	97.25
349.128	96.25
349.355	97.25
349.583	98.25
349.81	101.25
350.037	115.25
350.265	102.25
350.492	94.25
350.72	118.25
350.947	101.25
351.174	103.25
351.402	120.25
351.629	90.25
351.856	98.25
352.083	122.25
352.311	115.25
352.538	106.25
352.765	133.25
352.992	115.25
353.22	113.25
353.447	101.25
353.674	108.25
353.901	103.25
354.128	96.25
354.355	123.25
354.583	104.25
354.81	93.25
355.037	105.25
355.264	111.25
355.491	102.25
355.718	97.25
355.945	89.25
356.172	91.25
356.399	100.25
356.626	105.25
356.853	107.25
357.08	97.25
357.307	95.25
357.534	100.25
357.761	95.25
357.988	90.25
358.215	98.25
358.441	102.25
358.668	79.25
358.895	95.25
359.122	96.25
359.349	96.25
359.576	93.25
359.802	104.25
360.029	121.25
360.256	110.25
360.483	105.25
360.709	100.25
360.936	99.25
361.163	90.25
361.39	95.25
361.616	91.25
361.843	93.25
362.07	87.25
362.296	96.25
362.523	98.25
362.749	86.25
362.976	105.25
363.203	91.25
363.429	81.25
363.656	104.25
363.882	102.25
364.109	84.25
364.335	97.25
364.562	94.25
364.788	100.25
365.015	94.25
365.241	112.25
365.468	90.25
365.694	86.25
365.92	100.25
366.147	93.25
366.373	80.25
366.599	94.25
366.826	86.25
367.052	101.25
367.278	93.25
367.505	90.25
367.731	90.25
367.957	108.25
368.184	102.25
368.41	106.25
368.636	108.25
368.862	113.25
369.089	120.25
369.315	96.25
369.541	97.25
369.767	100.25
369.993	90.25
370.219	113.25
370.445	100.25
370.672	94.25
370.898	88.25
371.124	89.25
371.35	98.25
371.576	82.25
371.802	93.25
372.028	88.25
372.254	89.25
372.48	90.25
372.706	80.25
372.932	86.25
373.158	97.25
373.384	104.25
373.61	95.25
373.835	87.25
374.061	100.25
374.287	98.25
374.513	93.25
374.739	90.25
374.965	104.25
375.191	82.25
375.416	71.25
375.642	87.25
375.868	95.25
376.094	99.25
376.319	82.25
376.545	87.25
376.771	108.25
376.997	94.25
377.222	87.25
377.448	94.25
377.674	94.25
377.899	92.25
378.125	91.25
378.35	94.25
378.576	97.25
378.802	88.25
379.027	96.25
379.253	98.25
379.478	73.25
379.704	75.25
379.929	97.25
380.155	103.25
380.38	94.25
380.606	110.25
380.831	94.25
381.057	100.25
381.282	102.25
381.507	114.25
381.733	91.25
381.958	111.25
382.184	91.25
382.409	90.25
382.634	99.25
382.86	95.25
383.085	107.25
383.31	100.25
383.535	107.25
383.761	97.25
383.986	103.25
384.211	96.25
384.436	99.25
384.662	93.25
384.887	92.25
385.112	117.25
385.337	110.25
385.562	88.25
385.787	109.25
386.013	105.25
386.238	108.25
386.463	120.25
386.688	110.25
386.913	98.25
387.138	118.25
387.363	98.25
387.588	96.25
387.813	119.25
388.038	97.25
388.263	113.25
388.488	109.25
388.713	106.25
388.938	82.25
389.163	104.25
389.387	100.25
389.612	104.25
389.837	97.25
390.062	106.25
390.287	82.25
390.512	93.25
390.736	95.25
390.961	113.25
391.186	96.25
391.411	100.25
391.636	95.25
391.86	97.25
392.085	89.25
392.31	94.25
392.534	90.25
392.759	94.25
392.984	99.25
393.208	89.25
393.433	90.25
393.658	90.25
393.882	93.25
394.107	88.25
394.331	87.25
394.556	82.25
394.78	103.25
395.005	94.25
395.229	70.25
395.454	93.25
395.678	97.25
395.903	86.25
396.127	92.25
396.352	86.25
396.576	96.25
396.801	103.25
397.025	87.25
397.249	96.25
397.474	92.25
397.698	95.25
397.922	95.25
398.147	99.25
398.371	90.25
398.595	83.25
398.82	94.25
399.044	98.25
399.268	81.25
399.492	88.25
399.717	89.25
399.941	89.25
400.165	103.25
400.389	93.25
400.613	94.25
400.837	107.25
401.062	102.25
401.286	78.25
401.51	93.25
401.734	107.25
401.958	98.25
402.182	119.25
402.406	148.25
402.63	109.25
402.854	92.25
403.078	87.25
403.302	96.25
403.526	91.25
403.75	95.25
403.974	89.25
404.198	88.25
404.422	86.25
404.645	87.25
404.869	92.25
405.093	104.25
405.317	120.25
405.541	120.25
405.765	113.25
405.988	116.25
406.212	174.25
406.436	216.25
406.66	175.25
406.883	104.25
407.107	102.25
407.331	100.25
407.555	106.25
407.778	110.25
408.002	97.25
408.226	82.25
408.449	97.25
408.673	98.25
408.896	94.25
409.12	114.25
409.344	103.25
409.567	103.25
409.791	92.25
410.014	98.25
410.238	91.25
410.461	93.25
410.685	112.25
410.908	85.25
411.132	105.25
411.355	102.25
411.578	114.25
411.802	101.25
412.025	102.25
412.249	92.25
412.472	97.25
412.695	143.25
412.919	92.25
413.142	104.25
413.365	104.25
413.589	90.25
413.812	94.25
414.035	105.25
414.258	93.25
414.482	91.25
414.705	99.25
414.928	87.25
415.151	94.25
415.374	96.25
415.597	82.25
415.821	90.25
416.044	105.25
416.267	81.25
416.49	102.25
416.713	97.25
416.936	106.25
417.159	116.25
417.382	104.25
417.605	116.25
417.828	98.25
418.051	91.25
418.274	90.25
418.497	81.25
418.72	96.25
418.943	89.25
419.166	98.25
419.389	92.25
419.611	87.25
419.834	92.25
420.057	103.25
420.28	90.25
420.503	89.25
420.726	87.25
420.948	110.25
421.171	111.25
421.394	88.25
421.617	81.25
421.839	85.25
422.062	96.25
422.285	89.25
422.507	106.25
422.73	92.25
422.953	99.25
423.175	98.25
423.398	81.25
423.621	83.25
423.843	85.25
424.066	92.25
424.288	103.25
424.511	91.25
424.733	113.25
424.956	109.25
425.178	100.25
425.401	98.25
425.623	114.25
425.846	97.25
426.068	96.25
426.291	89.25
426.513	94.25
426.735	104.25
426.958	102.25
427.18	112.25
427.402	161.25
427.625	183.25
427.847	208.25
428.069	183.25
428.292	127.25
428.514	87.25
428.736	88.25
428.958	81.25
429.181	85.25
429.403	97.25
429.625	101.25
429.847	81.25
430.069	102.25
430.292	102.25
430.514	82.25
430.736	94.25
430.958	90.25
431.18	89.25
431.402	87.25
431.624	98.25
431.846	93.25
432.068	90.25
432.29	98.25
432.512	92.25
432.734	81.25
432.956	87.25
433.178	108.25
433.4	87.25
433.622	85.25
433.844	114.25
434.066	97.25
434.287	87.25
434.509	101.25
434.731	94.25
434.953	90.25
435.175	98.25
435.397	98.25
435.618	94.25
435.84	98.25
436.062	117.25
436.284	121.25
436.505	97.25
436.727	96.25
436.949	84.25
437.17	101.25
437.392	87.25
437.614	95.25
437.835	113.25
438.057	118.25
438.278	118.25
438.5	113.25
438.721	120.25
438.943	108.25
439.165	97.25
439.386	79.25
439.608	90.25
439.829	116.25
440.05	132.25
440.272	168.25
440.493	115.25
440.715	92.25
440.936	89.25
441.158	93.25
441.379	98.25
441.6	85.25
441.822	94.25
442.043	110.25
442.264	100.25
442.486	114.25
442.707	115.25
442.928	112.25
443.149	141.25
443.371	137.25
443.592	120.25
443.813	113.25
444.034	129.25
444.255	105.25
444.476	103.25
444.698	94.25
444.919	102.25
445.14	137.25
445.361	129.25
445.582	117.25
445.803	153.25
446.024	148.25
446.245	137.25
446.466	127.25
446.687	90.25
446.908	80.25
447.129	84.25
447.35	95.25
447.571	93.25
447.792	94.25
448.013	101.25
448.234	109.25
448.455	113.25
448.675	114.25
448.896	112.25
449.117	93.25
449.338	96.25
449.559	144.25
449.779	154.25
450	95.25
450.221	78.25
450.442	90.25
450.662	102.25
450.883	120.25
451.104	123.25
451.324	100.25
451.545	98.25
451.766	94.25
451.986	95.25
452.207	95.25
452.428	103.25
452.648	103.25
452.869	106.25
453.089	102.25
453.31	118.25
453.53	96.25
453.751	93.25
453.971	114.25
454.192	118.25
454.412	109.25
454.633	88.25
454.853	100.25
455.073	85.25
455.294	82.25
455.514	117.25
455.734	109.25
455.955	85.25
456.175	90.25
456.395	89.25
456.616	88.25
456.836	82.25
457.056	85.25
457.276	93.25
457.497	83.25
457.717	84.25
457.937	94.25
458.157	96.25
458.377	104.25
458.598	104.25
458.818	151.25
459.038	158.25
459.258	128.25
459.478	99.25
459.698	95.25
459.918	89.25
460.138	86.25
460.358	82.25
460.578	103.25
460.798	104.25
461.018	98.25
461.238	88.25
461.458	98.25
461.678	100.25
461.898	89.25
462.118	90.25
462.338	86.25
462.558	97.25
462.777	107.25
462.997	108.25
463.217	111.25
463.437	97.25
463.657	89.25
463.876	91.25
464.096	103.25
464.316	99.25
464.536	102.25
464.755	100.25
464.975	97.25
465.195	182.25
465.414	162.25
465.634	103.25
465.854	95.25
466.073	112.25
466.293	75.25
466.512	96.25
466.732	95.25
466.951	105.25
467.171	89.25
467.391	109.25
467.61	132.25
467.829	168.25
468.049	366.25
468.268	522.25
468.488	161.25
468.707	96.25
468.927	104.25
469.146	92.25
469.365	95.25
469.585	103.25
469.804	108.25
470.023	95.25
470.243	84.25
470.462	102.25
470.681	121.25
470.901	112.25
471.12	113.25
471.339	100.25
471.558	97.25
471.777	132.25
471.997	237.25
472.216	695.25
472.435	1500.25
472.654	366.25
472.873	125.25
473.092	105.25
473.311	111.25
473.53	100.25
473.749	91.25
473.968	107.25
474.187	110.25
474.406	106.25
474.625	116.25
474.844	98.25
475.063	92.25
475.282	103.25
475.501	97.25
475.72	97.25
475.939	91.25
476.158	89.25
476.377	96.25
476.596	102.25
476.814	93.25
477.033	98.25
477.252	108.25
477.471	101.25
477.69	76.25
477.908	106.25
478.127	102.25
478.346	86.25
478.564	107.25
478.783	107.25
479.002	113.25
479.22	108.25
479.439	117.25
479.658	115.25
479.876	110.25
480.095	109.25
480.313	116.25
480.532	128.25
480.751	203.25
480.969	670.25
481.188	2567.25
481.406	1488.25
481.624	241.25
481.843	122.25
482.061	113.25
482.28	110.25
482.498	89.25
482.717	83.25
482.935	90.25
483.153	103.25
483.372	106.25
483.59	82.25
483.808	102.25
484.027	102.25
484.245	102.25
484.463	102.25
484.681	104.25
484.9	95.25
485.118	101.25
485.336	89.25
485.554	87.25
485.772	102.25
485.99	111.25
486.209	104.25
486.427	107.25
486.645	120.25
486.863	107.25
487.081	104.25
487.299	107.25
487.517	95.25
487.735	96.25
487.953	101.25
488.171	101.25
488.389	112.25
488.607	94.25
488.825	91.25
489.043	96.25
489.261	101.25
489.479	78.25
489.696	91.25
489.914	94.25
490.132	100.25
490.35	103.25
490.568	85.25
490.786	91.25
491.003	90.25
491.221	84.25
491.439	86.25
491.657	103.25
491.874	102.25
492.092	100.25
492.31	108.25
492.527	105.25
492.745	95.25
492.963	87.25
493.18	100.25
493.398	88.25
493.615	81.25
493.833	105.25
494.05	103.25
494.268	88.25
494.485	87.25
494.703	85.25
494.92	85.25
495.138	88.25
495.355	102.25
495.573	101.25
495.79	109.25
496.008	95.25
496.225	86.25
496.442	97.25
496.66	87.25
496.877	90.25
497.094	93.25
497.312	89.25
497.529	96.25
497.746	88.25
497.963	103.25
498.181	86.25
498.398	90.25
498.615	109.25
498.832	88.25
499.049	92.25
499.267	97.25
499.484	94.25
499.701	90.25
499.918	92.25
500.135	98.25
500.352	88.25
500.569	100.25
500.786	101.25
501.003	85.25
501.22	97.25
501.437	94.25
501.654	110.25
501.871	114.25
502.088	108.25
502.305	86.25
502.522	77.25
502.739	93.25
502.956	98.25
503.172	101.25
503.389	105.25
503.606	105.25
503.823	93.25
504.04	108.25
504.256	91.25
504.473	95.25
504.69	91.25
504.907	104.25
505.123	92.25
505.34	104.25
505.557	101.25
505.773	103.25
505.99	91.25
506.207	99.25
506.423	85.25
506.64	84.25
506.856	114.25
507.073	91.25
507.289	105.25
507.506	86.25
507.722	114.25
507.939	116.25
508.155	98.25
508.372	100.25
508.588	104.25
508.805	107.25
509.021	95.25
509.238	110.25
509.454	96.25
509.67	93.25
509.887	125.25
510.103	122.25
510.319	198.25
510.536	649.25
510.752	2015.25
510.968	578.25
511.184	146.25
511.401	116.25
511.617	102.25
511.833	98.25
512.049	90.25
512.265	106.25
512.481	93.25
512.698	96.25
