Data from Circ_2001_H10_HRD10591_00028.txt Node
Date: Wed Jan 03 10:45:44 EST 2024
User: Yrep
Spectrometer: HR+D1059
Trigger mode: 1
Integration Time (sec): 1.000000E-1
Scans to average: 1
Electric dark correction enabled: true
Nonlinearity correction enabled: false
Boxcar width: 0
XAxis mode: Wavelengths
Number of Pixels in Spectrum: 2048
>>>>>Begin Spectral Data<<<<<
223.165	-28.38
223.4	-28.38
223.635	-28.38
223.869	-22.38
224.104	-8.38
224.338	-3.38
224.573	-14.38
224.808	-3.38
225.042	-12.38
225.277	-8.38
225.511	-5.38
225.746	-2.38
225.98	12.62
226.215	11.62
226.449	26.62
226.683	5.62
226.918	22.62
227.152	29.62
227.387	44.62
227.621	48.62
227.856	44.62
228.09	40.62
228.324	53.62
228.559	47.62
228.793	37.62
229.027	50.62
229.262	72.62
229.496	51.62
229.73	88.62
229.964	85.62
230.199	76.62
230.433	74.62
230.667	74.62
230.901	81.62
231.136	78.62
231.37	68.62
231.604	79.62
231.838	80.62
232.072	89.62
232.306	80.62
232.541	76.62
232.775	76.62
233.009	74.62
233.243	69.62
233.477	68.62
233.711	69.62
233.945	82.62
234.179	88.62
234.413	79.62
234.647	96.62
234.881	80.62
235.115	73.62
235.349	77.62
235.583	76.62
235.817	69.62
236.051	82.62
236.285	78.62
236.519	65.62
236.753	76.62
236.987	88.62
237.221	91.62
237.455	82.62
237.689	88.62
237.922	71.62
238.156	82.62
238.39	86.62
238.624	74.62
238.858	85.62
239.091	79.62
239.325	73.62
239.559	70.62
239.793	78.62
240.027	74.62
240.26	92.62
240.494	77.62
240.728	80.62
240.961	64.62
241.195	63.62
241.429	85.62
241.662	66.62
241.896	68.62
242.13	80.62
242.363	76.62
242.597	69.62
242.83	70.62
243.064	67.62
243.298	64.62
243.531	70.62
243.765	69.62
243.998	74.62
244.232	92.62
244.465	100.62
244.699	85.62
244.932	74.62
245.166	64.62
245.399	69.62
245.633	74.62
245.866	74.62
246.099	81.62
246.333	80.62
246.566	67.62
246.8	83.62
247.033	78.62
247.266	64.62
247.5	58.62
247.733	67.62
247.966	82.62
248.2	104.62
248.433	72.62
248.666	63.62
248.899	81.62
249.133	88.62
249.366	109.62
249.599	98.62
249.832	90.62
250.066	77.62
250.299	64.62
250.532	87.62
250.765	77.62
250.998	78.62
251.231	76.62
251.465	70.62
251.698	74.62
251.931	73.62
252.164	87.62
252.397	83.62
252.63	83.62
252.863	72.62
253.096	84.62
253.329	68.62
253.562	64.62
253.795	89.62
254.028	76.62
254.261	74.62
254.494	76.62
254.727	75.62
254.96	84.62
255.193	76.62
255.426	83.62
255.659	70.62
255.892	82.62
256.124	91.62
256.357	84.62
256.59	80.62
256.823	98.62
257.056	94.62
257.289	73.62
257.521	79.62
257.754	80.62
257.987	83.62
258.22	80.62
258.452	90.62
258.685	94.62
258.918	76.62
259.151	81.62
259.383	79.62
259.616	87.62
259.849	79.62
260.081	86.62
260.314	76.62
260.547	98.62
260.779	89.62
261.012	83.62
261.244	98.62
261.477	102.62
261.71	117.62
261.942	124.62
262.175	132.62
262.407	93.62
262.64	83.62
262.872	89.62
263.105	85.62
263.337	100.62
263.57	85.62
263.802	78.62
264.035	83.62
264.267	89.62
264.499	87.62
264.732	78.62
264.964	82.62
265.197	91.62
265.429	90.62
265.661	81.62
265.894	70.62
266.126	79.62
266.358	89.62
266.591	80.62
266.823	78.62
267.055	95.62
267.287	89.62
267.52	89.62
267.752	77.62
267.984	77.62
268.216	82.62
268.448	87.62
268.681	85.62
268.913	80.62
269.145	72.62
269.377	98.62
269.609	78.62
269.841	74.62
270.073	93.62
270.306	89.62
270.538	83.62
270.77	90.62
271.002	87.62
271.234	87.62
271.466	85.62
271.698	87.62
271.93	76.62
272.162	79.62
272.394	98.62
272.626	87.62
272.858	81.62
273.09	94.62
273.322	80.62
273.553	86.62
273.785	91.62
274.017	90.62
274.249	75.62
274.481	90.62
274.713	89.62
274.945	94.62
275.176	89.62
275.408	99.62
275.64	106.62
275.872	120.62
276.104	90.62
276.335	104.62
276.567	100.62
276.799	146.62
277.031	154.62
277.262	153.62
277.494	121.62
277.726	86.62
277.957	86.62
278.189	86.62
278.421	88.62
278.652	80.62
278.884	77.62
279.115	85.62
279.347	87.62
279.579	84.62
279.81	116.62
280.042	144.62
280.273	194.62
280.505	145.62
280.736	112.62
280.968	85.62
281.199	79.62
281.431	87.62
281.662	98.62
281.894	89.62
282.125	96.62
282.356	119.62
282.588	160.62
282.819	137.62
283.051	92.62
283.282	94.62
283.513	76.62
283.745	89.62
283.976	73.62
284.207	89.62
284.439	78.62
284.67	93.62
284.901	86.62
285.132	81.62
285.364	84.62
285.595	89.62
285.826	80.62
286.057	84.62
286.288	77.62
286.52	97.62
286.751	80.62
286.982	104.62
287.213	90.62
287.444	85.62
287.675	87.62
287.906	88.62
288.138	83.62
288.369	88.62
288.6	90.62
288.831	100.62
289.062	88.62
289.293	94.62
289.524	90.62
289.755	96.62
289.986	78.62
290.217	62.62
290.448	95.62
290.679	81.62
290.91	80.62
291.141	82.62
291.371	89.62
291.602	96.62
291.833	85.62
292.064	86.62
292.295	104.62
292.526	91.62
292.757	82.62
292.987	85.62
293.218	81.62
293.449	93.62
293.68	100.62
293.91	75.62
294.141	76.62
294.372	90.62
294.603	95.62
294.833	88.62
295.064	108.62
295.295	89.62
295.525	86.62
295.756	101.62
295.987	117.62
296.217	145.62
296.448	129.62
296.679	92.62
296.909	97.62
297.14	98.62
297.37	82.62
297.601	94.62
297.831	78.62
298.062	97.62
298.292	101.62
298.523	92.62
298.753	77.62
298.984	90.62
299.214	86.62
299.445	98.62
299.675	92.62
299.905	83.62
300.136	76.62
300.366	92.62
300.597	79.62
300.827	102.62
301.057	103.62
301.288	109.62
301.518	109.62
301.748	100.62
301.979	105.62
302.209	82.62
302.439	86.62
302.669	97.62
302.9	75.62
303.13	90.62
303.36	90.62
303.59	121.62
303.82	149.62
304.051	78.62
304.281	95.62
304.511	98.62
304.741	97.62
304.971	95.62
305.201	95.62
305.431	85.62
305.661	95.62
305.891	82.62
306.121	87.62
306.352	104.62
306.582	106.62
306.812	99.62
307.042	120.62
307.272	150.62
307.502	145.62
307.731	152.62
307.961	132.62
308.191	93.62
308.421	78.62
308.651	103.62
308.881	88.62
309.111	87.62
309.341	100.62
309.571	97.62
309.8	110.62
310.03	109.62
310.26	86.62
310.49	84.62
310.72	108.62
310.949	115.62
311.179	106.62
311.409	101.62
311.639	95.62
311.868	82.62
312.098	94.62
312.328	113.62
312.557	117.62
312.787	115.62
313.017	116.62
313.246	85.62
313.476	101.62
313.706	88.62
313.935	109.62
314.165	101.62
314.394	119.62
314.624	108.62
314.853	109.62
315.083	94.62
315.312	85.62
315.542	88.62
315.771	85.62
316.001	78.62
316.23	88.62
316.46	90.62
316.689	93.62
316.919	96.62
317.148	114.62
317.377	100.62
317.607	95.62
317.836	92.62
318.065	81.62
318.295	95.62
318.524	97.62
318.753	90.62
318.983	100.62
319.212	99.62
319.441	120.62
319.67	106.62
319.9	102.62
320.129	108.62
320.358	88.62
320.587	101.62
320.816	102.62
321.046	96.62
321.275	94.62
321.504	96.62
321.733	95.62
321.962	105.62
322.191	100.62
322.42	108.62
322.649	104.62
322.878	120.62
323.108	130.62
323.337	140.62
323.566	150.62
323.795	170.62
324.024	242.62
324.253	488.62
324.482	1039.62
324.71	2153.62
324.939	2836.62
325.168	1022.62
325.397	302.62
325.626	176.62
325.855	127.62
326.084	137.62
326.313	146.62
326.542	179.62
326.77	268.62
326.999	534.62
327.228	1176.62
327.457	2082.62
327.686	1648.62
327.914	524.62
328.143	431.62
328.372	498.62
328.6	298.62
328.829	175.62
329.058	194.62
329.287	186.62
329.515	152.62
329.744	220.62
329.972	365.62
330.201	740.62
330.43	1017.62
330.658	483.62
330.887	249.62
331.115	177.62
331.344	109.62
331.572	125.62
331.801	124.62
332.03	96.62
332.258	104.62
332.486	93.62
332.715	112.62
332.943	118.62
333.172	103.62
333.4	122.62
333.629	169.62
333.857	193.62
334.085	334.62
334.314	683.62
334.542	1271.62
334.771	1168.62
334.999	338.62
335.227	162.62
335.455	109.62
335.684	113.62
335.912	105.62
336.14	100.62
336.369	96.62
336.597	122.62
336.825	88.62
337.053	95.62
337.281	93.62
337.51	94.62
337.738	92.62
337.966	86.62
338.194	85.62
338.422	93.62
338.65	114.62
338.878	101.62
339.106	100.62
339.334	95.62
339.562	88.62
339.79	99.62
340.018	105.62
340.246	95.62
340.474	96.62
340.702	98.62
340.93	85.62
341.158	103.62
341.386	96.62
341.614	89.62
341.842	100.62
342.07	82.62
342.298	70.62
342.526	79.62
342.754	77.62
342.981	83.62
343.209	101.62
343.437	101.62
343.665	79.62
343.893	94.62
344.12	101.62
344.348	108.62
344.576	89.62
344.804	96.62
345.031	98.62
345.259	97.62
345.487	99.62
345.714	98.62
345.942	92.62
346.17	101.62
346.397	96.62
346.625	94.62
346.853	99.62
347.08	90.62
347.308	111.62
347.535	108.62
347.763	96.62
347.99	88.62
348.218	91.62
348.445	107.62
348.673	92.62
348.9	94.62
349.128	92.62
349.355	83.62
349.583	96.62
349.81	90.62
350.037	108.62
350.265	96.62
350.492	91.62
350.72	102.62
350.947	102.62
351.174	101.62
351.402	116.62
351.629	100.62
351.856	105.62
352.083	106.62
352.311	100.62
352.538	111.62
352.765	124.62
352.992	124.62
353.22	117.62
353.447	118.62
353.674	89.62
353.901	96.62
354.128	90.62
354.355	82.62
354.583	84.62
354.81	102.62
355.037	98.62
355.264	92.62
355.491	95.62
355.718	85.62
355.945	96.62
356.172	96.62
356.399	85.62
356.626	96.62
356.853	95.62
357.08	82.62
357.307	103.62
357.534	86.62
357.761	99.62
357.988	90.62
358.215	92.62
358.441	69.62
358.668	105.62
358.895	97.62
359.122	84.62
359.349	94.62
359.576	85.62
359.802	97.62
360.029	142.62
360.256	134.62
360.483	110.62
360.709	96.62
360.936	97.62
361.163	87.62
361.39	98.62
361.616	85.62
361.843	93.62
362.07	103.62
362.296	106.62
362.523	94.62
362.749	90.62
362.976	95.62
363.203	94.62
363.429	98.62
363.656	106.62
363.882	82.62
364.109	82.62
364.335	97.62
364.562	105.62
364.788	94.62
365.015	105.62
365.241	98.62
365.468	117.62
365.694	114.62
365.92	92.62
366.147	97.62
366.373	86.62
366.599	88.62
366.826	86.62
367.052	93.62
367.278	103.62
367.505	88.62
367.731	107.62
367.957	96.62
368.184	103.62
368.41	96.62
368.636	118.62
368.862	113.62
369.089	118.62
369.315	88.62
369.541	96.62
369.767	96.62
369.993	103.62
370.219	94.62
370.445	90.62
370.672	84.62
370.898	82.62
371.124	76.62
371.35	89.62
371.576	87.62
371.802	90.62
372.028	86.62
372.254	95.62
372.48	88.62
372.706	76.62
372.932	90.62
373.158	92.62
373.384	89.62
373.61	98.62
373.835	82.62
374.061	97.62
374.287	96.62
374.513	85.62
374.739	95.62
374.965	78.62
375.191	87.62
375.416	83.62
375.642	84.62
375.868	86.62
376.094	86.62
376.319	93.62
376.545	98.62
376.771	103.62
376.997	89.62
377.222	83.62
377.448	89.62
377.674	81.62
377.899	97.62
378.125	87.62
378.35	95.62
378.576	96.62
378.802	82.62
379.027	78.62
379.253	90.62
379.478	89.62
379.704	96.62
379.929	102.62
380.155	95.62
380.38	104.62
380.606	87.62
380.831	87.62
381.057	91.62
381.282	90.62
381.507	89.62
381.733	95.62
381.958	105.62
382.184	104.62
382.409	92.62
382.634	89.62
382.86	91.62
383.085	109.62
383.31	91.62
383.535	114.62
383.761	100.62
383.986	89.62
384.211	90.62
384.436	117.62
384.662	99.62
384.887	103.62
385.112	113.62
385.337	105.62
385.562	104.62
385.787	104.62
386.013	118.62
386.238	115.62
386.463	115.62
386.688	112.62
386.913	110.62
387.138	116.62
387.363	116.62
387.588	98.62
387.813	101.62
388.038	113.62
388.263	129.62
388.488	120.62
388.713	92.62
388.938	87.62
389.163	84.62
389.387	94.62
389.612	81.62
389.837	93.62
390.062	86.62
390.287	85.62
390.512	95.62
390.736	93.62
390.961	95.62
391.186	80.62
391.411	89.62
391.636	81.62
391.86	87.62
392.085	88.62
392.31	87.62
392.534	84.62
392.759	103.62
392.984	77.62
393.208	91.62
393.433	100.62
393.658	85.62
393.882	70.62
394.107	87.62
394.331	81.62
394.556	94.62
394.78	90.62
395.005	77.62
395.229	87.62
395.454	83.62
395.678	78.62
395.903	74.62
396.127	90.62
396.352	97.62
396.576	93.62
396.801	99.62
397.025	85.62
397.249	84.62
397.474	84.62
397.698	85.62
397.922	93.62
398.147	80.62
398.371	83.62
398.595	82.62
398.82	93.62
399.044	89.62
399.268	69.62
399.492	91.62
399.717	81.62
399.941	87.62
400.165	85.62
400.389	106.62
400.613	87.62
400.837	77.62
401.062	70.62
401.286	85.62
401.51	96.62
401.734	104.62
401.958	102.62
402.182	141.62
402.406	180.62
402.63	139.62
402.854	97.62
403.078	83.62
403.302	77.62
403.526	102.62
403.75	92.62
403.974	81.62
404.198	78.62
404.422	89.62
404.645	72.62
404.869	92.62
405.093	110.62
405.317	129.62
405.541	116.62
405.765	111.62
405.988	130.62
406.212	188.62
406.436	277.62
406.66	165.62
406.883	118.62
407.107	104.62
407.331	92.62
407.555	93.62
407.778	100.62
408.002	89.62
408.226	85.62
408.449	88.62
408.673	75.62
408.896	110.62
409.12	98.62
409.344	87.62
409.567	70.62
409.791	76.62
410.014	103.62
410.238	96.62
410.461	88.62
410.685	85.62
410.908	86.62
411.132	89.62
411.355	107.62
411.578	87.62
411.802	91.62
412.025	80.62
412.249	102.62
412.472	110.62
412.695	113.62
412.919	104.62
413.142	113.62
413.365	93.62
413.589	90.62
413.812	87.62
414.035	90.62
414.258	81.62
414.482	91.62
414.705	86.62
414.928	74.62
415.151	88.62
415.374	83.62
415.597	83.62
415.821	89.62
416.044	95.62
416.267	76.62
416.49	93.62
416.713	87.62
416.936	71.62
417.159	84.62
417.382	92.62
417.605	92.62
417.828	92.62
418.051	100.62
418.274	89.62
418.497	82.62
418.72	89.62
418.943	88.62
419.166	85.62
419.389	79.62
419.611	97.62
419.834	82.62
420.057	81.62
420.28	81.62
420.503	84.62
420.726	75.62
420.948	80.62
421.171	100.62
421.394	105.62
421.617	92.62
421.839	80.62
422.062	89.62
422.285	84.62
422.507	97.62
422.73	102.62
422.953	90.62
423.175	76.62
423.398	74.62
423.621	95.62
423.843	82.62
424.066	94.62
424.288	81.62
424.511	92.62
424.733	89.62
424.956	121.62
425.178	108.62
425.401	104.62
425.623	97.62
425.846	78.62
426.068	92.62
426.291	90.62
426.513	84.62
426.735	91.62
426.958	96.62
427.18	112.62
427.402	173.62
427.625	248.62
427.847	208.62
428.069	194.62
428.292	139.62
428.514	88.62
428.736	82.62
428.958	82.62
429.181	81.62
429.403	88.62
429.625	82.62
429.847	91.62
430.069	99.62
430.292	74.62
430.514	81.62
430.736	79.62
430.958	80.62
431.18	83.62
431.402	74.62
431.624	72.62
431.846	91.62
432.068	105.62
432.29	83.62
432.512	82.62
432.734	96.62
432.956	94.62
433.178	89.62
433.4	102.62
433.622	94.62
433.844	79.62
434.066	65.62
434.287	94.62
434.509	82.62
434.731	107.62
434.953	96.62
435.175	79.62
435.397	100.62
435.618	93.62
435.84	106.62
436.062	125.62
436.284	143.62
436.505	107.62
436.727	114.62
436.949	85.62
437.17	83.62
437.392	90.62
437.614	88.62
437.835	113.62
438.057	144.62
438.278	114.62
438.5	125.62
438.721	124.62
438.943	101.62
439.165	89.62
439.386	90.62
439.608	94.62
439.829	105.62
440.05	140.62
440.272	164.62
440.493	99.62
440.715	93.62
440.936	87.62
441.158	88.62
441.379	96.62
441.6	94.62
441.822	98.62
442.043	97.62
442.264	116.62
442.486	106.62
442.707	94.62
442.928	119.62
443.149	153.62
443.371	154.62
443.592	123.62
443.813	142.62
444.034	115.62
444.255	103.62
444.476	79.62
444.698	78.62
444.919	63.62
445.14	132.62
445.361	125.62
445.582	119.62
445.803	194.62
446.024	171.62
446.245	151.62
446.466	133.62
446.687	102.62
446.908	92.62
447.129	77.62
447.35	72.62
447.571	92.62
447.792	93.62
448.013	113.62
448.234	114.62
448.455	113.62
448.675	116.62
448.896	127.62
449.117	101.62
449.338	99.62
449.559	139.62
449.779	150.62
450	89.62
450.221	98.62
450.442	83.62
450.662	99.62
450.883	116.62
451.104	123.62
451.324	106.62
451.545	81.62
451.766	80.62
451.986	103.62
452.207	79.62
452.428	86.62
452.648	93.62
452.869	124.62
453.089	122.62
453.31	120.62
453.53	82.62
453.751	90.62
453.971	108.62
454.192	138.62
454.412	108.62
454.633	80.62
454.853	85.62
455.073	99.62
455.294	93.62
455.514	93.62
455.734	102.62
455.955	85.62
456.175	85.62
456.395	84.62
456.616	86.62
456.836	93.62
457.056	85.62
457.276	84.62
457.497	84.62
457.717	78.62
457.937	86.62
458.157	89.62
458.377	97.62
458.598	127.62
458.818	195.62
459.038	205.62
459.258	139.62
459.478	80.62
459.698	86.62
459.918	81.62
460.138	88.62
460.358	82.62
460.578	82.62
460.798	80.62
461.018	85.62
461.238	79.62
461.458	93.62
461.678	89.62
461.898	80.62
462.118	85.62
462.338	79.62
462.558	84.62
462.777	81.62
462.997	89.62
463.217	104.62
463.437	85.62
463.657	81.62
463.876	94.62
464.096	88.62
464.316	87.62
464.536	100.62
464.755	88.62
464.975	128.62
465.195	204.62
465.414	224.62
465.634	109.62
465.854	103.62
466.073	88.62
466.293	90.62
466.512	88.62
466.732	92.62
466.951	95.62
467.171	98.62
467.391	102.62
467.61	132.62
467.829	164.62
468.049	407.62
468.268	597.62
468.488	179.62
468.707	97.62
468.927	78.62
469.146	92.62
469.365	81.62
469.585	102.62
469.804	95.62
470.023	106.62
470.243	85.62
470.462	119.62
470.681	134.62
470.901	99.62
471.12	102.62
471.339	97.62
471.558	106.62
471.777	124.62
471.997	240.62
472.216	812.62
472.435	1758.62
472.654	443.62
472.873	134.62
473.092	117.62
473.311	94.62
473.53	83.62
473.749	96.62
473.968	101.62
474.187	115.62
474.406	105.62
474.625	92.62
474.844	75.62
475.063	80.62
475.282	93.62
475.501	80.62
475.72	90.62
475.939	77.62
476.158	90.62
476.377	78.62
476.596	99.62
476.814	97.62
477.033	97.62
477.252	83.62
477.471	98.62
477.69	89.62
477.908	86.62
478.127	89.62
478.346	81.62
478.564	91.62
478.783	114.62
479.002	103.62
479.22	96.62
479.439	118.62
479.658	126.62
479.876	97.62
480.095	100.62
480.313	106.62
480.532	135.62
480.751	205.62
480.969	708.62
481.188	2981.62
481.406	1766.62
481.624	277.62
481.843	119.62
482.061	110.62
482.28	98.62
482.498	97.62
482.717	96.62
482.935	93.62
483.153	86.62
483.372	89.62
483.59	71.62
483.808	77.62
484.027	81.62
484.245	86.62
484.463	81.62
484.681	101.62
484.9	82.62
485.118	89.62
485.336	98.62
485.554	96.62
485.772	96.62
485.99	110.62
486.209	95.62
486.427	101.62
486.645	116.62
486.863	119.62
487.081	91.62
487.299	101.62
487.517	95.62
487.735	100.62
487.953	83.62
488.171	95.62
488.389	96.62
488.607	94.62
488.825	79.62
489.043	76.62
489.261	91.62
489.479	75.62
489.696	79.62
489.914	84.62
490.132	82.62
490.35	84.62
490.568	95.62
490.786	83.62
491.003	70.62
491.221	97.62
491.439	84.62
491.657	95.62
491.874	92.62
492.092	84.62
492.31	86.62
492.527	86.62
492.745	87.62
492.963	80.62
493.18	103.62
493.398	82.62
493.615	90.62
493.833	93.62
494.05	85.62
494.268	80.62
494.485	81.62
494.703	82.62
494.92	85.62
495.138	85.62
495.355	103.62
495.573	86.62
495.79	102.62
496.008	86.62
496.225	83.62
496.442	89.62
496.66	84.62
496.877	82.62
497.094	105.62
497.312	97.62
497.529	89.62
497.746	101.62
497.963	84.62
498.181	76.62
498.398	103.62
498.615	118.62
498.832	90.62
499.049	92.62
499.267	80.62
499.484	99.62
499.701	77.62
499.918	102.62
500.135	90.62
500.352	83.62
500.569	78.62
500.786	88.62
501.003	89.62
501.22	85.62
501.437	87.62
501.654	115.62
501.871	121.62
502.088	85.62
502.305	91.62
502.522	89.62
502.739	84.62
502.956	84.62
503.172	90.62
503.389	101.62
503.606	112.62
503.823	85.62
504.04	93.62
504.256	80.62
504.473	70.62
504.69	85.62
504.907	101.62
505.123	96.62
505.34	96.62
505.557	89.62
505.773	86.62
505.99	80.62
506.207	77.62
506.423	86.62
506.64	82.62
506.856	84.62
507.073	86.62
507.289	90.62
507.506	101.62
507.722	114.62
507.939	113.62
508.155	105.62
508.372	98.62
508.588	98.62
508.805	100.62
509.021	102.62
509.238	100.62
509.454	104.62
509.67	106.62
509.887	116.62
510.103	135.62
510.319	232.62
510.536	853.62
510.752	2848.62
510.968	786.62
511.184	191.62
511.401	124.62
511.617	100.62
511.833	94.62
512.049	85.62
512.265	93.62
512.481	107.62
512.698	103.62
512.914	88.62
513.13	88.62
513.346	93.62
513.562	92.62
513.778	100.62
513.994	93.62
514.21	110.62
