Data from CBS_2_HRD10591_00040.txt Node
Date: Mon Jan 19 14:05:06 EST 2026
User: Yrep
Spectrometer: HR+D1059
Trigger mode: 1
Integration Time (sec): 1.000000E-1
Scans to average: 1
Electric dark correction enabled: true
Nonlinearity correction enabled: false
Boxcar width: 0
XAxis mode: Wavelengths
Number of Pixels in Spectrum: 2048
>>>>>Begin Spectral Data<<<<<
223.165	-23.81
223.4	-23.81
223.635	-23.81
223.869	-21.81
224.104	-24.81
224.338	-11.81
224.573	-10.81
224.808	-14.81
225.042	3.19
225.277	-4.81
225.511	3.19
225.746	11.19
225.98	-7.81
226.215	21.19
226.449	9.19
226.683	13.19
226.918	27.19
227.152	32.19
227.387	35.19
227.621	41.19
227.856	45.19
228.09	48.19
228.324	53.19
228.559	67.19
228.793	57.19
229.027	64.19
229.262	62.19
229.496	74.19
229.73	69.19
229.964	72.19
230.199	78.19
230.433	73.19
230.667	69.19
230.901	81.19
231.136	81.19
231.37	84.19
231.604	73.19
231.838	87.19
232.072	71.19
232.306	79.19
232.541	83.19
232.775	81.19
233.009	81.19
233.243	83.19
233.477	77.19
233.711	98.19
233.945	81.19
234.179	77.19
234.413	83.19
234.647	75.19
234.881	81.19
235.115	81.19
235.349	73.19
235.583	81.19
235.817	93.19
236.051	81.19
236.285	87.19
236.519	71.19
236.753	77.19
236.987	84.19
237.221	80.19
237.455	75.19
237.689	67.19
237.922	61.19
238.156	67.19
238.39	71.19
238.624	67.19
238.858	66.19
239.091	79.19
239.325	83.19
239.559	68.19
239.793	68.19
240.027	86.19
240.26	84.19
240.494	83.19
240.728	82.19
240.961	74.19
241.195	66.19
241.429	64.19
241.662	84.19
241.896	76.19
242.13	64.19
242.363	75.19
242.597	78.19
242.83	80.19
243.064	74.19
243.298	89.19
243.531	76.19
243.765	79.19
243.998	70.19
244.232	83.19
244.465	79.19
244.699	72.19
244.932	92.19
245.166	83.19
245.399	79.19
245.633	81.19
245.866	72.19
246.099	74.19
246.333	74.19
246.566	83.19
246.8	75.19
247.033	81.19
247.266	75.19
247.5	69.19
247.733	75.19
247.966	65.19
248.2	72.19
248.433	86.19
248.666	82.19
248.899	81.19
249.133	71.19
249.366	72.19
249.599	83.19
249.832	77.19
250.066	95.19
250.299	83.19
250.532	91.19
250.765	76.19
250.998	79.19
251.231	67.19
251.465	80.19
251.698	76.19
251.931	70.19
252.164	67.19
252.397	67.19
252.63	76.19
252.863	70.19
253.096	72.19
253.329	90.19
253.562	78.19
253.795	85.19
254.028	84.19
254.261	72.19
254.494	85.19
254.727	80.19
254.96	83.19
255.193	82.19
255.426	76.19
255.659	82.19
255.892	84.19
256.124	75.19
256.357	83.19
256.59	88.19
256.823	72.19
257.056	81.19
257.289	90.19
257.521	94.19
257.754	88.19
257.987	84.19
258.22	85.19
258.452	81.19
258.685	81.19
258.918	90.19
259.151	70.19
259.383	75.19
259.616	84.19
259.849	62.19
260.081	73.19
260.314	82.19
260.547	67.19
260.779	83.19
261.012	80.19
261.244	81.19
261.477	73.19
261.71	79.19
261.942	85.19
262.175	88.19
262.407	75.19
262.64	75.19
262.872	66.19
263.105	83.19
263.337	98.19
263.57	74.19
263.802	82.19
264.035	73.19
264.267	79.19
264.499	85.19
264.732	82.19
264.964	84.19
265.197	77.19
265.429	83.19
265.661	87.19
265.894	82.19
266.126	90.19
266.358	72.19
266.591	89.19
266.823	87.19
267.055	71.19
267.287	82.19
267.52	85.19
267.752	83.19
267.984	75.19
268.216	71.19
268.448	95.19
268.681	89.19
268.913	89.19
269.145	80.19
269.377	90.19
269.609	70.19
269.841	80.19
270.073	92.19
270.306	75.19
270.538	69.19
270.77	84.19
271.002	111.19
271.234	95.19
271.466	103.19
271.698	85.19
271.93	94.19
272.162	77.19
272.394	86.19
272.626	83.19
272.858	87.19
273.09	85.19
273.322	78.19
273.553	84.19
273.785	76.19
274.017	79.19
274.249	73.19
274.481	78.19
274.713	93.19
274.945	86.19
275.176	85.19
275.408	93.19
275.64	81.19
275.872	82.19
276.104	80.19
276.335	88.19
276.567	73.19
276.799	71.19
277.031	78.19
277.262	78.19
277.494	91.19
277.726	85.19
277.957	74.19
278.189	79.19
278.421	81.19
278.652	91.19
278.884	74.19
279.115	88.19
279.347	76.19
279.579	92.19
279.81	77.19
280.042	73.19
280.273	74.19
280.505	66.19
280.736	73.19
280.968	83.19
281.199	85.19
281.431	88.19
281.662	86.19
281.894	93.19
282.125	75.19
282.356	83.19
282.588	71.19
282.819	79.19
283.051	75.19
283.282	87.19
283.513	89.19
283.745	94.19
283.976	73.19
284.207	69.19
284.439	85.19
284.67	101.19
284.901	85.19
285.132	89.19
285.364	89.19
285.595	75.19
285.826	75.19
286.057	95.19
286.288	72.19
286.52	90.19
286.751	81.19
286.982	68.19
287.213	80.19
287.444	81.19
287.675	95.19
287.906	87.19
288.138	89.19
288.369	79.19
288.6	90.19
288.831	78.19
289.062	85.19
289.293	75.19
289.524	76.19
289.755	89.19
289.986	88.19
290.217	82.19
290.448	96.19
290.679	89.19
290.91	84.19
291.141	89.19
291.371	88.19
291.602	86.19
291.833	79.19
292.064	93.19
292.295	84.19
292.526	67.19
292.757	74.19
292.987	74.19
293.218	88.19
293.449	89.19
293.68	76.19
293.91	79.19
294.141	76.19
294.372	97.19
294.603	84.19
294.833	86.19
295.064	79.19
295.295	83.19
295.525	89.19
295.756	85.19
295.987	89.19
296.217	82.19
296.448	85.19
296.679	77.19
296.909	97.19
297.14	103.19
297.37	89.19
297.601	85.19
297.831	85.19
298.062	91.19
298.292	87.19
298.523	84.19
298.753	94.19
298.984	85.19
299.214	83.19
299.445	90.19
299.675	84.19
299.905	104.19
300.136	104.19
300.366	79.19
300.597	90.19
300.827	83.19
301.057	83.19
301.288	93.19
301.518	93.19
301.748	98.19
301.979	101.19
302.209	85.19
302.439	95.19
302.669	83.19
302.9	84.19
303.13	73.19
303.36	79.19
303.59	86.19
303.82	83.19
304.051	85.19
304.281	89.19
304.511	93.19
304.741	86.19
304.971	95.19
305.201	87.19
305.431	95.19
305.661	102.19
305.891	83.19
306.121	84.19
306.352	91.19
306.582	86.19
306.812	89.19
307.042	76.19
307.272	79.19
307.502	85.19
307.731	86.19
307.961	87.19
308.191	91.19
308.421	75.19
308.651	75.19
308.881	83.19
309.111	73.19
309.341	85.19
309.571	97.19
309.8	83.19
310.03	79.19
310.26	91.19
310.49	74.19
310.72	82.19
310.949	75.19
311.179	89.19
311.409	87.19
311.639	86.19
311.868	83.19
312.098	84.19
312.328	75.19
312.557	86.19
312.787	87.19
313.017	94.19
313.246	86.19
313.476	85.19
313.706	76.19
313.935	81.19
314.165	76.19
314.394	80.19
314.624	84.19
314.853	83.19
315.083	86.19
315.312	88.19
315.542	89.19
315.771	92.19
316.001	93.19
316.23	95.19
316.46	74.19
316.689	91.19
316.919	93.19
317.148	69.19
317.377	82.19
317.607	85.19
317.836	85.19
318.065	92.19
318.295	92.19
318.524	78.19
318.753	74.19
318.983	81.19
319.212	85.19
319.441	81.19
319.67	77.19
319.9	81.19
320.129	73.19
320.358	70.19
320.587	68.19
320.816	82.19
321.046	91.19
321.275	93.19
321.504	79.19
321.733	71.19
321.962	95.19
322.191	99.19
322.42	91.19
322.649	85.19
322.878	87.19
323.108	84.19
323.337	75.19
323.566	81.19
323.795	96.19
324.024	76.19
324.253	87.19
324.482	93.19
324.71	86.19
324.939	89.19
325.168	93.19
325.397	79.19
325.626	81.19
325.855	79.19
326.084	97.19
326.313	86.19
326.542	102.19
326.77	86.19
326.999	90.19
327.228	79.19
327.457	98.19
327.686	95.19
327.914	76.19
328.143	84.19
328.372	85.19
328.6	82.19
328.829	98.19
329.058	80.19
329.287	78.19
329.515	85.19
329.744	95.19
329.972	77.19
330.201	91.19
330.43	79.19
330.658	75.19
330.887	80.19
331.115	94.19
331.344	89.19
331.572	109.19
331.801	83.19
332.03	87.19
332.258	84.19
332.486	92.19
332.715	78.19
332.943	62.19
333.172	93.19
333.4	86.19
333.629	82.19
333.857	85.19
334.085	81.19
334.314	85.19
334.542	88.19
334.771	78.19
334.999	77.19
335.227	82.19
335.455	90.19
335.684	83.19
335.912	84.19
336.14	69.19
336.369	93.19
336.597	74.19
336.825	79.19
337.053	84.19
337.281	85.19
337.51	90.19
337.738	97.19
337.966	80.19
338.194	82.19
338.422	98.19
338.65	88.19
338.878	75.19
339.106	84.19
339.334	94.19
339.562	83.19
339.79	80.19
340.018	86.19
340.246	79.19
340.474	83.19
340.702	81.19
340.93	69.19
341.158	85.19
341.386	83.19
341.614	85.19
341.842	82.19
342.07	95.19
342.298	94.19
342.526	79.19
342.754	83.19
342.981	94.19
343.209	76.19
343.437	94.19
343.665	81.19
343.893	101.19
344.12	90.19
344.348	85.19
344.576	63.19
344.804	74.19
345.031	87.19
345.259	96.19
345.487	91.19
345.714	85.19
345.942	74.19
346.17	85.19
346.397	76.19
346.625	89.19
346.853	95.19
347.08	95.19
347.308	88.19
347.535	88.19
347.763	82.19
347.99	101.19
348.218	86.19
348.445	81.19
348.673	83.19
348.9	93.19
349.128	85.19
349.355	98.19
349.583	87.19
349.81	80.19
350.037	90.19
350.265	103.19
350.492	89.19
350.72	91.19
350.947	79.19
351.174	91.19
351.402	77.19
351.629	76.19
351.856	78.19
352.083	98.19
352.311	88.19
352.538	79.19
352.765	74.19
352.992	73.19
353.22	65.19
353.447	91.19
353.674	93.19
353.901	91.19
354.128	87.19
354.355	83.19
354.583	82.19
354.81	97.19
355.037	86.19
355.264	85.19
355.491	82.19
355.718	81.19
355.945	86.19
356.172	103.19
356.399	95.19
356.626	82.19
356.853	93.19
357.08	82.19
357.307	93.19
357.534	82.19
357.761	93.19
357.988	91.19
358.215	88.19
358.441	94.19
358.668	86.19
358.895	83.19
359.122	94.19
359.349	76.19
359.576	87.19
359.802	86.19
360.029	96.19
360.256	73.19
360.483	72.19
360.709	91.19
360.936	72.19
361.163	82.19
361.39	78.19
361.616	85.19
361.843	78.19
362.07	86.19
362.296	98.19
362.523	103.19
362.749	73.19
362.976	93.19
363.203	97.19
363.429	96.19
363.656	100.19
363.882	100.19
364.109	89.19
364.335	99.19
364.562	97.19
364.788	93.19
365.015	91.19
365.241	81.19
365.468	84.19
365.694	84.19
365.92	94.19
366.147	81.19
366.373	97.19
366.599	82.19
366.826	87.19
367.052	88.19
367.278	86.19
367.505	67.19
367.731	87.19
367.957	78.19
368.184	99.19
368.41	84.19
368.636	91.19
368.862	82.19
369.089	90.19
369.315	95.19
369.541	82.19
369.767	82.19
369.993	92.19
370.219	78.19
370.445	84.19
370.672	91.19
370.898	79.19
371.124	83.19
371.35	84.19
371.576	88.19
371.802	90.19
372.028	83.19
372.254	91.19
372.48	79.19
372.706	65.19
372.932	78.19
373.158	93.19
373.384	82.19
373.61	94.19
373.835	116.19
374.061	83.19
374.287	91.19
374.513	86.19
374.739	87.19
374.965	94.19
375.191	83.19
375.416	85.19
375.642	99.19
375.868	88.19
376.094	80.19
376.319	89.19
376.545	86.19
376.771	86.19
376.997	75.19
377.222	87.19
377.448	86.19
377.674	93.19
377.899	76.19
378.125	90.19
378.35	83.19
378.576	92.19
378.802	86.19
379.027	78.19
379.253	82.19
379.478	91.19
379.704	90.19
379.929	77.19
380.155	83.19
380.38	87.19
380.606	88.19
380.831	83.19
381.057	81.19
381.282	110.19
381.507	89.19
381.733	85.19
381.958	70.19
382.184	92.19
382.409	93.19
382.634	88.19
382.86	95.19
383.085	91.19
383.31	89.19
383.535	84.19
383.761	79.19
383.986	89.19
384.211	85.19
384.436	73.19
384.662	78.19
384.887	95.19
385.112	79.19
385.337	73.19
385.562	77.19
385.787	95.19
386.013	92.19
386.238	83.19
386.463	102.19
386.688	103.19
386.913	73.19
387.138	97.19
387.363	98.19
387.588	92.19
387.813	84.19
388.038	70.19
388.263	98.19
388.488	84.19
388.713	74.19
388.938	95.19
389.163	85.19
389.387	90.19
389.612	89.19
389.837	84.19
390.062	96.19
390.287	88.19
390.512	78.19
390.736	89.19
390.961	80.19
391.186	88.19
391.411	87.19
391.636	83.19
391.86	91.19
392.085	89.19
392.31	76.19
392.534	95.19
392.759	100.19
392.984	119.19
393.208	157.19
393.433	233.19
393.658	181.19
393.882	110.19
394.107	93.19
394.331	84.19
394.556	93.19
394.78	95.19
395.005	94.19
395.229	93.19
395.454	91.19
395.678	86.19
395.903	107.19
396.127	98.19
396.352	110.19
396.576	135.19
396.801	174.19
397.025	209.19
397.249	125.19
397.474	106.19
397.698	89.19
397.922	84.19
398.147	89.19
398.371	87.19
398.595	93.19
398.82	82.19
399.044	81.19
399.268	83.19
399.492	89.19
399.717	86.19
399.941	81.19
400.165	92.19
400.389	89.19
400.613	91.19
400.837	88.19
401.062	94.19
401.286	83.19
401.51	82.19
401.734	89.19
401.958	82.19
402.182	85.19
402.406	73.19
402.63	80.19
402.854	81.19
403.078	87.19
403.302	84.19
403.526	75.19
403.75	82.19
403.974	93.19
404.198	81.19
404.422	75.19
404.645	85.19
404.869	87.19
405.093	78.19
405.317	77.19
405.541	82.19
405.765	77.19
405.988	80.19
406.212	85.19
406.436	81.19
406.66	82.19
406.883	74.19
407.107	89.19
407.331	81.19
407.555	97.19
407.778	88.19
408.002	82.19
408.226	93.19
408.449	70.19
408.673	77.19
408.896	79.19
409.12	79.19
409.344	88.19
409.567	93.19
409.791	93.19
410.014	87.19
410.238	81.19
410.461	90.19
410.685	87.19
410.908	71.19
411.132	83.19
411.355	97.19
411.578	81.19
411.802	67.19
412.025	91.19
412.249	93.19
412.472	87.19
412.695	87.19
412.919	90.19
413.142	64.19
413.365	84.19
413.589	100.19
413.812	86.19
414.035	82.19
414.258	72.19
414.482	67.19
414.705	80.19
414.928	74.19
415.151	84.19
415.374	92.19
415.597	79.19
415.821	76.19
416.044	75.19
416.267	83.19
416.49	88.19
416.713	81.19
416.936	76.19
417.159	87.19
417.382	85.19
417.605	78.19
417.828	101.19
418.051	93.19
418.274	75.19
418.497	77.19
418.72	89.19
418.943	92.19
419.166	85.19
419.389	88.19
419.611	76.19
419.834	71.19
420.057	91.19
420.28	88.19
420.503	94.19
420.726	96.19
420.948	79.19
421.171	81.19
421.394	95.19
421.617	96.19
421.839	94.19
422.062	111.19
422.285	130.19
422.507	216.19
422.73	287.19
422.953	258.19
423.175	154.19
423.398	113.19
423.621	103.19
423.843	82.19
424.066	75.19
424.288	83.19
424.511	88.19
424.733	92.19
424.956	71.19
425.178	87.19
425.401	90.19
425.623	96.19
425.846	91.19
426.068	82.19
426.291	77.19
426.513	81.19
426.735	91.19
426.958	85.19
427.18	88.19
427.402	82.19
427.625	80.19
427.847	71.19
428.069	105.19
428.292	98.19
428.514	125.19
428.736	109.19
428.958	88.19
429.181	105.19
429.403	93.19
429.625	99.19
429.847	117.19
430.069	129.19
430.292	140.19
430.514	133.19
430.736	106.19
430.958	113.19
431.18	111.19
431.402	93.19
431.624	80.19
431.846	109.19
432.068	108.19
432.29	115.19
432.512	116.19
432.734	93.19
432.956	85.19
433.178	84.19
433.4	81.19
433.622	94.19
433.844	87.19
434.066	74.19
434.287	91.19
434.509	85.19
434.731	80.19
434.953	90.19
435.175	89.19
435.397	82.19
435.618	96.19
435.84	96.19
436.062	95.19
436.284	95.19
436.505	78.19
436.727	82.19
436.949	75.19
437.17	87.19
437.392	87.19
437.614	95.19
437.835	83.19
438.057	73.19
438.278	86.19
438.5	75.19
438.721	89.19
438.943	79.19
439.165	78.19
439.386	83.19
439.608	82.19
439.829	93.19
440.05	89.19
440.272	95.19
440.493	80.19
440.715	88.19
440.936	82.19
441.158	95.19
441.379	82.19
441.6	89.19
441.822	88.19
442.043	89.19
442.264	91.19
442.486	117.19
442.707	121.19
442.928	107.19
443.149	111.19
443.371	128.19
443.592	163.19
443.813	161.19
444.034	99.19
444.255	76.19
444.476	94.19
444.698	86.19
444.919	93.19
445.14	153.19
445.361	157.19
445.582	205.19
445.803	169.19
446.024	109.19
446.245	66.19
446.466	90.19
446.687	74.19
446.908	71.19
447.129	86.19
447.35	73.19
447.571	79.19
447.792	85.19
448.013	86.19
448.234	76.19
448.455	90.19
448.675	69.19
448.896	83.19
449.117	83.19
449.338	90.19
449.559	83.19
449.779	92.19
450	97.19
450.221	80.19
450.442	89.19
450.662	83.19
450.883	80.19
451.104	95.19
451.324	87.19
451.545	86.19
451.766	73.19
451.986	80.19
452.207	71.19
452.428	102.19
452.648	84.19
452.869	88.19
453.089	80.19
453.31	90.19
453.53	97.19
453.751	84.19
453.971	72.19
454.192	93.19
454.412	93.19
454.633	88.19
454.853	89.19
455.073	89.19
455.294	78.19
455.514	99.19
455.734	80.19
455.955	81.19
456.175	97.19
456.395	98.19
456.616	70.19
456.836	91.19
457.056	85.19
457.276	79.19
457.497	103.19
457.717	94.19
457.937	96.19
458.157	117.19
458.377	98.19
458.598	93.19
458.818	94.19
459.038	82.19
459.258	70.19
459.478	83.19
459.698	88.19
459.918	86.19
460.138	89.19
460.358	79.19
460.578	96.19
460.798	88.19
461.018	99.19
461.238	83.19
461.458	99.19
461.678	74.19
461.898	71.19
462.118	87.19
462.338	76.19
462.558	85.19
462.777	75.19
462.997	84.19
463.217	59.19
463.437	69.19
463.657	83.19
463.876	85.19
464.096	79.19
464.316	79.19
464.536	88.19
464.755	90.19
464.975	84.19
465.195	93.19
465.414	86.19
465.634	87.19
465.854	82.19
466.073	81.19
466.293	91.19
466.512	83.19
466.732	75.19
466.951	82.19
467.171	83.19
467.391	71.19
467.61	87.19
467.829	89.19
468.049	85.19
468.268	98.19
468.488	82.19
468.707	98.19
468.927	94.19
469.146	88.19
469.365	94.19
469.585	90.19
469.804	95.19
470.023	93.19
470.243	94.19
470.462	88.19
470.681	87.19
470.901	101.19
471.12	89.19
471.339	77.19
471.558	83.19
471.777	89.19
471.997	96.19
472.216	92.19
472.435	100.19
472.654	82.19
472.873	83.19
473.092	85.19
473.311	77.19
473.53	83.19
473.749	78.19
473.968	90.19
474.187	94.19
474.406	85.19
474.625	82.19
474.844	77.19
475.063	90.19
475.282	74.19
475.501	81.19
475.72	95.19
475.939	83.19
476.158	95.19
476.377	67.19
476.596	86.19
476.814	93.19
477.033	79.19
477.252	93.19
477.471	84.19
477.69	72.19
477.908	81.19
478.127	90.19
478.346	95.19
478.564	85.19
478.783	77.19
479.002	66.19
479.22	87.19
479.439	88.19
479.658	82.19
479.876	94.19
480.095	100.19
480.313	77.19
480.532	74.19
480.751	89.19
480.969	88.19
481.188	94.19
481.406	85.19
481.624	92.19
481.843	83.19
482.061	88.19
482.28	95.19
482.498	82.19
482.717	83.19
482.935	90.19
483.153	75.19
483.372	84.19
483.59	89.19
483.808	75.19
484.027	73.19
484.245	84.19
484.463	75.19
484.681	94.19
484.9	81.19
485.118	83.19
485.336	95.19
485.554	85.19
485.772	101.19
485.99	83.19
486.209	81.19
486.427	83.19
486.645	100.19
486.863	91.19
487.081	84.19
487.299	84.19
487.517	87.19
487.735	103.19
487.953	139.19
488.171	121.19
488.389	94.19
488.607	80.19
488.825	93.19
489.043	99.19
489.261	82.19
489.479	86.19
489.696	79.19
489.914	75.19
490.132	93.19
490.35	95.19
490.568	85.19
490.786	104.19
491.003	81.19
491.221	85.19
491.439	88.19
491.657	91.19
491.874	100.19
492.092	90.19
492.31	101.19
492.527	89.19
492.745	74.19
492.963	81.19
493.18	93.19
493.398	91.19
493.615	83.19
493.833	94.19
494.05	83.19
494.268	92.19
494.485	83.19
494.703	109.19
494.92	90.19
495.138	82.19
495.355	90.19
495.573	81.19
495.79	97.19
496.008	89.19
496.225	90.19
496.442	90.19
496.66	95.19
496.877	89.19
497.094	84.19
497.312	86.19
497.529	88.19
497.746	94.19
497.963	83.19
498.181	97.19
498.398	82.19
498.615	89.19
498.832	85.19
499.049	92.19
499.267	82.19
499.484	76.19
499.701	87.19
499.918	97.19
500.135	83.19
500.352	89.19
500.569	96.19
500.786	91.19
501.003	88.19
501.22	81.19
501.437	80.19
501.654	104.19
501.871	86.19
502.088	91.19
502.305	89.19
502.522	81.19
502.739	91.19
502.956	90.19
503.172	89.19
503.389	97.19
503.606	93.19
503.823	81.19
504.04	90.19
504.256	130.19
504.473	123.19
504.69	91.19
504.907	83.19
505.123	80.19
505.34	90.19
505.557	80.19
505.773	87.19
505.99	77.19
506.207	100.19
506.423	90.19
506.64	83.19
506.856	90.19
507.073	87.19
507.289	88.19
507.506	84.19
507.722	87.19
507.939	78.19
508.155	77.19
508.372	99.19
508.588	77.19
508.805	72.19
509.021	94.19
509.238	78.19
509.454	81.19
509.67	90.19
509.887	89.19
510.103	72.19
510.319	89.19
510.536	88.19
510.752	78.19
510.968	89.19
511.184	88.19
511.401	84.19
511.617	89.19
511.833	81.19
512.049	91.19
512.265	81.19
512.481	80.19
512.698	68.19
512.914	81.19
513.13	88.19
513.346	75.19
513.562	103.19
513.778	100.19
513.994	89.19
514.21	101.19
514.426	86.19
514.642	93.19
514.858	84.19
515.074	89.19
515.29	95.19
515.506	91.19
515.721	84.19
515.937	90.19
516.153	88.19
516.369	82.19
516.585	94.19
516.801	85.19
517.016	88.19
517.232	75.19
517.448	96.19
517.664	96.19
517.879	100.19
518.095	90.19
518.311	99.19
518.527	90.19
518.742	102.19
518.958	127.19
