Data from CBS_2_HRD10591_00012.txt Node
Date: Mon Jan 19 14:04:52 EST 2026
User: Yrep
Spectrometer: HR+D1059
Trigger mode: 1
Integration Time (sec): 1.000000E-1
Scans to average: 1
Electric dark correction enabled: true
Nonlinearity correction enabled: false
Boxcar width: 0
XAxis mode: Wavelengths
Number of Pixels in Spectrum: 2048
>>>>>Begin Spectral Data<<<<<
223.165	-15.31
223.4	-15.31
223.635	-15.31
223.869	-29.31
224.104	-21.31
224.338	-10.31
224.573	-20.31
224.808	-13.31
225.042	-15.31
225.277	-13.31
225.511	-4.31
225.746	17.69
225.98	3.69
226.215	17.69
226.449	23.69
226.683	28.69
226.918	14.69
227.152	36.69
227.387	46.69
227.621	39.69
227.856	36.69
228.09	41.69
228.324	50.69
228.559	50.69
228.793	57.69
229.027	56.69
229.262	53.69
229.496	58.69
229.73	74.69
229.964	67.69
230.199	63.69
230.433	45.69
230.667	73.69
230.901	82.69
231.136	81.69
231.37	81.69
231.604	84.69
231.838	54.69
232.072	67.69
232.306	70.69
232.541	87.69
232.775	72.69
233.009	79.69
233.243	82.69
233.477	65.69
233.711	61.69
233.945	69.69
234.179	74.69
234.413	83.69
234.647	66.69
234.881	83.69
235.115	69.69
235.349	61.69
235.583	67.69
235.817	71.69
236.051	55.69
236.285	79.69
236.519	69.69
236.753	66.69
236.987	72.69
237.221	70.69
237.455	52.69
237.689	72.69
237.922	63.69
238.156	68.69
238.39	84.69
238.624	74.69
238.858	75.69
239.091	67.69
239.325	67.69
239.559	80.69
239.793	75.69
240.027	78.69
240.26	63.69
240.494	63.69
240.728	70.69
240.961	77.69
241.195	69.69
241.429	65.69
241.662	70.69
241.896	73.69
242.13	63.69
242.363	71.69
242.597	76.69
242.83	62.69
243.064	79.69
243.298	84.69
243.531	63.69
243.765	61.69
243.998	81.69
244.232	78.69
244.465	79.69
244.699	88.69
244.932	78.69
245.166	61.69
245.399	74.69
245.633	92.69
245.866	65.69
246.099	77.69
246.333	67.69
246.566	67.69
246.8	66.69
247.033	71.69
247.266	70.69
247.5	76.69
247.733	70.69
247.966	66.69
248.2	66.69
248.433	61.69
248.666	66.69
248.899	69.69
249.133	80.69
249.366	95.69
249.599	85.69
249.832	64.69
250.066	64.69
250.299	67.69
250.532	83.69
250.765	77.69
250.998	61.69
251.231	71.69
251.465	81.69
251.698	72.69
251.931	75.69
252.164	76.69
252.397	92.69
252.63	76.69
252.863	77.69
253.096	75.69
253.329	74.69
253.562	77.69
253.795	74.69
254.028	80.69
254.261	59.69
254.494	73.69
254.727	78.69
254.96	73.69
255.193	65.69
255.426	65.69
255.659	73.69
255.892	77.69
256.124	67.69
256.357	75.69
256.59	83.69
256.823	78.69
257.056	71.69
257.289	86.69
257.521	75.69
257.754	85.69
257.987	65.69
258.22	76.69
258.452	76.69
258.685	82.69
258.918	67.69
259.151	81.69
259.383	91.69
259.616	65.69
259.849	76.69
260.081	89.69
260.314	77.69
260.547	76.69
260.779	81.69
261.012	75.69
261.244	75.69
261.477	77.69
261.71	79.69
261.942	76.69
262.175	83.69
262.407	75.69
262.64	68.69
262.872	73.69
263.105	84.69
263.337	77.69
263.57	78.69
263.802	77.69
264.035	85.69
264.267	68.69
264.499	68.69
264.732	69.69
264.964	79.69
265.197	75.69
265.429	75.69
265.661	85.69
265.894	80.69
266.126	75.69
266.358	63.69
266.591	83.69
266.823	69.69
267.055	65.69
267.287	72.69
267.52	78.69
267.752	90.69
267.984	79.69
268.216	81.69
268.448	66.69
268.681	69.69
268.913	64.69
269.145	83.69
269.377	61.69
269.609	80.69
269.841	79.69
270.073	72.69
270.306	85.69
270.538	83.69
270.77	72.69
271.002	75.69
271.234	75.69
271.466	73.69
271.698	82.69
271.93	82.69
272.162	83.69
272.394	80.69
272.626	72.69
272.858	88.69
273.09	79.69
273.322	72.69
273.553	74.69
273.785	62.69
274.017	76.69
274.249	68.69
274.481	73.69
274.713	84.69
274.945	90.69
275.176	77.69
275.408	76.69
275.64	75.69
275.872	87.69
276.104	77.69
276.335	78.69
276.567	90.69
276.799	77.69
277.031	76.69
277.262	71.69
277.494	74.69
277.726	64.69
277.957	75.69
278.189	79.69
278.421	85.69
278.652	74.69
278.884	77.69
279.115	89.69
279.347	80.69
279.579	75.69
279.81	83.69
280.042	89.69
280.273	70.69
280.505	76.69
280.736	77.69
280.968	76.69
281.199	73.69
281.431	74.69
281.662	88.69
281.894	77.69
282.125	75.69
282.356	72.69
282.588	84.69
282.819	81.69
283.051	77.69
283.282	73.69
283.513	76.69
283.745	67.69
283.976	93.69
284.207	61.69
284.439	86.69
284.67	78.69
284.901	88.69
285.132	91.69
285.364	93.69
285.595	83.69
285.826	80.69
286.057	82.69
286.288	72.69
286.52	86.69
286.751	69.69
286.982	71.69
287.213	85.69
287.444	78.69
287.675	80.69
287.906	92.69
288.138	91.69
288.369	81.69
288.6	75.69
288.831	84.69
289.062	80.69
289.293	87.69
289.524	71.69
289.755	72.69
289.986	64.69
290.217	71.69
290.448	70.69
290.679	69.69
290.91	69.69
291.141	71.69
291.371	79.69
291.602	93.69
291.833	95.69
292.064	83.69
292.295	81.69
292.526	66.69
292.757	77.69
292.987	77.69
293.218	80.69
293.449	99.69
293.68	85.69
293.91	75.69
294.141	71.69
294.372	88.69
294.603	87.69
294.833	77.69
295.064	87.69
295.295	63.69
295.525	69.69
295.756	76.69
295.987	76.69
296.217	87.69
296.448	101.69
296.679	87.69
296.909	76.69
297.14	75.69
297.37	77.69
297.601	76.69
297.831	80.69
298.062	78.69
298.292	80.69
298.523	82.69
298.753	75.69
298.984	74.69
299.214	76.69
299.445	77.69
299.675	82.69
299.905	91.69
300.136	87.69
300.366	93.69
300.597	76.69
300.827	77.69
301.057	98.69
301.288	100.69
301.518	85.69
301.748	90.69
301.979	92.69
302.209	76.69
302.439	85.69
302.669	76.69
302.9	72.69
303.13	75.69
303.36	79.69
303.59	84.69
303.82	75.69
304.051	80.69
304.281	89.69
304.511	79.69
304.741	66.69
304.971	76.69
305.201	65.69
305.431	88.69
305.661	76.69
305.891	81.69
306.121	90.69
306.352	79.69
306.582	78.69
306.812	69.69
307.042	75.69
307.272	89.69
307.502	67.69
307.731	87.69
307.961	79.69
308.191	84.69
308.421	111.69
308.651	87.69
308.881	64.69
309.111	87.69
309.341	82.69
309.571	89.69
309.8	69.69
310.03	69.69
310.26	90.69
310.49	73.69
310.72	77.69
310.949	71.69
311.179	86.69
311.409	99.69
311.639	91.69
311.868	88.69
312.098	82.69
312.328	88.69
312.557	75.69
312.787	83.69
313.017	76.69
313.246	64.69
313.476	81.69
313.706	77.69
313.935	76.69
314.165	80.69
314.394	78.69
314.624	87.69
314.853	79.69
315.083	93.69
315.312	87.69
315.542	88.69
315.771	87.69
316.001	97.69
316.23	81.69
316.46	74.69
316.689	89.69
316.919	86.69
317.148	85.69
317.377	79.69
317.607	87.69
317.836	84.69
318.065	88.69
318.295	95.69
318.524	82.69
318.753	75.69
318.983	65.69
319.212	75.69
319.441	84.69
319.67	68.69
319.9	80.69
320.129	82.69
320.358	74.69
320.587	81.69
320.816	88.69
321.046	80.69
321.275	88.69
321.504	95.69
321.733	84.69
321.962	83.69
322.191	91.69
322.42	91.69
322.649	90.69
322.878	91.69
323.108	74.69
323.337	91.69
323.566	82.69
323.795	75.69
324.024	84.69
324.253	67.69
324.482	88.69
324.71	76.69
324.939	81.69
325.168	89.69
325.397	76.69
325.626	83.69
325.855	69.69
326.084	77.69
326.313	85.69
326.542	85.69
326.77	75.69
326.999	80.69
327.228	90.69
327.457	93.69
327.686	98.69
327.914	75.69
328.143	84.69
328.372	79.69
328.6	75.69
328.829	80.69
329.058	91.69
329.287	62.69
329.515	76.69
329.744	86.69
329.972	72.69
330.201	87.69
330.43	74.69
330.658	69.69
330.887	89.69
331.115	92.69
331.344	67.69
331.572	78.69
331.801	81.69
332.03	76.69
332.258	82.69
332.486	84.69
332.715	88.69
332.943	72.69
333.172	91.69
333.4	74.69
333.629	87.69
333.857	79.69
334.085	89.69
334.314	99.69
334.542	92.69
334.771	98.69
334.999	88.69
335.227	103.69
335.455	99.69
335.684	103.69
335.912	98.69
336.14	113.69
336.369	88.69
336.597	80.69
336.825	82.69
337.053	72.69
337.281	83.69
337.51	90.69
337.738	85.69
337.966	81.69
338.194	91.69
338.422	81.69
338.65	83.69
338.878	76.69
339.106	79.69
339.334	77.69
339.562	80.69
339.79	73.69
340.018	78.69
340.246	74.69
340.474	83.69
340.702	65.69
340.93	72.69
341.158	91.69
341.386	92.69
341.614	92.69
341.842	72.69
342.07	70.69
342.298	84.69
342.526	74.69
342.754	88.69
342.981	90.69
343.209	82.69
343.437	86.69
343.665	81.69
343.893	85.69
344.12	101.69
344.348	79.69
344.576	93.69
344.804	82.69
345.031	73.69
345.259	85.69
345.487	84.69
345.714	80.69
345.942	89.69
346.17	85.69
346.397	94.69
346.625	69.69
346.853	71.69
347.08	89.69
347.308	70.69
347.535	88.69
347.763	83.69
347.99	96.69
348.218	89.69
348.445	83.69
348.673	88.69
348.9	81.69
349.128	80.69
349.355	70.69
349.583	82.69
349.81	108.69
350.037	84.69
350.265	77.69
350.492	95.69
350.72	80.69
350.947	85.69
351.174	99.69
351.402	72.69
351.629	91.69
351.856	85.69
352.083	71.69
352.311	80.69
352.538	90.69
352.765	95.69
352.992	94.69
353.22	94.69
353.447	88.69
353.674	85.69
353.901	82.69
354.128	95.69
354.355	72.69
354.583	91.69
354.81	86.69
355.037	75.69
355.264	90.69
355.491	81.69
355.718	83.69
355.945	93.69
356.172	79.69
356.399	89.69
356.626	95.69
356.853	82.69
357.08	97.69
357.307	93.69
357.534	89.69
357.761	77.69
357.988	89.69
358.215	78.69
358.441	82.69
358.668	82.69
358.895	81.69
359.122	83.69
359.349	91.69
359.576	85.69
359.802	93.69
360.029	80.69
360.256	75.69
360.483	93.69
360.709	84.69
360.936	84.69
361.163	92.69
361.39	101.69
361.616	97.69
361.843	88.69
362.07	108.69
362.296	122.69
362.523	132.69
362.749	129.69
362.976	152.69
363.203	175.69
363.429	127.69
363.656	112.69
363.882	107.69
364.109	133.69
364.335	194.69
364.562	213.69
364.788	141.69
365.015	108.69
365.241	86.69
365.468	78.69
365.694	90.69
365.92	90.69
366.147	75.69
366.373	83.69
366.599	82.69
366.826	74.69
367.052	78.69
367.278	82.69
367.505	89.69
367.731	90.69
367.957	76.69
368.184	83.69
368.41	83.69
368.636	86.69
368.862	107.69
369.089	88.69
369.315	84.69
369.541	85.69
369.767	74.69
369.993	83.69
370.219	98.69
370.445	87.69
370.672	101.69
370.898	95.69
371.124	89.69
371.35	76.69
371.576	81.69
371.802	77.69
372.028	101.69
372.254	104.69
372.48	81.69
372.706	83.69
372.932	91.69
373.158	78.69
373.384	91.69
373.61	109.69
373.835	126.69
374.061	99.69
374.287	100.69
374.513	86.69
374.739	91.69
374.965	97.69
375.191	87.69
375.416	97.69
375.642	89.69
375.868	72.69
376.094	99.69
376.319	86.69
376.545	92.69
376.771	86.69
376.997	76.69
377.222	79.69
377.448	83.69
377.674	84.69
377.899	83.69
378.125	76.69
378.35	89.69
378.576	97.69
378.802	98.69
379.027	99.69
379.253	106.69
379.478	78.69
379.704	87.69
379.929	75.69
380.155	77.69
380.38	82.69
380.606	84.69
380.831	80.69
381.057	89.69
381.282	87.69
381.507	104.69
381.733	92.69
381.958	72.69
382.184	88.69
382.409	98.69
382.634	84.69
382.86	101.69
383.085	105.69
383.31	93.69
383.535	93.69
383.761	99.69
383.986	86.69
384.211	97.69
384.436	91.69
384.662	96.69
384.887	89.69
385.112	99.69
385.337	93.69
385.562	87.69
385.787	94.69
386.013	72.69
386.238	108.69
386.463	90.69
386.688	100.69
386.913	89.69
387.138	96.69
387.363	112.69
387.588	95.69
387.813	105.69
388.038	101.69
388.263	103.69
388.488	98.69
388.713	93.69
388.938	86.69
389.163	87.69
389.387	95.69
389.612	95.69
389.837	88.69
390.062	104.69
390.287	108.69
390.512	91.69
390.736	90.69
390.961	95.69
391.186	89.69
391.411	98.69
391.636	104.69
391.86	93.69
392.085	103.69
392.31	115.69
392.534	134.69
392.759	149.69
392.984	217.69
393.208	384.69
393.433	495.69
393.658	414.69
393.882	206.69
394.107	128.69
394.331	134.69
394.556	136.69
394.78	134.69
395.005	111.69
395.229	109.69
395.454	100.69
395.678	128.69
395.903	151.69
396.127	152.69
396.352	203.69
396.576	227.69
396.801	379.69
397.025	379.69
397.249	248.69
397.474	187.69
397.698	131.69
397.922	111.69
398.147	95.69
398.371	91.69
398.595	90.69
398.82	90.69
399.044	87.69
399.268	111.69
399.492	100.69
399.717	90.69
399.941	93.69
400.165	85.69
400.389	95.69
400.613	87.69
400.837	77.69
401.062	97.69
401.286	101.69
401.51	82.69
401.734	82.69
401.958	80.69
402.182	96.69
402.406	79.69
402.63	72.69
402.854	90.69
403.078	83.69
403.302	120.69
403.526	100.69
403.75	79.69
403.974	95.69
404.198	94.69
404.422	90.69
404.645	112.69
404.869	99.69
405.093	97.69
405.317	100.69
405.541	85.69
405.765	76.69
405.988	87.69
406.212	95.69
406.436	93.69
406.66	99.69
406.883	88.69
407.107	83.69
407.331	82.69
407.555	93.69
407.778	112.69
408.002	127.69
408.226	91.69
408.449	75.69
408.673	75.69
408.896	100.69
409.12	114.69
409.344	110.69
409.567	129.69
409.791	144.69
410.014	128.69
410.238	121.69
410.461	105.69
410.685	92.69
410.908	91.69
411.132	94.69
411.355	91.69
411.578	107.69
411.802	97.69
412.025	92.69
412.249	95.69
412.472	97.69
412.695	90.69
412.919	82.69
413.142	89.69
413.365	76.69
413.589	89.69
413.812	92.69
414.035	107.69
414.258	93.69
414.482	95.69
414.705	71.69
414.928	84.69
415.151	76.69
415.374	84.69
415.597	77.69
415.821	91.69
416.044	75.69
416.267	87.69
416.49	82.69
416.713	81.69
416.936	81.69
417.159	82.69
417.382	77.69
417.605	97.69
417.828	95.69
418.051	92.69
418.274	80.69
418.497	87.69
418.72	87.69
418.943	79.69
419.166	78.69
419.389	99.69
419.611	87.69
419.834	84.69
420.057	88.69
420.28	93.69
420.503	110.69
420.726	96.69
420.948	98.69
421.171	114.69
421.394	136.69
421.617	167.69
421.839	174.69
422.062	190.69
422.285	306.69
422.507	455.69
422.73	609.69
422.953	558.69
423.175	398.69
423.398	237.69
423.621	185.69
423.843	137.69
424.066	131.69
424.288	122.69
424.511	89.69
424.733	106.69
424.956	103.69
425.178	93.69
425.401	74.69
425.623	90.69
425.846	78.69
426.068	92.69
426.291	92.69
426.513	95.69
426.735	90.69
426.958	93.69
427.18	88.69
427.402	98.69
427.625	100.69
427.847	94.69
428.069	108.69
428.292	181.69
428.514	196.69
428.736	151.69
428.958	180.69
429.181	193.69
429.403	126.69
429.625	107.69
429.847	173.69
430.069	244.69
430.292	263.69
430.514	255.69
430.736	197.69
430.958	196.69
431.18	127.69
431.402	95.69
431.624	113.69
431.846	147.69
432.068	203.69
432.29	100.69
432.512	84.69
432.734	95.69
432.956	84.69
433.178	88.69
433.4	90.69
433.622	87.69
433.844	87.69
434.066	94.69
434.287	91.69
434.509	87.69
434.731	85.69
434.953	90.69
435.175	91.69
435.397	96.69
435.618	113.69
435.84	109.69
436.062	100.69
436.284	115.69
436.505	84.69
436.727	88.69
436.949	79.69
437.17	77.69
437.392	83.69
437.614	83.69
437.835	87.69
438.057	79.69
438.278	105.69
438.5	107.69
438.721	92.69
438.943	91.69
439.165	81.69
439.386	84.69
439.608	85.69
439.829	63.69
440.05	83.69
440.272	92.69
440.493	84.69
440.715	107.69
440.936	84.69
441.158	95.69
441.379	88.69
441.6	100.69
441.822	93.69
442.043	108.69
442.264	141.69
442.486	199.69
442.707	284.69
442.928	195.69
443.149	145.69
443.371	253.69
443.592	424.69
443.813	368.69
444.034	142.69
444.255	105.69
444.476	112.69
444.698	104.69
444.919	114.69
445.14	202.69
445.361	319.69
445.582	512.69
445.803	450.69
446.024	191.69
446.245	116.69
446.466	84.69
446.687	100.69
446.908	95.69
447.129	76.69
447.35	84.69
447.571	85.69
447.792	84.69
448.013	87.69
448.234	81.69
448.455	88.69
448.675	73.69
448.896	83.69
449.117	77.69
449.338	89.69
449.559	84.69
449.779	71.69
450	99.69
450.221	84.69
450.442	93.69
450.662	89.69
450.883	84.69
451.104	101.69
451.324	91.69
451.545	84.69
451.766	81.69
451.986	91.69
452.207	88.69
452.428	93.69
452.648	103.69
452.869	139.69
453.089	116.69
453.31	92.69
453.53	92.69
453.751	94.69
453.971	82.69
454.192	93.69
454.412	99.69
454.633	84.69
454.853	101.69
455.073	70.69
455.294	95.69
455.514	86.69
455.734	88.69
455.955	90.69
456.175	82.69
456.395	91.69
456.616	96.69
456.836	83.69
457.056	87.69
457.276	90.69
457.497	98.69
457.717	118.69
457.937	153.69
458.157	189.69
458.377	193.69
458.598	211.69
458.818	206.69
459.038	116.69
459.258	93.69
459.478	73.69
459.698	93.69
459.918	74.69
460.138	79.69
460.358	89.69
460.578	103.69
460.798	140.69
461.018	127.69
461.238	94.69
461.458	76.69
461.678	84.69
461.898	75.69
462.118	92.69
462.338	91.69
462.558	84.69
462.777	82.69
462.997	80.69
463.217	81.69
463.437	79.69
463.657	88.69
463.876	99.69
464.096	87.69
464.316	80.69
464.536	83.69
464.755	87.69
464.975	83.69
465.195	74.69
465.414	96.69
465.634	84.69
465.854	84.69
466.073	80.69
466.293	86.69
466.512	97.69
466.732	83.69
466.951	79.69
467.171	89.69
467.391	92.69
467.61	75.69
467.829	84.69
468.049	96.69
468.268	93.69
468.488	101.69
468.707	84.69
468.927	98.69
469.146	93.69
469.365	92.69
469.585	84.69
469.804	79.69
470.023	87.69
470.243	89.69
470.462	90.69
470.681	81.69
470.901	100.69
471.12	90.69
471.339	89.69
471.558	83.69
471.777	91.69
471.997	91.69
472.216	94.69
472.435	92.69
472.654	90.69
472.873	80.69
473.092	88.69
473.311	95.69
473.53	86.69
473.749	93.69
473.968	89.69
474.187	85.69
474.406	96.69
474.625	85.69
474.844	84.69
475.063	86.69
475.282	85.69
475.501	96.69
475.72	92.69
475.939	97.69
476.158	92.69
476.377	88.69
476.596	81.69
476.814	79.69
477.033	98.69
477.252	98.69
477.471	90.69
477.69	74.69
477.908	87.69
478.127	85.69
478.346	96.69
478.564	100.69
478.783	87.69
479.002	84.69
479.22	69.69
479.439	73.69
479.658	93.69
479.876	93.69
480.095	90.69
480.313	74.69
480.532	81.69
480.751	95.69
480.969	96.69
481.188	94.69
481.406	95.69
481.624	85.69
481.843	88.69
482.061	100.69
482.28	95.69
482.498	81.69
482.717	90.69
482.935	89.69
483.153	82.69
483.372	87.69
483.59	96.69
483.808	103.69
484.027	89.69
484.245	100.69
484.463	93.69
484.681	97.69
484.9	93.69
485.118	108.69
485.336	100.69
485.554	94.69
485.772	100.69
485.99	91.69
486.209	98.69
486.427	94.69
486.645	95.69
486.863	84.69
487.081	84.69
487.299	104.69
487.517	117.69
487.735	184.69
487.953	344.69
488.171	271.69
488.389	115.69
488.607	91.69
488.825	91.69
489.043	106.69
489.261	100.69
489.479	94.69
489.696	90.69
489.914	91.69
490.132	103.69
490.35	98.69
490.568	91.69
490.786	90.69
491.003	91.69
491.221	88.69
491.439	87.69
491.657	88.69
491.874	96.69
492.092	94.69
492.31	104.69
492.527	85.69
492.745	90.69
492.963	99.69
493.18	95.69
493.398	100.69
493.615	89.69
493.833	94.69
494.05	89.69
494.268	99.69
494.485	89.69
494.703	94.69
494.92	88.69
495.138	91.69
495.355	97.69
495.573	88.69
495.79	82.69
496.008	83.69
496.225	93.69
496.442	100.69
496.66	111.69
496.877	83.69
497.094	96.69
497.312	75.69
497.529	81.69
497.746	85.69
497.963	96.69
498.181	91.69
498.398	103.69
498.615	90.69
498.832	100.69
499.049	100.69
499.267	93.69
499.484	104.69
499.701	96.69
499.918	85.69
500.135	87.69
500.352	99.69
500.569	108.69
500.786	110.69
501.003	97.69
501.22	102.69
501.437	91.69
501.654	101.69
501.871	100.69
502.088	85.69
502.305	96.69
502.522	87.69
502.739	83.69
502.956	96.69
503.172	84.69
503.389	98.69
503.606	96.69
503.823	96.69
504.04	133.69
504.256	252.69
504.473	267.69
504.69	114.69
504.907	113.69
505.123	83.69
505.34	92.69
505.557	91.69
505.773	83.69
505.99	83.69
506.207	104.69
506.423	91.69
506.64	81.69
506.856	75.69
507.073	75.69
507.289	95.69
507.506	87.69
507.722	90.69
507.939	89.69
508.155	93.69
508.372	80.69
508.588	84.69
508.805	96.69
509.021	91.69
509.238	85.69
509.454	89.69
509.67	83.69
509.887	81.69
510.103	92.69
510.319	88.69
510.536	81.69
510.752	103.69
510.968	67.69
511.184	78.69
511.401	88.69
511.617	96.69
511.833	88.69
512.049	87.69
512.265	81.69
512.481	90.69
512.698	91.69
512.914	74.69
513.13	82.69
513.346	92.69
513.562	82.69
513.778	103.69
513.994	91.69
514.21	85.69
514.426	95.69
514.642	93.69
514.858	88.69
515.074	91.69
515.29	75.69
515.506	99.69
515.721	100.69
515.937	76.69
516.153	87.69
516.369	89.69
516.585	96.69
516.801	96.69
517.016	85.69
517.232	81.69
