Data from CBS_2_HRD10591_00025.txt Node
Date: Mon Jan 19 14:04:58 EST 2026
User: Yrep
Spectrometer: HR+D1059
Trigger mode: 1
Integration Time (sec): 1.000000E-1
Scans to average: 1
Electric dark correction enabled: true
Nonlinearity correction enabled: false
Boxcar width: 0
XAxis mode: Wavelengths
Number of Pixels in Spectrum: 2048
>>>>>Begin Spectral Data<<<<<
223.165	-24.94
223.4	-24.94
223.635	-24.94
223.869	-15.94
224.104	-11.94
224.338	-15.94
224.573	-4.94
224.808	-0.94
225.042	-8.94
225.277	-14.94
225.511	1.06
225.746	16.06
225.98	-5.94
226.215	4.06
226.449	13.06
226.683	27.06
226.918	23.06
227.152	20.06
227.387	28.06
227.621	19.06
227.856	31.06
228.09	47.06
228.324	47.06
228.559	50.06
228.793	51.06
229.027	61.06
229.262	77.06
229.496	66.06
229.73	70.06
229.964	81.06
230.199	73.06
230.433	81.06
230.667	76.06
230.901	79.06
231.136	80.06
231.37	81.06
231.604	88.06
231.838	78.06
232.072	79.06
232.306	73.06
232.541	84.06
232.775	91.06
233.009	73.06
233.243	83.06
233.477	77.06
233.711	80.06
233.945	89.06
234.179	81.06
234.413	72.06
234.647	85.06
234.881	66.06
235.115	78.06
235.349	88.06
235.583	87.06
235.817	59.06
236.051	81.06
236.285	69.06
236.519	86.06
236.753	73.06
236.987	59.06
237.221	67.06
237.455	81.06
237.689	84.06
237.922	71.06
238.156	70.06
238.39	73.06
238.624	72.06
238.858	86.06
239.091	71.06
239.325	61.06
239.559	76.06
239.793	72.06
240.027	65.06
240.26	75.06
240.494	83.06
240.728	81.06
240.961	80.06
241.195	84.06
241.429	77.06
241.662	80.06
241.896	67.06
242.13	67.06
242.363	77.06
242.597	73.06
242.83	68.06
243.064	84.06
243.298	67.06
243.531	74.06
243.765	87.06
243.998	74.06
244.232	72.06
244.465	53.06
244.699	79.06
244.932	81.06
245.166	82.06
245.399	63.06
245.633	83.06
245.866	73.06
246.099	63.06
246.333	82.06
246.566	73.06
246.8	64.06
247.033	68.06
247.266	84.06
247.5	81.06
247.733	74.06
247.966	79.06
248.2	84.06
248.433	65.06
248.666	75.06
248.899	63.06
249.133	72.06
249.366	94.06
249.599	86.06
249.832	65.06
250.066	72.06
250.299	81.06
250.532	72.06
250.765	77.06
250.998	87.06
251.231	63.06
251.465	71.06
251.698	88.06
251.931	76.06
252.164	91.06
252.397	72.06
252.63	83.06
252.863	69.06
253.096	66.06
253.329	89.06
253.562	73.06
253.795	77.06
254.028	86.06
254.261	81.06
254.494	91.06
254.727	78.06
254.96	64.06
255.193	78.06
255.426	79.06
255.659	73.06
255.892	81.06
256.124	86.06
256.357	83.06
256.59	78.06
256.823	71.06
257.056	74.06
257.289	71.06
257.521	85.06
257.754	76.06
257.987	92.06
258.22	74.06
258.452	67.06
258.685	62.06
258.918	65.06
259.151	75.06
259.383	84.06
259.616	79.06
259.849	71.06
260.081	70.06
260.314	76.06
260.547	79.06
260.779	67.06
261.012	80.06
261.244	71.06
261.477	85.06
261.71	71.06
261.942	73.06
262.175	79.06
262.407	95.06
262.64	72.06
262.872	74.06
263.105	87.06
263.337	91.06
263.57	72.06
263.802	84.06
264.035	73.06
264.267	73.06
264.499	87.06
264.732	79.06
264.964	92.06
265.197	86.06
265.429	93.06
265.661	75.06
265.894	84.06
266.126	76.06
266.358	84.06
266.591	80.06
266.823	83.06
267.055	79.06
267.287	84.06
267.52	90.06
267.752	56.06
267.984	77.06
268.216	80.06
268.448	81.06
268.681	84.06
268.913	71.06
269.145	88.06
269.377	83.06
269.609	83.06
269.841	75.06
270.073	73.06
270.306	75.06
270.538	91.06
270.77	87.06
271.002	83.06
271.234	87.06
271.466	85.06
271.698	77.06
271.93	77.06
272.162	74.06
272.394	83.06
272.626	86.06
272.858	77.06
273.09	81.06
273.322	84.06
273.553	70.06
273.785	85.06
274.017	82.06
274.249	85.06
274.481	79.06
274.713	68.06
274.945	82.06
275.176	90.06
275.408	89.06
275.64	73.06
275.872	81.06
276.104	81.06
276.335	83.06
276.567	85.06
276.799	73.06
277.031	87.06
277.262	77.06
277.494	84.06
277.726	78.06
277.957	85.06
278.189	71.06
278.421	77.06
278.652	66.06
278.884	92.06
279.115	91.06
279.347	86.06
279.579	83.06
279.81	109.06
280.042	96.06
280.273	87.06
280.505	80.06
280.736	91.06
280.968	90.06
281.199	80.06
281.431	80.06
281.662	80.06
281.894	71.06
282.125	83.06
282.356	93.06
282.588	72.06
282.819	88.06
283.051	85.06
283.282	73.06
283.513	87.06
283.745	82.06
283.976	84.06
284.207	64.06
284.439	81.06
284.67	88.06
284.901	83.06
285.132	100.06
285.364	101.06
285.595	79.06
285.826	95.06
286.057	85.06
286.288	84.06
286.52	78.06
286.751	72.06
286.982	85.06
287.213	69.06
287.444	98.06
287.675	81.06
287.906	83.06
288.138	83.06
288.369	99.06
288.6	81.06
288.831	90.06
289.062	75.06
289.293	92.06
289.524	89.06
289.755	87.06
289.986	69.06
290.217	91.06
290.448	101.06
290.679	78.06
290.91	83.06
291.141	84.06
291.371	83.06
291.602	87.06
291.833	97.06
292.064	86.06
292.295	76.06
292.526	68.06
292.757	84.06
292.987	92.06
293.218	97.06
293.449	101.06
293.68	76.06
293.91	71.06
294.141	89.06
294.372	81.06
294.603	80.06
294.833	79.06
295.064	87.06
295.295	83.06
295.525	73.06
295.756	79.06
295.987	92.06
296.217	91.06
296.448	88.06
296.679	71.06
296.909	85.06
297.14	81.06
297.37	88.06
297.601	101.06
297.831	77.06
298.062	76.06
298.292	93.06
298.523	94.06
298.753	87.06
298.984	88.06
299.214	89.06
299.445	81.06
299.675	96.06
299.905	95.06
300.136	96.06
300.366	86.06
300.597	97.06
300.827	98.06
301.057	99.06
301.288	89.06
301.518	87.06
301.748	79.06
301.979	100.06
302.209	89.06
302.439	94.06
302.669	92.06
302.9	91.06
303.13	82.06
303.36	96.06
303.59	93.06
303.82	84.06
304.051	79.06
304.281	84.06
304.511	99.06
304.741	89.06
304.971	68.06
305.201	87.06
305.431	85.06
305.661	76.06
305.891	94.06
306.121	87.06
306.352	75.06
306.582	75.06
306.812	76.06
307.042	76.06
307.272	88.06
307.502	86.06
307.731	92.06
307.961	96.06
308.191	91.06
308.421	96.06
308.651	97.06
308.881	92.06
309.111	101.06
309.341	106.06
309.571	98.06
309.8	95.06
310.03	88.06
310.26	92.06
310.49	88.06
310.72	89.06
310.949	86.06
311.179	84.06
311.409	92.06
311.639	81.06
311.868	77.06
312.098	90.06
312.328	94.06
312.557	91.06
312.787	96.06
313.017	87.06
313.246	79.06
313.476	96.06
313.706	97.06
313.935	98.06
314.165	99.06
314.394	93.06
314.624	78.06
314.853	91.06
315.083	84.06
315.312	93.06
315.542	91.06
315.771	95.06
316.001	98.06
316.23	101.06
316.46	100.06
316.689	110.06
316.919	85.06
317.148	91.06
317.377	88.06
317.607	77.06
317.836	107.06
318.065	125.06
318.295	109.06
318.524	92.06
318.753	87.06
318.983	101.06
319.212	87.06
319.441	93.06
319.67	93.06
319.9	91.06
320.129	96.06
320.358	87.06
320.587	95.06
320.816	79.06
321.046	78.06
321.275	103.06
321.504	90.06
321.733	107.06
321.962	102.06
322.191	84.06
322.42	100.06
322.649	99.06
322.878	112.06
323.108	100.06
323.337	99.06
323.566	86.06
323.795	98.06
324.024	100.06
324.253	90.06
324.482	79.06
324.71	84.06
324.939	81.06
325.168	94.06
325.397	90.06
325.626	84.06
325.855	89.06
326.084	81.06
326.313	96.06
326.542	80.06
326.77	78.06
326.999	102.06
327.228	100.06
327.457	91.06
327.686	99.06
327.914	105.06
328.143	91.06
328.372	91.06
328.6	80.06
328.829	93.06
329.058	97.06
329.287	90.06
329.515	96.06
329.744	106.06
329.972	95.06
330.201	89.06
330.43	94.06
330.658	93.06
330.887	92.06
331.115	86.06
331.344	75.06
331.572	92.06
331.801	88.06
332.03	84.06
332.258	96.06
332.486	93.06
332.715	87.06
332.943	85.06
333.172	77.06
333.4	87.06
333.629	100.06
333.857	100.06
334.085	102.06
334.314	100.06
334.542	112.06
334.771	117.06
334.999	117.06
335.227	125.06
335.455	123.06
335.684	111.06
335.912	129.06
336.14	126.06
336.369	119.06
336.597	88.06
336.825	85.06
337.053	96.06
337.281	88.06
337.51	88.06
337.738	88.06
337.966	94.06
338.194	97.06
338.422	112.06
338.65	92.06
338.878	85.06
339.106	96.06
339.334	81.06
339.562	89.06
339.79	95.06
340.018	92.06
340.246	86.06
340.474	91.06
340.702	103.06
340.93	91.06
341.158	86.06
341.386	94.06
341.614	89.06
341.842	82.06
342.07	83.06
342.298	89.06
342.526	90.06
342.754	94.06
342.981	81.06
343.209	79.06
343.437	104.06
343.665	103.06
343.893	88.06
344.12	90.06
344.348	97.06
344.576	96.06
344.804	81.06
345.031	92.06
345.259	84.06
345.487	82.06
345.714	93.06
345.942	90.06
346.17	94.06
346.397	79.06
346.625	91.06
346.853	103.06
347.08	92.06
347.308	91.06
347.535	93.06
347.763	92.06
347.99	88.06
348.218	95.06
348.445	103.06
348.673	98.06
348.9	101.06
349.128	100.06
349.355	85.06
349.583	83.06
349.81	92.06
350.037	91.06
350.265	98.06
350.492	95.06
350.72	88.06
350.947	91.06
351.174	84.06
351.402	91.06
351.629	102.06
351.856	93.06
352.083	79.06
352.311	99.06
352.538	87.06
352.765	84.06
352.992	98.06
353.22	81.06
353.447	72.06
353.674	93.06
353.901	89.06
354.128	87.06
354.355	91.06
354.583	92.06
354.81	94.06
355.037	86.06
355.264	89.06
355.491	91.06
355.718	95.06
355.945	105.06
356.172	100.06
356.399	91.06
356.626	86.06
356.853	92.06
357.08	89.06
357.307	92.06
357.534	85.06
357.761	87.06
357.988	100.06
358.215	104.06
358.441	99.06
358.668	95.06
358.895	91.06
359.122	94.06
359.349	89.06
359.576	100.06
359.802	99.06
360.029	90.06
360.256	103.06
360.483	96.06
360.709	83.06
360.936	88.06
361.163	99.06
361.39	109.06
361.616	93.06
361.843	116.06
362.07	123.06
362.296	141.06
362.523	164.06
362.749	179.06
362.976	202.06
363.203	211.06
363.429	138.06
363.656	118.06
363.882	134.06
364.109	177.06
364.335	239.06
364.562	259.06
364.788	168.06
365.015	125.06
365.241	109.06
365.468	108.06
365.694	98.06
365.92	98.06
366.147	96.06
366.373	76.06
366.599	87.06
366.826	96.06
367.052	98.06
367.278	88.06
367.505	87.06
367.731	93.06
367.957	87.06
368.184	87.06
368.41	92.06
368.636	95.06
368.862	95.06
369.089	87.06
369.315	98.06
369.541	108.06
369.767	84.06
369.993	84.06
370.219	82.06
370.445	98.06
370.672	104.06
370.898	103.06
371.124	99.06
371.35	102.06
371.576	99.06
371.802	95.06
372.028	99.06
372.254	98.06
372.48	107.06
372.706	95.06
372.932	97.06
373.158	100.06
373.384	100.06
373.61	128.06
373.835	131.06
374.061	113.06
374.287	87.06
374.513	103.06
374.739	115.06
374.965	109.06
375.191	97.06
375.416	89.06
375.642	107.06
375.868	98.06
376.094	104.06
376.319	91.06
376.545	109.06
376.771	103.06
376.997	94.06
377.222	94.06
377.448	99.06
377.674	97.06
377.899	84.06
378.125	99.06
378.35	93.06
378.576	112.06
378.802	82.06
379.027	103.06
379.253	102.06
379.478	94.06
379.704	83.06
379.929	89.06
380.155	106.06
380.38	108.06
380.606	99.06
380.831	83.06
381.057	92.06
381.282	89.06
381.507	91.06
381.733	103.06
381.958	109.06
382.184	98.06
382.409	99.06
382.634	108.06
382.86	98.06
383.085	119.06
383.31	105.06
383.535	106.06
383.761	95.06
383.986	118.06
384.211	101.06
384.436	99.06
384.662	91.06
384.887	102.06
385.112	104.06
385.337	90.06
385.562	114.06
385.787	104.06
386.013	102.06
386.238	112.06
386.463	107.06
386.688	126.06
386.913	100.06
387.138	105.06
387.363	121.06
387.588	108.06
387.813	115.06
388.038	128.06
388.263	119.06
388.488	108.06
388.713	125.06
388.938	108.06
389.163	99.06
389.387	111.06
389.612	117.06
389.837	93.06
390.062	117.06
390.287	87.06
390.512	89.06
390.736	96.06
390.961	103.06
391.186	109.06
391.411	111.06
391.636	120.06
391.86	116.06
392.085	114.06
392.31	149.06
392.534	149.06
392.759	191.06
392.984	323.06
393.208	563.06
393.433	828.06
393.658	621.06
393.882	280.06
394.107	191.06
394.331	181.06
394.556	188.06
394.78	138.06
395.005	127.06
395.229	129.06
395.454	138.06
395.678	159.06
395.903	179.06
396.127	229.06
396.352	263.06
396.576	335.06
396.801	561.06
397.025	640.06
397.249	372.06
397.474	240.06
397.698	153.06
397.922	134.06
398.147	124.06
398.371	103.06
398.595	104.06
398.82	111.06
399.044	95.06
399.268	95.06
399.492	102.06
399.717	99.06
399.941	102.06
400.165	81.06
400.389	103.06
400.613	94.06
400.837	97.06
401.062	108.06
401.286	99.06
401.51	95.06
401.734	87.06
401.958	104.06
402.182	107.06
402.406	97.06
402.63	107.06
402.854	94.06
403.078	114.06
403.302	126.06
403.526	121.06
403.75	113.06
403.974	97.06
404.198	109.06
404.422	145.06
404.645	130.06
404.869	129.06
405.093	105.06
405.317	101.06
405.541	89.06
405.765	99.06
405.988	103.06
406.212	109.06
406.436	107.06
406.66	93.06
406.883	104.06
407.107	118.06
407.331	107.06
407.555	112.06
407.778	140.06
408.002	149.06
408.226	107.06
408.449	94.06
408.673	99.06
408.896	96.06
409.12	121.06
409.344	120.06
409.567	143.06
409.791	168.06
410.014	141.06
410.238	138.06
410.461	115.06
410.685	117.06
410.908	113.06
411.132	112.06
411.355	94.06
411.578	109.06
411.802	103.06
412.025	80.06
412.249	95.06
412.472	98.06
412.695	107.06
412.919	83.06
413.142	90.06
413.365	81.06
413.589	101.06
413.812	91.06
414.035	101.06
414.258	93.06
414.482	111.06
414.705	106.06
414.928	96.06
415.151	101.06
415.374	87.06
415.597	90.06
415.821	107.06
416.044	99.06
416.267	94.06
416.49	95.06
416.713	94.06
416.936	95.06
417.159	120.06
417.382	95.06
417.605	97.06
417.828	101.06
418.051	99.06
418.274	98.06
418.497	99.06
418.72	93.06
418.943	87.06
419.166	95.06
419.389	98.06
419.611	101.06
419.834	99.06
420.057	108.06
420.28	128.06
420.503	120.06
420.726	126.06
420.948	124.06
421.171	138.06
421.394	155.06
421.617	204.06
421.839	243.06
422.062	270.06
422.285	438.06
422.507	678.06
422.73	997.06
422.953	945.06
423.175	532.06
423.398	312.06
423.621	219.06
423.843	176.06
424.066	163.06
424.288	129.06
424.511	135.06
424.733	116.06
424.956	113.06
425.178	118.06
425.401	119.06
425.623	110.06
425.846	92.06
426.068	99.06
426.291	102.06
426.513	98.06
426.735	115.06
426.958	102.06
427.18	95.06
427.402	95.06
427.625	97.06
427.847	104.06
428.069	130.06
428.292	235.06
428.514	265.06
428.736	193.06
428.958	222.06
429.181	232.06
429.403	128.06
429.625	136.06
429.847	225.06
430.069	313.06
430.292	398.06
430.514	375.06
430.736	264.06
430.958	263.06
431.18	146.06
431.402	114.06
431.624	147.06
431.846	207.06
432.068	261.06
432.29	141.06
432.512	99.06
432.734	91.06
432.956	99.06
433.178	85.06
433.4	91.06
433.622	88.06
433.844	108.06
434.066	89.06
434.287	100.06
434.509	93.06
434.731	101.06
434.953	102.06
435.175	99.06
435.397	104.06
435.618	125.06
435.84	109.06
436.062	121.06
436.284	111.06
436.505	100.06
436.727	102.06
436.949	105.06
437.17	97.06
437.392	92.06
437.614	80.06
437.835	101.06
438.057	99.06
438.278	92.06
438.5	97.06
438.721	101.06
438.943	92.06
439.165	92.06
439.386	88.06
439.608	99.06
439.829	88.06
440.05	104.06
440.272	103.06
440.493	96.06
440.715	94.06
440.936	103.06
441.158	97.06
441.379	85.06
441.6	101.06
441.822	97.06
442.043	124.06
442.264	139.06
442.486	255.06
442.707	396.06
442.928	245.06
443.149	189.06
443.371	335.06
443.592	587.06
443.813	504.06
444.034	203.06
444.255	148.06
444.476	118.06
444.698	105.06
444.919	127.06
445.14	254.06
445.361	421.06
445.582	741.06
445.803	644.06
446.024	239.06
446.245	137.06
446.466	110.06
446.687	100.06
446.908	87.06
447.129	93.06
447.35	103.06
447.571	76.06
447.792	91.06
448.013	77.06
448.234	81.06
448.455	99.06
448.675	89.06
448.896	91.06
449.117	94.06
449.338	78.06
449.559	103.06
449.779	93.06
450	85.06
450.221	67.06
450.442	93.06
450.662	84.06
450.883	97.06
451.104	99.06
451.324	94.06
451.545	91.06
451.766	97.06
451.986	87.06
452.207	92.06
452.428	96.06
452.648	128.06
452.869	155.06
453.089	124.06
453.31	91.06
453.53	95.06
453.751	104.06
453.971	95.06
454.192	93.06
454.412	82.06
454.633	94.06
454.853	91.06
455.073	98.06
455.294	100.06
455.514	112.06
455.734	99.06
455.955	76.06
456.175	87.06
456.395	91.06
456.616	101.06
456.836	99.06
457.056	80.06
457.276	95.06
457.497	99.06
457.717	133.06
457.937	190.06
458.157	262.06
458.377	251.06
458.598	242.06
458.818	270.06
459.038	150.06
459.258	102.06
459.478	92.06
459.698	86.06
459.918	103.06
460.138	89.06
460.358	98.06
460.578	112.06
460.798	163.06
461.018	179.06
461.238	107.06
461.458	115.06
461.678	85.06
461.898	78.06
462.118	95.06
462.338	88.06
462.558	95.06
462.777	91.06
462.997	74.06
463.217	92.06
463.437	79.06
463.657	85.06
463.876	87.06
464.096	83.06
464.316	109.06
464.536	91.06
464.755	88.06
464.975	99.06
465.195	93.06
465.414	91.06
465.634	86.06
465.854	95.06
466.073	96.06
466.293	94.06
466.512	95.06
466.732	92.06
466.951	87.06
467.171	93.06
467.391	83.06
467.61	87.06
467.829	102.06
468.049	90.06
468.268	103.06
468.488	92.06
468.707	96.06
468.927	86.06
469.146	89.06
469.365	100.06
469.585	86.06
469.804	76.06
470.023	94.06
470.243	92.06
470.462	96.06
470.681	98.06
470.901	81.06
471.12	102.06
471.339	111.06
471.558	91.06
471.777	77.06
471.997	107.06
472.216	107.06
472.435	100.06
472.654	95.06
472.873	98.06
473.092	99.06
473.311	85.06
473.53	76.06
473.749	86.06
473.968	96.06
474.187	97.06
474.406	102.06
474.625	99.06
474.844	104.06
475.063	89.06
475.282	97.06
475.501	98.06
475.72	97.06
475.939	97.06
476.158	92.06
476.377	95.06
476.596	93.06
476.814	102.06
477.033	86.06
477.252	97.06
477.471	100.06
477.69	87.06
477.908	100.06
478.127	93.06
478.346	96.06
478.564	108.06
478.783	84.06
479.002	99.06
479.22	90.06
479.439	107.06
479.658	85.06
479.876	102.06
480.095	92.06
480.313	100.06
480.532	104.06
480.751	97.06
480.969	82.06
481.188	101.06
481.406	99.06
481.624	84.06
481.843	98.06
482.061	95.06
482.28	107.06
482.498	111.06
482.717	88.06
482.935	114.06
483.153	109.06
483.372	120.06
483.59	101.06
483.808	105.06
484.027	87.06
484.245	93.06
484.463	97.06
484.681	113.06
484.9	109.06
485.118	100.06
485.336	96.06
485.554	100.06
485.772	83.06
485.99	92.06
486.209	102.06
486.427	100.06
486.645	111.06
486.863	91.06
487.081	105.06
487.299	113.06
487.517	133.06
487.735	196.06
487.953	430.06
488.171	357.06
488.389	160.06
488.607	119.06
488.825	102.06
489.043	98.06
489.261	101.06
489.479	97.06
489.696	108.06
489.914	100.06
490.132	98.06
490.35	99.06
490.568	94.06
490.786	91.06
491.003	97.06
491.221	106.06
491.439	86.06
491.657	102.06
491.874	92.06
492.092	102.06
492.31	102.06
492.527	100.06
492.745	91.06
492.963	89.06
493.18	89.06
493.398	104.06
493.615	95.06
493.833	104.06
494.05	99.06
494.268	94.06
494.485	88.06
494.703	89.06
494.92	101.06
495.138	107.06
495.355	88.06
495.573	82.06
495.79	92.06
496.008	99.06
496.225	108.06
496.442	119.06
496.66	119.06
496.877	99.06
497.094	93.06
497.312	89.06
497.529	98.06
497.746	100.06
497.963	102.06
498.181	90.06
498.398	117.06
498.615	101.06
498.832	105.06
499.049	92.06
499.267	105.06
499.484	89.06
499.701	95.06
499.918	101.06
500.135	96.06
500.352	92.06
500.569	102.06
500.786	93.06
501.003	89.06
501.22	104.06
501.437	100.06
501.654	114.06
501.871	98.06
502.088	102.06
502.305	91.06
502.522	94.06
502.739	105.06
502.956	93.06
503.172	108.06
503.389	99.06
503.606	114.06
503.823	111.06
504.04	146.06
504.256	288.06
504.473	305.06
504.69	173.06
504.907	121.06
505.123	99.06
505.34	91.06
505.557	94.06
505.773	92.06
505.99	91.06
506.207	88.06
506.423	99.06
506.64	95.06
506.856	94.06
507.073	83.06
507.289	102.06
507.506	91.06
507.722	77.06
507.939	108.06
508.155	109.06
508.372	93.06
508.588	93.06
508.805	99.06
509.021	103.06
509.238	101.06
509.454	95.06
509.67	93.06
509.887	93.06
510.103	99.06
510.319	95.06
510.536	103.06
510.752	88.06
510.968	97.06
511.184	93.06
511.401	94.06
511.617	97.06
511.833	104.06
512.049	100.06
512.265	96.06
512.481	85.06
512.698	83.06
512.914	95.06
513.13	101.06
513.346	81.06
513.562	113.06
513.778	104.06
513.994	104.06
514.21	93.06
514.426	102.06
