Data from CBS_2_HRD10591_00041.txt Node
Date: Mon Jan 19 14:05:06 EST 2026
User: Yrep
Spectrometer: HR+D1059
Trigger mode: 1
Integration Time (sec): 1.000000E-1
Scans to average: 1
Electric dark correction enabled: true
Nonlinearity correction enabled: false
Boxcar width: 0
XAxis mode: Wavelengths
Number of Pixels in Spectrum: 2048
>>>>>Begin Spectral Data<<<<<
223.165	-13.19
223.4	-13.19
223.635	-13.19
223.869	-13.19
224.104	-9.19
224.338	-29.19
224.573	-12.19
224.808	-8.19
225.042	-3.19
225.277	-7.19
225.511	-4.19
225.746	7.81
225.98	0.81
226.215	-1.19
226.449	6.81
226.683	18.81
226.918	33.81
227.152	32.81
227.387	31.81
227.621	38.81
227.856	34.81
228.09	40.81
228.324	33.81
228.559	48.81
228.793	35.81
229.027	62.81
229.262	36.81
229.496	70.81
229.73	61.81
229.964	81.81
230.199	76.81
230.433	70.81
230.667	58.81
230.901	84.81
231.136	77.81
231.37	80.81
231.604	78.81
231.838	76.81
232.072	71.81
232.306	71.81
232.541	84.81
232.775	82.81
233.009	69.81
233.243	89.81
233.477	79.81
233.711	83.81
233.945	78.81
234.179	75.81
234.413	82.81
234.647	72.81
234.881	84.81
235.115	70.81
235.349	68.81
235.583	62.81
235.817	62.81
236.051	70.81
236.285	72.81
236.519	79.81
236.753	86.81
236.987	71.81
237.221	78.81
237.455	84.81
237.689	80.81
237.922	66.81
238.156	71.81
238.39	76.81
238.624	66.81
238.858	70.81
239.091	82.81
239.325	77.81
239.559	71.81
239.793	64.81
240.027	70.81
240.26	65.81
240.494	77.81
240.728	77.81
240.961	67.81
241.195	80.81
241.429	87.81
241.662	71.81
241.896	70.81
242.13	59.81
242.363	68.81
242.597	78.81
242.83	66.81
243.064	76.81
243.298	70.81
243.531	75.81
243.765	76.81
243.998	63.81
244.232	78.81
244.465	63.81
244.699	70.81
244.932	76.81
245.166	60.81
245.399	86.81
245.633	84.81
245.866	75.81
246.099	72.81
246.333	78.81
246.566	72.81
246.8	71.81
247.033	76.81
247.266	79.81
247.5	79.81
247.733	72.81
247.966	74.81
248.2	68.81
248.433	77.81
248.666	83.81
248.899	67.81
249.133	79.81
249.366	78.81
249.599	66.81
249.832	76.81
250.066	67.81
250.299	59.81
250.532	82.81
250.765	70.81
250.998	65.81
251.231	75.81
251.465	80.81
251.698	67.81
251.931	72.81
252.164	66.81
252.397	78.81
252.63	61.81
252.863	80.81
253.096	72.81
253.329	79.81
253.562	76.81
253.795	81.81
254.028	70.81
254.261	82.81
254.494	72.81
254.727	78.81
254.96	78.81
255.193	72.81
255.426	87.81
255.659	76.81
255.892	67.81
256.124	76.81
256.357	70.81
256.59	79.81
256.823	74.81
257.056	76.81
257.289	68.81
257.521	76.81
257.754	84.81
257.987	67.81
258.22	76.81
258.452	76.81
258.685	61.81
258.918	78.81
259.151	79.81
259.383	92.81
259.616	83.81
259.849	77.81
260.081	73.81
260.314	88.81
260.547	78.81
260.779	76.81
261.012	66.81
261.244	71.81
261.477	80.81
261.71	74.81
261.942	67.81
262.175	99.81
262.407	85.81
262.64	62.81
262.872	69.81
263.105	84.81
263.337	76.81
263.57	74.81
263.802	78.81
264.035	78.81
264.267	78.81
264.499	73.81
264.732	85.81
264.964	77.81
265.197	71.81
265.429	80.81
265.661	80.81
265.894	88.81
266.126	87.81
266.358	84.81
266.591	85.81
266.823	75.81
267.055	73.81
267.287	84.81
267.52	88.81
267.752	88.81
267.984	79.81
268.216	86.81
268.448	74.81
268.681	89.81
268.913	82.81
269.145	77.81
269.377	78.81
269.609	72.81
269.841	80.81
270.073	82.81
270.306	86.81
270.538	71.81
270.77	71.81
271.002	91.81
271.234	70.81
271.466	84.81
271.698	79.81
271.93	80.81
272.162	72.81
272.394	84.81
272.626	73.81
272.858	85.81
273.09	91.81
273.322	81.81
273.553	68.81
273.785	79.81
274.017	71.81
274.249	91.81
274.481	91.81
274.713	81.81
274.945	84.81
275.176	66.81
275.408	98.81
275.64	75.81
275.872	70.81
276.104	80.81
276.335	83.81
276.567	71.81
276.799	85.81
277.031	81.81
277.262	91.81
277.494	84.81
277.726	97.81
277.957	87.81
278.189	76.81
278.421	71.81
278.652	80.81
278.884	89.81
279.115	71.81
279.347	69.81
279.579	84.81
279.81	82.81
280.042	85.81
280.273	76.81
280.505	76.81
280.736	80.81
280.968	99.81
281.199	92.81
281.431	76.81
281.662	86.81
281.894	78.81
282.125	74.81
282.356	85.81
282.588	69.81
282.819	85.81
283.051	73.81
283.282	82.81
283.513	76.81
283.745	89.81
283.976	60.81
284.207	92.81
284.439	81.81
284.67	74.81
284.901	78.81
285.132	82.81
285.364	67.81
285.595	100.81
285.826	79.81
286.057	70.81
286.288	86.81
286.52	79.81
286.751	65.81
286.982	72.81
287.213	83.81
287.444	70.81
287.675	74.81
287.906	83.81
288.138	77.81
288.369	87.81
288.6	75.81
288.831	67.81
289.062	72.81
289.293	88.81
289.524	81.81
289.755	69.81
289.986	64.81
290.217	75.81
290.448	82.81
290.679	74.81
290.91	92.81
291.141	81.81
291.371	78.81
291.602	82.81
291.833	70.81
292.064	78.81
292.295	87.81
292.526	79.81
292.757	84.81
292.987	86.81
293.218	82.81
293.449	77.81
293.68	90.81
293.91	76.81
294.141	87.81
294.372	86.81
294.603	76.81
294.833	78.81
295.064	68.81
295.295	80.81
295.525	90.81
295.756	83.81
295.987	88.81
296.217	83.81
296.448	88.81
296.679	73.81
296.909	80.81
297.14	87.81
297.37	81.81
297.601	79.81
297.831	85.81
298.062	86.81
298.292	78.81
298.523	69.81
298.753	76.81
298.984	82.81
299.214	81.81
299.445	86.81
299.675	81.81
299.905	77.81
300.136	86.81
300.366	85.81
300.597	83.81
300.827	86.81
301.057	79.81
301.288	75.81
301.518	77.81
301.748	93.81
301.979	76.81
302.209	77.81
302.439	88.81
302.669	90.81
302.9	81.81
303.13	84.81
303.36	83.81
303.59	80.81
303.82	76.81
304.051	84.81
304.281	88.81
304.511	87.81
304.741	70.81
304.971	86.81
305.201	88.81
305.431	71.81
305.661	83.81
305.891	82.81
306.121	70.81
306.352	75.81
306.582	68.81
306.812	79.81
307.042	82.81
307.272	85.81
307.502	86.81
307.731	104.81
307.961	80.81
308.191	84.81
308.421	80.81
308.651	79.81
308.881	64.81
309.111	82.81
309.341	85.81
309.571	83.81
309.8	87.81
310.03	88.81
310.26	85.81
310.49	85.81
310.72	76.81
310.949	91.81
311.179	85.81
311.409	86.81
311.639	85.81
311.868	72.81
312.098	84.81
312.328	71.81
312.557	72.81
312.787	81.81
313.017	85.81
313.246	87.81
313.476	68.81
313.706	70.81
313.935	84.81
314.165	78.81
314.394	82.81
314.624	67.81
314.853	71.81
315.083	78.81
315.312	101.81
315.542	66.81
315.771	94.81
316.001	80.81
316.23	84.81
316.46	86.81
316.689	84.81
316.919	84.81
317.148	87.81
317.377	86.81
317.607	89.81
317.836	80.81
318.065	86.81
318.295	83.81
318.524	86.81
318.753	72.81
318.983	71.81
319.212	85.81
319.441	79.81
319.67	84.81
319.9	71.81
320.129	76.81
320.358	74.81
320.587	79.81
320.816	92.81
321.046	74.81
321.275	70.81
321.504	83.81
321.733	83.81
321.962	89.81
322.191	84.81
322.42	70.81
322.649	72.81
322.878	99.81
323.108	90.81
323.337	89.81
323.566	78.81
323.795	89.81
324.024	95.81
324.253	82.81
324.482	63.81
324.71	77.81
324.939	85.81
325.168	83.81
325.397	81.81
325.626	86.81
325.855	83.81
326.084	74.81
326.313	70.81
326.542	84.81
326.77	92.81
326.999	78.81
327.228	80.81
327.457	78.81
327.686	80.81
327.914	72.81
328.143	77.81
328.372	77.81
328.6	73.81
328.829	78.81
329.058	88.81
329.287	77.81
329.515	97.81
329.744	87.81
329.972	77.81
330.201	94.81
330.43	83.81
330.658	87.81
330.887	91.81
331.115	71.81
331.344	67.81
331.572	81.81
331.801	83.81
332.03	78.81
332.258	65.81
332.486	72.81
332.715	83.81
332.943	90.81
333.172	79.81
333.4	73.81
333.629	91.81
333.857	81.81
334.085	86.81
334.314	78.81
334.542	87.81
334.771	72.81
334.999	81.81
335.227	80.81
335.455	93.81
335.684	86.81
335.912	82.81
336.14	104.81
336.369	84.81
336.597	78.81
336.825	87.81
337.053	91.81
337.281	73.81
337.51	86.81
337.738	87.81
337.966	72.81
338.194	62.81
338.422	83.81
338.65	78.81
338.878	96.81
339.106	83.81
339.334	91.81
339.562	71.81
339.79	75.81
340.018	83.81
340.246	96.81
340.474	66.81
340.702	70.81
340.93	76.81
341.158	93.81
341.386	90.81
341.614	74.81
341.842	88.81
342.07	80.81
342.298	85.81
342.526	75.81
342.754	90.81
342.981	86.81
343.209	87.81
343.437	93.81
343.665	73.81
343.893	87.81
344.12	92.81
344.348	80.81
344.576	85.81
344.804	101.81
345.031	91.81
345.259	74.81
345.487	77.81
345.714	81.81
345.942	81.81
346.17	75.81
346.397	82.81
346.625	90.81
346.853	81.81
347.08	73.81
347.308	83.81
347.535	82.81
347.763	94.81
347.99	90.81
348.218	70.81
348.445	80.81
348.673	90.81
348.9	88.81
349.128	88.81
349.355	100.81
349.583	78.81
349.81	90.81
350.037	77.81
350.265	78.81
350.492	75.81
350.72	82.81
350.947	88.81
351.174	82.81
351.402	77.81
351.629	72.81
351.856	76.81
352.083	96.81
352.311	92.81
352.538	98.81
352.765	82.81
352.992	86.81
353.22	84.81
353.447	83.81
353.674	86.81
353.901	72.81
354.128	92.81
354.355	75.81
354.583	69.81
354.81	82.81
355.037	77.81
355.264	80.81
355.491	95.81
355.718	72.81
355.945	86.81
356.172	81.81
356.399	76.81
356.626	78.81
356.853	78.81
357.08	75.81
357.307	72.81
357.534	82.81
357.761	74.81
357.988	85.81
358.215	83.81
358.441	84.81
358.668	68.81
358.895	92.81
359.122	86.81
359.349	85.81
359.576	71.81
359.802	82.81
360.029	80.81
360.256	77.81
360.483	94.81
360.709	75.81
360.936	83.81
361.163	75.81
361.39	71.81
361.616	87.81
361.843	64.81
362.07	78.81
362.296	84.81
362.523	72.81
362.749	103.81
362.976	87.81
363.203	97.81
363.429	95.81
363.656	88.81
363.882	91.81
364.109	88.81
364.335	110.81
364.562	103.81
364.788	88.81
365.015	95.81
365.241	87.81
365.468	86.81
365.694	89.81
365.92	91.81
366.147	81.81
366.373	87.81
366.599	82.81
366.826	87.81
367.052	85.81
367.278	90.81
367.505	76.81
367.731	82.81
367.957	94.81
368.184	90.81
368.41	75.81
368.636	76.81
368.862	94.81
369.089	78.81
369.315	58.81
369.541	83.81
369.767	72.81
369.993	94.81
370.219	87.81
370.445	86.81
370.672	87.81
370.898	79.81
371.124	74.81
371.35	70.81
371.576	76.81
371.802	78.81
372.028	76.81
372.254	84.81
372.48	78.81
372.706	89.81
372.932	78.81
373.158	95.81
373.384	79.81
373.61	91.81
373.835	84.81
374.061	98.81
374.287	77.81
374.513	94.81
374.739	75.81
374.965	80.81
375.191	84.81
375.416	73.81
375.642	75.81
375.868	93.81
376.094	72.81
376.319	89.81
376.545	85.81
376.771	77.81
376.997	90.81
377.222	83.81
377.448	81.81
377.674	82.81
377.899	74.81
378.125	94.81
378.35	88.81
378.576	83.81
378.802	58.81
379.027	76.81
379.253	79.81
379.478	66.81
379.704	74.81
379.929	77.81
380.155	79.81
380.38	88.81
380.606	76.81
380.831	92.81
381.057	94.81
381.282	91.81
381.507	70.81
381.733	77.81
381.958	73.81
382.184	65.81
382.409	70.81
382.634	81.81
382.86	84.81
383.085	94.81
383.31	86.81
383.535	78.81
383.761	74.81
383.986	83.81
384.211	80.81
384.436	82.81
384.662	78.81
384.887	87.81
385.112	102.81
385.337	73.81
385.562	81.81
385.787	80.81
386.013	88.81
386.238	75.81
386.463	84.81
386.688	101.81
386.913	90.81
387.138	83.81
387.363	64.81
387.588	94.81
387.813	81.81
388.038	88.81
388.263	82.81
388.488	85.81
388.713	79.81
388.938	79.81
389.163	75.81
389.387	77.81
389.612	67.81
389.837	82.81
390.062	90.81
390.287	84.81
390.512	81.81
390.736	85.81
390.961	86.81
391.186	79.81
391.411	81.81
391.636	89.81
391.86	86.81
392.085	88.81
392.31	87.81
392.534	83.81
392.759	86.81
392.984	106.81
393.208	138.81
393.433	188.81
393.658	156.81
393.882	112.81
394.107	83.81
394.331	96.81
394.556	94.81
394.78	91.81
395.005	91.81
395.229	82.81
395.454	103.81
395.678	84.81
395.903	87.81
396.127	109.81
396.352	99.81
396.576	118.81
396.801	150.81
397.025	164.81
397.249	126.81
397.474	91.81
397.698	92.81
397.922	82.81
398.147	92.81
398.371	78.81
398.595	94.81
398.82	92.81
399.044	85.81
399.268	82.81
399.492	72.81
399.717	90.81
399.941	80.81
400.165	75.81
400.389	83.81
400.613	67.81
400.837	81.81
401.062	92.81
401.286	73.81
401.51	85.81
401.734	69.81
401.958	82.81
402.182	85.81
402.406	80.81
402.63	83.81
402.854	78.81
403.078	79.81
403.302	84.81
403.526	93.81
403.75	93.81
403.974	81.81
404.198	90.81
404.422	84.81
404.645	74.81
404.869	84.81
405.093	80.81
405.317	78.81
405.541	86.81
405.765	85.81
405.988	88.81
406.212	94.81
406.436	83.81
406.66	96.81
406.883	82.81
407.107	80.81
407.331	72.81
407.555	83.81
407.778	82.81
408.002	93.81
408.226	83.81
408.449	71.81
408.673	76.81
408.896	75.81
409.12	71.81
409.344	86.81
409.567	78.81
409.791	79.81
410.014	86.81
410.238	88.81
410.461	90.81
410.685	82.81
410.908	86.81
411.132	84.81
411.355	83.81
411.578	81.81
411.802	107.81
412.025	82.81
412.249	77.81
412.472	82.81
412.695	82.81
412.919	93.81
413.142	75.81
413.365	77.81
413.589	86.81
413.812	89.81
414.035	70.81
414.258	92.81
414.482	82.81
414.705	96.81
414.928	74.81
415.151	90.81
415.374	85.81
415.597	87.81
415.821	85.81
416.044	75.81
416.267	91.81
416.49	91.81
416.713	92.81
416.936	81.81
417.159	94.81
417.382	85.81
417.605	82.81
417.828	92.81
418.051	82.81
418.274	100.81
418.497	88.81
418.72	80.81
418.943	85.81
419.166	84.81
419.389	80.81
419.611	76.81
419.834	89.81
420.057	83.81
420.28	80.81
420.503	70.81
420.726	77.81
420.948	91.81
421.171	85.81
421.394	96.81
421.617	102.81
421.839	96.81
422.062	121.81
422.285	126.81
422.507	187.81
422.73	265.81
422.953	238.81
423.175	161.81
423.398	126.81
423.621	103.81
423.843	88.81
424.066	87.81
424.288	106.81
424.511	100.81
424.733	83.81
424.956	79.81
425.178	86.81
425.401	94.81
425.623	85.81
425.846	78.81
426.068	78.81
426.291	85.81
426.513	85.81
426.735	75.81
426.958	94.81
427.18	93.81
427.402	95.81
427.625	98.81
427.847	100.81
428.069	92.81
428.292	108.81
428.514	121.81
428.736	95.81
428.958	101.81
429.181	106.81
429.403	90.81
429.625	82.81
429.847	92.81
430.069	130.81
430.292	138.81
430.514	135.81
430.736	108.81
430.958	122.81
431.18	94.81
431.402	91.81
431.624	79.81
431.846	114.81
432.068	98.81
432.29	94.81
432.512	92.81
432.734	77.81
432.956	78.81
433.178	79.81
433.4	64.81
433.622	94.81
433.844	78.81
434.066	84.81
434.287	90.81
434.509	81.81
434.731	66.81
434.953	91.81
435.175	78.81
435.397	89.81
435.618	82.81
435.84	88.81
436.062	80.81
436.284	88.81
436.505	84.81
436.727	67.81
436.949	98.81
437.17	91.81
437.392	84.81
437.614	72.81
437.835	82.81
438.057	88.81
438.278	81.81
438.5	87.81
438.721	87.81
438.943	80.81
439.165	70.81
439.386	67.81
439.608	82.81
439.829	80.81
440.05	86.81
440.272	78.81
440.493	79.81
440.715	78.81
440.936	90.81
441.158	85.81
441.379	82.81
441.6	83.81
441.822	80.81
442.043	88.81
442.264	81.81
442.486	103.81
442.707	116.81
442.928	102.81
443.149	94.81
443.371	125.81
443.592	165.81
443.813	154.81
444.034	88.81
444.255	96.81
444.476	93.81
444.698	72.81
444.919	85.81
445.14	168.81
445.361	154.81
445.582	188.81
445.803	167.81
446.024	97.81
446.245	103.81
446.466	88.81
446.687	94.81
446.908	75.81
447.129	75.81
447.35	84.81
447.571	81.81
447.792	72.81
448.013	87.81
448.234	76.81
448.455	79.81
448.675	85.81
448.896	90.81
449.117	82.81
449.338	75.81
449.559	97.81
449.779	78.81
450	97.81
450.221	92.81
450.442	80.81
450.662	96.81
450.883	89.81
451.104	90.81
451.324	78.81
451.545	79.81
451.766	78.81
451.986	89.81
452.207	89.81
452.428	67.81
452.648	79.81
452.869	85.81
453.089	92.81
453.31	90.81
453.53	89.81
453.751	86.81
453.971	81.81
454.192	90.81
454.412	78.81
454.633	66.81
454.853	88.81
455.073	82.81
455.294	88.81
455.514	89.81
455.734	75.81
455.955	85.81
456.175	87.81
456.395	86.81
456.616	79.81
456.836	74.81
457.056	90.81
457.276	86.81
457.497	93.81
457.717	80.81
457.937	99.81
458.157	94.81
458.377	93.81
458.598	99.81
458.818	110.81
459.038	80.81
459.258	87.81
459.478	80.81
459.698	98.81
459.918	76.81
460.138	90.81
460.358	82.81
460.578	75.81
460.798	102.81
461.018	81.81
461.238	82.81
461.458	80.81
461.678	92.81
461.898	82.81
462.118	95.81
462.338	77.81
462.558	77.81
462.777	87.81
462.997	70.81
463.217	72.81
463.437	79.81
463.657	74.81
463.876	81.81
464.096	78.81
464.316	82.81
464.536	83.81
464.755	70.81
464.975	83.81
465.195	91.81
465.414	66.81
465.634	72.81
465.854	82.81
466.073	82.81
466.293	89.81
466.512	64.81
466.732	71.81
466.951	72.81
467.171	79.81
467.391	79.81
467.61	89.81
467.829	88.81
468.049	77.81
468.268	78.81
468.488	87.81
468.707	75.81
468.927	71.81
469.146	78.81
469.365	87.81
469.585	92.81
469.804	93.81
470.023	80.81
470.243	87.81
470.462	71.81
470.681	74.81
470.901	78.81
471.12	72.81
471.339	93.81
471.558	80.81
471.777	77.81
471.997	90.81
472.216	79.81
472.435	78.81
472.654	83.81
472.873	80.81
473.092	77.81
473.311	75.81
473.53	84.81
473.749	94.81
473.968	82.81
474.187	80.81
474.406	91.81
474.625	66.81
474.844	81.81
475.063	81.81
475.282	71.81
475.501	80.81
475.72	84.81
475.939	76.81
476.158	91.81
476.377	83.81
476.596	72.81
476.814	71.81
477.033	88.81
477.252	87.81
477.471	91.81
477.69	85.81
477.908	90.81
478.127	93.81
478.346	71.81
478.564	84.81
478.783	85.81
479.002	86.81
479.22	84.81
479.439	81.81
479.658	83.81
479.876	81.81
480.095	82.81
480.313	77.81
480.532	90.81
480.751	66.81
480.969	89.81
481.188	83.81
481.406	81.81
481.624	90.81
481.843	84.81
482.061	88.81
482.28	88.81
482.498	61.81
482.717	88.81
482.935	84.81
483.153	91.81
483.372	90.81
483.59	72.81
483.808	92.81
484.027	81.81
484.245	90.81
484.463	71.81
484.681	67.81
484.9	85.81
485.118	85.81
485.336	76.81
485.554	95.81
485.772	69.81
485.99	93.81
486.209	84.81
486.427	84.81
486.645	84.81
486.863	93.81
487.081	96.81
487.299	93.81
487.517	93.81
487.735	101.81
487.953	120.81
488.171	119.81
488.389	94.81
488.607	76.81
488.825	72.81
489.043	88.81
489.261	87.81
489.479	87.81
489.696	84.81
489.914	81.81
490.132	94.81
490.35	82.81
490.568	84.81
490.786	82.81
491.003	78.81
491.221	84.81
491.439	88.81
491.657	99.81
491.874	88.81
492.092	78.81
492.31	84.81
492.527	77.81
492.745	85.81
492.963	82.81
493.18	77.81
493.398	94.81
493.615	71.81
493.833	80.81
494.05	85.81
494.268	97.81
494.485	86.81
494.703	82.81
494.92	81.81
495.138	68.81
495.355	86.81
495.573	74.81
495.79	76.81
496.008	85.81
496.225	85.81
496.442	80.81
496.66	87.81
496.877	82.81
497.094	69.81
497.312	64.81
497.529	69.81
497.746	85.81
497.963	84.81
498.181	88.81
498.398	85.81
498.615	86.81
498.832	83.81
499.049	86.81
499.267	78.81
499.484	86.81
499.701	71.81
499.918	83.81
500.135	73.81
500.352	89.81
500.569	95.81
500.786	87.81
501.003	73.81
501.22	99.81
501.437	93.81
501.654	75.81
501.871	87.81
502.088	82.81
502.305	81.81
502.522	89.81
502.739	83.81
502.956	73.81
503.172	89.81
503.389	84.81
503.606	82.81
503.823	83.81
504.04	93.81
504.256	114.81
504.473	134.81
504.69	84.81
504.907	93.81
505.123	84.81
505.34	76.81
505.557	100.81
505.773	94.81
505.99	86.81
506.207	70.81
506.423	82.81
506.64	81.81
506.856	69.81
507.073	82.81
507.289	83.81
507.506	90.81
507.722	78.81
507.939	80.81
508.155	80.81
508.372	95.81
508.588	84.81
508.805	92.81
509.021	74.81
509.238	95.81
509.454	86.81
509.67	86.81
509.887	80.81
510.103	90.81
510.319	92.81
510.536	73.81
510.752	96.81
510.968	87.81
511.184	90.81
511.401	80.81
511.617	92.81
511.833	78.81
512.049	88.81
512.265	106.81
512.481	87.81
512.698	91.81
512.914	86.81
513.13	94.81
513.346	81.81
513.562	99.81
513.778	78.81
513.994	106.81
514.21	95.81
514.426	74.81
514.642	84.81
514.858	81.81
515.074	82.81
515.29	85.81
515.506	65.81
515.721	77.81
515.937	85.81
516.153	67.81
516.369	81.81
516.585	78.81
516.801	87.81
517.016	81.81
517.232	91.81
517.448	92.81
517.664	96.81
517.879	82.81
518.095	78.81
518.311	78.81
518.527	102.81
518.742	90.81
518.958	119.81
519.173	123.81
519.389	96.81
