Data from CBS_2_HRD10591_00006.txt Node
Date: Mon Jan 19 14:04:49 EST 2026
User: Yrep
Spectrometer: HR+D1059
Trigger mode: 1
Integration Time (sec): 1.000000E-1
Scans to average: 1
Electric dark correction enabled: true
Nonlinearity correction enabled: false
Boxcar width: 0
XAxis mode: Wavelengths
Number of Pixels in Spectrum: 2048
>>>>>Begin Spectral Data<<<<<
223.165	-30.56
223.4	-30.56
223.635	-30.56
223.869	-15.56
224.104	-12.56
224.338	-8.56
224.573	-6.56
224.808	-12.56
225.042	-2.56
225.277	-9.56
225.511	-18.56
225.746	5.44
225.98	-2.56
226.215	9.44
226.449	18.44
226.683	23.44
226.918	17.44
227.152	45.44
227.387	37.44
227.621	45.44
227.856	30.44
228.09	54.44
228.324	52.44
228.559	61.44
228.793	60.44
229.027	68.44
229.262	60.44
229.496	75.44
229.73	67.44
229.964	63.44
230.199	67.44
230.433	52.44
230.667	78.44
230.901	73.44
231.136	69.44
231.37	72.44
231.604	71.44
231.838	83.44
232.072	70.44
232.306	67.44
232.541	73.44
232.775	74.44
233.009	83.44
233.243	85.44
233.477	82.44
233.711	76.44
233.945	85.44
234.179	71.44
234.413	73.44
234.647	89.44
234.881	72.44
235.115	72.44
235.349	89.44
235.583	58.44
235.817	83.44
236.051	92.44
236.285	75.44
236.519	57.44
236.753	64.44
236.987	83.44
237.221	66.44
237.455	65.44
237.689	73.44
237.922	81.44
238.156	67.44
238.39	61.44
238.624	89.44
238.858	76.44
239.091	64.44
239.325	69.44
239.559	78.44
239.793	69.44
240.027	79.44
240.26	77.44
240.494	89.44
240.728	64.44
240.961	66.44
241.195	78.44
241.429	67.44
241.662	65.44
241.896	85.44
242.13	75.44
242.363	67.44
242.597	55.44
242.83	77.44
243.064	65.44
243.298	77.44
243.531	67.44
243.765	78.44
243.998	73.44
244.232	80.44
244.465	91.44
244.699	83.44
244.932	76.44
245.166	72.44
245.399	67.44
245.633	70.44
245.866	77.44
246.099	80.44
246.333	68.44
246.566	87.44
246.8	73.44
247.033	67.44
247.266	70.44
247.5	81.44
247.733	69.44
247.966	77.44
248.2	70.44
248.433	74.44
248.666	64.44
248.899	73.44
249.133	79.44
249.366	72.44
249.599	68.44
249.832	71.44
250.066	76.44
250.299	89.44
250.532	75.44
250.765	71.44
250.998	78.44
251.231	87.44
251.465	77.44
251.698	88.44
251.931	76.44
252.164	73.44
252.397	67.44
252.63	63.44
252.863	83.44
253.096	81.44
253.329	69.44
253.562	67.44
253.795	87.44
254.028	93.44
254.261	77.44
254.494	74.44
254.727	103.44
254.96	68.44
255.193	87.44
255.426	74.44
255.659	72.44
255.892	77.44
256.124	67.44
256.357	75.44
256.59	84.44
256.823	77.44
257.056	82.44
257.289	83.44
257.521	78.44
257.754	66.44
257.987	76.44
258.22	73.44
258.452	80.44
258.685	70.44
258.918	83.44
259.151	71.44
259.383	77.44
259.616	73.44
259.849	72.44
260.081	89.44
260.314	89.44
260.547	85.44
260.779	80.44
261.012	79.44
261.244	74.44
261.477	99.44
261.71	77.44
261.942	79.44
262.175	80.44
262.407	81.44
262.64	71.44
262.872	89.44
263.105	79.44
263.337	88.44
263.57	89.44
263.802	66.44
264.035	74.44
264.267	72.44
264.499	73.44
264.732	77.44
264.964	81.44
265.197	96.44
265.429	82.44
265.661	84.44
265.894	90.44
266.126	92.44
266.358	83.44
266.591	89.44
266.823	80.44
267.055	79.44
267.287	83.44
267.52	80.44
267.752	69.44
267.984	81.44
268.216	88.44
268.448	69.44
268.681	82.44
268.913	89.44
269.145	74.44
269.377	76.44
269.609	69.44
269.841	86.44
270.073	79.44
270.306	81.44
270.538	87.44
270.77	72.44
271.002	86.44
271.234	79.44
271.466	75.44
271.698	77.44
271.93	86.44
272.162	78.44
272.394	83.44
272.626	74.44
272.858	82.44
273.09	72.44
273.322	83.44
273.553	81.44
273.785	77.44
274.017	77.44
274.249	88.44
274.481	73.44
274.713	69.44
274.945	82.44
275.176	81.44
275.408	90.44
275.64	79.44
275.872	75.44
276.104	79.44
276.335	83.44
276.567	89.44
276.799	82.44
277.031	79.44
277.262	82.44
277.494	80.44
277.726	96.44
277.957	94.44
278.189	79.44
278.421	77.44
278.652	79.44
278.884	94.44
279.115	85.44
279.347	80.44
279.579	86.44
279.81	76.44
280.042	73.44
280.273	74.44
280.505	79.44
280.736	79.44
280.968	80.44
281.199	90.44
281.431	78.44
281.662	74.44
281.894	80.44
282.125	91.44
282.356	82.44
282.588	85.44
282.819	72.44
283.051	70.44
283.282	93.44
283.513	90.44
283.745	79.44
283.976	69.44
284.207	83.44
284.439	82.44
284.67	80.44
284.901	77.44
285.132	96.44
285.364	88.44
285.595	77.44
285.826	91.44
286.057	100.44
286.288	87.44
286.52	89.44
286.751	67.44
286.982	78.44
287.213	87.44
287.444	69.44
287.675	99.44
287.906	79.44
288.138	67.44
288.369	79.44
288.6	101.44
288.831	85.44
289.062	83.44
289.293	74.44
289.524	87.44
289.755	80.44
289.986	85.44
290.217	84.44
290.448	84.44
290.679	77.44
290.91	86.44
291.141	73.44
291.371	92.44
291.602	86.44
291.833	72.44
292.064	97.44
292.295	82.44
292.526	78.44
292.757	81.44
292.987	85.44
293.218	81.44
293.449	71.44
293.68	73.44
293.91	85.44
294.141	88.44
294.372	87.44
294.603	87.44
294.833	89.44
295.064	84.44
295.295	74.44
295.525	77.44
295.756	95.44
295.987	87.44
296.217	85.44
296.448	84.44
296.679	79.44
296.909	101.44
297.14	83.44
297.37	64.44
297.601	77.44
297.831	92.44
298.062	87.44
298.292	72.44
298.523	91.44
298.753	74.44
298.984	79.44
299.214	84.44
299.445	93.44
299.675	86.44
299.905	93.44
300.136	84.44
300.366	94.44
300.597	93.44
300.827	86.44
301.057	87.44
301.288	84.44
301.518	85.44
301.748	79.44
301.979	102.44
302.209	81.44
302.439	59.44
302.669	92.44
302.9	84.44
303.13	93.44
303.36	97.44
303.59	73.44
303.82	86.44
304.051	91.44
304.281	82.44
304.511	87.44
304.741	74.44
304.971	87.44
305.201	81.44
305.431	88.44
305.661	81.44
305.891	87.44
306.121	81.44
306.352	77.44
306.582	85.44
306.812	92.44
307.042	89.44
307.272	85.44
307.502	80.44
307.731	87.44
307.961	93.44
308.191	91.44
308.421	93.44
308.651	79.44
308.881	88.44
309.111	91.44
309.341	96.44
309.571	93.44
309.8	79.44
310.03	88.44
310.26	70.44
310.49	95.44
310.72	93.44
310.949	87.44
311.179	85.44
311.409	77.44
311.639	93.44
311.868	78.44
312.098	77.44
312.328	80.44
312.557	75.44
312.787	86.44
313.017	74.44
313.246	67.44
313.476	87.44
313.706	73.44
313.935	85.44
314.165	69.44
314.394	81.44
314.624	77.44
314.853	89.44
315.083	93.44
315.312	87.44
315.542	86.44
315.771	82.44
316.001	94.44
316.23	82.44
316.46	110.44
316.689	79.44
316.919	87.44
317.148	96.44
317.377	88.44
317.607	87.44
317.836	94.44
318.065	109.44
318.295	97.44
318.524	80.44
318.753	85.44
318.983	77.44
319.212	73.44
319.441	89.44
319.67	80.44
319.9	93.44
320.129	89.44
320.358	87.44
320.587	95.44
320.816	93.44
321.046	97.44
321.275	99.44
321.504	77.44
321.733	85.44
321.962	87.44
322.191	82.44
322.42	100.44
322.649	91.44
322.878	79.44
323.108	81.44
323.337	66.44
323.566	87.44
323.795	77.44
324.024	83.44
324.253	105.44
324.482	84.44
324.71	83.44
324.939	99.44
325.168	78.44
325.397	63.44
325.626	97.44
325.855	87.44
326.084	86.44
326.313	84.44
326.542	85.44
326.77	88.44
326.999	94.44
327.228	74.44
327.457	82.44
327.686	80.44
327.914	82.44
328.143	72.44
328.372	82.44
328.6	76.44
328.829	81.44
329.058	95.44
329.287	84.44
329.515	89.44
329.744	91.44
329.972	94.44
330.201	75.44
330.43	96.44
330.658	86.44
330.887	80.44
331.115	79.44
331.344	86.44
331.572	81.44
331.801	83.44
332.03	79.44
332.258	73.44
332.486	87.44
332.715	91.44
332.943	83.44
333.172	80.44
333.4	86.44
333.629	88.44
333.857	101.44
334.085	92.44
334.314	102.44
334.542	103.44
334.771	86.44
334.999	108.44
335.227	91.44
335.455	85.44
335.684	107.44
335.912	109.44
336.14	114.44
336.369	85.44
336.597	87.44
336.825	84.44
337.053	73.44
337.281	87.44
337.51	89.44
337.738	82.44
337.966	88.44
338.194	94.44
338.422	81.44
338.65	79.44
338.878	65.44
339.106	81.44
339.334	85.44
339.562	76.44
339.79	89.44
340.018	93.44
340.246	79.44
340.474	73.44
340.702	95.44
340.93	86.44
341.158	91.44
341.386	88.44
341.614	79.44
341.842	87.44
342.07	93.44
342.298	99.44
342.526	82.44
342.754	77.44
342.981	78.44
343.209	77.44
343.437	86.44
343.665	74.44
343.893	88.44
344.12	88.44
344.348	91.44
344.576	96.44
344.804	77.44
345.031	79.44
345.259	86.44
345.487	87.44
345.714	82.44
345.942	82.44
346.17	96.44
346.397	92.44
346.625	94.44
346.853	93.44
347.08	79.44
347.308	89.44
347.535	96.44
347.763	91.44
347.99	89.44
348.218	88.44
348.445	84.44
348.673	86.44
348.9	94.44
349.128	104.44
349.355	86.44
349.583	90.44
349.81	77.44
350.037	83.44
350.265	93.44
350.492	79.44
350.72	87.44
350.947	88.44
351.174	87.44
351.402	88.44
351.629	76.44
351.856	82.44
352.083	81.44
352.311	87.44
352.538	90.44
352.765	87.44
352.992	102.44
353.22	94.44
353.447	86.44
353.674	85.44
353.901	87.44
354.128	94.44
354.355	89.44
354.583	87.44
354.81	83.44
355.037	80.44
355.264	82.44
355.491	95.44
355.718	77.44
355.945	91.44
356.172	103.44
356.399	96.44
356.626	81.44
356.853	91.44
357.08	86.44
357.307	96.44
357.534	75.44
357.761	83.44
357.988	81.44
358.215	99.44
358.441	94.44
358.668	86.44
358.895	95.44
359.122	88.44
359.349	81.44
359.576	98.44
359.802	97.44
360.029	79.44
360.256	108.44
360.483	93.44
360.709	94.44
360.936	97.44
361.163	95.44
361.39	93.44
361.616	107.44
361.843	96.44
362.07	113.44
362.296	122.44
362.523	126.44
362.749	136.44
362.976	163.44
363.203	171.44
363.429	110.44
363.656	103.44
363.882	112.44
364.109	134.44
364.335	181.44
364.562	199.44
364.788	131.44
365.015	96.44
365.241	97.44
365.468	107.44
365.694	77.44
365.92	80.44
366.147	89.44
366.373	77.44
366.599	75.44
366.826	87.44
367.052	87.44
367.278	89.44
367.505	92.44
367.731	107.44
367.957	83.44
368.184	74.44
368.41	79.44
368.636	80.44
368.862	85.44
369.089	86.44
369.315	83.44
369.541	88.44
369.767	94.44
369.993	94.44
370.219	97.44
370.445	92.44
370.672	91.44
370.898	89.44
371.124	83.44
371.35	91.44
371.576	82.44
371.802	93.44
372.028	79.44
372.254	90.44
372.48	86.44
372.706	96.44
372.932	92.44
373.158	106.44
373.384	101.44
373.61	96.44
373.835	104.44
374.061	94.44
374.287	91.44
374.513	98.44
374.739	79.44
374.965	91.44
375.191	98.44
375.416	94.44
375.642	101.44
375.868	94.44
376.094	84.44
376.319	86.44
376.545	72.44
376.771	79.44
376.997	77.44
377.222	86.44
377.448	93.44
377.674	95.44
377.899	87.44
378.125	95.44
378.35	91.44
378.576	93.44
378.802	88.44
379.027	83.44
379.253	97.44
379.478	97.44
379.704	88.44
379.929	88.44
380.155	98.44
380.38	94.44
380.606	98.44
380.831	86.44
381.057	101.44
381.282	102.44
381.507	91.44
381.733	79.44
381.958	89.44
382.184	102.44
382.409	101.44
382.634	95.44
382.86	83.44
383.085	92.44
383.31	87.44
383.535	92.44
383.761	85.44
383.986	107.44
384.211	92.44
384.436	86.44
384.662	97.44
384.887	84.44
385.112	83.44
385.337	94.44
385.562	86.44
385.787	93.44
386.013	112.44
386.238	87.44
386.463	107.44
386.688	95.44
386.913	102.44
387.138	95.44
387.363	95.44
387.588	116.44
387.813	109.44
388.038	121.44
388.263	100.44
388.488	98.44
388.713	104.44
388.938	97.44
389.163	78.44
389.387	80.44
389.612	89.44
389.837	88.44
390.062	95.44
390.287	92.44
390.512	104.44
390.736	104.44
390.961	86.44
391.186	89.44
391.411	102.44
391.636	83.44
391.86	99.44
392.085	115.44
392.31	99.44
392.534	125.44
392.759	139.44
392.984	200.44
393.208	352.44
393.433	445.44
393.658	358.44
393.882	183.44
394.107	134.44
394.331	127.44
394.556	133.44
394.78	107.44
395.005	102.44
395.229	111.44
395.454	102.44
395.678	133.44
395.903	144.44
396.127	159.44
396.352	173.44
396.576	215.44
396.801	325.44
397.025	375.44
397.249	240.44
397.474	156.44
397.698	141.44
397.922	124.44
398.147	86.44
398.371	91.44
398.595	107.44
398.82	92.44
399.044	85.44
399.268	109.44
399.492	93.44
399.717	107.44
399.941	96.44
400.165	105.44
400.389	78.44
400.613	86.44
400.837	97.44
401.062	93.44
401.286	88.44
401.51	87.44
401.734	85.44
401.958	93.44
402.182	81.44
402.406	91.44
402.63	89.44
402.854	109.44
403.078	100.44
403.302	94.44
403.526	115.44
403.75	85.44
403.974	93.44
404.198	95.44
404.422	119.44
404.645	126.44
404.869	109.44
405.093	96.44
405.317	106.44
405.541	90.44
405.765	78.44
405.988	93.44
406.212	96.44
406.436	87.44
406.66	90.44
406.883	90.44
407.107	93.44
407.331	110.44
407.555	96.44
407.778	105.44
408.002	130.44
408.226	100.44
408.449	95.44
408.673	103.44
408.896	112.44
409.12	93.44
409.344	118.44
409.567	129.44
409.791	151.44
410.014	127.44
410.238	119.44
410.461	98.44
410.685	112.44
410.908	96.44
411.132	104.44
411.355	87.44
411.578	103.44
411.802	100.44
412.025	93.44
412.249	78.44
412.472	92.44
412.695	91.44
412.919	92.44
413.142	76.44
413.365	87.44
413.589	80.44
413.812	96.44
414.035	89.44
414.258	77.44
414.482	86.44
414.705	81.44
414.928	85.44
415.151	94.44
415.374	77.44
415.597	86.44
415.821	91.44
416.044	80.44
416.267	83.44
416.49	88.44
416.713	72.44
416.936	84.44
417.159	90.44
417.382	95.44
417.605	82.44
417.828	91.44
418.051	91.44
418.274	94.44
418.497	97.44
418.72	99.44
418.943	96.44
419.166	90.44
419.389	84.44
419.611	85.44
419.834	89.44
420.057	99.44
420.28	82.44
420.503	87.44
420.726	93.44
420.948	98.44
421.171	102.44
421.394	125.44
421.617	152.44
421.839	150.44
422.062	188.44
422.285	253.44
422.507	363.44
422.73	459.44
422.953	446.44
423.175	294.44
423.398	201.44
423.621	146.44
423.843	141.44
424.066	122.44
424.288	120.44
424.511	115.44
424.733	97.44
424.956	96.44
425.178	105.44
425.401	99.44
425.623	92.44
425.846	106.44
426.068	86.44
426.291	91.44
426.513	104.44
426.735	96.44
426.958	89.44
427.18	102.44
427.402	93.44
427.625	94.44
427.847	96.44
428.069	119.44
428.292	149.44
428.514	175.44
428.736	144.44
428.958	173.44
429.181	171.44
429.403	119.44
429.625	120.44
429.847	152.44
430.069	225.44
430.292	251.44
430.514	243.44
430.736	173.44
430.958	172.44
431.18	116.44
431.402	113.44
431.624	125.44
431.846	171.44
432.068	179.44
432.29	120.44
432.512	93.44
432.734	95.44
432.956	84.44
433.178	96.44
433.4	89.44
433.622	89.44
433.844	102.44
434.066	90.44
434.287	91.44
434.509	81.44
434.731	82.44
434.953	83.44
435.175	91.44
435.397	93.44
435.618	93.44
435.84	113.44
436.062	87.44
436.284	81.44
436.505	88.44
436.727	90.44
436.949	79.44
437.17	97.44
437.392	73.44
437.614	97.44
437.835	94.44
438.057	85.44
438.278	109.44
438.5	88.44
438.721	96.44
438.943	97.44
439.165	91.44
439.386	91.44
439.608	88.44
439.829	96.44
440.05	79.44
440.272	103.44
440.493	102.44
440.715	82.44
440.936	85.44
441.158	100.44
441.379	85.44
441.6	93.44
441.822	92.44
442.043	112.44
442.264	120.44
442.486	188.44
442.707	225.44
442.928	175.44
443.149	141.44
443.371	227.44
443.592	379.44
443.813	330.44
444.034	136.44
444.255	111.44
444.476	107.44
444.698	104.44
444.919	110.44
445.14	203.44
445.361	290.44
445.582	473.44
445.803	390.44
446.024	169.44
446.245	110.44
446.466	89.44
446.687	92.44
446.908	91.44
447.129	97.44
447.35	101.44
447.571	86.44
447.792	77.44
448.013	83.44
448.234	80.44
448.455	79.44
448.675	87.44
448.896	79.44
449.117	82.44
449.338	68.44
449.559	88.44
449.779	95.44
450	82.44
450.221	84.44
450.442	88.44
450.662	95.44
450.883	85.44
451.104	96.44
451.324	88.44
451.545	71.44
451.766	101.44
451.986	94.44
452.207	88.44
452.428	93.44
452.648	105.44
452.869	134.44
453.089	103.44
453.31	101.44
453.53	91.44
453.751	88.44
453.971	83.44
454.192	81.44
454.412	85.44
454.633	100.44
454.853	99.44
455.073	85.44
455.294	108.44
455.514	101.44
455.734	97.44
455.955	85.44
456.175	87.44
456.395	85.44
456.616	93.44
456.836	87.44
457.056	93.44
457.276	99.44
457.497	88.44
457.717	107.44
457.937	149.44
458.157	192.44
458.377	206.44
458.598	180.44
458.818	198.44
459.038	119.44
459.258	89.44
459.478	100.44
459.698	78.44
459.918	81.44
460.138	109.44
460.358	87.44
460.578	97.44
460.798	140.44
461.018	114.44
461.238	71.44
461.458	83.44
461.678	85.44
461.898	74.44
462.118	76.44
462.338	88.44
462.558	81.44
462.777	87.44
462.997	86.44
463.217	82.44
463.437	82.44
463.657	87.44
463.876	78.44
464.096	100.44
464.316	84.44
464.536	69.44
464.755	90.44
464.975	89.44
465.195	96.44
465.414	96.44
465.634	87.44
465.854	94.44
466.073	83.44
466.293	79.44
466.512	85.44
466.732	94.44
466.951	79.44
467.171	79.44
467.391	94.44
467.61	80.44
467.829	79.44
468.049	101.44
468.268	95.44
468.488	89.44
468.707	110.44
468.927	91.44
469.146	83.44
469.365	91.44
469.585	93.44
469.804	87.44
470.023	93.44
470.243	84.44
470.462	91.44
470.681	109.44
470.901	78.44
471.12	81.44
471.339	92.44
471.558	91.44
471.777	88.44
471.997	93.44
472.216	92.44
472.435	97.44
472.654	81.44
472.873	80.44
473.092	97.44
473.311	99.44
473.53	94.44
473.749	86.44
473.968	91.44
474.187	93.44
474.406	97.44
474.625	76.44
474.844	81.44
475.063	88.44
475.282	82.44
475.501	83.44
475.72	94.44
475.939	82.44
476.158	85.44
476.377	95.44
476.596	84.44
476.814	85.44
477.033	86.44
477.252	93.44
477.471	95.44
477.69	74.44
477.908	88.44
478.127	100.44
478.346	95.44
478.564	94.44
478.783	77.44
479.002	66.44
479.22	94.44
479.439	89.44
479.658	90.44
479.876	81.44
480.095	84.44
480.313	84.44
480.532	100.44
480.751	91.44
480.969	91.44
481.188	101.44
481.406	100.44
481.624	82.44
481.843	90.44
482.061	94.44
482.28	103.44
482.498	85.44
482.717	94.44
482.935	97.44
483.153	100.44
483.372	95.44
483.59	86.44
483.808	79.44
484.027	85.44
484.245	90.44
484.463	89.44
484.681	117.44
484.9	100.44
485.118	95.44
485.336	103.44
485.554	88.44
485.772	92.44
485.99	81.44
486.209	96.44
486.427	99.44
486.645	108.44
486.863	88.44
487.081	93.44
487.299	99.44
487.517	114.44
487.735	178.44
487.953	308.44
488.171	258.44
488.389	123.44
488.607	85.44
488.825	104.44
489.043	99.44
489.261	101.44
489.479	95.44
489.696	104.44
489.914	94.44
490.132	88.44
490.35	85.44
490.568	99.44
490.786	87.44
491.003	102.44
491.221	99.44
491.439	92.44
491.657	91.44
491.874	80.44
492.092	80.44
492.31	91.44
492.527	85.44
492.745	83.44
492.963	91.44
493.18	87.44
493.398	95.44
493.615	103.44
493.833	89.44
494.05	99.44
494.268	87.44
494.485	83.44
494.703	80.44
494.92	96.44
495.138	80.44
495.355	93.44
495.573	100.44
495.79	80.44
496.008	79.44
496.225	90.44
496.442	99.44
496.66	102.44
496.877	103.44
497.094	83.44
497.312	102.44
497.529	97.44
497.746	91.44
497.963	103.44
498.181	83.44
498.398	94.44
498.615	91.44
498.832	83.44
499.049	88.44
499.267	104.44
499.484	104.44
499.701	80.44
499.918	91.44
500.135	81.44
500.352	94.44
500.569	82.44
500.786	98.44
501.003	111.44
501.22	97.44
501.437	96.44
501.654	97.44
501.871	92.44
502.088	85.44
502.305	91.44
502.522	95.44
502.739	100.44
502.956	96.44
503.172	92.44
503.389	102.44
503.606	84.44
503.823	95.44
504.04	125.44
504.256	207.44
504.473	226.44
504.69	118.44
504.907	101.44
505.123	94.44
505.34	83.44
505.557	91.44
505.773	88.44
505.99	84.44
506.207	94.44
506.423	84.44
506.64	104.44
506.856	91.44
507.073	94.44
507.289	82.44
507.506	88.44
507.722	92.44
507.939	89.44
508.155	92.44
508.372	93.44
508.588	87.44
508.805	92.44
509.021	83.44
509.238	82.44
509.454	89.44
509.67	91.44
509.887	91.44
510.103	87.44
510.319	94.44
510.536	93.44
510.752	80.44
510.968	89.44
511.184	81.44
511.401	92.44
511.617	83.44
511.833	94.44
512.049	88.44
512.265	86.44
512.481	89.44
512.698	87.44
512.914	91.44
513.13	104.44
513.346	95.44
513.562	92.44
513.778	93.44
513.994	89.44
514.21	99.44
514.426	96.44
514.642	87.44
514.858	95.44
515.074	79.44
515.29	97.44
515.506	103.44
515.721	96.44
515.937	99.44
516.153	107.44
516.369	103.44
516.585	99.44
516.801	91.44
517.016	81.44
