Data from CBS_2_HRD10591_00044.txt Node
Date: Mon Jan 19 14:05:08 EST 2026
User: Yrep
Spectrometer: HR+D1059
Trigger mode: 1
Integration Time (sec): 1.000000E-1
Scans to average: 1
Electric dark correction enabled: true
Nonlinearity correction enabled: false
Boxcar width: 0
XAxis mode: Wavelengths
Number of Pixels in Spectrum: 2048
>>>>>Begin Spectral Data<<<<<
223.165	-14.31
223.4	-14.31
223.635	-14.31
223.869	-28.31
224.104	-25.31
224.338	-11.31
224.573	-7.31
224.808	-11.31
225.042	-13.31
225.277	-7.31
225.511	-6.31
225.746	17.69
225.98	-2.31
226.215	19.69
226.449	12.69
226.683	23.69
226.918	30.69
227.152	22.69
227.387	27.69
227.621	41.69
227.856	49.69
228.09	32.69
228.324	51.69
228.559	53.69
228.793	56.69
229.027	67.69
229.262	72.69
229.496	71.69
229.73	58.69
229.964	78.69
230.199	77.69
230.433	82.69
230.667	75.69
230.901	66.69
231.136	69.69
231.37	63.69
231.604	70.69
231.838	72.69
232.072	80.69
232.306	72.69
232.541	67.69
232.775	84.69
233.009	81.69
233.243	71.69
233.477	72.69
233.711	77.69
233.945	75.69
234.179	80.69
234.413	79.69
234.647	79.69
234.881	85.69
235.115	77.69
235.349	79.69
235.583	83.69
235.817	79.69
236.051	84.69
236.285	83.69
236.519	82.69
236.753	78.69
236.987	77.69
237.221	79.69
237.455	85.69
237.689	77.69
237.922	84.69
238.156	68.69
238.39	76.69
238.624	74.69
238.858	85.69
239.091	71.69
239.325	72.69
239.559	67.69
239.793	67.69
240.027	78.69
240.26	69.69
240.494	78.69
240.728	77.69
240.961	69.69
241.195	85.69
241.429	80.69
241.662	60.69
241.896	57.69
242.13	73.69
242.363	80.69
242.597	79.69
242.83	59.69
243.064	74.69
243.298	83.69
243.531	58.69
243.765	70.69
243.998	81.69
244.232	81.69
244.465	71.69
244.699	79.69
244.932	75.69
245.166	83.69
245.399	81.69
245.633	59.69
245.866	70.69
246.099	69.69
246.333	70.69
246.566	94.69
246.8	81.69
247.033	81.69
247.266	74.69
247.5	84.69
247.733	60.69
247.966	75.69
248.2	68.69
248.433	74.69
248.666	93.69
248.899	81.69
249.133	76.69
249.366	77.69
249.599	73.69
249.832	82.69
250.066	86.69
250.299	62.69
250.532	72.69
250.765	77.69
250.998	91.69
251.231	83.69
251.465	90.69
251.698	75.69
251.931	67.69
252.164	78.69
252.397	75.69
252.63	92.69
252.863	74.69
253.096	69.69
253.329	71.69
253.562	65.69
253.795	79.69
254.028	69.69
254.261	72.69
254.494	73.69
254.727	84.69
254.96	90.69
255.193	89.69
255.426	73.69
255.659	69.69
255.892	65.69
256.124	74.69
256.357	77.69
256.59	69.69
256.823	79.69
257.056	80.69
257.289	64.69
257.521	79.69
257.754	63.69
257.987	83.69
258.22	80.69
258.452	93.69
258.685	74.69
258.918	81.69
259.151	76.69
259.383	89.69
259.616	77.69
259.849	79.69
260.081	77.69
260.314	86.69
260.547	74.69
260.779	71.69
261.012	79.69
261.244	93.69
261.477	85.69
261.71	90.69
261.942	92.69
262.175	80.69
262.407	69.69
262.64	79.69
262.872	85.69
263.105	79.69
263.337	78.69
263.57	79.69
263.802	77.69
264.035	87.69
264.267	74.69
264.499	77.69
264.732	84.69
264.964	86.69
265.197	75.69
265.429	96.69
265.661	80.69
265.894	72.69
266.126	74.69
266.358	67.69
266.591	84.69
266.823	71.69
267.055	72.69
267.287	76.69
267.52	92.69
267.752	74.69
267.984	85.69
268.216	75.69
268.448	82.69
268.681	98.69
268.913	85.69
269.145	89.69
269.377	85.69
269.609	91.69
269.841	82.69
270.073	65.69
270.306	77.69
270.538	84.69
270.77	78.69
271.002	85.69
271.234	54.69
271.466	85.69
271.698	62.69
271.93	89.69
272.162	81.69
272.394	70.69
272.626	79.69
272.858	75.69
273.09	91.69
273.322	76.69
273.553	75.69
273.785	79.69
274.017	79.69
274.249	72.69
274.481	75.69
274.713	75.69
274.945	89.69
275.176	67.69
275.408	82.69
275.64	81.69
275.872	87.69
276.104	78.69
276.335	81.69
276.567	93.69
276.799	77.69
277.031	77.69
277.262	77.69
277.494	76.69
277.726	88.69
277.957	67.69
278.189	85.69
278.421	79.69
278.652	80.69
278.884	80.69
279.115	87.69
279.347	70.69
279.579	84.69
279.81	82.69
280.042	96.69
280.273	72.69
280.505	83.69
280.736	74.69
280.968	71.69
281.199	80.69
281.431	84.69
281.662	80.69
281.894	79.69
282.125	86.69
282.356	71.69
282.588	82.69
282.819	81.69
283.051	77.69
283.282	84.69
283.513	77.69
283.745	67.69
283.976	95.69
284.207	79.69
284.439	71.69
284.67	74.69
284.901	93.69
285.132	94.69
285.364	88.69
285.595	69.69
285.826	82.69
286.057	89.69
286.288	96.69
286.52	85.69
286.751	77.69
286.982	80.69
287.213	94.69
287.444	71.69
287.675	91.69
287.906	60.69
288.138	78.69
288.369	79.69
288.6	85.69
288.831	71.69
289.062	88.69
289.293	71.69
289.524	83.69
289.755	75.69
289.986	77.69
290.217	76.69
290.448	78.69
290.679	76.69
290.91	81.69
291.141	75.69
291.371	78.69
291.602	80.69
291.833	79.69
292.064	83.69
292.295	80.69
292.526	77.69
292.757	93.69
292.987	89.69
293.218	95.69
293.449	68.69
293.68	77.69
293.91	80.69
294.141	82.69
294.372	71.69
294.603	83.69
294.833	91.69
295.064	84.69
295.295	83.69
295.525	85.69
295.756	87.69
295.987	85.69
296.217	77.69
296.448	83.69
296.679	74.69
296.909	76.69
297.14	86.69
297.37	93.69
297.601	91.69
297.831	87.69
298.062	76.69
298.292	76.69
298.523	77.69
298.753	92.69
298.984	94.69
299.214	85.69
299.445	87.69
299.675	93.69
299.905	91.69
300.136	83.69
300.366	80.69
300.597	86.69
300.827	87.69
301.057	86.69
301.288	93.69
301.518	84.69
301.748	78.69
301.979	105.69
302.209	95.69
302.439	62.69
302.669	85.69
302.9	83.69
303.13	79.69
303.36	71.69
303.59	74.69
303.82	87.69
304.051	96.69
304.281	83.69
304.511	77.69
304.741	87.69
304.971	94.69
305.201	86.69
305.431	70.69
305.661	72.69
305.891	84.69
306.121	84.69
306.352	93.69
306.582	84.69
306.812	71.69
307.042	85.69
307.272	71.69
307.502	87.69
307.731	93.69
307.961	83.69
308.191	83.69
308.421	105.69
308.651	93.69
308.881	96.69
309.111	84.69
309.341	82.69
309.571	89.69
309.8	88.69
310.03	80.69
310.26	91.69
310.49	74.69
310.72	101.69
310.949	83.69
311.179	86.69
311.409	89.69
311.639	87.69
311.868	72.69
312.098	73.69
312.328	83.69
312.557	79.69
312.787	83.69
313.017	93.69
313.246	77.69
313.476	78.69
313.706	75.69
313.935	76.69
314.165	78.69
314.394	80.69
314.624	93.69
314.853	89.69
315.083	72.69
315.312	69.69
315.542	73.69
315.771	91.69
316.001	87.69
316.23	83.69
316.46	83.69
316.689	81.69
316.919	71.69
317.148	83.69
317.377	80.69
317.607	79.69
317.836	93.69
318.065	100.69
318.295	87.69
318.524	71.69
318.753	80.69
318.983	75.69
319.212	74.69
319.441	77.69
319.67	93.69
319.9	80.69
320.129	63.69
320.358	74.69
320.587	83.69
320.816	70.69
321.046	91.69
321.275	90.69
321.504	78.69
321.733	74.69
321.962	97.69
322.191	77.69
322.42	90.69
322.649	73.69
322.878	95.69
323.108	86.69
323.337	92.69
323.566	86.69
323.795	71.69
324.024	73.69
324.253	75.69
324.482	89.69
324.71	77.69
324.939	72.69
325.168	83.69
325.397	75.69
325.626	67.69
325.855	89.69
326.084	80.69
326.313	87.69
326.542	81.69
326.77	91.69
326.999	90.69
327.228	89.69
327.457	81.69
327.686	79.69
327.914	84.69
328.143	94.69
328.372	81.69
328.6	65.69
328.829	84.69
329.058	79.69
329.287	67.69
329.515	93.69
329.744	81.69
329.972	84.69
330.201	79.69
330.43	93.69
330.658	82.69
330.887	66.69
331.115	88.69
331.344	89.69
331.572	74.69
331.801	83.69
332.03	88.69
332.258	74.69
332.486	87.69
332.715	79.69
332.943	83.69
333.172	69.69
333.4	81.69
333.629	68.69
333.857	79.69
334.085	83.69
334.314	88.69
334.542	99.69
334.771	85.69
334.999	92.69
335.227	83.69
335.455	77.69
335.684	97.69
335.912	95.69
336.14	80.69
336.369	77.69
336.597	89.69
336.825	76.69
337.053	82.69
337.281	83.69
337.51	86.69
337.738	92.69
337.966	79.69
338.194	84.69
338.422	65.69
338.65	67.69
338.878	85.69
339.106	73.69
339.334	92.69
339.562	77.69
339.79	93.69
340.018	79.69
340.246	76.69
340.474	85.69
340.702	72.69
340.93	81.69
341.158	63.69
341.386	76.69
341.614	89.69
341.842	84.69
342.07	81.69
342.298	79.69
342.526	80.69
342.754	74.69
342.981	72.69
343.209	70.69
343.437	96.69
343.665	68.69
343.893	76.69
344.12	84.69
344.348	82.69
344.576	79.69
344.804	83.69
345.031	80.69
345.259	80.69
345.487	76.69
345.714	73.69
345.942	82.69
346.17	65.69
346.397	101.69
346.625	91.69
346.853	79.69
347.08	77.69
347.308	86.69
347.535	81.69
347.763	77.69
347.99	82.69
348.218	89.69
348.445	78.69
348.673	79.69
348.9	77.69
349.128	67.69
349.355	77.69
349.583	83.69
349.81	84.69
350.037	93.69
350.265	83.69
350.492	67.69
350.72	85.69
350.947	81.69
351.174	70.69
351.402	61.69
351.629	78.69
351.856	79.69
352.083	74.69
352.311	83.69
352.538	87.69
352.765	69.69
352.992	92.69
353.22	77.69
353.447	84.69
353.674	82.69
353.901	87.69
354.128	88.69
354.355	95.69
354.583	81.69
354.81	71.69
355.037	95.69
355.264	91.69
355.491	79.69
355.718	79.69
355.945	77.69
356.172	91.69
356.399	70.69
356.626	96.69
356.853	89.69
357.08	80.69
357.307	69.69
357.534	63.69
357.761	78.69
357.988	70.69
358.215	92.69
358.441	80.69
358.668	95.69
358.895	54.69
359.122	81.69
359.349	68.69
359.576	83.69
359.802	83.69
360.029	98.69
360.256	86.69
360.483	74.69
360.709	80.69
360.936	93.69
361.163	86.69
361.39	79.69
361.616	72.69
361.843	81.69
362.07	96.69
362.296	103.69
362.523	88.69
362.749	87.69
362.976	86.69
363.203	108.69
363.429	87.69
363.656	89.69
363.882	76.69
364.109	94.69
364.335	109.69
364.562	117.69
364.788	100.69
365.015	91.69
365.241	78.69
365.468	81.69
365.694	80.69
365.92	102.69
366.147	87.69
366.373	97.69
366.599	84.69
366.826	75.69
367.052	76.69
367.278	93.69
367.505	71.69
367.731	92.69
367.957	99.69
368.184	89.69
368.41	81.69
368.636	99.69
368.862	100.69
369.089	80.69
369.315	80.69
369.541	95.69
369.767	81.69
369.993	97.69
370.219	86.69
370.445	78.69
370.672	103.69
370.898	88.69
371.124	82.69
371.35	86.69
371.576	74.69
371.802	89.69
372.028	79.69
372.254	86.69
372.48	85.69
372.706	90.69
372.932	88.69
373.158	84.69
373.384	79.69
373.61	90.69
373.835	93.69
374.061	100.69
374.287	76.69
374.513	87.69
374.739	87.69
374.965	91.69
375.191	71.69
375.416	82.69
375.642	82.69
375.868	69.69
376.094	77.69
376.319	71.69
376.545	77.69
376.771	87.69
376.997	76.69
377.222	91.69
377.448	89.69
377.674	73.69
377.899	69.69
378.125	72.69
378.35	89.69
378.576	86.69
378.802	83.69
379.027	72.69
379.253	83.69
379.478	82.69
379.704	82.69
379.929	92.69
380.155	86.69
380.38	89.69
380.606	87.69
380.831	91.69
381.057	89.69
381.282	88.69
381.507	83.69
381.733	81.69
381.958	92.69
382.184	74.69
382.409	85.69
382.634	82.69
382.86	78.69
383.085	76.69
383.31	96.69
383.535	89.69
383.761	73.69
383.986	82.69
384.211	81.69
384.436	72.69
384.662	79.69
384.887	98.69
385.112	85.69
385.337	79.69
385.562	95.69
385.787	66.69
386.013	83.69
386.238	89.69
386.463	90.69
386.688	92.69
386.913	87.69
387.138	79.69
387.363	91.69
387.588	84.69
387.813	85.69
388.038	88.69
388.263	82.69
388.488	89.69
388.713	101.69
388.938	75.69
389.163	80.69
389.387	86.69
389.612	93.69
389.837	80.69
390.062	91.69
390.287	78.69
390.512	85.69
390.736	90.69
390.961	83.69
391.186	72.69
391.411	102.69
391.636	85.69
391.86	95.69
392.085	87.69
392.31	89.69
392.534	91.69
392.759	104.69
392.984	123.69
393.208	201.69
393.433	273.69
393.658	222.69
393.882	102.69
394.107	98.69
394.331	109.69
394.556	91.69
394.78	86.69
395.005	89.69
395.229	88.69
395.454	91.69
395.678	93.69
395.903	94.69
396.127	109.69
396.352	111.69
396.576	128.69
396.801	189.69
397.025	213.69
397.249	132.69
397.474	109.69
397.698	88.69
397.922	70.69
398.147	87.69
398.371	77.69
398.595	67.69
398.82	83.69
399.044	98.69
399.268	83.69
399.492	89.69
399.717	72.69
399.941	83.69
400.165	81.69
400.389	83.69
400.613	64.69
400.837	83.69
401.062	87.69
401.286	77.69
401.51	78.69
401.734	84.69
401.958	72.69
402.182	78.69
402.406	94.69
402.63	79.69
402.854	70.69
403.078	91.69
403.302	69.69
403.526	82.69
403.75	83.69
403.974	86.69
404.198	89.69
404.422	71.69
404.645	81.69
404.869	93.69
405.093	79.69
405.317	81.69
405.541	75.69
405.765	72.69
405.988	71.69
406.212	89.69
406.436	81.69
406.66	86.69
406.883	75.69
407.107	77.69
407.331	79.69
407.555	88.69
407.778	94.69
408.002	88.69
408.226	74.69
408.449	73.69
408.673	77.69
408.896	77.69
409.12	84.69
409.344	91.69
409.567	96.69
409.791	90.69
410.014	89.69
410.238	87.69
410.461	80.69
410.685	89.69
410.908	81.69
411.132	83.69
411.355	89.69
411.578	85.69
411.802	80.69
412.025	86.69
412.249	100.69
412.472	87.69
412.695	84.69
412.919	91.69
413.142	82.69
413.365	81.69
413.589	95.69
413.812	79.69
414.035	88.69
414.258	82.69
414.482	81.69
414.705	74.69
414.928	86.69
415.151	76.69
415.374	84.69
415.597	76.69
415.821	73.69
416.044	68.69
416.267	66.69
416.49	63.69
416.713	82.69
416.936	79.69
417.159	77.69
417.382	85.69
417.605	89.69
417.828	82.69
418.051	68.69
418.274	95.69
418.497	72.69
418.72	83.69
418.943	70.69
419.166	81.69
419.389	70.69
419.611	82.69
419.834	81.69
420.057	102.69
420.28	81.69
420.503	87.69
420.726	77.69
420.948	67.69
421.171	84.69
421.394	99.69
421.617	103.69
421.839	95.69
422.062	95.69
422.285	134.69
422.507	197.69
422.73	309.69
422.953	273.69
423.175	171.69
423.398	122.69
423.621	106.69
423.843	93.69
424.066	88.69
424.288	89.69
424.511	80.69
424.733	83.69
424.956	96.69
425.178	89.69
425.401	79.69
425.623	74.69
425.846	86.69
426.068	71.69
426.291	73.69
426.513	89.69
426.735	77.69
426.958	69.69
427.18	73.69
427.402	94.69
427.625	102.69
427.847	88.69
428.069	94.69
428.292	96.69
428.514	106.69
428.736	101.69
428.958	97.69
429.181	114.69
429.403	85.69
429.625	84.69
429.847	103.69
430.069	131.69
430.292	150.69
430.514	127.69
430.736	113.69
430.958	131.69
431.18	87.69
431.402	85.69
431.624	90.69
431.846	107.69
432.068	112.69
432.29	97.69
432.512	76.69
432.734	82.69
432.956	80.69
433.178	83.69
433.4	66.69
433.622	97.69
433.844	85.69
434.066	97.69
434.287	77.69
434.509	83.69
434.731	73.69
434.953	83.69
435.175	95.69
435.397	81.69
435.618	77.69
435.84	74.69
436.062	81.69
436.284	73.69
436.505	83.69
436.727	73.69
436.949	67.69
437.17	83.69
437.392	79.69
437.614	69.69
437.835	95.69
438.057	87.69
438.278	100.69
438.5	74.69
438.721	75.69
438.943	85.69
439.165	82.69
439.386	72.69
439.608	63.69
439.829	95.69
440.05	79.69
440.272	80.69
440.493	81.69
440.715	70.69
440.936	91.69
441.158	85.69
441.379	72.69
441.6	76.69
441.822	85.69
442.043	83.69
442.264	91.69
442.486	106.69
442.707	127.69
442.928	93.69
443.149	80.69
443.371	100.69
443.592	177.69
443.813	150.69
444.034	89.69
444.255	94.69
444.476	87.69
444.698	64.69
444.919	92.69
445.14	159.69
445.361	172.69
445.582	202.69
445.803	191.69
446.024	103.69
446.245	85.69
446.466	79.69
446.687	85.69
446.908	89.69
447.129	85.69
447.35	82.69
447.571	75.69
447.792	83.69
448.013	88.69
448.234	76.69
448.455	81.69
448.675	84.69
448.896	82.69
449.117	89.69
449.338	85.69
449.559	76.69
449.779	75.69
450	86.69
450.221	89.69
450.442	86.69
450.662	81.69
450.883	86.69
451.104	88.69
451.324	82.69
451.545	94.69
451.766	96.69
451.986	85.69
452.207	73.69
452.428	83.69
452.648	70.69
452.869	86.69
453.089	81.69
453.31	80.69
453.53	71.69
453.751	100.69
453.971	83.69
454.192	81.69
454.412	84.69
454.633	79.69
454.853	88.69
455.073	83.69
455.294	74.69
455.514	81.69
455.734	95.69
455.955	97.69
456.175	75.69
456.395	69.69
456.616	80.69
456.836	81.69
457.056	78.69
457.276	69.69
457.497	67.69
457.717	83.69
457.937	90.69
458.157	104.69
458.377	93.69
458.598	89.69
458.818	101.69
459.038	86.69
459.258	89.69
459.478	75.69
459.698	85.69
459.918	94.69
460.138	72.69
460.358	77.69
460.578	82.69
460.798	97.69
461.018	93.69
461.238	73.69
461.458	68.69
461.678	89.69
461.898	83.69
462.118	91.69
462.338	89.69
462.558	81.69
462.777	86.69
462.997	86.69
463.217	81.69
463.437	78.69
463.657	81.69
463.876	70.69
464.096	79.69
464.316	86.69
464.536	88.69
464.755	82.69
464.975	99.69
465.195	95.69
465.414	83.69
465.634	90.69
465.854	78.69
466.073	84.69
466.293	79.69
466.512	88.69
466.732	67.69
466.951	82.69
467.171	86.69
467.391	93.69
467.61	93.69
467.829	86.69
468.049	85.69
468.268	82.69
468.488	86.69
468.707	82.69
468.927	79.69
469.146	74.69
469.365	95.69
469.585	82.69
469.804	92.69
470.023	91.69
470.243	85.69
470.462	76.69
470.681	68.69
470.901	91.69
471.12	85.69
471.339	91.69
471.558	97.69
471.777	86.69
471.997	85.69
472.216	90.69
472.435	101.69
472.654	73.69
472.873	83.69
473.092	75.69
473.311	89.69
473.53	85.69
473.749	81.69
473.968	96.69
474.187	87.69
474.406	87.69
474.625	74.69
474.844	98.69
475.063	91.69
475.282	77.69
475.501	63.69
475.72	90.69
475.939	91.69
476.158	89.69
476.377	87.69
476.596	73.69
476.814	88.69
477.033	84.69
477.252	83.69
477.471	71.69
477.69	84.69
477.908	87.69
478.127	93.69
478.346	87.69
478.564	83.69
478.783	89.69
479.002	79.69
479.22	91.69
479.439	77.69
479.658	78.69
479.876	86.69
480.095	93.69
480.313	71.69
480.532	94.69
480.751	69.69
480.969	79.69
481.188	69.69
481.406	83.69
481.624	86.69
481.843	88.69
482.061	77.69
482.28	74.69
482.498	82.69
482.717	94.69
482.935	71.69
483.153	73.69
483.372	80.69
483.59	82.69
483.808	87.69
484.027	79.69
484.245	86.69
484.463	79.69
484.681	86.69
484.9	87.69
485.118	90.69
485.336	84.69
485.554	74.69
485.772	79.69
485.99	86.69
486.209	68.69
486.427	80.69
486.645	72.69
486.863	91.69
487.081	85.69
487.299	88.69
487.517	91.69
487.735	99.69
487.953	149.69
488.171	125.69
488.389	110.69
488.607	91.69
488.825	89.69
489.043	89.69
489.261	86.69
489.479	86.69
489.696	101.69
489.914	86.69
490.132	89.69
490.35	74.69
490.568	81.69
490.786	79.69
491.003	83.69
491.221	84.69
491.439	92.69
491.657	83.69
491.874	75.69
492.092	86.69
492.31	76.69
492.527	83.69
492.745	63.69
492.963	87.69
493.18	87.69
493.398	96.69
493.615	92.69
493.833	95.69
494.05	79.69
494.268	77.69
494.485	84.69
494.703	74.69
494.92	85.69
495.138	82.69
495.355	93.69
495.573	101.69
495.79	86.69
496.008	91.69
496.225	89.69
496.442	83.69
496.66	77.69
496.877	95.69
497.094	86.69
497.312	83.69
497.529	91.69
497.746	80.69
497.963	87.69
498.181	83.69
498.398	88.69
498.615	85.69
498.832	64.69
499.049	73.69
499.267	77.69
499.484	78.69
499.701	83.69
499.918	77.69
500.135	87.69
500.352	92.69
500.569	100.69
500.786	96.69
501.003	83.69
501.22	97.69
501.437	79.69
501.654	79.69
501.871	88.69
502.088	80.69
502.305	79.69
502.522	89.69
502.739	75.69
502.956	77.69
503.172	88.69
503.389	93.69
503.606	101.69
503.823	88.69
504.04	97.69
504.256	113.69
504.473	113.69
504.69	87.69
504.907	79.69
505.123	82.69
505.34	89.69
505.557	75.69
505.773	86.69
505.99	94.69
506.207	87.69
506.423	93.69
506.64	86.69
506.856	98.69
507.073	85.69
507.289	84.69
507.506	87.69
507.722	84.69
507.939	87.69
508.155	84.69
508.372	83.69
508.588	82.69
508.805	75.69
509.021	88.69
509.238	87.69
509.454	79.69
509.67	80.69
509.887	73.69
510.103	87.69
510.319	86.69
510.536	77.69
510.752	73.69
510.968	84.69
511.184	88.69
511.401	93.69
511.617	81.69
511.833	81.69
512.049	82.69
512.265	81.69
512.481	81.69
512.698	74.69
512.914	90.69
513.13	74.69
513.346	74.69
513.562	59.69
513.778	86.69
513.994	81.69
514.21	90.69
514.426	69.69
514.642	77.69
514.858	93.69
515.074	90.69
515.29	89.69
515.506	95.69
515.721	79.69
515.937	88.69
516.153	85.69
516.369	93.69
516.585	85.69
516.801	80.69
517.016	88.69
517.232	87.69
517.448	72.69
517.664	95.69
517.879	84.69
518.095	85.69
518.311	80.69
518.527	82.69
518.742	95.69
518.958	132.69
519.173	127.69
