Data from CBS_2_HRD10591_00009.txt Node
Date: Mon Jan 19 14:04:50 EST 2026
User: Yrep
Spectrometer: HR+D1059
Trigger mode: 1
Integration Time (sec): 1.000000E-1
Scans to average: 1
Electric dark correction enabled: true
Nonlinearity correction enabled: false
Boxcar width: 0
XAxis mode: Wavelengths
Number of Pixels in Spectrum: 2048
>>>>>Begin Spectral Data<<<<<
223.165	-4.31
223.4	-4.31
223.635	-4.31
223.869	-29.31
224.104	-22.31
224.338	-26.31
224.573	-8.31
224.808	-25.31
225.042	-25.31
225.277	-0.31
225.511	-14.31
225.746	18.69
225.98	6.69
226.215	1.69
226.449	20.69
226.683	28.69
226.918	40.69
227.152	38.69
227.387	38.69
227.621	40.69
227.856	35.69
228.09	27.69
228.324	53.69
228.559	63.69
228.793	60.69
229.027	57.69
229.262	58.69
229.496	74.69
229.73	69.69
229.964	67.69
230.199	72.69
230.433	61.69
230.667	87.69
230.901	81.69
231.136	80.69
231.37	81.69
231.604	80.69
231.838	85.69
232.072	78.69
232.306	75.69
232.541	81.69
232.775	82.69
233.009	87.69
233.243	81.69
233.477	91.69
233.711	81.69
233.945	82.69
234.179	83.69
234.413	93.69
234.647	76.69
234.881	66.69
235.115	64.69
235.349	71.69
235.583	80.69
235.817	78.69
236.051	78.69
236.285	79.69
236.519	73.69
236.753	77.69
236.987	80.69
237.221	88.69
237.455	80.69
237.689	82.69
237.922	80.69
238.156	86.69
238.39	71.69
238.624	55.69
238.858	65.69
239.091	69.69
239.325	70.69
239.559	82.69
239.793	72.69
240.027	79.69
240.26	73.69
240.494	73.69
240.728	72.69
240.961	71.69
241.195	79.69
241.429	63.69
241.662	65.69
241.896	72.69
242.13	59.69
242.363	59.69
242.597	73.69
242.83	75.69
243.064	67.69
243.298	65.69
243.531	67.69
243.765	88.69
243.998	80.69
244.232	76.69
244.465	73.69
244.699	77.69
244.932	86.69
245.166	71.69
245.399	73.69
245.633	77.69
245.866	81.69
246.099	73.69
246.333	59.69
246.566	60.69
246.8	85.69
247.033	60.69
247.266	65.69
247.5	84.69
247.733	97.69
247.966	65.69
248.2	88.69
248.433	75.69
248.666	65.69
248.899	75.69
249.133	79.69
249.366	75.69
249.599	71.69
249.832	79.69
250.066	75.69
250.299	80.69
250.532	70.69
250.765	71.69
250.998	74.69
251.231	77.69
251.465	81.69
251.698	74.69
251.931	59.69
252.164	77.69
252.397	80.69
252.63	81.69
252.863	73.69
253.096	76.69
253.329	69.69
253.562	73.69
253.795	74.69
254.028	78.69
254.261	71.69
254.494	83.69
254.727	74.69
254.96	79.69
255.193	90.69
255.426	73.69
255.659	69.69
255.892	79.69
256.124	72.69
256.357	87.69
256.59	65.69
256.823	77.69
257.056	92.69
257.289	85.69
257.521	77.69
257.754	72.69
257.987	73.69
258.22	92.69
258.452	79.69
258.685	76.69
258.918	73.69
259.151	93.69
259.383	83.69
259.616	82.69
259.849	74.69
260.081	79.69
260.314	70.69
260.547	65.69
260.779	86.69
261.012	94.69
261.244	54.69
261.477	78.69
261.71	81.69
261.942	87.69
262.175	79.69
262.407	69.69
262.64	78.69
262.872	79.69
263.105	91.69
263.337	78.69
263.57	73.69
263.802	89.69
264.035	86.69
264.267	89.69
264.499	78.69
264.732	83.69
264.964	83.69
265.197	62.69
265.429	84.69
265.661	78.69
265.894	76.69
266.126	89.69
266.358	83.69
266.591	77.69
266.823	72.69
267.055	81.69
267.287	77.69
267.52	74.69
267.752	82.69
267.984	72.69
268.216	88.69
268.448	80.69
268.681	64.69
268.913	82.69
269.145	81.69
269.377	74.69
269.609	94.69
269.841	84.69
270.073	71.69
270.306	78.69
270.538	93.69
270.77	77.69
271.002	79.69
271.234	76.69
271.466	68.69
271.698	88.69
271.93	87.69
272.162	78.69
272.394	83.69
272.626	79.69
272.858	83.69
273.09	91.69
273.322	80.69
273.553	77.69
273.785	94.69
274.017	79.69
274.249	82.69
274.481	95.69
274.713	88.69
274.945	85.69
275.176	77.69
275.408	73.69
275.64	88.69
275.872	87.69
276.104	89.69
276.335	75.69
276.567	87.69
276.799	77.69
277.031	89.69
277.262	84.69
277.494	74.69
277.726	81.69
277.957	84.69
278.189	91.69
278.421	83.69
278.652	84.69
278.884	66.69
279.115	70.69
279.347	79.69
279.579	86.69
279.81	93.69
280.042	88.69
280.273	80.69
280.505	77.69
280.736	84.69
280.968	79.69
281.199	82.69
281.431	80.69
281.662	91.69
281.894	77.69
282.125	87.69
282.356	80.69
282.588	77.69
282.819	86.69
283.051	77.69
283.282	85.69
283.513	82.69
283.745	85.69
283.976	83.69
284.207	79.69
284.439	73.69
284.67	86.69
284.901	85.69
285.132	74.69
285.364	93.69
285.595	80.69
285.826	81.69
286.057	100.69
286.288	82.69
286.52	87.69
286.751	88.69
286.982	83.69
287.213	71.69
287.444	83.69
287.675	87.69
287.906	88.69
288.138	85.69
288.369	92.69
288.6	79.69
288.831	75.69
289.062	81.69
289.293	71.69
289.524	87.69
289.755	79.69
289.986	80.69
290.217	66.69
290.448	79.69
290.679	81.69
290.91	79.69
291.141	88.69
291.371	83.69
291.602	87.69
291.833	92.69
292.064	77.69
292.295	91.69
292.526	87.69
292.757	83.69
292.987	82.69
293.218	87.69
293.449	79.69
293.68	100.69
293.91	79.69
294.141	88.69
294.372	95.69
294.603	85.69
294.833	88.69
295.064	86.69
295.295	67.69
295.525	82.69
295.756	82.69
295.987	82.69
296.217	87.69
296.448	88.69
296.679	72.69
296.909	69.69
297.14	87.69
297.37	85.69
297.601	90.69
297.831	69.69
298.062	77.69
298.292	73.69
298.523	101.69
298.753	97.69
298.984	91.69
299.214	96.69
299.445	85.69
299.675	104.69
299.905	113.69
300.136	93.69
300.366	85.69
300.597	104.69
300.827	104.69
301.057	91.69
301.288	93.69
301.518	83.69
301.748	88.69
301.979	103.69
302.209	90.69
302.439	88.69
302.669	87.69
302.9	85.69
303.13	96.69
303.36	84.69
303.59	80.69
303.82	91.69
304.051	91.69
304.281	93.69
304.511	75.69
304.741	92.69
304.971	85.69
305.201	86.69
305.431	91.69
305.661	84.69
305.891	93.69
306.121	85.69
306.352	88.69
306.582	71.69
306.812	99.69
307.042	82.69
307.272	87.69
307.502	81.69
307.731	86.69
307.961	82.69
308.191	101.69
308.421	105.69
308.651	96.69
308.881	88.69
309.111	102.69
309.341	124.69
309.571	111.69
309.8	91.69
310.03	82.69
310.26	88.69
310.49	85.69
310.72	82.69
310.949	92.69
311.179	85.69
311.409	81.69
311.639	102.69
311.868	88.69
312.098	80.69
312.328	75.69
312.557	87.69
312.787	90.69
313.017	87.69
313.246	89.69
313.476	89.69
313.706	92.69
313.935	80.69
314.165	89.69
314.394	79.69
314.624	93.69
314.853	83.69
315.083	99.69
315.312	94.69
315.542	88.69
315.771	101.69
316.001	99.69
316.23	107.69
316.46	111.69
316.689	85.69
316.919	81.69
317.148	78.69
317.377	97.69
317.607	104.69
317.836	110.69
318.065	119.69
318.295	102.69
318.524	81.69
318.753	95.69
318.983	92.69
319.212	97.69
319.441	86.69
319.67	95.69
319.9	93.69
320.129	100.69
320.358	93.69
320.587	90.69
320.816	99.69
321.046	85.69
321.275	91.69
321.504	99.69
321.733	87.69
321.962	80.69
322.191	102.69
322.42	107.69
322.649	104.69
322.878	91.69
323.108	91.69
323.337	86.69
323.566	96.69
323.795	87.69
324.024	98.69
324.253	83.69
324.482	85.69
324.71	102.69
324.939	92.69
325.168	83.69
325.397	85.69
325.626	79.69
325.855	76.69
326.084	88.69
326.313	80.69
326.542	73.69
326.77	91.69
326.999	99.69
327.228	95.69
327.457	95.69
327.686	83.69
327.914	93.69
328.143	87.69
328.372	93.69
328.6	80.69
328.829	85.69
329.058	96.69
329.287	89.69
329.515	93.69
329.744	73.69
329.972	89.69
330.201	92.69
330.43	102.69
330.658	94.69
330.887	80.69
331.115	91.69
331.344	94.69
331.572	94.69
331.801	93.69
332.03	85.69
332.258	81.69
332.486	76.69
332.715	85.69
332.943	99.69
333.172	90.69
333.4	82.69
333.629	86.69
333.857	83.69
334.085	100.69
334.314	119.69
334.542	127.69
334.771	101.69
334.999	127.69
335.227	116.69
335.455	109.69
335.684	121.69
335.912	125.69
336.14	138.69
336.369	117.69
336.597	103.69
336.825	108.69
337.053	89.69
337.281	103.69
337.51	87.69
337.738	94.69
337.966	96.69
338.194	83.69
338.422	91.69
338.65	96.69
338.878	92.69
339.106	86.69
339.334	93.69
339.562	86.69
339.79	86.69
340.018	93.69
340.246	96.69
340.474	80.69
340.702	81.69
340.93	96.69
341.158	97.69
341.386	96.69
341.614	79.69
341.842	91.69
342.07	93.69
342.298	90.69
342.526	88.69
342.754	81.69
342.981	89.69
343.209	93.69
343.437	91.69
343.665	84.69
343.893	93.69
344.12	95.69
344.348	94.69
344.576	80.69
344.804	85.69
345.031	89.69
345.259	84.69
345.487	93.69
345.714	98.69
345.942	94.69
346.17	92.69
346.397	96.69
346.625	78.69
346.853	93.69
347.08	90.69
347.308	83.69
347.535	87.69
347.763	94.69
347.99	91.69
348.218	81.69
348.445	107.69
348.673	95.69
348.9	101.69
349.128	91.69
349.355	88.69
349.583	93.69
349.81	91.69
350.037	95.69
350.265	91.69
350.492	90.69
350.72	83.69
350.947	101.69
351.174	103.69
351.402	94.69
351.629	90.69
351.856	95.69
352.083	92.69
352.311	89.69
352.538	81.69
352.765	101.69
352.992	87.69
353.22	99.69
353.447	86.69
353.674	93.69
353.901	88.69
354.128	94.69
354.355	83.69
354.583	92.69
354.81	91.69
355.037	97.69
355.264	104.69
355.491	77.69
355.718	81.69
355.945	79.69
356.172	98.69
356.399	99.69
356.626	95.69
356.853	88.69
357.08	100.69
357.307	96.69
357.534	101.69
357.761	114.69
357.988	117.69
358.215	103.69
358.441	86.69
358.668	96.69
358.895	99.69
359.122	91.69
359.349	83.69
359.576	107.69
359.802	95.69
360.029	114.69
360.256	100.69
360.483	88.69
360.709	97.69
360.936	102.69
361.163	102.69
361.39	89.69
361.616	114.69
361.843	120.69
362.07	127.69
362.296	152.69
362.523	165.69
362.749	168.69
362.976	224.69
363.203	230.69
363.429	164.69
363.656	131.69
363.882	145.69
364.109	195.69
364.335	269.69
364.562	279.69
364.788	188.69
365.015	111.69
365.241	101.69
365.468	96.69
365.694	97.69
365.92	96.69
366.147	101.69
366.373	100.69
366.599	96.69
366.826	89.69
367.052	102.69
367.278	93.69
367.505	101.69
367.731	117.69
367.957	99.69
368.184	93.69
368.41	81.69
368.636	105.69
368.862	103.69
369.089	79.69
369.315	113.69
369.541	100.69
369.767	113.69
369.993	101.69
370.219	109.69
370.445	97.69
370.672	114.69
370.898	115.69
371.124	97.69
371.35	89.69
371.576	72.69
371.802	87.69
372.028	104.69
372.254	97.69
372.48	90.69
372.706	90.69
372.932	101.69
373.158	109.69
373.384	116.69
373.61	126.69
373.835	123.69
374.061	97.69
374.287	102.69
374.513	111.69
374.739	109.69
374.965	114.69
375.191	101.69
375.416	104.69
375.642	104.69
375.868	113.69
376.094	112.69
376.319	83.69
376.545	95.69
376.771	88.69
376.997	99.69
377.222	107.69
377.448	88.69
377.674	93.69
377.899	87.69
378.125	92.69
378.35	94.69
378.576	101.69
378.802	95.69
379.027	104.69
379.253	99.69
379.478	111.69
379.704	111.69
379.929	93.69
380.155	105.69
380.38	94.69
380.606	94.69
380.831	103.69
381.057	96.69
381.282	89.69
381.507	101.69
381.733	101.69
381.958	95.69
382.184	99.69
382.409	94.69
382.634	109.69
382.86	105.69
383.085	117.69
383.31	118.69
383.535	111.69
383.761	110.69
383.986	117.69
384.211	112.69
384.436	107.69
384.662	116.69
384.887	114.69
385.112	98.69
385.337	113.69
385.562	107.69
385.787	111.69
386.013	128.69
386.238	120.69
386.463	114.69
386.688	123.69
386.913	110.69
387.138	122.69
387.363	124.69
387.588	131.69
387.813	118.69
388.038	115.69
388.263	117.69
388.488	128.69
388.713	118.69
388.938	110.69
389.163	102.69
389.387	117.69
389.612	119.69
389.837	109.69
390.062	114.69
390.287	114.69
390.512	109.69
390.736	98.69
390.961	105.69
391.186	113.69
391.411	107.69
391.636	108.69
391.86	114.69
392.085	126.69
392.31	151.69
392.534	145.69
392.759	217.69
392.984	338.69
393.208	550.69
393.433	739.69
393.658	620.69
393.882	296.69
394.107	191.69
394.331	192.69
394.556	185.69
394.78	163.69
395.005	137.69
395.229	137.69
395.454	148.69
395.678	173.69
395.903	214.69
396.127	225.69
396.352	297.69
396.576	372.69
396.801	576.69
397.025	668.69
397.249	384.69
397.474	244.69
397.698	172.69
397.922	136.69
398.147	107.69
398.371	104.69
398.595	109.69
398.82	101.69
399.044	104.69
399.268	103.69
399.492	105.69
399.717	98.69
399.941	95.69
400.165	112.69
400.389	90.69
400.613	93.69
400.837	105.69
401.062	79.69
401.286	79.69
401.51	97.69
401.734	97.69
401.958	96.69
402.182	108.69
402.406	91.69
402.63	97.69
402.854	91.69
403.078	112.69
403.302	103.69
403.526	111.69
403.75	120.69
403.974	83.69
404.198	111.69
404.422	104.69
404.645	113.69
404.869	113.69
405.093	112.69
405.317	103.69
405.541	99.69
405.765	95.69
405.988	104.69
406.212	96.69
406.436	100.69
406.66	107.69
406.883	107.69
407.107	109.69
407.331	104.69
407.555	113.69
407.778	147.69
408.002	168.69
408.226	103.69
408.449	94.69
408.673	96.69
408.896	107.69
409.12	101.69
409.344	147.69
409.567	168.69
409.791	156.69
410.014	171.69
410.238	163.69
410.461	130.69
410.685	117.69
410.908	117.69
411.132	121.69
411.355	101.69
411.578	98.69
411.802	101.69
412.025	92.69
412.249	103.69
412.472	91.69
412.695	101.69
412.919	80.69
413.142	91.69
413.365	93.69
413.589	96.69
413.812	89.69
414.035	92.69
414.258	111.69
414.482	89.69
414.705	92.69
414.928	90.69
415.151	100.69
415.374	111.69
415.597	98.69
415.821	99.69
416.044	101.69
416.267	99.69
416.49	107.69
416.713	94.69
416.936	116.69
417.159	99.69
417.382	89.69
417.605	93.69
417.828	85.69
418.051	90.69
418.274	98.69
418.497	103.69
418.72	93.69
418.943	92.69
419.166	106.69
419.389	115.69
419.611	116.69
419.834	91.69
420.057	105.69
420.28	108.69
420.503	130.69
420.726	116.69
420.948	132.69
421.171	149.69
421.394	178.69
421.617	217.69
421.839	231.69
422.062	279.69
422.285	427.69
422.507	675.69
422.73	870.69
422.953	801.69
423.175	529.69
423.398	333.69
423.621	219.69
423.843	181.69
424.066	167.69
424.288	136.69
424.511	127.69
424.733	129.69
424.956	104.69
425.178	132.69
425.401	116.69
425.623	123.69
425.846	93.69
426.068	116.69
426.291	109.69
426.513	106.69
426.735	96.69
426.958	105.69
427.18	104.69
427.402	109.69
427.625	113.69
427.847	131.69
428.069	154.69
428.292	246.69
428.514	287.69
428.736	192.69
428.958	239.69
429.181	237.69
429.403	149.69
429.625	148.69
429.847	229.69
430.069	319.69
430.292	401.69
430.514	363.69
430.736	280.69
430.958	278.69
431.18	149.69
431.402	136.69
431.624	129.69
431.846	228.69
432.068	247.69
432.29	161.69
432.512	98.69
432.734	91.69
432.956	102.69
433.178	101.69
433.4	102.69
433.622	94.69
433.844	95.69
434.066	92.69
434.287	81.69
434.509	84.69
434.731	100.69
434.953	104.69
435.175	107.69
435.397	105.69
435.618	124.69
435.84	131.69
436.062	115.69
436.284	121.69
436.505	104.69
436.727	97.69
436.949	107.69
437.17	88.69
437.392	94.69
437.614	106.69
437.835	102.69
438.057	95.69
438.278	83.69
438.5	110.69
438.721	105.69
438.943	96.69
439.165	102.69
439.386	96.69
439.608	109.69
439.829	81.69
440.05	83.69
440.272	87.69
440.493	95.69
440.715	114.69
440.936	107.69
441.158	101.69
441.379	109.69
441.6	109.69
441.822	115.69
442.043	110.69
442.264	165.69
442.486	260.69
442.707	403.69
442.928	255.69
443.149	203.69
443.371	349.69
443.592	637.69
443.813	545.69
444.034	199.69
444.255	136.69
444.476	124.69
444.698	126.69
444.919	130.69
445.14	275.69
445.361	438.69
445.582	752.69
445.803	652.69
446.024	240.69
446.245	141.69
446.466	127.69
446.687	99.69
446.908	105.69
447.129	104.69
447.35	107.69
447.571	77.69
447.792	81.69
448.013	92.69
448.234	86.69
448.455	98.69
448.675	106.69
448.896	88.69
449.117	90.69
449.338	77.69
449.559	90.69
449.779	83.69
450	103.69
450.221	100.69
450.442	90.69
450.662	88.69
450.883	100.69
451.104	103.69
451.324	111.69
451.545	100.69
451.766	87.69
451.986	100.69
452.207	97.69
452.428	96.69
452.648	121.69
452.869	164.69
453.089	135.69
453.31	113.69
453.53	101.69
453.751	104.69
453.971	98.69
454.192	95.69
454.412	96.69
454.633	87.69
454.853	89.69
455.073	96.69
455.294	95.69
455.514	104.69
455.734	93.69
455.955	95.69
456.175	99.69
456.395	87.69
456.616	97.69
456.836	90.69
457.056	92.69
457.276	91.69
457.497	122.69
457.717	141.69
457.937	216.69
458.157	287.69
458.377	309.69
458.598	282.69
458.818	278.69
459.038	173.69
459.258	113.69
459.478	109.69
459.698	75.69
459.918	89.69
460.138	113.69
460.358	104.69
460.578	119.69
460.798	173.69
461.018	165.69
461.238	113.69
461.458	96.69
461.678	94.69
461.898	94.69
462.118	98.69
462.338	97.69
462.558	98.69
462.777	91.69
462.997	96.69
463.217	80.69
463.437	107.69
463.657	94.69
463.876	84.69
464.096	93.69
464.316	79.69
464.536	91.69
464.755	92.69
464.975	92.69
465.195	82.69
465.414	94.69
465.634	109.69
465.854	97.69
466.073	92.69
466.293	90.69
466.512	99.69
466.732	87.69
466.951	83.69
467.171	88.69
467.391	83.69
467.61	86.69
467.829	89.69
468.049	93.69
468.268	100.69
468.488	115.69
468.707	121.69
468.927	94.69
469.146	95.69
469.365	84.69
469.585	94.69
469.804	87.69
470.023	79.69
470.243	83.69
470.462	94.69
470.681	86.69
470.901	80.69
471.12	94.69
471.339	100.69
471.558	98.69
471.777	87.69
471.997	89.69
472.216	95.69
472.435	89.69
472.654	90.69
472.873	91.69
473.092	88.69
473.311	103.69
473.53	80.69
473.749	83.69
473.968	77.69
474.187	102.69
474.406	99.69
474.625	100.69
474.844	109.69
475.063	93.69
475.282	105.69
475.501	105.69
475.72	109.69
475.939	83.69
476.158	100.69
476.377	88.69
476.596	76.69
476.814	100.69
477.033	98.69
477.252	101.69
477.471	100.69
477.69	87.69
477.908	96.69
478.127	109.69
478.346	100.69
478.564	95.69
478.783	97.69
479.002	96.69
479.22	88.69
479.439	99.69
479.658	93.69
479.876	102.69
480.095	93.69
480.313	95.69
480.532	95.69
480.751	96.69
480.969	99.69
481.188	103.69
481.406	101.69
481.624	99.69
481.843	100.69
482.061	100.69
482.28	88.69
482.498	102.69
482.717	108.69
482.935	102.69
483.153	110.69
483.372	110.69
483.59	115.69
483.808	98.69
484.027	98.69
484.245	101.69
484.463	91.69
484.681	118.69
484.9	95.69
485.118	113.69
485.336	101.69
485.554	100.69
485.772	97.69
485.99	99.69
486.209	103.69
486.427	109.69
486.645	101.69
486.863	107.69
487.081	102.69
487.299	99.69
487.517	144.69
487.735	218.69
487.953	463.69
488.171	391.69
488.389	159.69
488.607	92.69
488.825	111.69
489.043	97.69
489.261	104.69
489.479	93.69
489.696	114.69
489.914	111.69
490.132	100.69
490.35	83.69
490.568	95.69
490.786	86.69
491.003	81.69
491.221	113.69
491.439	119.69
491.657	95.69
491.874	101.69
492.092	115.69
492.31	96.69
492.527	99.69
492.745	87.69
492.963	105.69
493.18	93.69
493.398	105.69
493.615	79.69
493.833	101.69
494.05	107.69
494.268	91.69
494.485	95.69
494.703	81.69
494.92	98.69
495.138	95.69
495.355	96.69
495.573	101.69
495.79	96.69
496.008	98.69
496.225	111.69
496.442	105.69
496.66	101.69
496.877	89.69
497.094	105.69
497.312	102.69
497.529	97.69
497.746	103.69
497.963	92.69
498.181	88.69
498.398	102.69
498.615	97.69
498.832	95.69
499.049	121.69
499.267	120.69
499.484	103.69
499.701	109.69
499.918	91.69
500.135	88.69
500.352	102.69
500.569	87.69
500.786	110.69
501.003	98.69
501.22	93.69
501.437	101.69
501.654	100.69
501.871	110.69
502.088	110.69
502.305	112.69
502.522	90.69
502.739	109.69
502.956	109.69
503.172	102.69
503.389	103.69
503.606	112.69
503.823	119.69
504.04	165.69
504.256	327.69
504.473	340.69
504.69	163.69
504.907	126.69
505.123	111.69
505.34	100.69
505.557	88.69
505.773	92.69
505.99	103.69
506.207	100.69
506.423	109.69
506.64	96.69
506.856	99.69
507.073	102.69
507.289	97.69
507.506	98.69
507.722	92.69
507.939	94.69
508.155	100.69
508.372	103.69
508.588	89.69
508.805	101.69
509.021	94.69
509.238	101.69
509.454	111.69
509.67	89.69
509.887	93.69
510.103	105.69
510.319	104.69
510.536	99.69
510.752	81.69
510.968	111.69
511.184	97.69
511.401	98.69
511.617	116.69
511.833	98.69
512.049	96.69
512.265	80.69
512.481	99.69
512.698	103.69
512.914	85.69
513.13	105.69
513.346	94.69
513.562	110.69
