Data from CBS_2_HRD10591_00029.txt Node
Date: Mon Jan 19 14:05:00 EST 2026
User: Yrep
Spectrometer: HR+D1059
Trigger mode: 1
Integration Time (sec): 1.000000E-1
Scans to average: 1
Electric dark correction enabled: true
Nonlinearity correction enabled: false
Boxcar width: 0
XAxis mode: Wavelengths
Number of Pixels in Spectrum: 2048
>>>>>Begin Spectral Data<<<<<
223.165	-39.06
223.4	-39.06
223.635	-39.06
223.869	-20.06
224.104	-16.06
224.338	-8.06
224.573	-10.06
224.808	-11.06
225.042	-6.06
225.277	-6.06
225.511	9.94
225.746	8.94
225.98	2.94
226.215	9.94
226.449	1.94
226.683	25.94
226.918	21.94
227.152	34.94
227.387	22.94
227.621	30.94
227.856	38.94
228.09	40.94
228.324	37.94
228.559	54.94
228.793	60.94
229.027	52.94
229.262	52.94
229.496	65.94
229.73	75.94
229.964	58.94
230.199	71.94
230.433	70.94
230.667	69.94
230.901	75.94
231.136	68.94
231.37	65.94
231.604	83.94
231.838	84.94
232.072	81.94
232.306	80.94
232.541	75.94
232.775	68.94
233.009	66.94
233.243	78.94
233.477	81.94
233.711	68.94
233.945	79.94
234.179	55.94
234.413	76.94
234.647	77.94
234.881	56.94
235.115	63.94
235.349	65.94
235.583	62.94
235.817	73.94
236.051	60.94
236.285	71.94
236.519	74.94
236.753	72.94
236.987	74.94
237.221	85.94
237.455	69.94
237.689	69.94
237.922	83.94
238.156	74.94
238.39	72.94
238.624	78.94
238.858	66.94
239.091	62.94
239.325	77.94
239.559	68.94
239.793	76.94
240.027	75.94
240.26	74.94
240.494	55.94
240.728	54.94
240.961	70.94
241.195	64.94
241.429	75.94
241.662	64.94
241.896	66.94
242.13	64.94
242.363	77.94
242.597	68.94
242.83	81.94
243.064	74.94
243.298	64.94
243.531	66.94
243.765	67.94
243.998	69.94
244.232	84.94
244.465	67.94
244.699	66.94
244.932	88.94
245.166	67.94
245.399	76.94
245.633	68.94
245.866	79.94
246.099	76.94
246.333	81.94
246.566	63.94
246.8	70.94
247.033	77.94
247.266	67.94
247.5	82.94
247.733	76.94
247.966	79.94
248.2	76.94
248.433	73.94
248.666	68.94
248.899	88.94
249.133	82.94
249.366	74.94
249.599	78.94
249.832	71.94
250.066	66.94
250.299	82.94
250.532	81.94
250.765	85.94
250.998	82.94
251.231	74.94
251.465	75.94
251.698	68.94
251.931	86.94
252.164	68.94
252.397	81.94
252.63	80.94
252.863	92.94
253.096	78.94
253.329	75.94
253.562	64.94
253.795	71.94
254.028	81.94
254.261	77.94
254.494	86.94
254.727	77.94
254.96	82.94
255.193	67.94
255.426	72.94
255.659	72.94
255.892	67.94
256.124	70.94
256.357	78.94
256.59	75.94
256.823	71.94
257.056	81.94
257.289	82.94
257.521	85.94
257.754	48.94
257.987	76.94
258.22	76.94
258.452	79.94
258.685	78.94
258.918	67.94
259.151	76.94
259.383	84.94
259.616	83.94
259.849	75.94
260.081	82.94
260.314	79.94
260.547	96.94
260.779	79.94
261.012	84.94
261.244	82.94
261.477	72.94
261.71	86.94
261.942	83.94
262.175	68.94
262.407	79.94
262.64	68.94
262.872	76.94
263.105	80.94
263.337	86.94
263.57	72.94
263.802	86.94
264.035	78.94
264.267	82.94
264.499	80.94
264.732	97.94
264.964	68.94
265.197	73.94
265.429	85.94
265.661	80.94
265.894	77.94
266.126	76.94
266.358	84.94
266.591	68.94
266.823	73.94
267.055	72.94
267.287	88.94
267.52	81.94
267.752	89.94
267.984	84.94
268.216	74.94
268.448	80.94
268.681	89.94
268.913	85.94
269.145	83.94
269.377	68.94
269.609	60.94
269.841	78.94
270.073	75.94
270.306	71.94
270.538	79.94
270.77	75.94
271.002	74.94
271.234	74.94
271.466	74.94
271.698	67.94
271.93	90.94
272.162	96.94
272.394	79.94
272.626	83.94
272.858	94.94
273.09	76.94
273.322	65.94
273.553	89.94
273.785	77.94
274.017	74.94
274.249	82.94
274.481	79.94
274.713	74.94
274.945	77.94
275.176	76.94
275.408	85.94
275.64	86.94
275.872	66.94
276.104	91.94
276.335	68.94
276.567	78.94
276.799	74.94
277.031	82.94
277.262	98.94
277.494	77.94
277.726	96.94
277.957	65.94
278.189	74.94
278.421	64.94
278.652	87.94
278.884	63.94
279.115	73.94
279.347	58.94
279.579	84.94
279.81	80.94
280.042	80.94
280.273	77.94
280.505	77.94
280.736	72.94
280.968	90.94
281.199	84.94
281.431	86.94
281.662	78.94
281.894	93.94
282.125	81.94
282.356	84.94
282.588	84.94
282.819	84.94
283.051	86.94
283.282	77.94
283.513	78.94
283.745	85.94
283.976	86.94
284.207	78.94
284.439	83.94
284.67	68.94
284.901	81.94
285.132	92.94
285.364	82.94
285.595	81.94
285.826	84.94
286.057	78.94
286.288	73.94
286.52	78.94
286.751	84.94
286.982	79.94
287.213	73.94
287.444	83.94
287.675	78.94
287.906	75.94
288.138	92.94
288.369	78.94
288.6	76.94
288.831	95.94
289.062	76.94
289.293	84.94
289.524	84.94
289.755	87.94
289.986	83.94
290.217	69.94
290.448	80.94
290.679	78.94
290.91	86.94
291.141	81.94
291.371	77.94
291.602	85.94
291.833	75.94
292.064	77.94
292.295	87.94
292.526	88.94
292.757	92.94
292.987	81.94
293.218	78.94
293.449	73.94
293.68	73.94
293.91	78.94
294.141	78.94
294.372	85.94
294.603	85.94
294.833	74.94
295.064	86.94
295.295	80.94
295.525	81.94
295.756	78.94
295.987	71.94
296.217	76.94
296.448	83.94
296.679	93.94
296.909	96.94
297.14	77.94
297.37	79.94
297.601	80.94
297.831	69.94
298.062	80.94
298.292	79.94
298.523	74.94
298.753	84.94
298.984	77.94
299.214	84.94
299.445	78.94
299.675	92.94
299.905	86.94
300.136	82.94
300.366	77.94
300.597	77.94
300.827	93.94
301.057	82.94
301.288	78.94
301.518	80.94
301.748	92.94
301.979	85.94
302.209	92.94
302.439	76.94
302.669	77.94
302.9	74.94
303.13	86.94
303.36	77.94
303.59	76.94
303.82	97.94
304.051	85.94
304.281	81.94
304.511	88.94
304.741	94.94
304.971	97.94
305.201	80.94
305.431	85.94
305.661	84.94
305.891	89.94
306.121	72.94
306.352	80.94
306.582	70.94
306.812	77.94
307.042	82.94
307.272	71.94
307.502	80.94
307.731	96.94
307.961	76.94
308.191	77.94
308.421	79.94
308.651	76.94
308.881	86.94
309.111	93.94
309.341	94.94
309.571	88.94
309.8	98.94
310.03	76.94
310.26	68.94
310.49	82.94
310.72	87.94
310.949	70.94
311.179	88.94
311.409	66.94
311.639	68.94
311.868	89.94
312.098	83.94
312.328	76.94
312.557	87.94
312.787	74.94
313.017	77.94
313.246	74.94
313.476	79.94
313.706	78.94
313.935	80.94
314.165	69.94
314.394	94.94
314.624	88.94
314.853	74.94
315.083	80.94
315.312	94.94
315.542	81.94
315.771	80.94
316.001	81.94
316.23	84.94
316.46	82.94
316.689	91.94
316.919	89.94
317.148	81.94
317.377	70.94
317.607	92.94
317.836	80.94
318.065	82.94
318.295	77.94
318.524	78.94
318.753	96.94
318.983	90.94
319.212	79.94
319.441	86.94
319.67	80.94
319.9	76.94
320.129	81.94
320.358	83.94
320.587	81.94
320.816	71.94
321.046	77.94
321.275	90.94
321.504	87.94
321.733	90.94
321.962	76.94
322.191	86.94
322.42	73.94
322.649	92.94
322.878	81.94
323.108	75.94
323.337	79.94
323.566	87.94
323.795	84.94
324.024	76.94
324.253	71.94
324.482	81.94
324.71	74.94
324.939	88.94
325.168	62.94
325.397	70.94
325.626	86.94
325.855	97.94
326.084	77.94
326.313	77.94
326.542	82.94
326.77	75.94
326.999	89.94
327.228	91.94
327.457	76.94
327.686	92.94
327.914	82.94
328.143	78.94
328.372	79.94
328.6	79.94
328.829	92.94
329.058	87.94
329.287	89.94
329.515	77.94
329.744	76.94
329.972	82.94
330.201	94.94
330.43	93.94
330.658	88.94
330.887	79.94
331.115	82.94
331.344	90.94
331.572	78.94
331.801	66.94
332.03	77.94
332.258	80.94
332.486	74.94
332.715	84.94
332.943	77.94
333.172	91.94
333.4	88.94
333.629	79.94
333.857	68.94
334.085	81.94
334.314	86.94
334.542	94.94
334.771	82.94
334.999	100.94
335.227	100.94
335.455	84.94
335.684	80.94
335.912	99.94
336.14	94.94
336.369	83.94
336.597	85.94
336.825	83.94
337.053	74.94
337.281	78.94
337.51	84.94
337.738	81.94
337.966	70.94
338.194	77.94
338.422	88.94
338.65	79.94
338.878	82.94
339.106	85.94
339.334	78.94
339.562	82.94
339.79	74.94
340.018	86.94
340.246	85.94
340.474	80.94
340.702	82.94
340.93	76.94
341.158	82.94
341.386	81.94
341.614	82.94
341.842	84.94
342.07	79.94
342.298	76.94
342.526	72.94
342.754	83.94
342.981	86.94
343.209	71.94
343.437	95.94
343.665	67.94
343.893	85.94
344.12	71.94
344.348	88.94
344.576	84.94
344.804	84.94
345.031	72.94
345.259	84.94
345.487	85.94
345.714	79.94
345.942	82.94
346.17	76.94
346.397	88.94
346.625	84.94
346.853	84.94
347.08	79.94
347.308	72.94
347.535	86.94
347.763	83.94
347.99	92.94
348.218	93.94
348.445	84.94
348.673	84.94
348.9	86.94
349.128	91.94
349.355	77.94
349.583	70.94
349.81	81.94
350.037	80.94
350.265	76.94
350.492	80.94
350.72	71.94
350.947	85.94
351.174	73.94
351.402	83.94
351.629	88.94
351.856	89.94
352.083	78.94
352.311	72.94
352.538	70.94
352.765	85.94
352.992	88.94
353.22	84.94
353.447	90.94
353.674	90.94
353.901	81.94
354.128	83.94
354.355	88.94
354.583	89.94
354.81	85.94
355.037	84.94
355.264	90.94
355.491	94.94
355.718	84.94
355.945	83.94
356.172	84.94
356.399	79.94
356.626	83.94
356.853	90.94
357.08	80.94
357.307	82.94
357.534	83.94
357.761	82.94
357.988	91.94
358.215	84.94
358.441	94.94
358.668	92.94
358.895	91.94
359.122	87.94
359.349	80.94
359.576	90.94
359.802	78.94
360.029	84.94
360.256	80.94
360.483	78.94
360.709	82.94
360.936	76.94
361.163	105.94
361.39	84.94
361.616	87.94
361.843	93.94
362.07	110.94
362.296	106.94
362.523	115.94
362.749	95.94
362.976	114.94
363.203	134.94
363.429	106.94
363.656	106.94
363.882	92.94
364.109	112.94
364.335	140.94
364.562	135.94
364.788	122.94
365.015	86.94
365.241	82.94
365.468	99.94
365.694	82.94
365.92	78.94
366.147	89.94
366.373	81.94
366.599	92.94
366.826	106.94
367.052	85.94
367.278	70.94
367.505	84.94
367.731	83.94
367.957	80.94
368.184	72.94
368.41	65.94
368.636	94.94
368.862	74.94
369.089	76.94
369.315	68.94
369.541	76.94
369.767	85.94
369.993	77.94
370.219	90.94
370.445	87.94
370.672	93.94
370.898	85.94
371.124	65.94
371.35	70.94
371.576	89.94
371.802	75.94
372.028	76.94
372.254	86.94
372.48	82.94
372.706	80.94
372.932	89.94
373.158	89.94
373.384	79.94
373.61	110.94
373.835	86.94
374.061	74.94
374.287	94.94
374.513	86.94
374.739	80.94
374.965	78.94
375.191	77.94
375.416	97.94
375.642	76.94
375.868	98.94
376.094	93.94
376.319	92.94
376.545	84.94
376.771	92.94
376.997	79.94
377.222	81.94
377.448	77.94
377.674	77.94
377.899	81.94
378.125	77.94
378.35	86.94
378.576	82.94
378.802	72.94
379.027	91.94
379.253	92.94
379.478	88.94
379.704	76.94
379.929	87.94
380.155	78.94
380.38	81.94
380.606	74.94
380.831	76.94
381.057	97.94
381.282	80.94
381.507	80.94
381.733	98.94
381.958	77.94
382.184	79.94
382.409	97.94
382.634	92.94
382.86	88.94
383.085	78.94
383.31	90.94
383.535	81.94
383.761	90.94
383.986	70.94
384.211	78.94
384.436	82.94
384.662	90.94
384.887	71.94
385.112	76.94
385.337	76.94
385.562	83.94
385.787	88.94
386.013	80.94
386.238	78.94
386.463	88.94
386.688	103.94
386.913	101.94
387.138	92.94
387.363	81.94
387.588	76.94
387.813	74.94
388.038	97.94
388.263	95.94
388.488	92.94
388.713	76.94
388.938	78.94
389.163	81.94
389.387	84.94
389.612	84.94
389.837	74.94
390.062	81.94
390.287	77.94
390.512	96.94
390.736	76.94
390.961	90.94
391.186	80.94
391.411	90.94
391.636	95.94
391.86	88.94
392.085	79.94
392.31	91.94
392.534	102.94
392.759	115.94
392.984	134.94
393.208	222.94
393.433	303.94
393.658	248.94
393.882	128.94
394.107	84.94
394.331	115.94
394.556	117.94
394.78	99.94
395.005	80.94
395.229	95.94
395.454	79.94
395.678	89.94
395.903	130.94
396.127	123.94
396.352	137.94
396.576	140.94
396.801	237.94
397.025	254.94
397.249	158.94
397.474	110.94
397.698	83.94
397.922	91.94
398.147	80.94
398.371	84.94
398.595	80.94
398.82	80.94
399.044	96.94
399.268	78.94
399.492	76.94
399.717	84.94
399.941	75.94
400.165	82.94
400.389	71.94
400.613	84.94
400.837	73.94
401.062	92.94
401.286	85.94
401.51	84.94
401.734	92.94
401.958	81.94
402.182	72.94
402.406	89.94
402.63	75.94
402.854	89.94
403.078	75.94
403.302	78.94
403.526	94.94
403.75	83.94
403.974	62.94
404.198	78.94
404.422	95.94
404.645	92.94
404.869	78.94
405.093	97.94
405.317	77.94
405.541	69.94
405.765	78.94
405.988	88.94
406.212	68.94
406.436	78.94
406.66	86.94
406.883	77.94
407.107	72.94
407.331	80.94
407.555	77.94
407.778	96.94
408.002	100.94
408.226	94.94
408.449	80.94
408.673	88.94
408.896	84.94
409.12	90.94
409.344	104.94
409.567	92.94
409.791	94.94
410.014	109.94
410.238	106.94
410.461	93.94
410.685	96.94
410.908	81.94
411.132	101.94
411.355	89.94
411.578	80.94
411.802	90.94
412.025	83.94
412.249	85.94
412.472	88.94
412.695	71.94
412.919	92.94
413.142	82.94
413.365	86.94
413.589	74.94
413.812	92.94
414.035	80.94
414.258	81.94
414.482	76.94
414.705	96.94
414.928	80.94
415.151	72.94
415.374	73.94
415.597	97.94
415.821	92.94
416.044	83.94
416.267	79.94
416.49	74.94
416.713	85.94
416.936	85.94
417.159	90.94
417.382	89.94
417.605	77.94
417.828	89.94
418.051	77.94
418.274	84.94
418.497	81.94
418.72	81.94
418.943	86.94
419.166	88.94
419.389	90.94
419.611	74.94
419.834	100.94
420.057	93.94
420.28	96.94
420.503	80.94
420.726	82.94
420.948	83.94
421.171	93.94
421.394	106.94
421.617	112.94
421.839	123.94
422.062	128.94
422.285	205.94
422.507	309.94
422.73	405.94
422.953	380.94
423.175	245.94
423.398	158.94
423.621	124.94
423.843	107.94
424.066	100.94
424.288	98.94
424.511	91.94
424.733	96.94
424.956	86.94
425.178	87.94
425.401	85.94
425.623	91.94
425.846	92.94
426.068	77.94
426.291	93.94
426.513	96.94
426.735	77.94
426.958	83.94
427.18	81.94
427.402	88.94
427.625	80.94
427.847	82.94
428.069	96.94
428.292	136.94
428.514	156.94
428.736	115.94
428.958	149.94
429.181	127.94
429.403	90.94
429.625	82.94
429.847	114.94
430.069	174.94
430.292	195.94
430.514	163.94
430.736	145.94
430.958	149.94
431.18	113.94
431.402	84.94
431.624	86.94
431.846	117.94
432.068	152.94
432.29	94.94
432.512	82.94
432.734	94.94
432.956	92.94
433.178	96.94
433.4	88.94
433.622	80.94
433.844	83.94
434.066	70.94
434.287	82.94
434.509	70.94
434.731	89.94
434.953	86.94
435.175	87.94
435.397	94.94
435.618	107.94
435.84	79.94
436.062	76.94
436.284	91.94
436.505	85.94
436.727	78.94
436.949	86.94
437.17	68.94
437.392	89.94
437.614	88.94
437.835	81.94
438.057	77.94
438.278	78.94
438.5	89.94
438.721	82.94
438.943	82.94
439.165	77.94
439.386	71.94
439.608	98.94
439.829	76.94
440.05	89.94
440.272	94.94
440.493	97.94
440.715	84.94
440.936	69.94
441.158	89.94
441.379	81.94
441.6	94.94
441.822	89.94
442.043	77.94
442.264	99.94
442.486	141.94
442.707	195.94
442.928	126.94
443.149	118.94
443.371	153.94
443.592	277.94
443.813	254.94
444.034	104.94
444.255	102.94
444.476	99.94
444.698	101.94
444.919	87.94
445.14	178.94
445.361	223.94
445.582	320.94
445.803	273.94
446.024	152.94
446.245	110.94
446.466	85.94
446.687	72.94
446.908	74.94
447.129	71.94
447.35	83.94
447.571	76.94
447.792	76.94
448.013	75.94
448.234	70.94
448.455	76.94
448.675	94.94
448.896	72.94
449.117	91.94
449.338	93.94
449.559	72.94
449.779	74.94
450	74.94
450.221	86.94
450.442	86.94
450.662	91.94
450.883	75.94
451.104	89.94
451.324	96.94
451.545	92.94
451.766	83.94
451.986	77.94
452.207	90.94
452.428	97.94
452.648	86.94
452.869	105.94
453.089	97.94
453.31	99.94
453.53	89.94
453.751	91.94
453.971	88.94
454.192	89.94
454.412	76.94
454.633	92.94
454.853	86.94
455.073	83.94
455.294	66.94
455.514	91.94
455.734	86.94
455.955	75.94
456.175	85.94
456.395	82.94
456.616	92.94
456.836	78.94
457.056	83.94
457.276	77.94
457.497	72.94
457.717	93.94
457.937	129.94
458.157	162.94
458.377	141.94
458.598	134.94
458.818	146.94
459.038	97.94
459.258	86.94
459.478	82.94
459.698	89.94
459.918	86.94
460.138	91.94
460.358	83.94
460.578	102.94
460.798	98.94
461.018	113.94
461.238	84.94
461.458	75.94
461.678	75.94
461.898	89.94
462.118	93.94
462.338	89.94
462.558	81.94
462.777	96.94
462.997	98.94
463.217	77.94
463.437	89.94
463.657	83.94
463.876	74.94
464.096	72.94
464.316	63.94
464.536	89.94
464.755	85.94
464.975	78.94
465.195	76.94
465.414	93.94
465.634	90.94
465.854	86.94
466.073	66.94
466.293	80.94
466.512	67.94
466.732	69.94
466.951	83.94
467.171	79.94
467.391	96.94
467.61	97.94
467.829	86.94
468.049	77.94
468.268	66.94
468.488	92.94
468.707	84.94
468.927	97.94
469.146	81.94
469.365	92.94
469.585	93.94
469.804	92.94
470.023	90.94
470.243	70.94
470.462	99.94
470.681	82.94
470.901	73.94
471.12	94.94
471.339	92.94
471.558	85.94
471.777	81.94
471.997	92.94
472.216	91.94
472.435	80.94
472.654	79.94
472.873	87.94
473.092	88.94
473.311	76.94
473.53	78.94
473.749	81.94
473.968	94.94
474.187	84.94
474.406	80.94
474.625	89.94
474.844	91.94
475.063	85.94
475.282	95.94
475.501	80.94
475.72	81.94
475.939	94.94
476.158	76.94
476.377	82.94
476.596	80.94
476.814	77.94
477.033	84.94
477.252	85.94
477.471	73.94
477.69	81.94
477.908	82.94
478.127	88.94
478.346	89.94
478.564	80.94
478.783	69.94
479.002	67.94
479.22	82.94
479.439	93.94
479.658	82.94
479.876	85.94
480.095	98.94
480.313	85.94
480.532	74.94
480.751	74.94
480.969	83.94
481.188	86.94
481.406	94.94
481.624	88.94
481.843	84.94
482.061	80.94
482.28	77.94
482.498	90.94
482.717	92.94
482.935	86.94
483.153	94.94
483.372	76.94
483.59	105.94
483.808	80.94
484.027	79.94
484.245	73.94
484.463	88.94
484.681	100.94
484.9	95.94
485.118	92.94
485.336	80.94
485.554	79.94
485.772	87.94
485.99	89.94
486.209	80.94
486.427	74.94
486.645	89.94
486.863	83.94
487.081	84.94
487.299	104.94
487.517	101.94
487.735	125.94
487.953	199.94
488.171	172.94
488.389	100.94
488.607	86.94
488.825	84.94
489.043	73.94
489.261	69.94
489.479	93.94
489.696	97.94
489.914	92.94
490.132	78.94
490.35	88.94
490.568	82.94
490.786	94.94
491.003	92.94
491.221	87.94
491.439	84.94
491.657	72.94
491.874	83.94
492.092	73.94
492.31	82.94
492.527	76.94
492.745	75.94
492.963	81.94
493.18	87.94
493.398	101.94
493.615	97.94
493.833	95.94
494.05	86.94
494.268	76.94
494.485	76.94
494.703	94.94
494.92	80.94
495.138	80.94
495.355	98.94
495.573	92.94
495.79	77.94
496.008	85.94
496.225	91.94
496.442	80.94
496.66	82.94
496.877	79.94
497.094	92.94
497.312	90.94
497.529	78.94
497.746	92.94
497.963	86.94
498.181	75.94
498.398	88.94
498.615	66.94
498.832	83.94
499.049	76.94
499.267	82.94
499.484	92.94
499.701	85.94
499.918	82.94
500.135	88.94
500.352	80.94
500.569	81.94
500.786	82.94
501.003	70.94
501.22	83.94
501.437	95.94
501.654	82.94
501.871	76.94
502.088	71.94
502.305	87.94
502.522	90.94
502.739	84.94
502.956	87.94
503.172	78.94
503.389	76.94
503.606	92.94
503.823	90.94
504.04	106.94
504.256	154.94
504.473	166.94
504.69	84.94
504.907	91.94
505.123	102.94
505.34	92.94
505.557	96.94
505.773	81.94
505.99	70.94
506.207	90.94
506.423	98.94
506.64	81.94
506.856	86.94
507.073	91.94
507.289	70.94
507.506	78.94
507.722	75.94
507.939	86.94
508.155	100.94
508.372	79.94
508.588	74.94
508.805	91.94
509.021	91.94
509.238	78.94
509.454	78.94
509.67	85.94
509.887	86.94
510.103	89.94
510.319	79.94
510.536	92.94
510.752	92.94
510.968	91.94
511.184	77.94
511.401	81.94
511.617	88.94
511.833	84.94
512.049	86.94
512.265	80.94
512.481	88.94
512.698	98.94
512.914	80.94
513.13	88.94
513.346	97.94
513.562	88.94
513.778	92.94
513.994	68.94
514.21	78.94
514.426	81.94
514.642	72.94
514.858	76.94
515.074	89.94
515.29	92.94
515.506	84.94
515.721	86.94
515.937	85.94
516.153	87.94
516.369	85.94
516.585	92.94
516.801	83.94
517.016	88.94
517.232	81.94
517.448	96.94
517.664	61.94
517.879	89.94
518.095	82.94
518.311	95.94
518.527	102.94
518.742	130.94
