Data from CBS_2_HRD10591_00004.txt Node
Date: Mon Jan 19 14:04:48 EST 2026
User: Yrep
Spectrometer: HR+D1059
Trigger mode: 1
Integration Time (sec): 1.000000E-1
Scans to average: 1
Electric dark correction enabled: true
Nonlinearity correction enabled: false
Boxcar width: 0
XAxis mode: Wavelengths
Number of Pixels in Spectrum: 2048
>>>>>Begin Spectral Data<<<<<
223.165	-16.75
223.4	-16.75
223.635	-16.75
223.869	-17.75
224.104	-20.75
224.338	-8.75
224.573	-5.75
224.808	-17.75
225.042	-11.75
225.277	-1.75
225.511	4.25
225.746	4.25
225.98	2.25
226.215	15.25
226.449	5.25
226.683	8.25
226.918	25.25
227.152	36.25
227.387	22.25
227.621	50.25
227.856	44.25
228.09	46.25
228.324	50.25
228.559	54.25
228.793	41.25
229.027	54.25
229.262	59.25
229.496	72.25
229.73	86.25
229.964	75.25
230.199	74.25
230.433	77.25
230.667	70.25
230.901	73.25
231.136	82.25
231.37	102.25
231.604	70.25
231.838	83.25
232.072	83.25
232.306	83.25
232.541	83.25
232.775	83.25
233.009	91.25
233.243	83.25
233.477	84.25
233.711	77.25
233.945	82.25
234.179	77.25
234.413	72.25
234.647	74.25
234.881	66.25
235.115	73.25
235.349	91.25
235.583	70.25
235.817	71.25
236.051	82.25
236.285	80.25
236.519	75.25
236.753	73.25
236.987	67.25
237.221	77.25
237.455	69.25
237.689	72.25
237.922	73.25
238.156	86.25
238.39	71.25
238.624	70.25
238.858	74.25
239.091	81.25
239.325	87.25
239.559	82.25
239.793	87.25
240.027	88.25
240.26	79.25
240.494	80.25
240.728	83.25
240.961	86.25
241.195	65.25
241.429	62.25
241.662	57.25
241.896	69.25
242.13	64.25
242.363	79.25
242.597	74.25
242.83	79.25
243.064	80.25
243.298	76.25
243.531	64.25
243.765	87.25
243.998	91.25
244.232	88.25
244.465	90.25
244.699	94.25
244.932	71.25
245.166	81.25
245.399	77.25
245.633	72.25
245.866	86.25
246.099	70.25
246.333	54.25
246.566	60.25
246.8	72.25
247.033	76.25
247.266	63.25
247.5	66.25
247.733	80.25
247.966	82.25
248.2	72.25
248.433	76.25
248.666	80.25
248.899	91.25
249.133	73.25
249.366	96.25
249.599	74.25
249.832	87.25
250.066	74.25
250.299	97.25
250.532	89.25
250.765	80.25
250.998	71.25
251.231	80.25
251.465	85.25
251.698	69.25
251.931	80.25
252.164	93.25
252.397	76.25
252.63	78.25
252.863	91.25
253.096	77.25
253.329	88.25
253.562	79.25
253.795	71.25
254.028	86.25
254.261	62.25
254.494	69.25
254.727	75.25
254.96	77.25
255.193	75.25
255.426	77.25
255.659	80.25
255.892	79.25
256.124	77.25
256.357	85.25
256.59	73.25
256.823	71.25
257.056	79.25
257.289	78.25
257.521	71.25
257.754	81.25
257.987	74.25
258.22	76.25
258.452	84.25
258.685	78.25
258.918	84.25
259.151	99.25
259.383	83.25
259.616	72.25
259.849	72.25
260.081	85.25
260.314	85.25
260.547	86.25
260.779	98.25
261.012	82.25
261.244	83.25
261.477	77.25
261.71	83.25
261.942	78.25
262.175	87.25
262.407	69.25
262.64	91.25
262.872	76.25
263.105	82.25
263.337	82.25
263.57	81.25
263.802	81.25
264.035	69.25
264.267	82.25
264.499	67.25
264.732	84.25
264.964	84.25
265.197	76.25
265.429	68.25
265.661	78.25
265.894	101.25
266.126	80.25
266.358	74.25
266.591	82.25
266.823	80.25
267.055	75.25
267.287	90.25
267.52	79.25
267.752	72.25
267.984	84.25
268.216	84.25
268.448	90.25
268.681	76.25
268.913	79.25
269.145	71.25
269.377	75.25
269.609	83.25
269.841	68.25
270.073	82.25
270.306	87.25
270.538	71.25
270.77	64.25
271.002	66.25
271.234	79.25
271.466	89.25
271.698	87.25
271.93	91.25
272.162	79.25
272.394	81.25
272.626	82.25
272.858	95.25
273.09	98.25
273.322	72.25
273.553	81.25
273.785	74.25
274.017	84.25
274.249	76.25
274.481	92.25
274.713	81.25
274.945	84.25
275.176	84.25
275.408	91.25
275.64	88.25
275.872	89.25
276.104	98.25
276.335	83.25
276.567	91.25
276.799	90.25
277.031	68.25
277.262	86.25
277.494	75.25
277.726	84.25
277.957	90.25
278.189	83.25
278.421	82.25
278.652	86.25
278.884	76.25
279.115	78.25
279.347	86.25
279.579	82.25
279.81	96.25
280.042	82.25
280.273	82.25
280.505	91.25
280.736	70.25
280.968	84.25
281.199	82.25
281.431	79.25
281.662	73.25
281.894	80.25
282.125	82.25
282.356	81.25
282.588	89.25
282.819	80.25
283.051	75.25
283.282	80.25
283.513	86.25
283.745	87.25
283.976	88.25
284.207	82.25
284.439	73.25
284.67	85.25
284.901	78.25
285.132	99.25
285.364	88.25
285.595	76.25
285.826	86.25
286.057	87.25
286.288	99.25
286.52	86.25
286.751	92.25
286.982	77.25
287.213	85.25
287.444	89.25
287.675	84.25
287.906	73.25
288.138	94.25
288.369	86.25
288.6	89.25
288.831	95.25
289.062	86.25
289.293	81.25
289.524	97.25
289.755	82.25
289.986	96.25
290.217	83.25
290.448	84.25
290.679	84.25
290.91	89.25
291.141	82.25
291.371	82.25
291.602	86.25
291.833	86.25
292.064	93.25
292.295	94.25
292.526	84.25
292.757	74.25
292.987	72.25
293.218	89.25
293.449	94.25
293.68	97.25
293.91	89.25
294.141	78.25
294.372	80.25
294.603	82.25
294.833	79.25
295.064	88.25
295.295	90.25
295.525	83.25
295.756	82.25
295.987	73.25
296.217	80.25
296.448	95.25
296.679	90.25
296.909	89.25
297.14	79.25
297.37	98.25
297.601	83.25
297.831	93.25
298.062	88.25
298.292	82.25
298.523	89.25
298.753	96.25
298.984	86.25
299.214	89.25
299.445	95.25
299.675	91.25
299.905	92.25
300.136	85.25
300.366	81.25
300.597	89.25
300.827	94.25
301.057	96.25
301.288	102.25
301.518	78.25
301.748	92.25
301.979	105.25
302.209	87.25
302.439	92.25
302.669	90.25
302.9	84.25
303.13	84.25
303.36	95.25
303.59	75.25
303.82	83.25
304.051	95.25
304.281	95.25
304.511	82.25
304.741	88.25
304.971	79.25
305.201	74.25
305.431	72.25
305.661	88.25
305.891	88.25
306.121	95.25
306.352	83.25
306.582	94.25
306.812	78.25
307.042	96.25
307.272	84.25
307.502	78.25
307.731	86.25
307.961	96.25
308.191	100.25
308.421	94.25
308.651	95.25
308.881	93.25
309.111	88.25
309.341	106.25
309.571	90.25
309.8	105.25
310.03	100.25
310.26	86.25
310.49	90.25
310.72	94.25
310.949	84.25
311.179	96.25
311.409	72.25
311.639	83.25
311.868	94.25
312.098	98.25
312.328	88.25
312.557	88.25
312.787	79.25
313.017	74.25
313.246	96.25
313.476	79.25
313.706	92.25
313.935	77.25
314.165	88.25
314.394	92.25
314.624	83.25
314.853	91.25
315.083	87.25
315.312	86.25
315.542	97.25
315.771	92.25
316.001	101.25
316.23	99.25
316.46	95.25
316.689	83.25
316.919	91.25
317.148	92.25
317.377	80.25
317.607	96.25
317.836	90.25
318.065	108.25
318.295	89.25
318.524	96.25
318.753	80.25
318.983	102.25
319.212	100.25
319.441	78.25
319.67	91.25
319.9	74.25
320.129	75.25
320.358	96.25
320.587	99.25
320.816	103.25
321.046	95.25
321.275	92.25
321.504	97.25
321.733	97.25
321.962	88.25
322.191	94.25
322.42	99.25
322.649	90.25
322.878	96.25
323.108	87.25
323.337	88.25
323.566	95.25
323.795	98.25
324.024	96.25
324.253	91.25
324.482	98.25
324.71	101.25
324.939	100.25
325.168	83.25
325.397	78.25
325.626	82.25
325.855	91.25
326.084	87.25
326.313	88.25
326.542	99.25
326.77	89.25
326.999	81.25
327.228	87.25
327.457	90.25
327.686	73.25
327.914	98.25
328.143	99.25
328.372	83.25
328.6	88.25
328.829	87.25
329.058	89.25
329.287	88.25
329.515	91.25
329.744	87.25
329.972	102.25
330.201	82.25
330.43	87.25
330.658	92.25
330.887	83.25
331.115	89.25
331.344	72.25
331.572	83.25
331.801	86.25
332.03	80.25
332.258	97.25
332.486	73.25
332.715	80.25
332.943	92.25
333.172	85.25
333.4	93.25
333.629	86.25
333.857	96.25
334.085	97.25
334.314	120.25
334.542	98.25
334.771	111.25
334.999	103.25
335.227	100.25
335.455	110.25
335.684	106.25
335.912	104.25
336.14	116.25
336.369	121.25
336.597	99.25
336.825	92.25
337.053	103.25
337.281	88.25
337.51	82.25
337.738	89.25
337.966	77.25
338.194	91.25
338.422	88.25
338.65	104.25
338.878	85.25
339.106	90.25
339.334	87.25
339.562	96.25
339.79	94.25
340.018	85.25
340.246	84.25
340.474	76.25
340.702	88.25
340.93	103.25
341.158	99.25
341.386	110.25
341.614	94.25
341.842	92.25
342.07	90.25
342.298	85.25
342.526	95.25
342.754	96.25
342.981	71.25
343.209	89.25
343.437	88.25
343.665	92.25
343.893	94.25
344.12	85.25
344.348	90.25
344.576	82.25
344.804	87.25
345.031	92.25
345.259	99.25
345.487	93.25
345.714	94.25
345.942	74.25
346.17	76.25
346.397	86.25
346.625	88.25
346.853	92.25
347.08	99.25
347.308	96.25
347.535	86.25
347.763	101.25
347.99	106.25
348.218	100.25
348.445	88.25
348.673	88.25
348.9	108.25
349.128	105.25
349.355	87.25
349.583	92.25
349.81	87.25
350.037	85.25
350.265	95.25
350.492	80.25
350.72	84.25
350.947	89.25
351.174	91.25
351.402	95.25
351.629	89.25
351.856	87.25
352.083	97.25
352.311	80.25
352.538	96.25
352.765	88.25
352.992	91.25
353.22	81.25
353.447	83.25
353.674	87.25
353.901	89.25
354.128	91.25
354.355	85.25
354.583	96.25
354.81	76.25
355.037	91.25
355.264	94.25
355.491	91.25
355.718	92.25
355.945	99.25
356.172	92.25
356.399	91.25
356.626	93.25
356.853	90.25
357.08	89.25
357.307	87.25
357.534	91.25
357.761	88.25
357.988	107.25
358.215	103.25
358.441	100.25
358.668	91.25
358.895	83.25
359.122	112.25
359.349	89.25
359.576	89.25
359.802	84.25
360.029	99.25
360.256	92.25
360.483	87.25
360.709	87.25
360.936	96.25
361.163	103.25
361.39	91.25
361.616	99.25
361.843	100.25
362.07	127.25
362.296	138.25
362.523	146.25
362.749	149.25
362.976	163.25
363.203	185.25
363.429	131.25
363.656	127.25
363.882	134.25
364.109	158.25
364.335	200.25
364.562	216.25
364.788	160.25
365.015	99.25
365.241	103.25
365.468	103.25
365.694	94.25
365.92	79.25
366.147	96.25
366.373	80.25
366.599	95.25
366.826	98.25
367.052	114.25
367.278	88.25
367.505	72.25
367.731	98.25
367.957	94.25
368.184	88.25
368.41	81.25
368.636	91.25
368.862	94.25
369.089	82.25
369.315	84.25
369.541	94.25
369.767	95.25
369.993	87.25
370.219	89.25
370.445	91.25
370.672	100.25
370.898	98.25
371.124	103.25
371.35	87.25
371.576	90.25
371.802	89.25
372.028	97.25
372.254	105.25
372.48	94.25
372.706	95.25
372.932	77.25
373.158	89.25
373.384	103.25
373.61	105.25
373.835	119.25
374.061	98.25
374.287	99.25
374.513	87.25
374.739	96.25
374.965	94.25
375.191	90.25
375.416	92.25
375.642	92.25
375.868	95.25
376.094	94.25
376.319	106.25
376.545	95.25
376.771	85.25
376.997	88.25
377.222	105.25
377.448	90.25
377.674	93.25
377.899	95.25
378.125	79.25
378.35	82.25
378.576	88.25
378.802	83.25
379.027	90.25
379.253	87.25
379.478	95.25
379.704	90.25
379.929	93.25
380.155	100.25
380.38	96.25
380.606	82.25
380.831	88.25
381.057	92.25
381.282	97.25
381.507	102.25
381.733	101.25
381.958	89.25
382.184	105.25
382.409	101.25
382.634	122.25
382.86	99.25
383.085	98.25
383.31	103.25
383.535	99.25
383.761	99.25
383.986	102.25
384.211	96.25
384.436	101.25
384.662	115.25
384.887	104.25
385.112	105.25
385.337	99.25
385.562	102.25
385.787	96.25
386.013	119.25
386.238	103.25
386.463	100.25
386.688	124.25
386.913	103.25
387.138	101.25
387.363	116.25
387.588	116.25
387.813	99.25
388.038	110.25
388.263	110.25
388.488	111.25
388.713	114.25
388.938	107.25
389.163	80.25
389.387	90.25
389.612	92.25
389.837	103.25
390.062	110.25
390.287	98.25
390.512	101.25
390.736	112.25
390.961	94.25
391.186	107.25
391.411	106.25
391.636	105.25
391.86	110.25
392.085	111.25
392.31	124.25
392.534	130.25
392.759	168.25
392.984	214.25
393.208	368.25
393.433	479.25
393.658	381.25
393.882	203.25
394.107	146.25
394.331	149.25
394.556	156.25
394.78	135.25
395.005	126.25
395.229	116.25
395.454	126.25
395.678	134.25
395.903	163.25
396.127	191.25
396.352	211.25
396.576	255.25
396.801	363.25
397.025	405.25
397.249	254.25
397.474	182.25
397.698	151.25
397.922	112.25
398.147	116.25
398.371	111.25
398.595	94.25
398.82	94.25
399.044	86.25
399.268	90.25
399.492	80.25
399.717	90.25
399.941	104.25
400.165	115.25
400.389	93.25
400.613	88.25
400.837	95.25
401.062	96.25
401.286	94.25
401.51	100.25
401.734	95.25
401.958	105.25
402.182	107.25
402.406	102.25
402.63	95.25
402.854	103.25
403.078	116.25
403.302	113.25
403.526	105.25
403.75	101.25
403.974	95.25
404.198	102.25
404.422	106.25
404.645	102.25
404.869	105.25
405.093	92.25
405.317	99.25
405.541	105.25
405.765	74.25
405.988	105.25
406.212	96.25
406.436	80.25
406.66	96.25
406.883	109.25
407.107	97.25
407.331	104.25
407.555	122.25
407.778	137.25
408.002	120.25
408.226	103.25
408.449	82.25
408.673	105.25
408.896	102.25
409.12	90.25
409.344	121.25
409.567	135.25
409.791	145.25
410.014	141.25
410.238	131.25
410.461	118.25
410.685	106.25
410.908	94.25
411.132	92.25
411.355	93.25
411.578	112.25
411.802	92.25
412.025	97.25
412.249	108.25
412.472	92.25
412.695	102.25
412.919	87.25
413.142	94.25
413.365	104.25
413.589	97.25
413.812	100.25
414.035	96.25
414.258	94.25
414.482	89.25
414.705	98.25
414.928	97.25
415.151	104.25
415.374	93.25
415.597	93.25
415.821	89.25
416.044	106.25
416.267	102.25
416.49	92.25
416.713	89.25
416.936	99.25
417.159	96.25
417.382	111.25
417.605	102.25
417.828	91.25
418.051	84.25
418.274	98.25
418.497	91.25
418.72	97.25
418.943	118.25
419.166	97.25
419.389	104.25
419.611	95.25
419.834	98.25
420.057	121.25
420.28	86.25
420.503	111.25
420.726	118.25
420.948	99.25
421.171	122.25
421.394	144.25
421.617	186.25
421.839	203.25
422.062	242.25
422.285	312.25
422.507	454.25
422.73	579.25
422.953	557.25
423.175	392.25
423.398	253.25
423.621	176.25
423.843	174.25
424.066	146.25
424.288	136.25
424.511	136.25
424.733	121.25
424.956	102.25
425.178	112.25
425.401	110.25
425.623	112.25
425.846	107.25
426.068	95.25
426.291	108.25
426.513	103.25
426.735	104.25
426.958	99.25
427.18	101.25
427.402	112.25
427.625	104.25
427.847	108.25
428.069	135.25
428.292	177.25
428.514	210.25
428.736	156.25
428.958	177.25
429.181	190.25
429.403	122.25
429.625	131.25
429.847	177.25
430.069	255.25
430.292	283.25
430.514	267.25
430.736	205.25
430.958	196.25
431.18	122.25
431.402	100.25
431.624	114.25
431.846	178.25
432.068	191.25
432.29	128.25
432.512	110.25
432.734	98.25
432.956	93.25
433.178	102.25
433.4	97.25
433.622	88.25
433.844	112.25
434.066	113.25
434.287	91.25
434.509	98.25
434.731	80.25
434.953	103.25
435.175	103.25
435.397	114.25
435.618	100.25
435.84	113.25
436.062	102.25
436.284	85.25
436.505	103.25
436.727	94.25
436.949	96.25
437.17	98.25
437.392	89.25
437.614	106.25
437.835	107.25
438.057	88.25
438.278	90.25
438.5	96.25
438.721	90.25
438.943	88.25
439.165	98.25
439.386	105.25
439.608	88.25
439.829	98.25
440.05	101.25
440.272	97.25
440.493	95.25
440.715	105.25
440.936	90.25
441.158	103.25
441.379	102.25
441.6	97.25
441.822	98.25
442.043	119.25
442.264	134.25
442.486	200.25
442.707	284.25
442.928	196.25
443.149	165.25
443.371	250.25
443.592	421.25
443.813	373.25
444.034	162.25
444.255	120.25
444.476	114.25
444.698	124.25
444.919	113.25
445.14	227.25
445.361	325.25
445.582	520.25
445.803	447.25
446.024	214.25
446.245	126.25
446.466	113.25
446.687	115.25
446.908	98.25
447.129	96.25
447.35	100.25
447.571	102.25
447.792	94.25
448.013	96.25
448.234	97.25
448.455	102.25
448.675	88.25
448.896	87.25
449.117	88.25
449.338	89.25
449.559	90.25
449.779	84.25
450	84.25
450.221	83.25
450.442	87.25
450.662	79.25
450.883	82.25
451.104	104.25
451.324	96.25
451.545	92.25
451.766	91.25
451.986	93.25
452.207	113.25
452.428	105.25
452.648	110.25
452.869	147.25
453.089	132.25
453.31	103.25
453.53	106.25
453.751	108.25
453.971	99.25
454.192	90.25
454.412	100.25
454.633	99.25
454.853	81.25
455.073	94.25
455.294	98.25
455.514	101.25
455.734	84.25
455.955	82.25
456.175	87.25
456.395	89.25
456.616	102.25
456.836	107.25
457.056	101.25
457.276	88.25
457.497	105.25
457.717	127.25
457.937	176.25
458.157	206.25
458.377	218.25
458.598	211.25
458.818	226.25
459.038	144.25
459.258	106.25
459.478	106.25
459.698	89.25
459.918	101.25
460.138	85.25
460.358	105.25
460.578	105.25
460.798	122.25
461.018	141.25
461.238	107.25
461.458	85.25
461.678	86.25
461.898	88.25
462.118	87.25
462.338	91.25
462.558	91.25
462.777	93.25
462.997	101.25
463.217	96.25
463.437	103.25
463.657	96.25
463.876	102.25
464.096	88.25
464.316	99.25
464.536	92.25
464.755	76.25
464.975	89.25
465.195	95.25
465.414	96.25
465.634	94.25
465.854	95.25
466.073	85.25
466.293	105.25
466.512	93.25
466.732	103.25
466.951	88.25
467.171	103.25
467.391	91.25
467.61	79.25
467.829	82.25
468.049	104.25
468.268	100.25
468.488	104.25
468.707	99.25
468.927	89.25
469.146	83.25
469.365	80.25
469.585	83.25
469.804	98.25
470.023	90.25
470.243	88.25
470.462	87.25
470.681	91.25
470.901	96.25
471.12	94.25
471.339	88.25
471.558	94.25
471.777	80.25
471.997	101.25
472.216	96.25
472.435	107.25
472.654	89.25
472.873	99.25
473.092	90.25
473.311	110.25
473.53	88.25
473.749	101.25
473.968	85.25
474.187	106.25
474.406	96.25
474.625	80.25
474.844	102.25
475.063	70.25
475.282	96.25
475.501	82.25
475.72	86.25
475.939	84.25
476.158	105.25
476.377	101.25
476.596	88.25
476.814	110.25
477.033	91.25
477.252	81.25
477.471	95.25
477.69	103.25
477.908	89.25
478.127	90.25
478.346	103.25
478.564	94.25
478.783	102.25
479.002	99.25
479.22	82.25
479.439	91.25
479.658	106.25
479.876	98.25
480.095	103.25
480.313	100.25
480.532	94.25
480.751	97.25
480.969	106.25
481.188	107.25
481.406	101.25
481.624	92.25
481.843	99.25
482.061	107.25
482.28	105.25
482.498	98.25
482.717	85.25
482.935	94.25
483.153	105.25
483.372	110.25
483.59	103.25
483.808	99.25
484.027	105.25
484.245	92.25
484.463	104.25
484.681	92.25
484.9	94.25
485.118	101.25
485.336	106.25
485.554	101.25
485.772	86.25
485.99	101.25
486.209	94.25
486.427	84.25
486.645	83.25
486.863	103.25
487.081	93.25
487.299	103.25
487.517	126.25
487.735	194.25
487.953	376.25
488.171	292.25
488.389	131.25
488.607	106.25
488.825	90.25
489.043	100.25
489.261	90.25
489.479	101.25
489.696	95.25
489.914	99.25
490.132	110.25
490.35	99.25
490.568	102.25
490.786	89.25
491.003	107.25
491.221	117.25
491.439	112.25
491.657	94.25
491.874	105.25
492.092	98.25
492.31	94.25
492.527	97.25
492.745	89.25
492.963	116.25
493.18	102.25
493.398	110.25
493.615	95.25
493.833	94.25
494.05	94.25
494.268	101.25
494.485	102.25
494.703	84.25
494.92	80.25
495.138	84.25
495.355	94.25
495.573	90.25
495.79	94.25
496.008	110.25
496.225	108.25
496.442	118.25
496.66	98.25
496.877	103.25
497.094	90.25
497.312	91.25
497.529	97.25
497.746	91.25
497.963	91.25
498.181	80.25
498.398	97.25
498.615	88.25
498.832	84.25
499.049	101.25
499.267	107.25
499.484	100.25
499.701	99.25
499.918	96.25
500.135	110.25
500.352	97.25
500.569	94.25
500.786	97.25
501.003	106.25
501.22	92.25
501.437	99.25
501.654	114.25
501.871	105.25
502.088	105.25
502.305	103.25
502.522	91.25
502.739	101.25
502.956	100.25
503.172	99.25
503.389	112.25
503.606	100.25
503.823	113.25
504.04	146.25
504.256	279.25
504.473	265.25
504.69	138.25
504.907	87.25
505.123	116.25
505.34	119.25
505.557	103.25
505.773	107.25
505.99	104.25
506.207	82.25
506.423	106.25
506.64	94.25
506.856	96.25
507.073	99.25
507.289	81.25
507.506	94.25
507.722	98.25
507.939	108.25
508.155	86.25
508.372	94.25
508.588	88.25
508.805	99.25
509.021	83.25
509.238	95.25
509.454	92.25
509.67	98.25
509.887	87.25
510.103	86.25
510.319	93.25
510.536	90.25
510.752	98.25
510.968	97.25
511.184	92.25
511.401	100.25
511.617	99.25
511.833	95.25
512.049	102.25
512.265	83.25
512.481	101.25
512.698	86.25
512.914	96.25
513.13	90.25
513.346	113.25
513.562	80.25
513.778	97.25
513.994	96.25
514.21	105.25
514.426	94.25
514.642	92.25
514.858	97.25
