Data from CBS_2_HRD10591_00047.txt Node
Date: Mon Jan 19 14:05:09 EST 2026
User: Yrep
Spectrometer: HR+D1059
Trigger mode: 1
Integration Time (sec): 1.000000E-1
Scans to average: 1
Electric dark correction enabled: true
Nonlinearity correction enabled: false
Boxcar width: 0
XAxis mode: Wavelengths
Number of Pixels in Spectrum: 2048
>>>>>Begin Spectral Data<<<<<
223.165	-14.62
223.4	-14.62
223.635	-14.62
223.869	-27.62
224.104	-11.62
224.338	-13.62
224.573	-14.62
224.808	-23.62
225.042	-8.62
225.277	-10.62
225.511	-11.62
225.746	-3.62
225.98	13.38
226.215	21.38
226.449	15.38
226.683	23.38
226.918	33.38
227.152	33.38
227.387	29.38
227.621	43.38
227.856	45.38
228.09	45.38
228.324	54.38
228.559	69.38
228.793	66.38
229.027	66.38
229.262	70.38
229.496	48.38
229.73	74.38
229.964	80.38
230.199	74.38
230.433	76.38
230.667	79.38
230.901	73.38
231.136	74.38
231.37	75.38
231.604	71.38
231.838	76.38
232.072	92.38
232.306	71.38
232.541	78.38
232.775	79.38
233.009	72.38
233.243	75.38
233.477	82.38
233.711	91.38
233.945	67.38
234.179	72.38
234.413	70.38
234.647	91.38
234.881	73.38
235.115	72.38
235.349	76.38
235.583	58.38
235.817	77.38
236.051	73.38
236.285	81.38
236.519	74.38
236.753	83.38
236.987	69.38
237.221	81.38
237.455	66.38
237.689	79.38
237.922	75.38
238.156	81.38
238.39	83.38
238.624	73.38
238.858	63.38
239.091	79.38
239.325	73.38
239.559	62.38
239.793	65.38
240.027	86.38
240.26	69.38
240.494	74.38
240.728	99.38
240.961	87.38
241.195	65.38
241.429	92.38
241.662	69.38
241.896	78.38
242.13	64.38
242.363	67.38
242.597	73.38
242.83	63.38
243.064	72.38
243.298	81.38
243.531	75.38
243.765	73.38
243.998	80.38
244.232	69.38
244.465	68.38
244.699	72.38
244.932	77.38
245.166	88.38
245.399	75.38
245.633	63.38
245.866	75.38
246.099	81.38
246.333	81.38
246.566	76.38
246.8	82.38
247.033	66.38
247.266	72.38
247.5	64.38
247.733	68.38
247.966	65.38
248.2	74.38
248.433	76.38
248.666	69.38
248.899	75.38
249.133	64.38
249.366	83.38
249.599	79.38
249.832	70.38
250.066	68.38
250.299	78.38
250.532	71.38
250.765	83.38
250.998	78.38
251.231	95.38
251.465	94.38
251.698	85.38
251.931	79.38
252.164	70.38
252.397	63.38
252.63	67.38
252.863	82.38
253.096	71.38
253.329	91.38
253.562	77.38
253.795	88.38
254.028	78.38
254.261	72.38
254.494	79.38
254.727	60.38
254.96	69.38
255.193	86.38
255.426	89.38
255.659	72.38
255.892	80.38
256.124	74.38
256.357	74.38
256.59	79.38
256.823	82.38
257.056	94.38
257.289	79.38
257.521	95.38
257.754	78.38
257.987	74.38
258.22	73.38
258.452	73.38
258.685	91.38
258.918	77.38
259.151	75.38
259.383	78.38
259.616	79.38
259.849	89.38
260.081	76.38
260.314	73.38
260.547	89.38
260.779	82.38
261.012	78.38
261.244	86.38
261.477	78.38
261.71	73.38
261.942	85.38
262.175	75.38
262.407	85.38
262.64	82.38
262.872	79.38
263.105	74.38
263.337	79.38
263.57	73.38
263.802	97.38
264.035	82.38
264.267	72.38
264.499	87.38
264.732	76.38
264.964	76.38
265.197	85.38
265.429	87.38
265.661	71.38
265.894	82.38
266.126	79.38
266.358	88.38
266.591	74.38
266.823	88.38
267.055	83.38
267.287	67.38
267.52	80.38
267.752	90.38
267.984	79.38
268.216	75.38
268.448	89.38
268.681	84.38
268.913	85.38
269.145	81.38
269.377	78.38
269.609	75.38
269.841	90.38
270.073	68.38
270.306	75.38
270.538	78.38
270.77	76.38
271.002	67.38
271.234	77.38
271.466	68.38
271.698	63.38
271.93	79.38
272.162	88.38
272.394	88.38
272.626	80.38
272.858	73.38
273.09	81.38
273.322	84.38
273.553	67.38
273.785	85.38
274.017	71.38
274.249	80.38
274.481	79.38
274.713	71.38
274.945	70.38
275.176	96.38
275.408	81.38
275.64	86.38
275.872	69.38
276.104	86.38
276.335	75.38
276.567	86.38
276.799	92.38
277.031	73.38
277.262	74.38
277.494	76.38
277.726	82.38
277.957	72.38
278.189	72.38
278.421	90.38
278.652	89.38
278.884	82.38
279.115	79.38
279.347	72.38
279.579	88.38
279.81	76.38
280.042	76.38
280.273	71.38
280.505	79.38
280.736	93.38
280.968	80.38
281.199	81.38
281.431	59.38
281.662	81.38
281.894	80.38
282.125	72.38
282.356	79.38
282.588	77.38
282.819	78.38
283.051	83.38
283.282	92.38
283.513	95.38
283.745	78.38
283.976	82.38
284.207	87.38
284.439	87.38
284.67	90.38
284.901	79.38
285.132	90.38
285.364	85.38
285.595	85.38
285.826	70.38
286.057	79.38
286.288	85.38
286.52	96.38
286.751	74.38
286.982	93.38
287.213	72.38
287.444	85.38
287.675	80.38
287.906	81.38
288.138	78.38
288.369	81.38
288.6	78.38
288.831	80.38
289.062	67.38
289.293	75.38
289.524	74.38
289.755	99.38
289.986	88.38
290.217	85.38
290.448	87.38
290.679	91.38
290.91	88.38
291.141	81.38
291.371	86.38
291.602	81.38
291.833	78.38
292.064	81.38
292.295	96.38
292.526	80.38
292.757	83.38
292.987	88.38
293.218	80.38
293.449	82.38
293.68	90.38
293.91	90.38
294.141	87.38
294.372	78.38
294.603	79.38
294.833	66.38
295.064	85.38
295.295	83.38
295.525	65.38
295.756	73.38
295.987	78.38
296.217	62.38
296.448	86.38
296.679	82.38
296.909	74.38
297.14	72.38
297.37	75.38
297.601	72.38
297.831	74.38
298.062	94.38
298.292	87.38
298.523	80.38
298.753	67.38
298.984	91.38
299.214	94.38
299.445	77.38
299.675	85.38
299.905	76.38
300.136	89.38
300.366	79.38
300.597	93.38
300.827	87.38
301.057	81.38
301.288	72.38
301.518	82.38
301.748	85.38
301.979	98.38
302.209	82.38
302.439	85.38
302.669	86.38
302.9	82.38
303.13	91.38
303.36	89.38
303.59	74.38
303.82	88.38
304.051	69.38
304.281	90.38
304.511	89.38
304.741	69.38
304.971	96.38
305.201	90.38
305.431	79.38
305.661	71.38
305.891	84.38
306.121	87.38
306.352	81.38
306.582	82.38
306.812	85.38
307.042	102.38
307.272	85.38
307.502	75.38
307.731	98.38
307.961	86.38
308.191	81.38
308.421	82.38
308.651	83.38
308.881	75.38
309.111	74.38
309.341	95.38
309.571	78.38
309.8	81.38
310.03	75.38
310.26	90.38
310.49	88.38
310.72	78.38
310.949	78.38
311.179	74.38
311.409	78.38
311.639	76.38
311.868	82.38
312.098	87.38
312.328	79.38
312.557	96.38
312.787	72.38
313.017	87.38
313.246	77.38
313.476	90.38
313.706	68.38
313.935	87.38
314.165	79.38
314.394	83.38
314.624	85.38
314.853	85.38
315.083	70.38
315.312	101.38
315.542	75.38
315.771	96.38
316.001	84.38
316.23	91.38
316.46	75.38
316.689	83.38
316.919	83.38
317.148	86.38
317.377	87.38
317.607	90.38
317.836	86.38
318.065	102.38
318.295	75.38
318.524	89.38
318.753	88.38
318.983	88.38
319.212	79.38
319.441	93.38
319.67	88.38
319.9	84.38
320.129	85.38
320.358	88.38
320.587	89.38
320.816	85.38
321.046	78.38
321.275	95.38
321.504	98.38
321.733	79.38
321.962	69.38
322.191	81.38
322.42	86.38
322.649	92.38
322.878	90.38
323.108	86.38
323.337	81.38
323.566	79.38
323.795	89.38
324.024	76.38
324.253	83.38
324.482	96.38
324.71	73.38
324.939	75.38
325.168	76.38
325.397	85.38
325.626	86.38
325.855	79.38
326.084	81.38
326.313	93.38
326.542	76.38
326.77	87.38
326.999	73.38
327.228	73.38
327.457	81.38
327.686	84.38
327.914	100.38
328.143	88.38
328.372	75.38
328.6	90.38
328.829	71.38
329.058	82.38
329.287	91.38
329.515	95.38
329.744	93.38
329.972	89.38
330.201	73.38
330.43	82.38
330.658	70.38
330.887	75.38
331.115	88.38
331.344	99.38
331.572	101.38
331.801	84.38
332.03	97.38
332.258	79.38
332.486	82.38
332.715	82.38
332.943	93.38
333.172	82.38
333.4	89.38
333.629	85.38
333.857	94.38
334.085	96.38
334.314	81.38
334.542	83.38
334.771	68.38
334.999	91.38
335.227	88.38
335.455	96.38
335.684	98.38
335.912	100.38
336.14	101.38
336.369	88.38
336.597	96.38
336.825	90.38
337.053	96.38
337.281	77.38
337.51	99.38
337.738	89.38
337.966	103.38
338.194	75.38
338.422	69.38
338.65	93.38
338.878	97.38
339.106	69.38
339.334	88.38
339.562	85.38
339.79	83.38
340.018	82.38
340.246	78.38
340.474	74.38
340.702	78.38
340.93	78.38
341.158	94.38
341.386	93.38
341.614	106.38
341.842	89.38
342.07	86.38
342.298	81.38
342.526	81.38
342.754	78.38
342.981	82.38
343.209	82.38
343.437	90.38
343.665	90.38
343.893	82.38
344.12	73.38
344.348	76.38
344.576	96.38
344.804	88.38
345.031	80.38
345.259	87.38
345.487	88.38
345.714	81.38
345.942	90.38
346.17	75.38
346.397	83.38
346.625	90.38
346.853	84.38
347.08	93.38
347.308	101.38
347.535	97.38
347.763	89.38
347.99	94.38
348.218	103.38
348.445	95.38
348.673	94.38
348.9	81.38
349.128	79.38
349.355	80.38
349.583	91.38
349.81	93.38
350.037	85.38
350.265	83.38
350.492	82.38
350.72	73.38
350.947	91.38
351.174	82.38
351.402	89.38
351.629	95.38
351.856	82.38
352.083	85.38
352.311	83.38
352.538	83.38
352.765	99.38
352.992	87.38
353.22	84.38
353.447	87.38
353.674	78.38
353.901	90.38
354.128	85.38
354.355	90.38
354.583	89.38
354.81	82.38
355.037	81.38
355.264	87.38
355.491	100.38
355.718	79.38
355.945	88.38
356.172	81.38
356.399	84.38
356.626	85.38
356.853	77.38
357.08	82.38
357.307	81.38
357.534	84.38
357.761	94.38
357.988	89.38
358.215	100.38
358.441	84.38
358.668	95.38
358.895	76.38
359.122	75.38
359.349	75.38
359.576	91.38
359.802	86.38
360.029	89.38
360.256	92.38
360.483	87.38
360.709	85.38
360.936	86.38
361.163	86.38
361.39	82.38
361.616	89.38
361.843	63.38
362.07	94.38
362.296	98.38
362.523	98.38
362.749	105.38
362.976	100.38
363.203	113.38
363.429	99.38
363.656	79.38
363.882	98.38
364.109	90.38
364.335	106.38
364.562	112.38
364.788	110.38
365.015	78.38
365.241	82.38
365.468	57.38
365.694	83.38
365.92	89.38
366.147	69.38
366.373	83.38
366.599	79.38
366.826	85.38
367.052	90.38
367.278	87.38
367.505	74.38
367.731	90.38
367.957	89.38
368.184	86.38
368.41	87.38
368.636	90.38
368.862	80.38
369.089	90.38
369.315	93.38
369.541	78.38
369.767	86.38
369.993	87.38
370.219	76.38
370.445	75.38
370.672	73.38
370.898	90.38
371.124	80.38
371.35	96.38
371.576	96.38
371.802	90.38
372.028	81.38
372.254	88.38
372.48	87.38
372.706	90.38
372.932	88.38
373.158	88.38
373.384	85.38
373.61	90.38
373.835	87.38
374.061	77.38
374.287	72.38
374.513	96.38
374.739	74.38
374.965	82.38
375.191	89.38
375.416	97.38
375.642	85.38
375.868	90.38
376.094	89.38
376.319	83.38
376.545	83.38
376.771	80.38
376.997	77.38
377.222	77.38
377.448	84.38
377.674	85.38
377.899	85.38
378.125	92.38
378.35	76.38
378.576	96.38
378.802	90.38
379.027	91.38
379.253	99.38
379.478	93.38
379.704	89.38
379.929	81.38
380.155	83.38
380.38	85.38
380.606	75.38
380.831	83.38
381.057	95.38
381.282	104.38
381.507	96.38
381.733	94.38
381.958	94.38
382.184	82.38
382.409	101.38
382.634	102.38
382.86	91.38
383.085	104.38
383.31	96.38
383.535	70.38
383.761	93.38
383.986	87.38
384.211	90.38
384.436	83.38
384.662	94.38
384.887	77.38
385.112	90.38
385.337	79.38
385.562	87.38
385.787	82.38
386.013	86.38
386.238	87.38
386.463	97.38
386.688	102.38
386.913	73.38
387.138	87.38
387.363	91.38
387.588	88.38
387.813	93.38
388.038	91.38
388.263	97.38
388.488	82.38
388.713	94.38
388.938	94.38
389.163	76.38
389.387	96.38
389.612	74.38
389.837	77.38
390.062	82.38
390.287	86.38
390.512	103.38
390.736	73.38
390.961	80.38
391.186	92.38
391.411	97.38
391.636	87.38
391.86	94.38
392.085	83.38
392.31	95.38
392.534	104.38
392.759	112.38
392.984	154.38
393.208	217.38
393.433	313.38
393.658	231.38
393.882	136.38
394.107	99.38
394.331	94.38
394.556	107.38
394.78	95.38
395.005	109.38
395.229	88.38
395.454	93.38
395.678	105.38
395.903	96.38
396.127	109.38
396.352	136.38
396.576	146.38
396.801	208.38
397.025	244.38
397.249	154.38
397.474	116.38
397.698	102.38
397.922	94.38
398.147	99.38
398.371	79.38
398.595	85.38
398.82	81.38
399.044	87.38
399.268	97.38
399.492	83.38
399.717	79.38
399.941	92.38
400.165	76.38
400.389	80.38
400.613	92.38
400.837	73.38
401.062	81.38
401.286	83.38
401.51	86.38
401.734	98.38
401.958	88.38
402.182	89.38
402.406	81.38
402.63	80.38
402.854	87.38
403.078	81.38
403.302	77.38
403.526	90.38
403.75	90.38
403.974	84.38
404.198	88.38
404.422	88.38
404.645	89.38
404.869	90.38
405.093	98.38
405.317	86.38
405.541	82.38
405.765	95.38
405.988	87.38
406.212	89.38
406.436	89.38
406.66	85.38
406.883	81.38
407.107	86.38
407.331	82.38
407.555	86.38
407.778	94.38
408.002	104.38
408.226	99.38
408.449	80.38
408.673	73.38
408.896	83.38
409.12	76.38
409.344	93.38
409.567	90.38
409.791	100.38
410.014	96.38
410.238	89.38
410.461	92.38
410.685	90.38
410.908	66.38
411.132	95.38
411.355	77.38
411.578	83.38
411.802	92.38
412.025	90.38
412.249	88.38
412.472	90.38
412.695	94.38
412.919	80.38
413.142	84.38
413.365	96.38
413.589	86.38
413.812	88.38
414.035	86.38
414.258	93.38
414.482	83.38
414.705	84.38
414.928	90.38
415.151	75.38
415.374	82.38
415.597	85.38
415.821	82.38
416.044	89.38
416.267	96.38
416.49	85.38
416.713	84.38
416.936	65.38
417.159	90.38
417.382	71.38
417.605	91.38
417.828	78.38
418.051	89.38
418.274	88.38
418.497	88.38
418.72	75.38
418.943	72.38
419.166	89.38
419.389	109.38
419.611	93.38
419.834	83.38
420.057	96.38
420.28	80.38
420.503	90.38
420.726	94.38
420.948	89.38
421.171	79.38
421.394	100.38
421.617	104.38
421.839	112.38
422.062	120.38
422.285	141.38
422.507	259.38
422.73	326.38
422.953	308.38
423.175	182.38
423.398	120.38
423.621	106.38
423.843	98.38
424.066	79.38
424.288	87.38
424.511	86.38
424.733	82.38
424.956	80.38
425.178	87.38
425.401	84.38
425.623	86.38
425.846	85.38
426.068	89.38
426.291	61.38
426.513	82.38
426.735	84.38
426.958	93.38
427.18	82.38
427.402	85.38
427.625	97.38
427.847	103.38
428.069	114.38
428.292	101.38
428.514	129.38
428.736	110.38
428.958	113.38
429.181	115.38
429.403	86.38
429.625	93.38
429.847	120.38
430.069	161.38
430.292	164.38
430.514	152.38
430.736	115.38
430.958	135.38
431.18	91.38
431.402	76.38
431.624	89.38
431.846	109.38
432.068	130.38
432.29	89.38
432.512	84.38
432.734	83.38
432.956	76.38
433.178	89.38
433.4	76.38
433.622	91.38
433.844	84.38
434.066	73.38
434.287	83.38
434.509	97.38
434.731	76.38
434.953	84.38
435.175	90.38
435.397	93.38
435.618	78.38
435.84	93.38
436.062	79.38
436.284	95.38
436.505	79.38
436.727	76.38
436.949	111.38
437.17	101.38
437.392	86.38
437.614	82.38
437.835	89.38
438.057	79.38
438.278	92.38
438.5	65.38
438.721	79.38
438.943	85.38
439.165	84.38
439.386	94.38
439.608	81.38
439.829	76.38
440.05	79.38
440.272	96.38
440.493	89.38
440.715	101.38
440.936	94.38
441.158	81.38
441.379	90.38
441.6	75.38
441.822	78.38
442.043	95.38
442.264	93.38
442.486	120.38
442.707	145.38
442.928	111.38
443.149	99.38
443.371	131.38
443.592	208.38
443.813	189.38
444.034	106.38
444.255	89.38
444.476	88.38
444.698	86.38
444.919	95.38
445.14	179.38
445.361	191.38
445.582	245.38
445.803	215.38
446.024	105.38
446.245	101.38
446.466	101.38
446.687	93.38
446.908	83.38
447.129	81.38
447.35	88.38
447.571	87.38
447.792	80.38
448.013	89.38
448.234	81.38
448.455	90.38
448.675	94.38
448.896	86.38
449.117	92.38
449.338	81.38
449.559	81.38
449.779	63.38
450	81.38
450.221	91.38
450.442	77.38
450.662	74.38
450.883	63.38
451.104	71.38
451.324	68.38
451.545	95.38
451.766	82.38
451.986	93.38
452.207	75.38
452.428	84.38
452.648	93.38
452.869	117.38
453.089	96.38
453.31	69.38
453.53	80.38
453.751	88.38
453.971	90.38
454.192	91.38
454.412	81.38
454.633	67.38
454.853	78.38
455.073	66.38
455.294	80.38
455.514	91.38
455.734	67.38
455.955	77.38
456.175	86.38
456.395	84.38
456.616	96.38
456.836	85.38
457.056	76.38
457.276	89.38
457.497	79.38
457.717	96.38
457.937	100.38
458.157	112.38
458.377	128.38
458.598	113.38
458.818	116.38
459.038	88.38
459.258	70.38
459.478	82.38
459.698	90.38
459.918	103.38
460.138	92.38
460.358	88.38
460.578	84.38
460.798	107.38
461.018	86.38
461.238	88.38
461.458	71.38
461.678	81.38
461.898	95.38
462.118	87.38
462.338	70.38
462.558	86.38
462.777	88.38
462.997	71.38
463.217	86.38
463.437	85.38
463.657	76.38
463.876	81.38
464.096	76.38
464.316	82.38
464.536	91.38
464.755	79.38
464.975	90.38
465.195	68.38
465.414	73.38
465.634	73.38
465.854	81.38
466.073	69.38
466.293	82.38
466.512	91.38
466.732	88.38
466.951	85.38
467.171	90.38
467.391	99.38
467.61	77.38
467.829	95.38
468.049	89.38
468.268	97.38
468.488	93.38
468.707	98.38
468.927	76.38
469.146	75.38
469.365	79.38
469.585	89.38
469.804	79.38
470.023	78.38
470.243	85.38
470.462	81.38
470.681	84.38
470.901	90.38
471.12	71.38
471.339	70.38
471.558	80.38
471.777	83.38
471.997	86.38
472.216	81.38
472.435	81.38
472.654	92.38
472.873	83.38
473.092	83.38
473.311	89.38
473.53	75.38
473.749	86.38
473.968	95.38
474.187	76.38
474.406	82.38
474.625	99.38
474.844	74.38
475.063	92.38
475.282	81.38
475.501	86.38
475.72	95.38
475.939	91.38
476.158	78.38
476.377	84.38
476.596	88.38
476.814	91.38
477.033	78.38
477.252	76.38
477.471	79.38
477.69	88.38
477.908	91.38
478.127	104.38
478.346	83.38
478.564	94.38
478.783	83.38
479.002	85.38
479.22	90.38
479.439	82.38
479.658	88.38
479.876	72.38
480.095	79.38
480.313	85.38
480.532	73.38
480.751	84.38
480.969	81.38
481.188	71.38
481.406	83.38
481.624	77.38
481.843	87.38
482.061	86.38
482.28	93.38
482.498	95.38
482.717	98.38
482.935	89.38
483.153	85.38
483.372	69.38
483.59	84.38
483.808	73.38
484.027	87.38
484.245	94.38
484.463	87.38
484.681	102.38
484.9	88.38
485.118	91.38
485.336	85.38
485.554	85.38
485.772	87.38
485.99	78.38
486.209	75.38
486.427	93.38
486.645	85.38
486.863	83.38
487.081	81.38
487.299	69.38
487.517	84.38
487.735	89.38
487.953	162.38
488.171	137.38
488.389	90.38
488.607	91.38
488.825	87.38
489.043	91.38
489.261	95.38
489.479	78.38
489.696	85.38
489.914	93.38
490.132	95.38
490.35	81.38
490.568	79.38
490.786	82.38
491.003	81.38
491.221	85.38
491.439	74.38
491.657	91.38
491.874	92.38
492.092	87.38
492.31	89.38
492.527	83.38
492.745	88.38
492.963	93.38
493.18	98.38
493.398	86.38
493.615	85.38
493.833	84.38
494.05	73.38
494.268	85.38
494.485	95.38
494.703	82.38
494.92	80.38
495.138	79.38
495.355	84.38
495.573	72.38
495.79	72.38
496.008	89.38
496.225	79.38
496.442	89.38
496.66	81.38
496.877	75.38
497.094	72.38
497.312	71.38
497.529	81.38
497.746	79.38
497.963	87.38
498.181	81.38
498.398	87.38
498.615	93.38
498.832	85.38
499.049	89.38
499.267	89.38
499.484	95.38
499.701	76.38
499.918	89.38
500.135	76.38
500.352	97.38
500.569	102.38
500.786	93.38
501.003	90.38
501.22	89.38
501.437	79.38
501.654	76.38
501.871	87.38
502.088	76.38
502.305	99.38
502.522	91.38
502.739	83.38
502.956	83.38
503.172	79.38
503.389	82.38
503.606	76.38
503.823	95.38
504.04	95.38
504.256	128.38
504.473	145.38
504.69	93.38
504.907	82.38
505.123	86.38
505.34	86.38
505.557	93.38
505.773	75.38
505.99	97.38
506.207	97.38
506.423	95.38
506.64	90.38
506.856	81.38
507.073	79.38
507.289	68.38
507.506	89.38
507.722	89.38
507.939	71.38
508.155	94.38
508.372	85.38
508.588	87.38
508.805	89.38
509.021	84.38
509.238	89.38
509.454	81.38
509.67	90.38
509.887	89.38
510.103	83.38
510.319	92.38
510.536	72.38
510.752	78.38
510.968	89.38
511.184	78.38
511.401	70.38
511.617	80.38
511.833	72.38
512.049	83.38
512.265	89.38
512.481	102.38
512.698	81.38
512.914	86.38
513.13	73.38
513.346	81.38
513.562	85.38
513.778	84.38
513.994	84.38
514.21	88.38
514.426	95.38
514.642	84.38
514.858	89.38
515.074	73.38
515.29	96.38
515.506	91.38
515.721	83.38
515.937	83.38
516.153	76.38
516.369	96.38
516.585	79.38
516.801	83.38
517.016	80.38
517.232	102.38
517.448	94.38
517.664	95.38
517.879	106.38
518.095	93.38
518.311	89.38
518.527	107.38
518.742	88.38
