Data from CBS_2_HRD10591_00037.txt Node
Date: Mon Jan 19 14:05:04 EST 2026
User: Yrep
Spectrometer: HR+D1059
Trigger mode: 1
Integration Time (sec): 1.000000E-1
Scans to average: 1
Electric dark correction enabled: true
Nonlinearity correction enabled: false
Boxcar width: 0
XAxis mode: Wavelengths
Number of Pixels in Spectrum: 2048
>>>>>Begin Spectral Data<<<<<
223.165	-8.12
223.4	-8.12
223.635	-8.12
223.869	-11.12
224.104	-27.12
224.338	-12.12
224.573	-9.12
224.808	-15.12
225.042	-9.12
225.277	-8.12
225.511	-1.12
225.746	9.88
225.98	8.88
226.215	12.88
226.449	13.88
226.683	8.88
226.918	21.88
227.152	24.88
227.387	40.88
227.621	30.88
227.856	43.88
228.09	49.88
228.324	59.88
228.559	43.88
228.793	51.88
229.027	53.88
229.262	67.88
229.496	58.88
229.73	68.88
229.964	63.88
230.199	52.88
230.433	60.88
230.667	85.88
230.901	80.88
231.136	69.88
231.37	80.88
231.604	59.88
231.838	72.88
232.072	85.88
232.306	81.88
232.541	68.88
232.775	77.88
233.009	64.88
233.243	76.88
233.477	75.88
233.711	65.88
233.945	66.88
234.179	76.88
234.413	77.88
234.647	71.88
234.881	66.88
235.115	74.88
235.349	65.88
235.583	85.88
235.817	57.88
236.051	80.88
236.285	66.88
236.519	88.88
236.753	79.88
236.987	67.88
237.221	78.88
237.455	86.88
237.689	68.88
237.922	64.88
238.156	70.88
238.39	66.88
238.624	63.88
238.858	71.88
239.091	55.88
239.325	65.88
239.559	75.88
239.793	88.88
240.027	76.88
240.26	79.88
240.494	78.88
240.728	76.88
240.961	78.88
241.195	70.88
241.429	68.88
241.662	75.88
241.896	72.88
242.13	72.88
242.363	85.88
242.597	79.88
242.83	78.88
243.064	78.88
243.298	91.88
243.531	77.88
243.765	88.88
243.998	73.88
244.232	72.88
244.465	72.88
244.699	82.88
244.932	60.88
245.166	73.88
245.399	71.88
245.633	68.88
245.866	81.88
246.099	72.88
246.333	74.88
246.566	68.88
246.8	76.88
247.033	76.88
247.266	83.88
247.5	76.88
247.733	74.88
247.966	78.88
248.2	92.88
248.433	72.88
248.666	92.88
248.899	76.88
249.133	82.88
249.366	85.88
249.599	81.88
249.832	77.88
250.066	82.88
250.299	69.88
250.532	67.88
250.765	76.88
250.998	70.88
251.231	71.88
251.465	74.88
251.698	64.88
251.931	69.88
252.164	79.88
252.397	76.88
252.63	76.88
252.863	91.88
253.096	88.88
253.329	90.88
253.562	63.88
253.795	81.88
254.028	71.88
254.261	84.88
254.494	63.88
254.727	86.88
254.96	78.88
255.193	70.88
255.426	80.88
255.659	82.88
255.892	86.88
256.124	72.88
256.357	84.88
256.59	80.88
256.823	71.88
257.056	78.88
257.289	64.88
257.521	82.88
257.754	80.88
257.987	77.88
258.22	64.88
258.452	76.88
258.685	70.88
258.918	75.88
259.151	71.88
259.383	74.88
259.616	80.88
259.849	73.88
260.081	88.88
260.314	85.88
260.547	74.88
260.779	68.88
261.012	69.88
261.244	80.88
261.477	93.88
261.71	89.88
261.942	82.88
262.175	80.88
262.407	78.88
262.64	80.88
262.872	72.88
263.105	85.88
263.337	75.88
263.57	64.88
263.802	68.88
264.035	75.88
264.267	81.88
264.499	86.88
264.732	97.88
264.964	75.88
265.197	66.88
265.429	84.88
265.661	84.88
265.894	70.88
266.126	86.88
266.358	85.88
266.591	83.88
266.823	86.88
267.055	75.88
267.287	79.88
267.52	91.88
267.752	82.88
267.984	87.88
268.216	85.88
268.448	82.88
268.681	70.88
268.913	87.88
269.145	80.88
269.377	78.88
269.609	80.88
269.841	69.88
270.073	77.88
270.306	75.88
270.538	74.88
270.77	67.88
271.002	83.88
271.234	68.88
271.466	75.88
271.698	77.88
271.93	84.88
272.162	76.88
272.394	77.88
272.626	89.88
272.858	86.88
273.09	76.88
273.322	76.88
273.553	84.88
273.785	75.88
274.017	70.88
274.249	76.88
274.481	78.88
274.713	81.88
274.945	92.88
275.176	81.88
275.408	70.88
275.64	71.88
275.872	84.88
276.104	93.88
276.335	87.88
276.567	84.88
276.799	78.88
277.031	79.88
277.262	69.88
277.494	61.88
277.726	75.88
277.957	76.88
278.189	78.88
278.421	72.88
278.652	80.88
278.884	61.88
279.115	80.88
279.347	86.88
279.579	79.88
279.81	76.88
280.042	82.88
280.273	76.88
280.505	76.88
280.736	80.88
280.968	87.88
281.199	84.88
281.431	68.88
281.662	75.88
281.894	82.88
282.125	95.88
282.356	81.88
282.588	86.88
282.819	76.88
283.051	66.88
283.282	70.88
283.513	81.88
283.745	64.88
283.976	72.88
284.207	88.88
284.439	78.88
284.67	91.88
284.901	82.88
285.132	82.88
285.364	83.88
285.595	75.88
285.826	84.88
286.057	87.88
286.288	85.88
286.52	75.88
286.751	94.88
286.982	80.88
287.213	78.88
287.444	82.88
287.675	84.88
287.906	93.88
288.138	91.88
288.369	86.88
288.6	78.88
288.831	78.88
289.062	91.88
289.293	88.88
289.524	74.88
289.755	85.88
289.986	76.88
290.217	60.88
290.448	82.88
290.679	83.88
290.91	90.88
291.141	78.88
291.371	67.88
291.602	74.88
291.833	76.88
292.064	70.88
292.295	74.88
292.526	88.88
292.757	77.88
292.987	76.88
293.218	75.88
293.449	86.88
293.68	79.88
293.91	70.88
294.141	74.88
294.372	82.88
294.603	92.88
294.833	91.88
295.064	83.88
295.295	74.88
295.525	68.88
295.756	69.88
295.987	74.88
296.217	76.88
296.448	81.88
296.679	80.88
296.909	93.88
297.14	74.88
297.37	100.88
297.601	91.88
297.831	74.88
298.062	92.88
298.292	86.88
298.523	72.88
298.753	88.88
298.984	72.88
299.214	77.88
299.445	85.88
299.675	78.88
299.905	89.88
300.136	84.88
300.366	92.88
300.597	78.88
300.827	66.88
301.057	74.88
301.288	78.88
301.518	82.88
301.748	88.88
301.979	99.88
302.209	86.88
302.439	74.88
302.669	82.88
302.9	75.88
303.13	75.88
303.36	84.88
303.59	92.88
303.82	81.88
304.051	90.88
304.281	82.88
304.511	83.88
304.741	77.88
304.971	72.88
305.201	86.88
305.431	78.88
305.661	82.88
305.891	90.88
306.121	94.88
306.352	83.88
306.582	69.88
306.812	78.88
307.042	69.88
307.272	77.88
307.502	90.88
307.731	91.88
307.961	76.88
308.191	80.88
308.421	82.88
308.651	76.88
308.881	76.88
309.111	85.88
309.341	83.88
309.571	93.88
309.8	72.88
310.03	75.88
310.26	92.88
310.49	78.88
310.72	69.88
310.949	64.88
311.179	90.88
311.409	90.88
311.639	81.88
311.868	68.88
312.098	97.88
312.328	79.88
312.557	73.88
312.787	69.88
313.017	77.88
313.246	87.88
313.476	63.88
313.706	83.88
313.935	84.88
314.165	86.88
314.394	87.88
314.624	79.88
314.853	87.88
315.083	88.88
315.312	76.88
315.542	77.88
315.771	90.88
316.001	92.88
316.23	78.88
316.46	75.88
316.689	92.88
316.919	75.88
317.148	84.88
317.377	84.88
317.607	96.88
317.836	70.88
318.065	88.88
318.295	89.88
318.524	82.88
318.753	78.88
318.983	69.88
319.212	78.88
319.441	73.88
319.67	95.88
319.9	77.88
320.129	80.88
320.358	81.88
320.587	78.88
320.816	84.88
321.046	88.88
321.275	85.88
321.504	68.88
321.733	76.88
321.962	70.88
322.191	76.88
322.42	78.88
322.649	83.88
322.878	87.88
323.108	85.88
323.337	82.88
323.566	77.88
323.795	79.88
324.024	88.88
324.253	85.88
324.482	88.88
324.71	80.88
324.939	96.88
325.168	76.88
325.397	81.88
325.626	74.88
325.855	87.88
326.084	85.88
326.313	76.88
326.542	96.88
326.77	80.88
326.999	77.88
327.228	80.88
327.457	82.88
327.686	99.88
327.914	90.88
328.143	99.88
328.372	75.88
328.6	76.88
328.829	83.88
329.058	89.88
329.287	79.88
329.515	84.88
329.744	81.88
329.972	92.88
330.201	81.88
330.43	62.88
330.658	74.88
330.887	86.88
331.115	77.88
331.344	77.88
331.572	73.88
331.801	78.88
332.03	91.88
332.258	75.88
332.486	85.88
332.715	85.88
332.943	75.88
333.172	96.88
333.4	77.88
333.629	83.88
333.857	84.88
334.085	83.88
334.314	86.88
334.542	74.88
334.771	75.88
334.999	86.88
335.227	85.88
335.455	86.88
335.684	87.88
335.912	90.88
336.14	94.88
336.369	74.88
336.597	72.88
336.825	88.88
337.053	96.88
337.281	81.88
337.51	92.88
337.738	80.88
337.966	85.88
338.194	75.88
338.422	99.88
338.65	94.88
338.878	76.88
339.106	85.88
339.334	74.88
339.562	84.88
339.79	79.88
340.018	89.88
340.246	66.88
340.474	71.88
340.702	84.88
340.93	82.88
341.158	58.88
341.386	81.88
341.614	97.88
341.842	81.88
342.07	69.88
342.298	82.88
342.526	82.88
342.754	82.88
342.981	81.88
343.209	77.88
343.437	92.88
343.665	89.88
343.893	76.88
344.12	70.88
344.348	70.88
344.576	80.88
344.804	82.88
345.031	77.88
345.259	71.88
345.487	91.88
345.714	76.88
345.942	97.88
346.17	80.88
346.397	66.88
346.625	62.88
346.853	80.88
347.08	87.88
347.308	80.88
347.535	88.88
347.763	79.88
347.99	88.88
348.218	76.88
348.445	83.88
348.673	80.88
348.9	88.88
349.128	80.88
349.355	74.88
349.583	89.88
349.81	88.88
350.037	94.88
350.265	90.88
350.492	86.88
350.72	82.88
350.947	84.88
351.174	85.88
351.402	76.88
351.629	79.88
351.856	84.88
352.083	68.88
352.311	74.88
352.538	74.88
352.765	85.88
352.992	82.88
353.22	82.88
353.447	76.88
353.674	90.88
353.901	82.88
354.128	77.88
354.355	73.88
354.583	84.88
354.81	67.88
355.037	85.88
355.264	76.88
355.491	80.88
355.718	73.88
355.945	69.88
356.172	82.88
356.399	86.88
356.626	99.88
356.853	74.88
357.08	66.88
357.307	66.88
357.534	77.88
357.761	66.88
357.988	82.88
358.215	79.88
358.441	68.88
358.668	78.88
358.895	88.88
359.122	91.88
359.349	88.88
359.576	84.88
359.802	88.88
360.029	76.88
360.256	85.88
360.483	71.88
360.709	87.88
360.936	88.88
361.163	83.88
361.39	79.88
361.616	84.88
361.843	80.88
362.07	98.88
362.296	80.88
362.523	94.88
362.749	96.88
362.976	91.88
363.203	101.88
363.429	75.88
363.656	76.88
363.882	84.88
364.109	94.88
364.335	106.88
364.562	110.88
364.788	96.88
365.015	92.88
365.241	80.88
365.468	66.88
365.694	74.88
365.92	77.88
366.147	76.88
366.373	78.88
366.599	77.88
366.826	83.88
367.052	76.88
367.278	88.88
367.505	87.88
367.731	98.88
367.957	94.88
368.184	71.88
368.41	88.88
368.636	84.88
368.862	88.88
369.089	75.88
369.315	73.88
369.541	67.88
369.767	60.88
369.993	90.88
370.219	88.88
370.445	85.88
370.672	80.88
370.898	72.88
371.124	74.88
371.35	74.88
371.576	86.88
371.802	89.88
372.028	90.88
372.254	68.88
372.48	76.88
372.706	86.88
372.932	76.88
373.158	87.88
373.384	82.88
373.61	82.88
373.835	87.88
374.061	74.88
374.287	77.88
374.513	90.88
374.739	81.88
374.965	81.88
375.191	81.88
375.416	84.88
375.642	82.88
375.868	76.88
376.094	78.88
376.319	92.88
376.545	83.88
376.771	98.88
376.997	74.88
377.222	66.88
377.448	72.88
377.674	69.88
377.899	74.88
378.125	88.88
378.35	78.88
378.576	84.88
378.802	84.88
379.027	81.88
379.253	83.88
379.478	76.88
379.704	92.88
379.929	83.88
380.155	81.88
380.38	88.88
380.606	76.88
380.831	83.88
381.057	92.88
381.282	89.88
381.507	91.88
381.733	88.88
381.958	89.88
382.184	76.88
382.409	76.88
382.634	84.88
382.86	70.88
383.085	69.88
383.31	77.88
383.535	79.88
383.761	76.88
383.986	87.88
384.211	86.88
384.436	82.88
384.662	80.88
384.887	79.88
385.112	70.88
385.337	84.88
385.562	76.88
385.787	87.88
386.013	92.88
386.238	72.88
386.463	70.88
386.688	85.88
386.913	86.88
387.138	90.88
387.363	95.88
387.588	60.88
387.813	81.88
388.038	78.88
388.263	82.88
388.488	84.88
388.713	86.88
388.938	89.88
389.163	89.88
389.387	90.88
389.612	73.88
389.837	68.88
390.062	84.88
390.287	85.88
390.512	74.88
390.736	83.88
390.961	71.88
391.186	63.88
391.411	72.88
391.636	90.88
391.86	76.88
392.085	72.88
392.31	81.88
392.534	83.88
392.759	97.88
392.984	120.88
393.208	169.88
393.433	228.88
393.658	183.88
393.882	114.88
394.107	91.88
394.331	90.88
394.556	91.88
394.78	80.88
395.005	92.88
395.229	93.88
395.454	80.88
395.678	89.88
395.903	102.88
396.127	102.88
396.352	118.88
396.576	124.88
396.801	162.88
397.025	188.88
397.249	128.88
397.474	122.88
397.698	102.88
397.922	89.88
398.147	82.88
398.371	72.88
398.595	82.88
398.82	93.88
399.044	85.88
399.268	84.88
399.492	79.88
399.717	77.88
399.941	84.88
400.165	86.88
400.389	90.88
400.613	69.88
400.837	85.88
401.062	78.88
401.286	75.88
401.51	89.88
401.734	80.88
401.958	84.88
402.182	96.88
402.406	85.88
402.63	78.88
402.854	77.88
403.078	82.88
403.302	83.88
403.526	108.88
403.75	78.88
403.974	74.88
404.198	79.88
404.422	80.88
404.645	73.88
404.869	93.88
405.093	86.88
405.317	73.88
405.541	74.88
405.765	70.88
405.988	88.88
406.212	92.88
406.436	76.88
406.66	91.88
406.883	73.88
407.107	88.88
407.331	90.88
407.555	74.88
407.778	76.88
408.002	88.88
408.226	74.88
408.449	70.88
408.673	91.88
408.896	76.88
409.12	76.88
409.344	100.88
409.567	94.88
409.791	96.88
410.014	68.88
410.238	69.88
410.461	77.88
410.685	88.88
410.908	68.88
411.132	87.88
411.355	84.88
411.578	96.88
411.802	74.88
412.025	90.88
412.249	76.88
412.472	72.88
412.695	68.88
412.919	76.88
413.142	70.88
413.365	99.88
413.589	85.88
413.812	79.88
414.035	83.88
414.258	86.88
414.482	75.88
414.705	90.88
414.928	87.88
415.151	89.88
415.374	79.88
415.597	69.88
415.821	80.88
416.044	76.88
416.267	92.88
416.49	86.88
416.713	85.88
416.936	83.88
417.159	82.88
417.382	82.88
417.605	71.88
417.828	80.88
418.051	81.88
418.274	88.88
418.497	71.88
418.72	82.88
418.943	75.88
419.166	68.88
419.389	84.88
419.611	82.88
419.834	66.88
420.057	84.88
420.28	76.88
420.503	85.88
420.726	90.88
420.948	78.88
421.171	77.88
421.394	101.88
421.617	92.88
421.839	109.88
422.062	108.88
422.285	134.88
422.507	191.88
422.73	284.88
422.953	273.88
423.175	169.88
423.398	118.88
423.621	94.88
423.843	95.88
424.066	74.88
424.288	83.88
424.511	76.88
424.733	83.88
424.956	86.88
425.178	92.88
425.401	89.88
425.623	84.88
425.846	88.88
426.068	84.88
426.291	87.88
426.513	82.88
426.735	75.88
426.958	99.88
427.18	86.88
427.402	73.88
427.625	70.88
427.847	84.88
428.069	98.88
428.292	111.88
428.514	104.88
428.736	101.88
428.958	116.88
429.181	114.88
429.403	96.88
429.625	84.88
429.847	114.88
430.069	139.88
430.292	146.88
430.514	138.88
430.736	107.88
430.958	123.88
431.18	85.88
431.402	86.88
431.624	101.88
431.846	109.88
432.068	113.88
432.29	91.88
432.512	81.88
432.734	68.88
432.956	81.88
433.178	80.88
433.4	85.88
433.622	93.88
433.844	85.88
434.066	86.88
434.287	86.88
434.509	88.88
434.731	71.88
434.953	65.88
435.175	84.88
435.397	76.88
435.618	87.88
435.84	95.88
436.062	80.88
436.284	92.88
436.505	82.88
436.727	84.88
436.949	83.88
437.17	88.88
437.392	79.88
437.614	82.88
437.835	80.88
438.057	91.88
438.278	86.88
438.5	65.88
438.721	76.88
438.943	89.88
439.165	78.88
439.386	80.88
439.608	84.88
439.829	67.88
440.05	88.88
440.272	58.88
440.493	80.88
440.715	75.88
440.936	78.88
441.158	83.88
441.379	76.88
441.6	76.88
441.822	81.88
442.043	91.88
442.264	87.88
442.486	113.88
442.707	136.88
442.928	100.88
443.149	107.88
443.371	128.88
443.592	195.88
443.813	173.88
444.034	89.88
444.255	108.88
444.476	88.88
444.698	90.88
444.919	81.88
445.14	148.88
445.361	168.88
445.582	223.88
445.803	181.88
446.024	115.88
446.245	71.88
446.466	84.88
446.687	82.88
446.908	73.88
447.129	75.88
447.35	82.88
447.571	80.88
447.792	78.88
448.013	78.88
448.234	73.88
448.455	68.88
448.675	78.88
448.896	87.88
449.117	87.88
449.338	76.88
449.559	70.88
449.779	68.88
450	74.88
450.221	86.88
450.442	71.88
450.662	68.88
450.883	73.88
451.104	88.88
451.324	79.88
451.545	79.88
451.766	88.88
451.986	68.88
452.207	78.88
452.428	72.88
452.648	89.88
452.869	82.88
453.089	80.88
453.31	66.88
453.53	81.88
453.751	104.88
453.971	92.88
454.192	74.88
454.412	74.88
454.633	77.88
454.853	84.88
455.073	78.88
455.294	85.88
455.514	70.88
455.734	79.88
455.955	74.88
456.175	66.88
456.395	65.88
456.616	70.88
456.836	74.88
457.056	86.88
457.276	70.88
457.497	96.88
457.717	81.88
457.937	100.88
458.157	110.88
458.377	111.88
458.598	106.88
458.818	98.88
459.038	84.88
459.258	73.88
459.478	74.88
459.698	82.88
459.918	78.88
460.138	78.88
460.358	88.88
460.578	82.88
460.798	93.88
461.018	96.88
461.238	90.88
461.458	86.88
461.678	76.88
461.898	87.88
462.118	90.88
462.338	70.88
462.558	73.88
462.777	92.88
462.997	82.88
463.217	78.88
463.437	96.88
463.657	80.88
463.876	83.88
464.096	81.88
464.316	80.88
464.536	78.88
464.755	78.88
464.975	88.88
465.195	84.88
465.414	87.88
465.634	86.88
465.854	75.88
466.073	84.88
466.293	88.88
466.512	76.88
466.732	74.88
466.951	86.88
467.171	97.88
467.391	68.88
467.61	95.88
467.829	83.88
468.049	76.88
468.268	94.88
468.488	85.88
468.707	77.88
468.927	81.88
469.146	75.88
469.365	70.88
469.585	72.88
469.804	74.88
470.023	90.88
470.243	96.88
470.462	85.88
470.681	81.88
470.901	80.88
471.12	78.88
471.339	83.88
471.558	85.88
471.777	87.88
471.997	80.88
472.216	80.88
472.435	79.88
472.654	81.88
472.873	74.88
473.092	78.88
473.311	71.88
473.53	80.88
473.749	78.88
473.968	74.88
474.187	88.88
474.406	84.88
474.625	76.88
474.844	70.88
475.063	75.88
475.282	90.88
475.501	88.88
475.72	97.88
475.939	81.88
476.158	85.88
476.377	76.88
476.596	68.88
476.814	70.88
477.033	82.88
477.252	79.88
477.471	78.88
477.69	81.88
477.908	81.88
478.127	80.88
478.346	72.88
478.564	83.88
478.783	78.88
479.002	78.88
479.22	89.88
479.439	73.88
479.658	72.88
479.876	88.88
480.095	95.88
480.313	88.88
480.532	82.88
480.751	89.88
480.969	71.88
481.188	72.88
481.406	91.88
481.624	76.88
481.843	75.88
482.061	86.88
482.28	89.88
482.498	83.88
482.717	76.88
482.935	78.88
483.153	72.88
483.372	90.88
483.59	78.88
483.808	81.88
484.027	80.88
484.245	82.88
484.463	81.88
484.681	99.88
484.9	88.88
485.118	80.88
485.336	70.88
485.554	77.88
485.772	92.88
485.99	85.88
486.209	84.88
486.427	78.88
486.645	74.88
486.863	78.88
487.081	74.88
487.299	84.88
487.517	78.88
487.735	111.88
487.953	154.88
488.171	124.88
488.389	84.88
488.607	69.88
488.825	81.88
489.043	88.88
489.261	96.88
489.479	85.88
489.696	70.88
489.914	80.88
490.132	83.88
490.35	92.88
490.568	89.88
490.786	91.88
491.003	97.88
491.221	80.88
491.439	95.88
491.657	74.88
491.874	70.88
492.092	72.88
492.31	80.88
492.527	83.88
492.745	68.88
492.963	92.88
493.18	95.88
493.398	83.88
493.615	92.88
493.833	90.88
494.05	73.88
494.268	78.88
494.485	94.88
494.703	77.88
494.92	76.88
495.138	97.88
495.355	89.88
495.573	89.88
495.79	89.88
496.008	82.88
496.225	85.88
496.442	108.88
496.66	84.88
496.877	86.88
497.094	87.88
497.312	90.88
497.529	78.88
497.746	93.88
497.963	77.88
498.181	95.88
498.398	81.88
498.615	73.88
498.832	69.88
499.049	81.88
499.267	85.88
499.484	86.88
499.701	88.88
499.918	90.88
500.135	109.88
500.352	83.88
500.569	86.88
500.786	78.88
501.003	87.88
501.22	76.88
501.437	96.88
501.654	84.88
501.871	71.88
502.088	80.88
502.305	82.88
502.522	69.88
502.739	93.88
502.956	90.88
503.172	79.88
503.389	106.88
503.606	86.88
503.823	88.88
504.04	97.88
504.256	116.88
504.473	129.88
504.69	89.88
504.907	96.88
505.123	84.88
505.34	80.88
505.557	78.88
505.773	83.88
505.99	101.88
506.207	88.88
506.423	84.88
506.64	88.88
506.856	96.88
507.073	82.88
507.289	83.88
507.506	74.88
507.722	58.88
507.939	74.88
508.155	98.88
508.372	88.88
508.588	96.88
508.805	84.88
509.021	79.88
509.238	67.88
509.454	91.88
509.67	98.88
509.887	93.88
510.103	74.88
510.319	88.88
510.536	85.88
510.752	84.88
510.968	81.88
511.184	93.88
511.401	85.88
511.617	81.88
511.833	86.88
512.049	84.88
512.265	80.88
512.481	87.88
512.698	81.88
512.914	84.88
513.13	84.88
513.346	76.88
513.562	101.88
513.778	82.88
513.994	78.88
514.21	83.88
514.426	86.88
514.642	103.88
514.858	89.88
515.074	92.88
515.29	97.88
515.506	85.88
515.721	91.88
515.937	91.88
516.153	83.88
516.369	90.88
516.585	78.88
516.801	88.88
517.016	83.88
517.232	90.88
517.448	98.88
517.664	88.88
517.879	68.88
518.095	92.88
518.311	85.88
518.527	88.88
518.742	98.88
518.958	121.88
519.173	141.88
519.389	98.88
