Data from CBS_2_HRD10591_00026.txt Node
Date: Mon Jan 19 14:04:59 EST 2026
User: Yrep
Spectrometer: HR+D1059
Trigger mode: 1
Integration Time (sec): 1.000000E-1
Scans to average: 1
Electric dark correction enabled: true
Nonlinearity correction enabled: false
Boxcar width: 0
XAxis mode: Wavelengths
Number of Pixels in Spectrum: 2048
>>>>>Begin Spectral Data<<<<<
223.165	-29.44
223.4	-29.44
223.635	-29.44
223.869	-21.44
224.104	-12.44
224.338	-4.44
224.573	-17.44
224.808	-17.44
225.042	-13.44
225.277	-6.44
225.511	-3.44
225.746	6.56
225.98	11.56
226.215	18.56
226.449	15.56
226.683	20.56
226.918	28.56
227.152	24.56
227.387	27.56
227.621	26.56
227.856	27.56
228.09	52.56
228.324	46.56
228.559	50.56
228.793	58.56
229.027	56.56
229.262	50.56
229.496	68.56
229.73	56.56
229.964	53.56
230.199	71.56
230.433	70.56
230.667	70.56
230.901	62.56
231.136	78.56
231.37	78.56
231.604	85.56
231.838	71.56
232.072	70.56
232.306	72.56
232.541	74.56
232.775	82.56
233.009	73.56
233.243	68.56
233.477	64.56
233.711	79.56
233.945	78.56
234.179	74.56
234.413	81.56
234.647	77.56
234.881	60.56
235.115	76.56
235.349	79.56
235.583	81.56
235.817	66.56
236.051	69.56
236.285	85.56
236.519	86.56
236.753	66.56
236.987	71.56
237.221	69.56
237.455	87.56
237.689	57.56
237.922	76.56
238.156	75.56
238.39	86.56
238.624	70.56
238.858	62.56
239.091	62.56
239.325	63.56
239.559	60.56
239.793	69.56
240.027	77.56
240.26	81.56
240.494	67.56
240.728	71.56
240.961	67.56
241.195	81.56
241.429	68.56
241.662	74.56
241.896	77.56
242.13	65.56
242.363	59.56
242.597	66.56
242.83	82.56
243.064	74.56
243.298	73.56
243.531	67.56
243.765	72.56
243.998	79.56
244.232	57.56
244.465	80.56
244.699	60.56
244.932	68.56
245.166	68.56
245.399	56.56
245.633	70.56
245.866	68.56
246.099	64.56
246.333	61.56
246.566	69.56
246.8	78.56
247.033	75.56
247.266	68.56
247.5	62.56
247.733	88.56
247.966	77.56
248.2	69.56
248.433	84.56
248.666	76.56
248.899	71.56
249.133	74.56
249.366	79.56
249.599	76.56
249.832	78.56
250.066	72.56
250.299	77.56
250.532	76.56
250.765	84.56
250.998	82.56
251.231	80.56
251.465	89.56
251.698	65.56
251.931	85.56
252.164	69.56
252.397	69.56
252.63	77.56
252.863	80.56
253.096	68.56
253.329	70.56
253.562	77.56
253.795	71.56
254.028	81.56
254.261	68.56
254.494	70.56
254.727	77.56
254.96	62.56
255.193	82.56
255.426	75.56
255.659	74.56
255.892	69.56
256.124	69.56
256.357	84.56
256.59	67.56
256.823	69.56
257.056	68.56
257.289	71.56
257.521	72.56
257.754	84.56
257.987	85.56
258.22	74.56
258.452	60.56
258.685	82.56
258.918	68.56
259.151	63.56
259.383	73.56
259.616	71.56
259.849	73.56
260.081	74.56
260.314	70.56
260.547	66.56
260.779	68.56
261.012	83.56
261.244	62.56
261.477	76.56
261.71	81.56
261.942	78.56
262.175	91.56
262.407	72.56
262.64	62.56
262.872	71.56
263.105	92.56
263.337	70.56
263.57	82.56
263.802	70.56
264.035	80.56
264.267	72.56
264.499	85.56
264.732	84.56
264.964	82.56
265.197	92.56
265.429	83.56
265.661	80.56
265.894	78.56
266.126	85.56
266.358	99.56
266.591	79.56
266.823	84.56
267.055	89.56
267.287	85.56
267.52	76.56
267.752	73.56
267.984	68.56
268.216	70.56
268.448	75.56
268.681	82.56
268.913	100.56
269.145	70.56
269.377	70.56
269.609	70.56
269.841	72.56
270.073	70.56
270.306	84.56
270.538	85.56
270.77	82.56
271.002	84.56
271.234	79.56
271.466	69.56
271.698	71.56
271.93	96.56
272.162	78.56
272.394	80.56
272.626	67.56
272.858	76.56
273.09	83.56
273.322	68.56
273.553	82.56
273.785	71.56
274.017	74.56
274.249	77.56
274.481	74.56
274.713	67.56
274.945	84.56
275.176	79.56
275.408	84.56
275.64	82.56
275.872	76.56
276.104	82.56
276.335	85.56
276.567	76.56
276.799	70.56
277.031	80.56
277.262	85.56
277.494	98.56
277.726	79.56
277.957	85.56
278.189	88.56
278.421	69.56
278.652	76.56
278.884	94.56
279.115	87.56
279.347	88.56
279.579	80.56
279.81	89.56
280.042	82.56
280.273	94.56
280.505	96.56
280.736	88.56
280.968	78.56
281.199	74.56
281.431	93.56
281.662	78.56
281.894	85.56
282.125	84.56
282.356	77.56
282.588	74.56
282.819	74.56
283.051	80.56
283.282	83.56
283.513	91.56
283.745	80.56
283.976	86.56
284.207	83.56
284.439	77.56
284.67	91.56
284.901	82.56
285.132	85.56
285.364	90.56
285.595	88.56
285.826	81.56
286.057	84.56
286.288	85.56
286.52	88.56
286.751	69.56
286.982	63.56
287.213	76.56
287.444	92.56
287.675	77.56
287.906	80.56
288.138	81.56
288.369	78.56
288.6	80.56
288.831	90.56
289.062	78.56
289.293	81.56
289.524	85.56
289.755	82.56
289.986	89.56
290.217	89.56
290.448	87.56
290.679	74.56
290.91	95.56
291.141	83.56
291.371	80.56
291.602	68.56
291.833	85.56
292.064	70.56
292.295	82.56
292.526	101.56
292.757	81.56
292.987	74.56
293.218	103.56
293.449	87.56
293.68	76.56
293.91	82.56
294.141	81.56
294.372	74.56
294.603	93.56
294.833	85.56
295.064	85.56
295.295	77.56
295.525	70.56
295.756	86.56
295.987	75.56
296.217	80.56
296.448	74.56
296.679	99.56
296.909	106.56
297.14	85.56
297.37	94.56
297.601	77.56
297.831	94.56
298.062	85.56
298.292	92.56
298.523	82.56
298.753	72.56
298.984	92.56
299.214	83.56
299.445	85.56
299.675	92.56
299.905	100.56
300.136	105.56
300.366	90.56
300.597	94.56
300.827	109.56
301.057	110.56
301.288	89.56
301.518	83.56
301.748	78.56
301.979	101.56
302.209	86.56
302.439	84.56
302.669	85.56
302.9	91.56
303.13	84.56
303.36	91.56
303.59	78.56
303.82	92.56
304.051	72.56
304.281	87.56
304.511	89.56
304.741	85.56
304.971	94.56
305.201	80.56
305.431	70.56
305.661	93.56
305.891	92.56
306.121	79.56
306.352	80.56
306.582	79.56
306.812	89.56
307.042	98.56
307.272	84.56
307.502	83.56
307.731	102.56
307.961	86.56
308.191	108.56
308.421	109.56
308.651	99.56
308.881	104.56
309.111	115.56
309.341	124.56
309.571	99.56
309.8	76.56
310.03	84.56
310.26	103.56
310.49	90.56
310.72	81.56
310.949	84.56
311.179	86.56
311.409	81.56
311.639	91.56
311.868	92.56
312.098	76.56
312.328	74.56
312.557	89.56
312.787	84.56
313.017	80.56
313.246	89.56
313.476	93.56
313.706	79.56
313.935	87.56
314.165	96.56
314.394	86.56
314.624	94.56
314.853	82.56
315.083	94.56
315.312	96.56
315.542	92.56
315.771	108.56
316.001	117.56
316.23	113.56
316.46	88.56
316.689	84.56
316.919	88.56
317.148	90.56
317.377	95.56
317.607	110.56
317.836	117.56
318.065	124.56
318.295	129.56
318.524	88.56
318.753	80.56
318.983	88.56
319.212	99.56
319.441	74.56
319.67	82.56
319.9	101.56
320.129	79.56
320.358	85.56
320.587	84.56
320.816	88.56
321.046	84.56
321.275	106.56
321.504	108.56
321.733	99.56
321.962	103.56
322.191	92.56
322.42	93.56
322.649	97.56
322.878	97.56
323.108	89.56
323.337	96.56
323.566	100.56
323.795	92.56
324.024	96.56
324.253	92.56
324.482	76.56
324.71	77.56
324.939	86.56
325.168	75.56
325.397	66.56
325.626	80.56
325.855	84.56
326.084	70.56
326.313	82.56
326.542	65.56
326.77	90.56
326.999	84.56
327.228	89.56
327.457	82.56
327.686	94.56
327.914	107.56
328.143	95.56
328.372	90.56
328.6	97.56
328.829	85.56
329.058	81.56
329.287	88.56
329.515	82.56
329.744	70.56
329.972	81.56
330.201	90.56
330.43	105.56
330.658	85.56
330.887	85.56
331.115	78.56
331.344	74.56
331.572	80.56
331.801	91.56
332.03	87.56
332.258	93.56
332.486	82.56
332.715	88.56
332.943	100.56
333.172	98.56
333.4	89.56
333.629	92.56
333.857	99.56
334.085	96.56
334.314	118.56
334.542	126.56
334.771	124.56
334.999	133.56
335.227	139.56
335.455	111.56
335.684	127.56
335.912	136.56
336.14	153.56
336.369	146.56
336.597	114.56
336.825	93.56
337.053	96.56
337.281	85.56
337.51	109.56
337.738	106.56
337.966	95.56
338.194	93.56
338.422	81.56
338.65	96.56
338.878	106.56
339.106	99.56
339.334	92.56
339.562	73.56
339.79	99.56
340.018	87.56
340.246	98.56
340.474	77.56
340.702	92.56
340.93	85.56
341.158	83.56
341.386	89.56
341.614	96.56
341.842	89.56
342.07	86.56
342.298	80.56
342.526	82.56
342.754	80.56
342.981	81.56
343.209	88.56
343.437	111.56
343.665	87.56
343.893	104.56
344.12	89.56
344.348	101.56
344.576	108.56
344.804	94.56
345.031	88.56
345.259	88.56
345.487	79.56
345.714	91.56
345.942	88.56
346.17	81.56
346.397	96.56
346.625	78.56
346.853	76.56
347.08	86.56
347.308	95.56
347.535	90.56
347.763	99.56
347.99	93.56
348.218	86.56
348.445	97.56
348.673	82.56
348.9	98.56
349.128	108.56
349.355	105.56
349.583	92.56
349.81	90.56
350.037	91.56
350.265	86.56
350.492	95.56
350.72	88.56
350.947	90.56
351.174	95.56
351.402	82.56
351.629	96.56
351.856	91.56
352.083	102.56
352.311	88.56
352.538	98.56
352.765	96.56
352.992	104.56
353.22	96.56
353.447	92.56
353.674	95.56
353.901	92.56
354.128	97.56
354.355	90.56
354.583	101.56
354.81	92.56
355.037	81.56
355.264	90.56
355.491	92.56
355.718	98.56
355.945	99.56
356.172	95.56
356.399	91.56
356.626	91.56
356.853	99.56
357.08	94.56
357.307	96.56
357.534	97.56
357.761	96.56
357.988	102.56
358.215	106.56
358.441	102.56
358.668	101.56
358.895	97.56
359.122	107.56
359.349	114.56
359.576	100.56
359.802	112.56
360.029	87.56
360.256	101.56
360.483	91.56
360.709	108.56
360.936	120.56
361.163	103.56
361.39	101.56
361.616	101.56
361.843	133.56
362.07	136.56
362.296	158.56
362.523	181.56
362.749	208.56
362.976	250.56
363.203	290.56
363.429	187.56
363.656	130.56
363.882	147.56
364.109	225.56
364.335	308.56
364.562	357.56
364.788	220.56
365.015	141.56
365.241	110.56
365.468	113.56
365.694	99.56
365.92	77.56
366.147	95.56
366.373	77.56
366.599	99.56
366.826	109.56
367.052	108.56
367.278	101.56
367.505	90.56
367.731	111.56
367.957	91.56
368.184	84.56
368.41	86.56
368.636	90.56
368.862	94.56
369.089	98.56
369.315	80.56
369.541	89.56
369.767	91.56
369.993	95.56
370.219	93.56
370.445	114.56
370.672	123.56
370.898	110.56
371.124	93.56
371.35	112.56
371.576	90.56
371.802	94.56
372.028	113.56
372.254	108.56
372.48	93.56
372.706	96.56
372.932	92.56
373.158	108.56
373.384	132.56
373.61	158.56
373.835	170.56
374.061	128.56
374.287	111.56
374.513	107.56
374.739	113.56
374.965	131.56
375.191	120.56
375.416	102.56
375.642	106.56
375.868	104.56
376.094	103.56
376.319	78.56
376.545	104.56
376.771	109.56
376.997	99.56
377.222	108.56
377.448	88.56
377.674	100.56
377.899	99.56
378.125	96.56
378.35	104.56
378.576	92.56
378.802	94.56
379.027	103.56
379.253	102.56
379.478	98.56
379.704	111.56
379.929	92.56
380.155	81.56
380.38	91.56
380.606	91.56
380.831	83.56
381.057	106.56
381.282	109.56
381.507	100.56
381.733	116.56
381.958	114.56
382.184	117.56
382.409	95.56
382.634	123.56
382.86	109.56
383.085	118.56
383.31	122.56
383.535	122.56
383.761	125.56
383.986	120.56
384.211	114.56
384.436	115.56
384.662	94.56
384.887	113.56
385.112	104.56
385.337	105.56
385.562	96.56
385.787	133.56
386.013	130.56
386.238	126.56
386.463	108.56
386.688	135.56
386.913	128.56
387.138	117.56
387.363	123.56
387.588	137.56
387.813	138.56
388.038	129.56
388.263	135.56
388.488	125.56
388.713	114.56
388.938	117.56
389.163	107.56
389.387	114.56
389.612	117.56
389.837	95.56
390.062	91.56
390.287	125.56
390.512	110.56
390.736	107.56
390.961	113.56
391.186	120.56
391.411	124.56
391.636	119.56
391.86	135.56
392.085	144.56
392.31	146.56
392.534	185.56
392.759	262.56
392.984	445.56
393.208	801.56
393.433	1224.56
393.658	914.56
393.882	405.56
394.107	233.56
394.331	200.56
394.556	240.56
394.78	186.56
395.005	154.56
395.229	140.56
395.454	156.56
395.678	194.56
395.903	245.56
396.127	278.56
396.352	369.56
396.576	504.56
396.801	805.56
397.025	954.56
397.249	521.56
397.474	292.56
397.698	220.56
397.922	159.56
398.147	125.56
398.371	118.56
398.595	116.56
398.82	109.56
399.044	121.56
399.268	117.56
399.492	114.56
399.717	106.56
399.941	104.56
400.165	93.56
400.389	106.56
400.613	94.56
400.837	102.56
401.062	88.56
401.286	105.56
401.51	96.56
401.734	84.56
401.958	112.56
402.182	100.56
402.406	95.56
402.63	95.56
402.854	96.56
403.078	91.56
403.302	98.56
403.526	113.56
403.75	115.56
403.974	90.56
404.198	104.56
404.422	124.56
404.645	134.56
404.869	110.56
405.093	108.56
405.317	96.56
405.541	94.56
405.765	109.56
405.988	96.56
406.212	98.56
406.436	96.56
406.66	112.56
406.883	96.56
407.107	92.56
407.331	97.56
407.555	130.56
407.778	172.56
408.002	182.56
408.226	104.56
408.449	100.56
408.673	117.56
408.896	111.56
409.12	104.56
409.344	142.56
409.567	176.56
409.791	192.56
410.014	192.56
410.238	158.56
410.461	139.56
410.685	131.56
410.908	120.56
411.132	132.56
411.355	110.56
411.578	116.56
411.802	110.56
412.025	112.56
412.249	90.56
412.472	105.56
412.695	99.56
412.919	90.56
413.142	91.56
413.365	98.56
413.589	99.56
413.812	101.56
414.035	96.56
414.258	114.56
414.482	89.56
414.705	97.56
414.928	88.56
415.151	98.56
415.374	106.56
415.597	85.56
415.821	110.56
416.044	100.56
416.267	110.56
416.49	90.56
416.713	102.56
416.936	104.56
417.159	88.56
417.382	104.56
417.605	97.56
417.828	97.56
418.051	104.56
418.274	96.56
418.497	95.56
418.72	103.56
418.943	97.56
419.166	95.56
419.389	107.56
419.611	109.56
419.834	117.56
420.057	112.56
420.28	127.56
420.503	122.56
420.726	101.56
420.948	147.56
421.171	146.56
421.394	184.56
421.617	256.56
421.839	277.56
422.062	345.56
422.285	532.56
422.507	1016.56
422.73	1482.56
422.953	1304.56
423.175	729.56
423.398	384.56
423.621	259.56
423.843	215.56
424.066	184.56
424.288	165.56
424.511	148.56
424.733	128.56
424.956	126.56
425.178	116.56
425.401	113.56
425.623	112.56
425.846	101.56
426.068	121.56
426.291	108.56
426.513	88.56
426.735	94.56
426.958	98.56
427.18	108.56
427.402	106.56
427.625	122.56
427.847	122.56
428.069	163.56
428.292	283.56
428.514	340.56
428.736	220.56
428.958	308.56
429.181	318.56
429.403	164.56
429.625	165.56
429.847	273.56
430.069	466.56
430.292	552.56
430.514	508.56
430.736	338.56
430.958	360.56
431.18	182.56
431.402	133.56
431.624	158.56
431.846	273.56
432.068	323.56
432.29	152.56
432.512	108.56
432.734	99.56
432.956	102.56
433.178	103.56
433.4	87.56
433.622	89.56
433.844	101.56
434.066	94.56
434.287	98.56
434.509	95.56
434.731	101.56
434.953	112.56
435.175	106.56
435.397	116.56
435.618	142.56
435.84	157.56
436.062	109.56
436.284	97.56
436.505	106.56
436.727	99.56
436.949	99.56
437.17	83.56
437.392	89.56
437.614	98.56
437.835	101.56
438.057	99.56
438.278	92.56
438.5	102.56
438.721	94.56
438.943	93.56
439.165	99.56
439.386	100.56
439.608	94.56
439.829	85.56
440.05	92.56
440.272	89.56
440.493	89.56
440.715	108.56
440.936	114.56
441.158	94.56
441.379	96.56
441.6	106.56
441.822	105.56
442.043	119.56
442.264	169.56
442.486	339.56
442.707	534.56
442.928	315.56
443.149	234.56
443.371	420.56
443.592	902.56
443.813	759.56
444.034	266.56
444.255	142.56
444.476	134.56
444.698	143.56
444.919	162.56
445.14	286.56
445.361	534.56
445.582	1099.56
445.803	914.56
446.024	310.56
446.245	151.56
446.466	110.56
446.687	102.56
446.908	109.56
447.129	92.56
447.35	92.56
447.571	99.56
447.792	111.56
448.013	82.56
448.234	98.56
448.455	100.56
448.675	82.56
448.896	101.56
449.117	76.56
449.338	77.56
449.559	90.56
449.779	81.56
450	109.56
450.221	86.56
450.442	93.56
450.662	93.56
450.883	94.56
451.104	98.56
451.324	105.56
451.545	101.56
451.766	99.56
451.986	92.56
452.207	106.56
452.428	110.56
452.648	145.56
452.869	176.56
453.089	143.56
453.31	112.56
453.53	119.56
453.751	91.56
453.971	97.56
454.192	84.56
454.412	95.56
454.633	95.56
454.853	93.56
455.073	99.56
455.294	89.56
455.514	85.56
455.734	97.56
455.955	84.56
456.175	90.56
456.395	101.56
456.616	95.56
456.836	90.56
457.056	109.56
457.276	117.56
457.497	112.56
457.717	132.56
457.937	236.56
458.157	317.56
458.377	342.56
458.598	320.56
458.818	357.56
459.038	189.56
459.258	128.56
459.478	97.56
459.698	96.56
459.918	92.56
460.138	82.56
460.358	117.56
460.578	144.56
460.798	208.56
461.018	193.56
461.238	122.56
461.458	77.56
461.678	93.56
461.898	92.56
462.118	86.56
462.338	109.56
462.558	84.56
462.777	70.56
462.997	84.56
463.217	105.56
463.437	88.56
463.657	83.56
463.876	77.56
464.096	100.56
464.316	88.56
464.536	82.56
464.755	96.56
464.975	88.56
465.195	103.56
465.414	90.56
465.634	80.56
465.854	102.56
466.073	90.56
466.293	82.56
466.512	93.56
466.732	86.56
466.951	98.56
467.171	84.56
467.391	93.56
467.61	72.56
467.829	90.56
468.049	86.56
468.268	116.56
468.488	106.56
468.707	117.56
468.927	91.56
469.146	114.56
469.365	89.56
469.585	91.56
469.804	86.56
470.023	88.56
470.243	88.56
470.462	108.56
470.681	85.56
470.901	80.56
471.12	97.56
471.339	88.56
471.558	91.56
471.777	98.56
471.997	94.56
472.216	100.56
472.435	97.56
472.654	91.56
472.873	83.56
473.092	109.56
473.311	99.56
473.53	98.56
473.749	87.56
473.968	110.56
474.187	107.56
474.406	92.56
474.625	100.56
474.844	98.56
475.063	88.56
475.282	101.56
475.501	84.56
475.72	106.56
475.939	76.56
476.158	91.56
476.377	104.56
476.596	94.56
476.814	90.56
477.033	89.56
477.252	101.56
477.471	97.56
477.69	100.56
477.908	106.56
478.127	108.56
478.346	106.56
478.564	90.56
478.783	94.56
479.002	106.56
479.22	108.56
479.439	108.56
479.658	98.56
479.876	96.56
480.095	91.56
480.313	94.56
480.532	93.56
480.751	91.56
480.969	104.56
481.188	113.56
481.406	101.56
481.624	98.56
481.843	99.56
482.061	97.56
482.28	118.56
482.498	111.56
482.717	111.56
482.935	109.56
483.153	106.56
483.372	120.56
483.59	118.56
483.808	112.56
484.027	113.56
484.245	100.56
484.463	88.56
484.681	116.56
484.9	117.56
485.118	115.56
485.336	92.56
485.554	96.56
485.772	101.56
485.99	112.56
486.209	84.56
486.427	96.56
486.645	105.56
486.863	123.56
487.081	110.56
487.299	123.56
487.517	154.56
487.735	248.56
487.953	593.56
488.171	446.56
488.389	171.56
488.607	106.56
488.825	137.56
489.043	110.56
489.261	104.56
489.479	97.56
489.696	96.56
489.914	84.56
490.132	91.56
490.35	114.56
490.568	99.56
490.786	98.56
491.003	94.56
491.221	103.56
491.439	96.56
491.657	88.56
491.874	97.56
492.092	106.56
492.31	88.56
492.527	86.56
492.745	100.56
492.963	82.56
493.18	99.56
493.398	90.56
493.615	99.56
493.833	100.56
494.05	93.56
494.268	90.56
494.485	97.56
494.703	101.56
494.92	93.56
495.138	89.56
495.355	110.56
495.573	96.56
495.79	100.56
496.008	98.56
496.225	86.56
496.442	117.56
496.66	100.56
496.877	93.56
497.094	88.56
497.312	93.56
497.529	101.56
497.746	89.56
497.963	94.56
498.181	93.56
498.398	95.56
498.615	90.56
498.832	90.56
499.049	89.56
499.267	100.56
499.484	92.56
499.701	108.56
499.918	97.56
500.135	102.56
500.352	94.56
500.569	105.56
500.786	108.56
501.003	83.56
501.22	93.56
501.437	101.56
501.654	115.56
501.871	106.56
502.088	104.56
502.305	89.56
502.522	100.56
502.739	100.56
502.956	101.56
503.172	105.56
503.389	98.56
503.606	121.56
503.823	127.56
504.04	169.56
504.256	358.56
504.473	413.56
504.69	174.56
504.907	140.56
505.123	107.56
505.34	93.56
505.557	106.56
505.773	104.56
505.99	98.56
506.207	101.56
506.423	115.56
506.64	116.56
506.856	97.56
507.073	106.56
507.289	94.56
507.506	97.56
507.722	92.56
507.939	96.56
508.155	82.56
508.372	101.56
508.588	114.56
508.805	102.56
509.021	85.56
509.238	86.56
509.454	103.56
509.67	98.56
509.887	107.56
510.103	93.56
510.319	100.56
510.536	92.56
510.752	98.56
510.968	100.56
511.184	102.56
511.401	102.56
511.617	96.56
511.833	105.56
512.049	96.56
512.265	97.56
512.481	84.56
512.698	99.56
512.914	104.56
513.13	104.56
513.346	94.56
