Data from CBS_2_HRD10591_00022.txt Node
Date: Mon Jan 19 14:04:57 EST 2026
User: Yrep
Spectrometer: HR+D1059
Trigger mode: 1
Integration Time (sec): 1.000000E-1
Scans to average: 1
Electric dark correction enabled: true
Nonlinearity correction enabled: false
Boxcar width: 0
XAxis mode: Wavelengths
Number of Pixels in Spectrum: 2048
>>>>>Begin Spectral Data<<<<<
223.165	-4.19
223.4	-4.19
223.635	-4.19
223.869	-22.19
224.104	-24.19
224.338	-30.19
224.573	-9.19
224.808	-12.19
225.042	-14.19
225.277	-4.19
225.511	2.81
225.746	10.81
225.98	18.81
226.215	11.81
226.449	11.81
226.683	16.81
226.918	27.81
227.152	19.81
227.387	29.81
227.621	47.81
227.856	47.81
228.09	43.81
228.324	47.81
228.559	51.81
228.793	69.81
229.027	54.81
229.262	66.81
229.496	72.81
229.73	72.81
229.964	80.81
230.199	84.81
230.433	86.81
230.667	96.81
230.901	91.81
231.136	80.81
231.37	74.81
231.604	93.81
231.838	85.81
232.072	72.81
232.306	75.81
232.541	82.81
232.775	89.81
233.009	84.81
233.243	81.81
233.477	83.81
233.711	76.81
233.945	71.81
234.179	83.81
234.413	96.81
234.647	93.81
234.881	78.81
235.115	85.81
235.349	80.81
235.583	86.81
235.817	76.81
236.051	82.81
236.285	75.81
236.519	88.81
236.753	82.81
236.987	86.81
237.221	79.81
237.455	90.81
237.689	75.81
237.922	85.81
238.156	76.81
238.39	75.81
238.624	91.81
238.858	85.81
239.091	85.81
239.325	76.81
239.559	74.81
239.793	68.81
240.027	76.81
240.26	72.81
240.494	85.81
240.728	84.81
240.961	80.81
241.195	72.81
241.429	75.81
241.662	91.81
241.896	84.81
242.13	93.81
242.363	65.81
242.597	79.81
242.83	83.81
243.064	87.81
243.298	84.81
243.531	71.81
243.765	91.81
243.998	78.81
244.232	87.81
244.465	93.81
244.699	75.81
244.932	74.81
245.166	82.81
245.399	91.81
245.633	66.81
245.866	72.81
246.099	84.81
246.333	70.81
246.566	76.81
246.8	77.81
247.033	78.81
247.266	75.81
247.5	78.81
247.733	73.81
247.966	80.81
248.2	85.81
248.433	87.81
248.666	85.81
248.899	93.81
249.133	81.81
249.366	86.81
249.599	65.81
249.832	63.81
250.066	79.81
250.299	88.81
250.532	88.81
250.765	81.81
250.998	90.81
251.231	83.81
251.465	76.81
251.698	87.81
251.931	77.81
252.164	85.81
252.397	97.81
252.63	92.81
252.863	99.81
253.096	81.81
253.329	70.81
253.562	74.81
253.795	91.81
254.028	83.81
254.261	77.81
254.494	74.81
254.727	76.81
254.96	83.81
255.193	82.81
255.426	71.81
255.659	95.81
255.892	90.81
256.124	82.81
256.357	82.81
256.59	76.81
256.823	72.81
257.056	95.81
257.289	83.81
257.521	90.81
257.754	91.81
257.987	79.81
258.22	77.81
258.452	81.81
258.685	94.81
258.918	89.81
259.151	80.81
259.383	95.81
259.616	80.81
259.849	84.81
260.081	92.81
260.314	78.81
260.547	80.81
260.779	75.81
261.012	81.81
261.244	69.81
261.477	77.81
261.71	88.81
261.942	82.81
262.175	85.81
262.407	81.81
262.64	83.81
262.872	103.81
263.105	88.81
263.337	84.81
263.57	74.81
263.802	93.81
264.035	75.81
264.267	100.81
264.499	93.81
264.732	93.81
264.964	103.81
265.197	91.81
265.429	85.81
265.661	82.81
265.894	75.81
266.126	85.81
266.358	78.81
266.591	85.81
266.823	82.81
267.055	74.81
267.287	75.81
267.52	81.81
267.752	82.81
267.984	80.81
268.216	91.81
268.448	73.81
268.681	83.81
268.913	75.81
269.145	87.81
269.377	74.81
269.609	77.81
269.841	84.81
270.073	87.81
270.306	74.81
270.538	84.81
270.77	74.81
271.002	65.81
271.234	86.81
271.466	91.81
271.698	75.81
271.93	75.81
272.162	84.81
272.394	92.81
272.626	71.81
272.858	91.81
273.09	84.81
273.322	84.81
273.553	85.81
273.785	77.81
274.017	67.81
274.249	76.81
274.481	80.81
274.713	104.81
274.945	87.81
275.176	89.81
275.408	73.81
275.64	71.81
275.872	78.81
276.104	84.81
276.335	83.81
276.567	89.81
276.799	89.81
277.031	68.81
277.262	92.81
277.494	83.81
277.726	93.81
277.957	93.81
278.189	96.81
278.421	95.81
278.652	87.81
278.884	90.81
279.115	97.81
279.347	76.81
279.579	85.81
279.81	94.81
280.042	96.81
280.273	88.81
280.505	93.81
280.736	82.81
280.968	71.81
281.199	85.81
281.431	84.81
281.662	85.81
281.894	86.81
282.125	95.81
282.356	79.81
282.588	83.81
282.819	95.81
283.051	77.81
283.282	96.81
283.513	75.81
283.745	100.81
283.976	65.81
284.207	84.81
284.439	77.81
284.67	88.81
284.901	89.81
285.132	98.81
285.364	85.81
285.595	85.81
285.826	81.81
286.057	83.81
286.288	85.81
286.52	89.81
286.751	94.81
286.982	89.81
287.213	86.81
287.444	98.81
287.675	83.81
287.906	90.81
288.138	82.81
288.369	94.81
288.6	91.81
288.831	97.81
289.062	97.81
289.293	90.81
289.524	90.81
289.755	87.81
289.986	85.81
290.217	72.81
290.448	88.81
290.679	77.81
290.91	75.81
291.141	83.81
291.371	75.81
291.602	73.81
291.833	86.81
292.064	87.81
292.295	83.81
292.526	77.81
292.757	77.81
292.987	77.81
293.218	85.81
293.449	80.81
293.68	91.81
293.91	76.81
294.141	92.81
294.372	97.81
294.603	84.81
294.833	74.81
295.064	95.81
295.295	87.81
295.525	83.81
295.756	101.81
295.987	88.81
296.217	92.81
296.448	83.81
296.679	80.81
296.909	95.81
297.14	90.81
297.37	82.81
297.601	79.81
297.831	76.81
298.062	86.81
298.292	81.81
298.523	86.81
298.753	101.81
298.984	90.81
299.214	94.81
299.445	106.81
299.675	97.81
299.905	100.81
300.136	91.81
300.366	104.81
300.597	94.81
300.827	89.81
301.057	87.81
301.288	85.81
301.518	91.81
301.748	92.81
301.979	105.81
302.209	85.81
302.439	104.81
302.669	77.81
302.9	91.81
303.13	82.81
303.36	87.81
303.59	88.81
303.82	93.81
304.051	112.81
304.281	90.81
304.511	99.81
304.741	92.81
304.971	98.81
305.201	92.81
305.431	95.81
305.661	88.81
305.891	78.81
306.121	96.81
306.352	87.81
306.582	99.81
306.812	91.81
307.042	83.81
307.272	75.81
307.502	87.81
307.731	81.81
307.961	89.81
308.191	97.81
308.421	97.81
308.651	88.81
308.881	89.81
309.111	84.81
309.341	79.81
309.571	104.81
309.8	90.81
310.03	88.81
310.26	85.81
310.49	86.81
310.72	97.81
310.949	93.81
311.179	82.81
311.409	76.81
311.639	77.81
311.868	89.81
312.098	82.81
312.328	111.81
312.557	82.81
312.787	73.81
313.017	83.81
313.246	91.81
313.476	91.81
313.706	81.81
313.935	71.81
314.165	85.81
314.394	80.81
314.624	81.81
314.853	96.81
315.083	93.81
315.312	83.81
315.542	98.81
315.771	82.81
316.001	84.81
316.23	72.81
316.46	93.81
316.689	81.81
316.919	91.81
317.148	94.81
317.377	85.81
317.607	95.81
317.836	103.81
318.065	91.81
318.295	92.81
318.524	90.81
318.753	101.81
318.983	85.81
319.212	114.81
319.441	79.81
319.67	77.81
319.9	82.81
320.129	71.81
320.358	92.81
320.587	95.81
320.816	90.81
321.046	82.81
321.275	96.81
321.504	92.81
321.733	80.81
321.962	97.81
322.191	86.81
322.42	82.81
322.649	104.81
322.878	83.81
323.108	86.81
323.337	93.81
323.566	92.81
323.795	100.81
324.024	105.81
324.253	87.81
324.482	85.81
324.71	79.81
324.939	86.81
325.168	93.81
325.397	83.81
325.626	77.81
325.855	96.81
326.084	99.81
326.313	71.81
326.542	83.81
326.77	84.81
326.999	89.81
327.228	97.81
327.457	90.81
327.686	90.81
327.914	88.81
328.143	103.81
328.372	75.81
328.6	93.81
328.829	81.81
329.058	79.81
329.287	93.81
329.515	95.81
329.744	89.81
329.972	79.81
330.201	98.81
330.43	75.81
330.658	101.81
330.887	89.81
331.115	95.81
331.344	87.81
331.572	80.81
331.801	102.81
332.03	86.81
332.258	99.81
332.486	78.81
332.715	91.81
332.943	87.81
333.172	92.81
333.4	97.81
333.629	100.81
333.857	96.81
334.085	104.81
334.314	82.81
334.542	85.81
334.771	97.81
334.999	84.81
335.227	94.81
335.455	91.81
335.684	101.81
335.912	99.81
336.14	113.81
336.369	102.81
336.597	95.81
336.825	105.81
337.053	81.81
337.281	92.81
337.51	105.81
337.738	85.81
337.966	86.81
338.194	97.81
338.422	98.81
338.65	103.81
338.878	94.81
339.106	80.81
339.334	88.81
339.562	91.81
339.79	89.81
340.018	107.81
340.246	90.81
340.474	95.81
340.702	99.81
340.93	108.81
341.158	84.81
341.386	85.81
341.614	92.81
341.842	97.81
342.07	76.81
342.298	100.81
342.526	99.81
342.754	94.81
342.981	83.81
343.209	96.81
343.437	107.81
343.665	87.81
343.893	93.81
344.12	85.81
344.348	90.81
344.576	100.81
344.804	95.81
345.031	79.81
345.259	94.81
345.487	95.81
345.714	83.81
345.942	76.81
346.17	81.81
346.397	98.81
346.625	83.81
346.853	95.81
347.08	89.81
347.308	82.81
347.535	85.81
347.763	100.81
347.99	93.81
348.218	81.81
348.445	91.81
348.673	94.81
348.9	88.81
349.128	101.81
349.355	79.81
349.583	87.81
349.81	83.81
350.037	95.81
350.265	82.81
350.492	79.81
350.72	80.81
350.947	93.81
351.174	65.81
351.402	92.81
351.629	90.81
351.856	97.81
352.083	84.81
352.311	77.81
352.538	89.81
352.765	94.81
352.992	95.81
353.22	89.81
353.447	82.81
353.674	91.81
353.901	99.81
354.128	96.81
354.355	100.81
354.583	83.81
354.81	74.81
355.037	84.81
355.264	79.81
355.491	96.81
355.718	92.81
355.945	105.81
356.172	88.81
356.399	85.81
356.626	93.81
356.853	106.81
357.08	92.81
357.307	103.81
357.534	91.81
357.761	86.81
357.988	93.81
358.215	106.81
358.441	85.81
358.668	83.81
358.895	107.81
359.122	93.81
359.349	95.81
359.576	87.81
359.802	88.81
360.029	87.81
360.256	86.81
360.483	90.81
360.709	90.81
360.936	92.81
361.163	98.81
361.39	87.81
361.616	93.81
361.843	99.81
362.07	93.81
362.296	97.81
362.523	116.81
362.749	118.81
362.976	135.81
363.203	133.81
363.429	120.81
363.656	89.81
363.882	106.81
364.109	123.81
364.335	146.81
364.562	153.81
364.788	137.81
365.015	113.81
365.241	102.81
365.468	103.81
365.694	85.81
365.92	105.81
366.147	97.81
366.373	88.81
366.599	86.81
366.826	93.81
367.052	105.81
367.278	96.81
367.505	83.81
367.731	95.81
367.957	93.81
368.184	96.81
368.41	91.81
368.636	100.81
368.862	95.81
369.089	87.81
369.315	83.81
369.541	86.81
369.767	78.81
369.993	91.81
370.219	99.81
370.445	84.81
370.672	87.81
370.898	112.81
371.124	81.81
371.35	91.81
371.576	90.81
371.802	87.81
372.028	117.81
372.254	99.81
372.48	89.81
372.706	103.81
372.932	96.81
373.158	98.81
373.384	107.81
373.61	104.81
373.835	101.81
374.061	91.81
374.287	99.81
374.513	94.81
374.739	99.81
374.965	90.81
375.191	109.81
375.416	95.81
375.642	99.81
375.868	95.81
376.094	103.81
376.319	93.81
376.545	85.81
376.771	104.81
376.997	95.81
377.222	97.81
377.448	93.81
377.674	81.81
377.899	95.81
378.125	90.81
378.35	99.81
378.576	98.81
378.802	77.81
379.027	88.81
379.253	90.81
379.478	83.81
379.704	91.81
379.929	95.81
380.155	102.81
380.38	97.81
380.606	101.81
380.831	77.81
381.057	100.81
381.282	80.81
381.507	88.81
381.733	90.81
381.958	89.81
382.184	102.81
382.409	98.81
382.634	109.81
382.86	107.81
383.085	88.81
383.31	100.81
383.535	98.81
383.761	91.81
383.986	89.81
384.211	100.81
384.436	98.81
384.662	93.81
384.887	101.81
385.112	89.81
385.337	88.81
385.562	92.81
385.787	103.81
386.013	91.81
386.238	99.81
386.463	101.81
386.688	125.81
386.913	105.81
387.138	100.81
387.363	109.81
387.588	102.81
387.813	96.81
388.038	100.81
388.263	104.81
388.488	99.81
388.713	102.81
388.938	91.81
389.163	83.81
389.387	96.81
389.612	88.81
389.837	99.81
390.062	97.81
390.287	90.81
390.512	89.81
390.736	92.81
390.961	86.81
391.186	92.81
391.411	101.81
391.636	108.81
391.86	103.81
392.085	93.81
392.31	97.81
392.534	103.81
392.759	127.81
392.984	167.81
393.208	259.81
393.433	363.81
393.658	291.81
393.882	133.81
394.107	103.81
394.331	109.81
394.556	121.81
394.78	105.81
395.005	106.81
395.229	86.81
395.454	112.81
395.678	108.81
395.903	133.81
396.127	139.81
396.352	152.81
396.576	172.81
396.801	277.81
397.025	313.81
397.249	195.81
397.474	159.81
397.698	116.81
397.922	86.81
398.147	111.81
398.371	101.81
398.595	95.81
398.82	103.81
399.044	95.81
399.268	85.81
399.492	88.81
399.717	100.81
399.941	96.81
400.165	93.81
400.389	98.81
400.613	99.81
400.837	85.81
401.062	95.81
401.286	108.81
401.51	101.81
401.734	87.81
401.958	92.81
402.182	85.81
402.406	88.81
402.63	81.81
402.854	95.81
403.078	109.81
403.302	103.81
403.526	112.81
403.75	105.81
403.974	91.81
404.198	91.81
404.422	101.81
404.645	118.81
404.869	95.81
405.093	88.81
405.317	105.81
405.541	84.81
405.765	111.81
405.988	94.81
406.212	90.81
406.436	109.81
406.66	112.81
406.883	92.81
407.107	97.81
407.331	104.81
407.555	104.81
407.778	114.81
408.002	115.81
408.226	101.81
408.449	83.81
408.673	88.81
408.896	95.81
409.12	90.81
409.344	96.81
409.567	96.81
409.791	108.81
410.014	133.81
410.238	101.81
410.461	104.81
410.685	93.81
410.908	100.81
411.132	99.81
411.355	106.81
411.578	105.81
411.802	88.81
412.025	103.81
412.249	97.81
412.472	99.81
412.695	96.81
412.919	95.81
413.142	90.81
413.365	90.81
413.589	100.81
413.812	89.81
414.035	88.81
414.258	84.81
414.482	104.81
414.705	99.81
414.928	96.81
415.151	90.81
415.374	81.81
415.597	95.81
415.821	97.81
416.044	101.81
416.267	94.81
416.49	89.81
416.713	92.81
416.936	99.81
417.159	91.81
417.382	95.81
417.605	95.81
417.828	96.81
418.051	94.81
418.274	87.81
418.497	102.81
418.72	85.81
418.943	101.81
419.166	98.81
419.389	96.81
419.611	106.81
419.834	107.81
420.057	104.81
420.28	93.81
420.503	97.81
420.726	100.81
420.948	107.81
421.171	114.81
421.394	114.81
421.617	147.81
421.839	157.81
422.062	166.81
422.285	239.81
422.507	357.81
422.73	501.81
422.953	459.81
423.175	305.81
423.398	195.81
423.621	155.81
423.843	125.81
424.066	115.81
424.288	132.81
424.511	96.81
424.733	104.81
424.956	99.81
425.178	96.81
425.401	105.81
425.623	113.81
425.846	103.81
426.068	112.81
426.291	93.81
426.513	95.81
426.735	107.81
426.958	92.81
427.18	96.81
427.402	101.81
427.625	83.81
427.847	107.81
428.069	101.81
428.292	155.81
428.514	142.81
428.736	114.81
428.958	151.81
429.181	154.81
429.403	115.81
429.625	124.81
429.847	148.81
430.069	183.81
430.292	215.81
430.514	209.81
430.736	160.81
430.958	164.81
431.18	108.81
431.402	105.81
431.624	79.81
431.846	136.81
432.068	145.81
432.29	107.81
432.512	87.81
432.734	95.81
432.956	90.81
433.178	96.81
433.4	104.81
433.622	99.81
433.844	80.81
434.066	103.81
434.287	91.81
434.509	87.81
434.731	94.81
434.953	96.81
435.175	71.81
435.397	95.81
435.618	102.81
435.84	108.81
436.062	108.81
436.284	88.81
436.505	103.81
436.727	91.81
436.949	78.81
437.17	85.81
437.392	100.81
437.614	97.81
437.835	87.81
438.057	97.81
438.278	100.81
438.5	96.81
438.721	101.81
438.943	105.81
439.165	75.81
439.386	101.81
439.608	85.81
439.829	86.81
440.05	99.81
440.272	94.81
440.493	94.81
440.715	119.81
440.936	96.81
441.158	107.81
441.379	89.81
441.6	87.81
441.822	107.81
442.043	114.81
442.264	104.81
442.486	168.81
442.707	206.81
442.928	156.81
443.149	139.81
443.371	181.81
443.592	316.81
443.813	263.81
444.034	121.81
444.255	98.81
444.476	103.81
444.698	104.81
444.919	101.81
445.14	192.81
445.361	235.81
445.582	371.81
445.803	311.81
446.024	155.81
446.245	105.81
446.466	81.81
446.687	90.81
446.908	97.81
447.129	97.81
447.35	103.81
447.571	80.81
447.792	90.81
448.013	85.81
448.234	113.81
448.455	90.81
448.675	82.81
448.896	87.81
449.117	84.81
449.338	98.81
449.559	107.81
449.779	95.81
450	88.81
450.221	91.81
450.442	93.81
450.662	77.81
450.883	101.81
451.104	96.81
451.324	90.81
451.545	96.81
451.766	92.81
451.986	102.81
452.207	93.81
452.428	102.81
452.648	122.81
452.869	121.81
453.089	115.81
453.31	94.81
453.53	91.81
453.751	90.81
453.971	88.81
454.192	98.81
454.412	90.81
454.633	99.81
454.853	96.81
455.073	100.81
455.294	102.81
455.514	96.81
455.734	100.81
455.955	77.81
456.175	88.81
456.395	92.81
456.616	100.81
456.836	91.81
457.056	95.81
457.276	84.81
457.497	95.81
457.717	105.81
457.937	129.81
458.157	160.81
458.377	157.81
458.598	148.81
458.818	163.81
459.038	118.81
459.258	106.81
459.478	92.81
459.698	88.81
459.918	89.81
460.138	95.81
460.358	90.81
460.578	105.81
460.798	135.81
461.018	120.81
461.238	114.81
461.458	83.81
461.678	85.81
461.898	93.81
462.118	93.81
462.338	92.81
462.558	90.81
462.777	87.81
462.997	90.81
463.217	96.81
463.437	88.81
463.657	98.81
463.876	87.81
464.096	96.81
464.316	89.81
464.536	93.81
464.755	89.81
464.975	87.81
465.195	83.81
465.414	75.81
465.634	100.81
465.854	94.81
466.073	88.81
466.293	84.81
466.512	92.81
466.732	90.81
466.951	93.81
467.171	93.81
467.391	83.81
467.61	96.81
467.829	85.81
468.049	81.81
468.268	103.81
468.488	90.81
468.707	92.81
468.927	105.81
469.146	92.81
469.365	99.81
469.585	97.81
469.804	88.81
470.023	106.81
470.243	93.81
470.462	111.81
470.681	98.81
470.901	91.81
471.12	103.81
471.339	89.81
471.558	94.81
471.777	84.81
471.997	95.81
472.216	86.81
472.435	107.81
472.654	92.81
472.873	99.81
473.092	85.81
473.311	96.81
473.53	90.81
473.749	98.81
473.968	91.81
474.187	93.81
474.406	89.81
474.625	98.81
474.844	97.81
475.063	84.81
475.282	96.81
475.501	87.81
475.72	91.81
475.939	78.81
476.158	87.81
476.377	93.81
476.596	104.81
476.814	93.81
477.033	101.81
477.252	104.81
477.471	101.81
477.69	87.81
477.908	99.81
478.127	96.81
478.346	98.81
478.564	88.81
478.783	101.81
479.002	99.81
479.22	89.81
479.439	82.81
479.658	83.81
479.876	96.81
480.095	84.81
480.313	88.81
480.532	92.81
480.751	98.81
480.969	109.81
481.188	91.81
481.406	101.81
481.624	87.81
481.843	94.81
482.061	103.81
482.28	97.81
482.498	105.81
482.717	103.81
482.935	97.81
483.153	104.81
483.372	98.81
483.59	107.81
483.808	98.81
484.027	88.81
484.245	101.81
484.463	107.81
484.681	101.81
484.9	99.81
485.118	93.81
485.336	91.81
485.554	88.81
485.772	98.81
485.99	93.81
486.209	93.81
486.427	96.81
486.645	109.81
486.863	98.81
487.081	96.81
487.299	94.81
487.517	87.81
487.735	148.81
487.953	227.81
488.171	191.81
488.389	127.81
488.607	106.81
488.825	106.81
489.043	92.81
489.261	98.81
489.479	99.81
489.696	95.81
489.914	107.81
490.132	108.81
490.35	84.81
490.568	91.81
490.786	120.81
491.003	110.81
491.221	109.81
491.439	104.81
491.657	88.81
491.874	92.81
492.092	109.81
492.31	109.81
492.527	106.81
492.745	95.81
492.963	108.81
493.18	105.81
493.398	100.81
493.615	89.81
493.833	85.81
494.05	88.81
494.268	88.81
494.485	97.81
494.703	95.81
494.92	101.81
495.138	98.81
495.355	91.81
495.573	80.81
495.79	84.81
496.008	101.81
496.225	83.81
496.442	92.81
496.66	97.81
496.877	103.81
497.094	92.81
497.312	96.81
497.529	96.81
497.746	87.81
497.963	90.81
498.181	111.81
498.398	105.81
498.615	106.81
498.832	92.81
499.049	93.81
499.267	99.81
499.484	104.81
499.701	98.81
499.918	91.81
500.135	95.81
500.352	113.81
500.569	83.81
500.786	112.81
501.003	99.81
501.22	95.81
501.437	87.81
501.654	87.81
501.871	101.81
502.088	83.81
502.305	102.81
502.522	99.81
502.739	92.81
502.956	101.81
503.172	89.81
503.389	83.81
503.606	103.81
503.823	97.81
504.04	115.81
504.256	179.81
504.473	173.81
504.69	103.81
504.907	103.81
505.123	93.81
505.34	93.81
505.557	89.81
505.773	79.81
505.99	93.81
506.207	103.81
506.423	104.81
506.64	97.81
506.856	106.81
507.073	77.81
507.289	112.81
507.506	90.81
507.722	109.81
507.939	85.81
508.155	102.81
508.372	100.81
508.588	95.81
508.805	93.81
509.021	88.81
509.238	95.81
509.454	93.81
509.67	84.81
509.887	98.81
510.103	95.81
510.319	114.81
510.536	108.81
510.752	95.81
510.968	105.81
511.184	83.81
511.401	97.81
511.617	90.81
511.833	94.81
512.049	102.81
512.265	101.81
512.481	99.81
512.698	92.81
512.914	97.81
513.13	108.81
513.346	100.81
513.562	105.81
513.778	113.81
513.994	78.81
514.21	104.81
514.426	103.81
514.642	98.81
514.858	94.81
515.074	90.81
515.29	95.81
515.506	95.81
