Data from CBS_2_HRD10591_00016.txt Node
Date: Mon Jan 19 14:04:54 EST 2026
User: Yrep
Spectrometer: HR+D1059
Trigger mode: 1
Integration Time (sec): 1.000000E-1
Scans to average: 1
Electric dark correction enabled: true
Nonlinearity correction enabled: false
Boxcar width: 0
XAxis mode: Wavelengths
Number of Pixels in Spectrum: 2048
>>>>>Begin Spectral Data<<<<<
223.165	-20.44
223.4	-20.44
223.635	-20.44
223.869	-12.44
224.104	-19.44
224.338	-26.44
224.573	-5.44
224.808	-7.44
225.042	-15.44
225.277	-6.44
225.511	-8.44
225.746	-1.44
225.98	5.56
226.215	4.56
226.449	27.56
226.683	26.56
226.918	31.56
227.152	27.56
227.387	48.56
227.621	38.56
227.856	55.56
228.09	64.56
228.324	42.56
228.559	68.56
228.793	46.56
229.027	59.56
229.262	60.56
229.496	67.56
229.73	74.56
229.964	82.56
230.199	72.56
230.433	64.56
230.667	78.56
230.901	80.56
231.136	85.56
231.37	82.56
231.604	82.56
231.838	77.56
232.072	68.56
232.306	74.56
232.541	93.56
232.775	80.56
233.009	76.56
233.243	76.56
233.477	75.56
233.711	80.56
233.945	74.56
234.179	74.56
234.413	75.56
234.647	84.56
234.881	77.56
235.115	66.56
235.349	76.56
235.583	92.56
235.817	87.56
236.051	76.56
236.285	73.56
236.519	87.56
236.753	71.56
236.987	71.56
237.221	80.56
237.455	79.56
237.689	72.56
237.922	82.56
238.156	71.56
238.39	86.56
238.624	74.56
238.858	77.56
239.091	63.56
239.325	83.56
239.559	75.56
239.793	87.56
240.027	68.56
240.26	68.56
240.494	88.56
240.728	74.56
240.961	67.56
241.195	76.56
241.429	83.56
241.662	77.56
241.896	81.56
242.13	63.56
242.363	78.56
242.597	82.56
242.83	84.56
243.064	92.56
243.298	74.56
243.531	76.56
243.765	60.56
243.998	80.56
244.232	87.56
244.465	86.56
244.699	76.56
244.932	66.56
245.166	76.56
245.399	82.56
245.633	78.56
245.866	70.56
246.099	97.56
246.333	70.56
246.566	69.56
246.8	74.56
247.033	66.56
247.266	82.56
247.5	68.56
247.733	76.56
247.966	71.56
248.2	81.56
248.433	76.56
248.666	87.56
248.899	78.56
249.133	84.56
249.366	98.56
249.599	90.56
249.832	72.56
250.066	73.56
250.299	70.56
250.532	79.56
250.765	76.56
250.998	72.56
251.231	75.56
251.465	69.56
251.698	88.56
251.931	70.56
252.164	76.56
252.397	71.56
252.63	72.56
252.863	56.56
253.096	82.56
253.329	80.56
253.562	83.56
253.795	86.56
254.028	88.56
254.261	80.56
254.494	66.56
254.727	82.56
254.96	82.56
255.193	98.56
255.426	92.56
255.659	65.56
255.892	77.56
256.124	84.56
256.357	93.56
256.59	81.56
256.823	76.56
257.056	80.56
257.289	72.56
257.521	73.56
257.754	86.56
257.987	80.56
258.22	75.56
258.452	96.56
258.685	82.56
258.918	68.56
259.151	87.56
259.383	85.56
259.616	75.56
259.849	83.56
260.081	84.56
260.314	89.56
260.547	72.56
260.779	78.56
261.012	74.56
261.244	84.56
261.477	72.56
261.71	87.56
261.942	98.56
262.175	67.56
262.407	84.56
262.64	83.56
262.872	92.56
263.105	77.56
263.337	80.56
263.57	80.56
263.802	95.56
264.035	70.56
264.267	57.56
264.499	79.56
264.732	75.56
264.964	77.56
265.197	83.56
265.429	92.56
265.661	94.56
265.894	82.56
266.126	71.56
266.358	89.56
266.591	66.56
266.823	88.56
267.055	77.56
267.287	82.56
267.52	66.56
267.752	94.56
267.984	92.56
268.216	80.56
268.448	87.56
268.681	78.56
268.913	88.56
269.145	89.56
269.377	82.56
269.609	91.56
269.841	82.56
270.073	81.56
270.306	95.56
270.538	71.56
270.77	75.56
271.002	86.56
271.234	82.56
271.466	74.56
271.698	83.56
271.93	83.56
272.162	78.56
272.394	90.56
272.626	77.56
272.858	79.56
273.09	96.56
273.322	103.56
273.553	87.56
273.785	103.56
274.017	80.56
274.249	93.56
274.481	94.56
274.713	91.56
274.945	70.56
275.176	89.56
275.408	84.56
275.64	91.56
275.872	87.56
276.104	82.56
276.335	85.56
276.567	80.56
276.799	87.56
277.031	79.56
277.262	74.56
277.494	98.56
277.726	81.56
277.957	89.56
278.189	81.56
278.421	89.56
278.652	78.56
278.884	90.56
279.115	84.56
279.347	95.56
279.579	92.56
279.81	94.56
280.042	94.56
280.273	82.56
280.505	65.56
280.736	83.56
280.968	75.56
281.199	87.56
281.431	92.56
281.662	88.56
281.894	77.56
282.125	89.56
282.356	79.56
282.588	85.56
282.819	83.56
283.051	90.56
283.282	79.56
283.513	94.56
283.745	94.56
283.976	80.56
284.207	88.56
284.439	85.56
284.67	67.56
284.901	83.56
285.132	77.56
285.364	90.56
285.595	76.56
285.826	87.56
286.057	96.56
286.288	71.56
286.52	81.56
286.751	86.56
286.982	80.56
287.213	86.56
287.444	90.56
287.675	80.56
287.906	59.56
288.138	81.56
288.369	89.56
288.6	83.56
288.831	74.56
289.062	81.56
289.293	86.56
289.524	73.56
289.755	88.56
289.986	76.56
290.217	72.56
290.448	77.56
290.679	83.56
290.91	95.56
291.141	92.56
291.371	76.56
291.602	77.56
291.833	70.56
292.064	74.56
292.295	92.56
292.526	89.56
292.757	73.56
292.987	82.56
293.218	94.56
293.449	89.56
293.68	84.56
293.91	87.56
294.141	84.56
294.372	81.56
294.603	88.56
294.833	91.56
295.064	97.56
295.295	88.56
295.525	96.56
295.756	87.56
295.987	74.56
296.217	84.56
296.448	80.56
296.679	91.56
296.909	90.56
297.14	89.56
297.37	88.56
297.601	74.56
297.831	70.56
298.062	92.56
298.292	79.56
298.523	90.56
298.753	78.56
298.984	87.56
299.214	89.56
299.445	98.56
299.675	84.56
299.905	89.56
300.136	95.56
300.366	86.56
300.597	91.56
300.827	97.56
301.057	88.56
301.288	97.56
301.518	90.56
301.748	91.56
301.979	115.56
302.209	84.56
302.439	83.56
302.669	84.56
302.9	70.56
303.13	96.56
303.36	77.56
303.59	91.56
303.82	82.56
304.051	72.56
304.281	77.56
304.511	85.56
304.741	85.56
304.971	80.56
305.201	79.56
305.431	84.56
305.661	81.56
305.891	81.56
306.121	76.56
306.352	87.56
306.582	69.56
306.812	87.56
307.042	79.56
307.272	88.56
307.502	73.56
307.731	94.56
307.961	99.56
308.191	96.56
308.421	105.56
308.651	74.56
308.881	72.56
309.111	96.56
309.341	99.56
309.571	96.56
309.8	101.56
310.03	88.56
310.26	81.56
310.49	84.56
310.72	73.56
310.949	98.56
311.179	77.56
311.409	85.56
311.639	94.56
311.868	99.56
312.098	81.56
312.328	92.56
312.557	83.56
312.787	91.56
313.017	78.56
313.246	99.56
313.476	100.56
313.706	85.56
313.935	82.56
314.165	76.56
314.394	77.56
314.624	80.56
314.853	95.56
315.083	88.56
315.312	78.56
315.542	80.56
315.771	103.56
316.001	95.56
316.23	95.56
316.46	80.56
316.689	83.56
316.919	86.56
317.148	79.56
317.377	96.56
317.607	79.56
317.836	92.56
318.065	102.56
318.295	101.56
318.524	87.56
318.753	75.56
318.983	94.56
319.212	78.56
319.441	89.56
319.67	80.56
319.9	77.56
320.129	76.56
320.358	98.56
320.587	100.56
320.816	98.56
321.046	87.56
321.275	83.56
321.504	79.56
321.733	91.56
321.962	98.56
322.191	84.56
322.42	88.56
322.649	105.56
322.878	91.56
323.108	92.56
323.337	90.56
323.566	94.56
323.795	84.56
324.024	91.56
324.253	83.56
324.482	81.56
324.71	88.56
324.939	95.56
325.168	79.56
325.397	89.56
325.626	83.56
325.855	100.56
326.084	87.56
326.313	88.56
326.542	81.56
326.77	76.56
326.999	82.56
327.228	82.56
327.457	100.56
327.686	79.56
327.914	77.56
328.143	95.56
328.372	93.56
328.6	92.56
328.829	78.56
329.058	80.56
329.287	96.56
329.515	100.56
329.744	87.56
329.972	86.56
330.201	91.56
330.43	77.56
330.658	85.56
330.887	102.56
331.115	89.56
331.344	84.56
331.572	84.56
331.801	74.56
332.03	86.56
332.258	89.56
332.486	71.56
332.715	78.56
332.943	89.56
333.172	86.56
333.4	81.56
333.629	98.56
333.857	111.56
334.085	110.56
334.314	96.56
334.542	92.56
334.771	83.56
334.999	95.56
335.227	94.56
335.455	97.56
335.684	89.56
335.912	110.56
336.14	106.56
336.369	102.56
336.597	100.56
336.825	89.56
337.053	86.56
337.281	86.56
337.51	83.56
337.738	94.56
337.966	89.56
338.194	93.56
338.422	81.56
338.65	81.56
338.878	90.56
339.106	76.56
339.334	88.56
339.562	91.56
339.79	82.56
340.018	77.56
340.246	78.56
340.474	96.56
340.702	81.56
340.93	75.56
341.158	81.56
341.386	96.56
341.614	90.56
341.842	90.56
342.07	74.56
342.298	90.56
342.526	77.56
342.754	84.56
342.981	85.56
343.209	67.56
343.437	82.56
343.665	76.56
343.893	102.56
344.12	100.56
344.348	80.56
344.576	88.56
344.804	94.56
345.031	101.56
345.259	86.56
345.487	77.56
345.714	95.56
345.942	94.56
346.17	71.56
346.397	78.56
346.625	78.56
346.853	83.56
347.08	81.56
347.308	87.56
347.535	102.56
347.763	94.56
347.99	85.56
348.218	81.56
348.445	86.56
348.673	97.56
348.9	101.56
349.128	83.56
349.355	91.56
349.583	91.56
349.81	87.56
350.037	85.56
350.265	84.56
350.492	73.56
350.72	79.56
350.947	74.56
351.174	88.56
351.402	83.56
351.629	65.56
351.856	71.56
352.083	101.56
352.311	89.56
352.538	84.56
352.765	80.56
352.992	91.56
353.22	94.56
353.447	89.56
353.674	96.56
353.901	102.56
354.128	88.56
354.355	92.56
354.583	74.56
354.81	107.56
355.037	94.56
355.264	96.56
355.491	104.56
355.718	76.56
355.945	84.56
356.172	98.56
356.399	100.56
356.626	85.56
356.853	82.56
357.08	88.56
357.307	97.56
357.534	92.56
357.761	92.56
357.988	100.56
358.215	92.56
358.441	90.56
358.668	87.56
358.895	92.56
359.122	91.56
359.349	100.56
359.576	94.56
359.802	79.56
360.029	91.56
360.256	105.56
360.483	80.56
360.709	86.56
360.936	98.56
361.163	90.56
361.39	96.56
361.616	90.56
361.843	82.56
362.07	106.56
362.296	115.56
362.523	110.56
362.749	117.56
362.976	137.56
363.203	159.56
363.429	112.56
363.656	112.56
363.882	107.56
364.109	140.56
364.335	180.56
364.562	161.56
364.788	126.56
365.015	102.56
365.241	106.56
365.468	80.56
365.694	96.56
365.92	91.56
366.147	88.56
366.373	90.56
366.599	95.56
366.826	83.56
367.052	90.56
367.278	88.56
367.505	91.56
367.731	99.56
367.957	91.56
368.184	76.56
368.41	84.56
368.636	91.56
368.862	86.56
369.089	86.56
369.315	84.56
369.541	96.56
369.767	83.56
369.993	86.56
370.219	94.56
370.445	91.56
370.672	88.56
370.898	93.56
371.124	69.56
371.35	85.56
371.576	82.56
371.802	94.56
372.028	77.56
372.254	95.56
372.48	99.56
372.706	91.56
372.932	83.56
373.158	89.56
373.384	100.56
373.61	102.56
373.835	106.56
374.061	89.56
374.287	108.56
374.513	88.56
374.739	100.56
374.965	84.56
375.191	94.56
375.416	89.56
375.642	93.56
375.868	90.56
376.094	101.56
376.319	95.56
376.545	103.56
376.771	92.56
376.997	91.56
377.222	76.56
377.448	98.56
377.674	88.56
377.899	90.56
378.125	92.56
378.35	89.56
378.576	73.56
378.802	80.56
379.027	72.56
379.253	104.56
379.478	82.56
379.704	98.56
379.929	103.56
380.155	86.56
380.38	92.56
380.606	82.56
380.831	95.56
381.057	96.56
381.282	90.56
381.507	86.56
381.733	85.56
381.958	87.56
382.184	100.56
382.409	92.56
382.634	96.56
382.86	98.56
383.085	91.56
383.31	89.56
383.535	95.56
383.761	105.56
383.986	90.56
384.211	87.56
384.436	92.56
384.662	111.56
384.887	93.56
385.112	73.56
385.337	84.56
385.562	88.56
385.787	90.56
386.013	87.56
386.238	112.56
386.463	78.56
386.688	96.56
386.913	92.56
387.138	94.56
387.363	96.56
387.588	103.56
387.813	103.56
388.038	99.56
388.263	105.56
388.488	99.56
388.713	81.56
388.938	89.56
389.163	90.56
389.387	87.56
389.612	95.56
389.837	84.56
390.062	105.56
390.287	87.56
390.512	116.56
390.736	91.56
390.961	95.56
391.186	91.56
391.411	82.56
391.636	96.56
391.86	88.56
392.085	98.56
392.31	111.56
392.534	108.56
392.759	132.56
392.984	171.56
393.208	255.56
393.433	339.56
393.658	272.56
393.882	170.56
394.107	112.56
394.331	114.56
394.556	114.56
394.78	103.56
395.005	105.56
395.229	113.56
395.454	104.56
395.678	108.56
395.903	137.56
396.127	143.56
396.352	152.56
396.576	175.56
396.801	259.56
397.025	303.56
397.249	174.56
397.474	160.56
397.698	131.56
397.922	99.56
398.147	90.56
398.371	96.56
398.595	94.56
398.82	97.56
399.044	89.56
399.268	93.56
399.492	96.56
399.717	92.56
399.941	82.56
400.165	72.56
400.389	80.56
400.613	86.56
400.837	82.56
401.062	85.56
401.286	82.56
401.51	75.56
401.734	89.56
401.958	105.56
402.182	101.56
402.406	90.56
402.63	94.56
402.854	87.56
403.078	96.56
403.302	80.56
403.526	106.56
403.75	96.56
403.974	90.56
404.198	101.56
404.422	108.56
404.645	110.56
404.869	98.56
405.093	96.56
405.317	84.56
405.541	91.56
405.765	95.56
405.988	86.56
406.212	93.56
406.436	84.56
406.66	98.56
406.883	94.56
407.107	96.56
407.331	83.56
407.555	94.56
407.778	98.56
408.002	95.56
408.226	91.56
408.449	84.56
408.673	80.56
408.896	84.56
409.12	107.56
409.344	100.56
409.567	110.56
409.791	105.56
410.014	104.56
410.238	97.56
410.461	107.56
410.685	97.56
410.908	100.56
411.132	103.56
411.355	94.56
411.578	102.56
411.802	96.56
412.025	69.56
412.249	101.56
412.472	74.56
412.695	83.56
412.919	87.56
413.142	95.56
413.365	91.56
413.589	82.56
413.812	71.56
414.035	92.56
414.258	92.56
414.482	88.56
414.705	92.56
414.928	86.56
415.151	77.56
415.374	87.56
415.597	88.56
415.821	87.56
416.044	78.56
416.267	92.56
416.49	109.56
416.713	100.56
416.936	105.56
417.159	92.56
417.382	68.56
417.605	104.56
417.828	82.56
418.051	100.56
418.274	98.56
418.497	91.56
418.72	87.56
418.943	94.56
419.166	93.56
419.389	97.56
419.611	102.56
419.834	107.56
420.057	102.56
420.28	104.56
420.503	119.56
420.726	104.56
420.948	120.56
421.171	124.56
421.394	123.56
421.617	155.56
421.839	176.56
422.062	210.56
422.285	285.56
422.507	404.56
422.73	504.56
422.953	437.56
423.175	341.56
423.398	222.56
423.621	169.56
423.843	134.56
424.066	130.56
424.288	111.56
424.511	107.56
424.733	100.56
424.956	95.56
425.178	85.56
425.401	84.56
425.623	90.56
425.846	112.56
426.068	86.56
426.291	90.56
426.513	99.56
426.735	86.56
426.958	90.56
427.18	87.56
427.402	94.56
427.625	107.56
427.847	105.56
428.069	107.56
428.292	150.56
428.514	166.56
428.736	132.56
428.958	158.56
429.181	163.56
429.403	100.56
429.625	114.56
429.847	161.56
430.069	201.56
430.292	232.56
430.514	203.56
430.736	192.56
430.958	177.56
431.18	112.56
431.402	99.56
431.624	118.56
431.846	143.56
432.068	149.56
432.29	114.56
432.512	91.56
432.734	90.56
432.956	81.56
433.178	89.56
433.4	86.56
433.622	98.56
433.844	85.56
434.066	104.56
434.287	77.56
434.509	68.56
434.731	81.56
434.953	105.56
435.175	88.56
435.397	89.56
435.618	103.56
435.84	106.56
436.062	98.56
436.284	104.56
436.505	83.56
436.727	95.56
436.949	89.56
437.17	91.56
437.392	83.56
437.614	99.56
437.835	91.56
438.057	92.56
438.278	89.56
438.5	89.56
438.721	94.56
438.943	90.56
439.165	77.56
439.386	88.56
439.608	83.56
439.829	82.56
440.05	86.56
440.272	87.56
440.493	83.56
440.715	74.56
440.936	86.56
441.158	93.56
441.379	95.56
441.6	90.56
441.822	91.56
442.043	107.56
442.264	111.56
442.486	171.56
442.707	236.56
442.928	150.56
443.149	126.56
443.371	206.56
443.592	344.56
443.813	294.56
444.034	153.56
444.255	107.56
444.476	95.56
444.698	101.56
444.919	130.56
445.14	200.56
445.361	265.56
445.582	396.56
445.803	361.56
446.024	166.56
446.245	123.56
446.466	95.56
446.687	76.56
446.908	94.56
447.129	83.56
447.35	84.56
447.571	90.56
447.792	94.56
448.013	82.56
448.234	90.56
448.455	80.56
448.675	86.56
448.896	84.56
449.117	94.56
449.338	97.56
449.559	86.56
449.779	101.56
450	104.56
450.221	100.56
450.442	82.56
450.662	86.56
450.883	89.56
451.104	75.56
451.324	88.56
451.545	97.56
451.766	104.56
451.986	90.56
452.207	81.56
452.428	92.56
452.648	92.56
452.869	135.56
453.089	116.56
453.31	96.56
453.53	91.56
453.751	86.56
453.971	91.56
454.192	90.56
454.412	89.56
454.633	70.56
454.853	86.56
455.073	89.56
455.294	89.56
455.514	97.56
455.734	89.56
455.955	80.56
456.175	85.56
456.395	90.56
456.616	84.56
456.836	82.56
457.056	86.56
457.276	110.56
457.497	102.56
457.717	92.56
457.937	147.56
458.157	164.56
458.377	176.56
458.598	181.56
458.818	187.56
459.038	127.56
459.258	112.56
459.478	90.56
459.698	79.56
459.918	94.56
460.138	84.56
460.358	96.56
460.578	99.56
460.798	122.56
461.018	137.56
461.238	101.56
461.458	99.56
461.678	77.56
461.898	102.56
462.118	84.56
462.338	89.56
462.558	88.56
462.777	80.56
462.997	92.56
463.217	89.56
463.437	97.56
463.657	94.56
463.876	94.56
464.096	87.56
464.316	85.56
464.536	74.56
464.755	87.56
464.975	82.56
465.195	87.56
465.414	94.56
465.634	84.56
465.854	77.56
466.073	86.56
466.293	86.56
466.512	92.56
466.732	86.56
466.951	92.56
467.171	87.56
467.391	73.56
467.61	90.56
467.829	93.56
468.049	80.56
468.268	100.56
468.488	94.56
468.707	86.56
468.927	104.56
469.146	88.56
469.365	95.56
469.585	100.56
469.804	98.56
470.023	85.56
470.243	90.56
470.462	85.56
470.681	98.56
470.901	80.56
471.12	86.56
471.339	97.56
471.558	88.56
471.777	95.56
471.997	95.56
472.216	86.56
472.435	95.56
472.654	110.56
472.873	76.56
473.092	85.56
473.311	89.56
473.53	103.56
473.749	101.56
473.968	98.56
474.187	96.56
474.406	104.56
474.625	89.56
474.844	96.56
475.063	94.56
475.282	74.56
475.501	85.56
475.72	83.56
475.939	95.56
476.158	70.56
476.377	90.56
476.596	67.56
476.814	78.56
477.033	80.56
477.252	84.56
477.471	91.56
477.69	91.56
477.908	93.56
478.127	92.56
478.346	76.56
478.564	103.56
478.783	97.56
479.002	67.56
479.22	89.56
479.439	94.56
479.658	94.56
479.876	94.56
480.095	74.56
480.313	91.56
480.532	82.56
480.751	88.56
480.969	85.56
481.188	100.56
481.406	110.56
481.624	80.56
481.843	88.56
482.061	84.56
482.28	84.56
482.498	100.56
482.717	90.56
482.935	86.56
483.153	82.56
483.372	95.56
483.59	99.56
483.808	91.56
484.027	109.56
484.245	80.56
484.463	89.56
484.681	105.56
484.9	101.56
485.118	104.56
485.336	98.56
485.554	91.56
485.772	76.56
485.99	78.56
486.209	87.56
486.427	75.56
486.645	103.56
486.863	106.56
487.081	102.56
487.299	98.56
487.517	119.56
487.735	152.56
487.953	259.56
488.171	222.56
488.389	119.56
488.607	100.56
488.825	98.56
489.043	96.56
489.261	88.56
489.479	94.56
489.696	90.56
489.914	87.56
490.132	85.56
490.35	92.56
490.568	93.56
490.786	84.56
491.003	99.56
491.221	94.56
491.439	95.56
491.657	89.56
491.874	90.56
492.092	85.56
492.31	89.56
492.527	104.56
492.745	97.56
492.963	99.56
493.18	90.56
493.398	91.56
493.615	93.56
493.833	80.56
494.05	95.56
494.268	84.56
494.485	84.56
494.703	89.56
494.92	86.56
495.138	88.56
495.355	85.56
495.573	88.56
495.79	88.56
496.008	88.56
496.225	95.56
496.442	109.56
496.66	105.56
496.877	89.56
497.094	99.56
497.312	94.56
497.529	88.56
497.746	94.56
497.963	95.56
498.181	89.56
498.398	106.56
498.615	92.56
498.832	71.56
499.049	92.56
499.267	95.56
499.484	96.56
499.701	97.56
499.918	95.56
500.135	99.56
500.352	110.56
500.569	86.56
500.786	94.56
501.003	94.56
501.22	95.56
501.437	88.56
501.654	94.56
501.871	96.56
502.088	87.56
502.305	92.56
502.522	75.56
502.739	86.56
502.956	94.56
503.172	99.56
503.389	88.56
503.606	107.56
503.823	114.56
504.04	132.56
504.256	187.56
504.473	184.56
504.69	119.56
504.907	91.56
505.123	98.56
505.34	93.56
505.557	103.56
505.773	99.56
505.99	75.56
506.207	85.56
506.423	86.56
506.64	88.56
506.856	82.56
507.073	92.56
507.289	89.56
507.506	74.56
507.722	101.56
507.939	82.56
508.155	92.56
508.372	92.56
508.588	88.56
508.805	94.56
509.021	87.56
509.238	82.56
509.454	88.56
509.67	79.56
509.887	94.56
510.103	81.56
510.319	88.56
510.536	83.56
510.752	76.56
510.968	88.56
511.184	96.56
511.401	80.56
511.617	96.56
511.833	85.56
512.049	82.56
512.265	82.56
512.481	85.56
512.698	94.56
512.914	89.56
513.13	93.56
513.346	77.56
513.562	90.56
513.778	91.56
513.994	87.56
514.21	79.56
514.426	98.56
514.642	87.56
514.858	75.56
515.074	88.56
515.29	106.56
515.506	90.56
515.721	96.56
515.937	101.56
516.153	98.56
516.369	92.56
516.585	85.56
516.801	96.56
