Data from CBS_2_HRD10591_00019.txt Node
Date: Mon Jan 19 14:04:55 EST 2026
User: Yrep
Spectrometer: HR+D1059
Trigger mode: 1
Integration Time (sec): 1.000000E-1
Scans to average: 1
Electric dark correction enabled: true
Nonlinearity correction enabled: false
Boxcar width: 0
XAxis mode: Wavelengths
Number of Pixels in Spectrum: 2048
>>>>>Begin Spectral Data<<<<<
223.165	-16.31
223.4	-16.31
223.635	-16.31
223.869	-23.31
224.104	-23.31
224.338	-19.31
224.573	-15.31
224.808	-13.31
225.042	-0.31
225.277	-0.31
225.511	-8.31
225.746	-1.31
225.98	2.69
226.215	16.69
226.449	12.69
226.683	17.69
226.918	30.69
227.152	40.69
227.387	32.69
227.621	35.69
227.856	58.69
228.09	34.69
228.324	58.69
228.559	64.69
228.793	59.69
229.027	60.69
229.262	53.69
229.496	69.69
229.73	60.69
229.964	83.69
230.199	70.69
230.433	85.69
230.667	71.69
230.901	82.69
231.136	72.69
231.37	89.69
231.604	84.69
231.838	78.69
232.072	78.69
232.306	80.69
232.541	80.69
232.775	79.69
233.009	89.69
233.243	87.69
233.477	77.69
233.711	78.69
233.945	55.69
234.179	72.69
234.413	84.69
234.647	88.69
234.881	92.69
235.115	86.69
235.349	73.69
235.583	81.69
235.817	79.69
236.051	78.69
236.285	69.69
236.519	74.69
236.753	77.69
236.987	74.69
237.221	69.69
237.455	70.69
237.689	64.69
237.922	79.69
238.156	66.69
238.39	70.69
238.624	79.69
238.858	66.69
239.091	75.69
239.325	74.69
239.559	66.69
239.793	87.69
240.027	74.69
240.26	71.69
240.494	74.69
240.728	90.69
240.961	68.69
241.195	86.69
241.429	74.69
241.662	85.69
241.896	76.69
242.13	72.69
242.363	66.69
242.597	70.69
242.83	81.69
243.064	72.69
243.298	76.69
243.531	75.69
243.765	80.69
243.998	79.69
244.232	73.69
244.465	76.69
244.699	72.69
244.932	78.69
245.166	76.69
245.399	84.69
245.633	65.69
245.866	82.69
246.099	67.69
246.333	60.69
246.566	88.69
246.8	69.69
247.033	67.69
247.266	76.69
247.5	73.69
247.733	69.69
247.966	74.69
248.2	81.69
248.433	80.69
248.666	68.69
248.899	80.69
249.133	75.69
249.366	78.69
249.599	82.69
249.832	86.69
250.066	92.69
250.299	82.69
250.532	85.69
250.765	78.69
250.998	70.69
251.231	81.69
251.465	73.69
251.698	80.69
251.931	77.69
252.164	76.69
252.397	78.69
252.63	77.69
252.863	68.69
253.096	89.69
253.329	84.69
253.562	72.69
253.795	73.69
254.028	69.69
254.261	78.69
254.494	75.69
254.727	70.69
254.96	86.69
255.193	79.69
255.426	73.69
255.659	86.69
255.892	76.69
256.124	76.69
256.357	75.69
256.59	82.69
256.823	77.69
257.056	79.69
257.289	89.69
257.521	81.69
257.754	88.69
257.987	82.69
258.22	81.69
258.452	70.69
258.685	73.69
258.918	78.69
259.151	79.69
259.383	61.69
259.616	76.69
259.849	86.69
260.081	80.69
260.314	92.69
260.547	82.69
260.779	89.69
261.012	69.69
261.244	92.69
261.477	78.69
261.71	74.69
261.942	75.69
262.175	70.69
262.407	80.69
262.64	72.69
262.872	78.69
263.105	76.69
263.337	94.69
263.57	75.69
263.802	73.69
264.035	90.69
264.267	76.69
264.499	90.69
264.732	81.69
264.964	80.69
265.197	70.69
265.429	85.69
265.661	88.69
265.894	67.69
266.126	82.69
266.358	75.69
266.591	73.69
266.823	86.69
267.055	94.69
267.287	77.69
267.52	85.69
267.752	74.69
267.984	77.69
268.216	73.69
268.448	88.69
268.681	87.69
268.913	84.69
269.145	90.69
269.377	102.69
269.609	71.69
269.841	74.69
270.073	84.69
270.306	88.69
270.538	70.69
270.77	80.69
271.002	82.69
271.234	85.69
271.466	73.69
271.698	81.69
271.93	69.69
272.162	78.69
272.394	76.69
272.626	83.69
272.858	72.69
273.09	86.69
273.322	88.69
273.553	73.69
273.785	78.69
274.017	81.69
274.249	91.69
274.481	98.69
274.713	78.69
274.945	82.69
275.176	74.69
275.408	84.69
275.64	78.69
275.872	90.69
276.104	95.69
276.335	78.69
276.567	85.69
276.799	97.69
277.031	71.69
277.262	78.69
277.494	88.69
277.726	81.69
277.957	85.69
278.189	83.69
278.421	73.69
278.652	73.69
278.884	69.69
279.115	70.69
279.347	74.69
279.579	73.69
279.81	74.69
280.042	80.69
280.273	71.69
280.505	69.69
280.736	77.69
280.968	79.69
281.199	71.69
281.431	88.69
281.662	85.69
281.894	81.69
282.125	87.69
282.356	80.69
282.588	80.69
282.819	66.69
283.051	80.69
283.282	86.69
283.513	81.69
283.745	84.69
283.976	85.69
284.207	85.69
284.439	85.69
284.67	97.69
284.901	88.69
285.132	84.69
285.364	81.69
285.595	73.69
285.826	83.69
286.057	84.69
286.288	83.69
286.52	85.69
286.751	89.69
286.982	73.69
287.213	80.69
287.444	76.69
287.675	96.69
287.906	88.69
288.138	96.69
288.369	86.69
288.6	90.69
288.831	72.69
289.062	84.69
289.293	94.69
289.524	82.69
289.755	79.69
289.986	90.69
290.217	98.69
290.448	79.69
290.679	72.69
290.91	88.69
291.141	86.69
291.371	75.69
291.602	88.69
291.833	86.69
292.064	78.69
292.295	63.69
292.526	86.69
292.757	79.69
292.987	89.69
293.218	87.69
293.449	78.69
293.68	92.69
293.91	83.69
294.141	72.69
294.372	87.69
294.603	76.69
294.833	78.69
295.064	74.69
295.295	90.69
295.525	67.69
295.756	90.69
295.987	85.69
296.217	90.69
296.448	80.69
296.679	59.69
296.909	85.69
297.14	89.69
297.37	78.69
297.601	79.69
297.831	101.69
298.062	84.69
298.292	78.69
298.523	87.69
298.753	87.69
298.984	74.69
299.214	74.69
299.445	79.69
299.675	81.69
299.905	95.69
300.136	84.69
300.366	80.69
300.597	91.69
300.827	80.69
301.057	86.69
301.288	94.69
301.518	89.69
301.748	58.69
301.979	102.69
302.209	77.69
302.439	89.69
302.669	108.69
302.9	101.69
303.13	78.69
303.36	83.69
303.59	86.69
303.82	83.69
304.051	93.69
304.281	78.69
304.511	86.69
304.741	82.69
304.971	72.69
305.201	82.69
305.431	78.69
305.661	62.69
305.891	78.69
306.121	84.69
306.352	83.69
306.582	75.69
306.812	72.69
307.042	77.69
307.272	95.69
307.502	87.69
307.731	97.69
307.961	96.69
308.191	82.69
308.421	85.69
308.651	72.69
308.881	96.69
309.111	91.69
309.341	91.69
309.571	84.69
309.8	82.69
310.03	68.69
310.26	84.69
310.49	96.69
310.72	83.69
310.949	79.69
311.179	85.69
311.409	84.69
311.639	87.69
311.868	81.69
312.098	88.69
312.328	72.69
312.557	78.69
312.787	80.69
313.017	85.69
313.246	87.69
313.476	89.69
313.706	86.69
313.935	78.69
314.165	71.69
314.394	90.69
314.624	82.69
314.853	93.69
315.083	78.69
315.312	87.69
315.542	86.69
315.771	73.69
316.001	78.69
316.23	78.69
316.46	87.69
316.689	89.69
316.919	79.69
317.148	85.69
317.377	83.69
317.607	83.69
317.836	81.69
318.065	88.69
318.295	80.69
318.524	81.69
318.753	83.69
318.983	73.69
319.212	71.69
319.441	92.69
319.67	93.69
319.9	82.69
320.129	97.69
320.358	81.69
320.587	89.69
320.816	84.69
321.046	95.69
321.275	90.69
321.504	71.69
321.733	84.69
321.962	72.69
322.191	84.69
322.42	98.69
322.649	90.69
322.878	71.69
323.108	80.69
323.337	97.69
323.566	64.69
323.795	69.69
324.024	93.69
324.253	84.69
324.482	88.69
324.71	81.69
324.939	96.69
325.168	85.69
325.397	82.69
325.626	93.69
325.855	80.69
326.084	100.69
326.313	82.69
326.542	70.69
326.77	86.69
326.999	91.69
327.228	95.69
327.457	80.69
327.686	86.69
327.914	86.69
328.143	78.69
328.372	81.69
328.6	90.69
328.829	81.69
329.058	84.69
329.287	80.69
329.515	78.69
329.744	86.69
329.972	88.69
330.201	94.69
330.43	91.69
330.658	83.69
330.887	90.69
331.115	72.69
331.344	78.69
331.572	79.69
331.801	88.69
332.03	85.69
332.258	92.69
332.486	86.69
332.715	88.69
332.943	77.69
333.172	88.69
333.4	92.69
333.629	74.69
333.857	85.69
334.085	92.69
334.314	86.69
334.542	82.69
334.771	95.69
334.999	84.69
335.227	86.69
335.455	87.69
335.684	90.69
335.912	89.69
336.14	86.69
336.369	92.69
336.597	88.69
336.825	103.69
337.053	90.69
337.281	78.69
337.51	78.69
337.738	87.69
337.966	81.69
338.194	80.69
338.422	86.69
338.65	86.69
338.878	92.69
339.106	98.69
339.334	95.69
339.562	75.69
339.79	84.69
340.018	64.69
340.246	87.69
340.474	84.69
340.702	108.69
340.93	91.69
341.158	77.69
341.386	75.69
341.614	78.69
341.842	75.69
342.07	96.69
342.298	79.69
342.526	93.69
342.754	85.69
342.981	91.69
343.209	84.69
343.437	91.69
343.665	65.69
343.893	97.69
344.12	84.69
344.348	74.69
344.576	79.69
344.804	84.69
345.031	90.69
345.259	85.69
345.487	83.69
345.714	78.69
345.942	94.69
346.17	77.69
346.397	86.69
346.625	78.69
346.853	92.69
347.08	82.69
347.308	78.69
347.535	85.69
347.763	93.69
347.99	96.69
348.218	97.69
348.445	83.69
348.673	88.69
348.9	89.69
349.128	85.69
349.355	85.69
349.583	74.69
349.81	86.69
350.037	87.69
350.265	79.69
350.492	90.69
350.72	92.69
350.947	82.69
351.174	82.69
351.402	77.69
351.629	73.69
351.856	83.69
352.083	98.69
352.311	80.69
352.538	100.69
352.765	84.69
352.992	94.69
353.22	95.69
353.447	83.69
353.674	90.69
353.901	77.69
354.128	90.69
354.355	85.69
354.583	83.69
354.81	77.69
355.037	85.69
355.264	74.69
355.491	96.69
355.718	84.69
355.945	98.69
356.172	96.69
356.399	86.69
356.626	77.69
356.853	86.69
357.08	89.69
357.307	89.69
357.534	79.69
357.761	97.69
357.988	84.69
358.215	82.69
358.441	85.69
358.668	98.69
358.895	93.69
359.122	84.69
359.349	75.69
359.576	82.69
359.802	74.69
360.029	90.69
360.256	72.69
360.483	73.69
360.709	88.69
360.936	92.69
361.163	88.69
361.39	80.69
361.616	75.69
361.843	94.69
362.07	99.69
362.296	113.69
362.523	88.69
362.749	105.69
362.976	119.69
363.203	107.69
363.429	87.69
363.656	103.69
363.882	81.69
364.109	99.69
364.335	117.69
364.562	120.69
364.788	92.69
365.015	80.69
365.241	74.69
365.468	86.69
365.694	97.69
365.92	86.69
366.147	84.69
366.373	74.69
366.599	88.69
366.826	90.69
367.052	89.69
367.278	93.69
367.505	82.69
367.731	86.69
367.957	79.69
368.184	82.69
368.41	98.69
368.636	90.69
368.862	88.69
369.089	94.69
369.315	84.69
369.541	91.69
369.767	71.69
369.993	80.69
370.219	98.69
370.445	89.69
370.672	81.69
370.898	74.69
371.124	86.69
371.35	92.69
371.576	89.69
371.802	83.69
372.028	85.69
372.254	93.69
372.48	89.69
372.706	79.69
372.932	91.69
373.158	84.69
373.384	96.69
373.61	98.69
373.835	93.69
374.061	94.69
374.287	93.69
374.513	85.69
374.739	81.69
374.965	88.69
375.191	70.69
375.416	88.69
375.642	88.69
375.868	79.69
376.094	78.69
376.319	88.69
376.545	82.69
376.771	90.69
376.997	88.69
377.222	75.69
377.448	82.69
377.674	104.69
377.899	72.69
378.125	73.69
378.35	90.69
378.576	86.69
378.802	68.69
379.027	89.69
379.253	94.69
379.478	70.69
379.704	99.69
379.929	94.69
380.155	83.69
380.38	68.69
380.606	84.69
380.831	82.69
381.057	80.69
381.282	95.69
381.507	85.69
381.733	87.69
381.958	83.69
382.184	87.69
382.409	97.69
382.634	92.69
382.86	78.69
383.085	89.69
383.31	83.69
383.535	83.69
383.761	73.69
383.986	92.69
384.211	75.69
384.436	89.69
384.662	72.69
384.887	93.69
385.112	77.69
385.337	88.69
385.562	87.69
385.787	80.69
386.013	90.69
386.238	85.69
386.463	98.69
386.688	108.69
386.913	99.69
387.138	93.69
387.363	86.69
387.588	86.69
387.813	100.69
388.038	86.69
388.263	85.69
388.488	87.69
388.713	86.69
388.938	88.69
389.163	92.69
389.387	92.69
389.612	88.69
389.837	77.69
390.062	98.69
390.287	108.69
390.512	93.69
390.736	86.69
390.961	92.69
391.186	102.69
391.411	82.69
391.636	75.69
391.86	92.69
392.085	97.69
392.31	98.69
392.534	105.69
392.759	111.69
392.984	113.69
393.208	132.69
393.433	192.69
393.658	157.69
393.882	124.69
394.107	93.69
394.331	104.69
394.556	103.69
394.78	80.69
395.005	94.69
395.229	95.69
395.454	92.69
395.678	93.69
395.903	109.69
396.127	109.69
396.352	122.69
396.576	126.69
396.801	151.69
397.025	172.69
397.249	143.69
397.474	110.69
397.698	100.69
397.922	90.69
398.147	93.69
398.371	87.69
398.595	76.69
398.82	89.69
399.044	86.69
399.268	85.69
399.492	95.69
399.717	94.69
399.941	81.69
400.165	88.69
400.389	94.69
400.613	85.69
400.837	92.69
401.062	97.69
401.286	85.69
401.51	84.69
401.734	81.69
401.958	78.69
402.182	89.69
402.406	72.69
402.63	88.69
402.854	89.69
403.078	104.69
403.302	87.69
403.526	99.69
403.75	91.69
403.974	79.69
404.198	77.69
404.422	95.69
404.645	82.69
404.869	88.69
405.093	75.69
405.317	81.69
405.541	73.69
405.765	84.69
405.988	97.69
406.212	79.69
406.436	88.69
406.66	86.69
406.883	87.69
407.107	74.69
407.331	61.69
407.555	78.69
407.778	88.69
408.002	93.69
408.226	88.69
408.449	88.69
408.673	89.69
408.896	80.69
409.12	94.69
409.344	102.69
409.567	104.69
409.791	88.69
410.014	106.69
410.238	96.69
410.461	96.69
410.685	96.69
410.908	83.69
411.132	86.69
411.355	80.69
411.578	85.69
411.802	107.69
412.025	93.69
412.249	89.69
412.472	83.69
412.695	89.69
412.919	75.69
413.142	84.69
413.365	94.69
413.589	96.69
413.812	93.69
414.035	85.69
414.258	91.69
414.482	81.69
414.705	94.69
414.928	104.69
415.151	97.69
415.374	69.69
415.597	84.69
415.821	79.69
416.044	85.69
416.267	91.69
416.49	86.69
416.713	87.69
416.936	80.69
417.159	90.69
417.382	77.69
417.605	90.69
417.828	78.69
418.051	75.69
418.274	90.69
418.497	88.69
418.72	92.69
418.943	87.69
419.166	68.69
419.389	85.69
419.611	97.69
419.834	80.69
420.057	98.69
420.28	81.69
420.503	82.69
420.726	89.69
420.948	92.69
421.171	101.69
421.394	105.69
421.617	119.69
421.839	125.69
422.062	124.69
422.285	165.69
422.507	254.69
422.73	314.69
422.953	311.69
423.175	199.69
423.398	125.69
423.621	128.69
423.843	101.69
424.066	112.69
424.288	112.69
424.511	95.69
424.733	88.69
424.956	85.69
425.178	79.69
425.401	84.69
425.623	80.69
425.846	93.69
426.068	94.69
426.291	94.69
426.513	80.69
426.735	84.69
426.958	84.69
427.18	95.69
427.402	92.69
427.625	81.69
427.847	82.69
428.069	81.69
428.292	129.69
428.514	137.69
428.736	102.69
428.958	120.69
429.181	124.69
429.403	94.69
429.625	93.69
429.847	96.69
430.069	128.69
430.292	141.69
430.514	131.69
430.736	114.69
430.958	123.69
431.18	102.69
431.402	85.69
431.624	87.69
431.846	122.69
432.068	126.69
432.29	89.69
432.512	89.69
432.734	95.69
432.956	79.69
433.178	81.69
433.4	87.69
433.622	85.69
433.844	80.69
434.066	85.69
434.287	92.69
434.509	94.69
434.731	90.69
434.953	82.69
435.175	72.69
435.397	81.69
435.618	73.69
435.84	78.69
436.062	93.69
436.284	93.69
436.505	80.69
436.727	92.69
436.949	88.69
437.17	84.69
437.392	90.69
437.614	94.69
437.835	82.69
438.057	92.69
438.278	69.69
438.5	72.69
438.721	91.69
438.943	78.69
439.165	84.69
439.386	83.69
439.608	91.69
439.829	80.69
440.05	86.69
440.272	88.69
440.493	88.69
440.715	82.69
440.936	95.69
441.158	97.69
441.379	76.69
441.6	66.69
441.822	72.69
442.043	102.69
442.264	100.69
442.486	113.69
442.707	136.69
442.928	114.69
443.149	94.69
443.371	146.69
443.592	201.69
443.813	162.69
444.034	106.69
444.255	101.69
444.476	96.69
444.698	94.69
444.919	98.69
445.14	161.69
445.361	184.69
445.582	209.69
445.803	190.69
446.024	113.69
446.245	83.69
446.466	83.69
446.687	89.69
446.908	95.69
447.129	84.69
447.35	96.69
447.571	82.69
447.792	82.69
448.013	78.69
448.234	83.69
448.455	79.69
448.675	85.69
448.896	85.69
449.117	78.69
449.338	94.69
449.559	91.69
449.779	86.69
450	91.69
450.221	92.69
450.442	73.69
450.662	89.69
450.883	80.69
451.104	84.69
451.324	97.69
451.545	86.69
451.766	83.69
451.986	81.69
452.207	85.69
452.428	78.69
452.648	90.69
452.869	96.69
453.089	82.69
453.31	90.69
453.53	82.69
453.751	72.69
453.971	86.69
454.192	76.69
454.412	89.69
454.633	94.69
454.853	94.69
455.073	70.69
455.294	86.69
455.514	90.69
455.734	86.69
455.955	78.69
456.175	81.69
456.395	86.69
456.616	69.69
456.836	86.69
457.056	100.69
457.276	92.69
457.497	103.69
457.717	75.69
457.937	87.69
458.157	121.69
458.377	115.69
458.598	131.69
458.818	114.69
459.038	98.69
459.258	82.69
459.478	75.69
459.698	82.69
459.918	101.69
460.138	92.69
460.358	83.69
460.578	90.69
460.798	102.69
461.018	114.69
461.238	82.69
461.458	80.69
461.678	83.69
461.898	92.69
462.118	86.69
462.338	92.69
462.558	95.69
462.777	76.69
462.997	87.69
463.217	92.69
463.437	90.69
463.657	95.69
463.876	88.69
464.096	85.69
464.316	88.69
464.536	92.69
464.755	80.69
464.975	92.69
465.195	92.69
465.414	88.69
465.634	84.69
465.854	69.69
466.073	72.69
466.293	75.69
466.512	82.69
466.732	88.69
466.951	80.69
467.171	79.69
467.391	80.69
467.61	75.69
467.829	79.69
468.049	91.69
468.268	84.69
468.488	85.69
468.707	86.69
468.927	85.69
469.146	90.69
469.365	91.69
469.585	86.69
469.804	80.69
470.023	79.69
470.243	88.69
470.462	88.69
470.681	94.69
470.901	89.69
471.12	84.69
471.339	82.69
471.558	88.69
471.777	76.69
471.997	86.69
472.216	88.69
472.435	95.69
472.654	87.69
472.873	92.69
473.092	71.69
473.311	80.69
473.53	90.69
473.749	89.69
473.968	79.69
474.187	84.69
474.406	92.69
474.625	102.69
474.844	97.69
475.063	93.69
475.282	86.69
475.501	69.69
475.72	91.69
475.939	75.69
476.158	85.69
476.377	70.69
476.596	73.69
476.814	81.69
477.033	92.69
477.252	74.69
477.471	85.69
477.69	97.69
477.908	83.69
478.127	86.69
478.346	80.69
478.564	80.69
478.783	86.69
479.002	93.69
479.22	86.69
479.439	88.69
479.658	103.69
479.876	66.69
480.095	89.69
480.313	73.69
480.532	100.69
480.751	86.69
480.969	84.69
481.188	87.69
481.406	93.69
481.624	93.69
481.843	104.69
482.061	77.69
482.28	87.69
482.498	90.69
482.717	94.69
482.935	68.69
483.153	89.69
483.372	112.69
483.59	100.69
483.808	88.69
484.027	101.69
484.245	84.69
484.463	77.69
484.681	90.69
484.9	97.69
485.118	96.69
485.336	83.69
485.554	94.69
485.772	90.69
485.99	102.69
486.209	95.69
486.427	104.69
486.645	89.69
486.863	78.69
487.081	98.69
487.299	102.69
487.517	113.69
487.735	104.69
487.953	165.69
488.171	131.69
488.389	98.69
488.607	82.69
488.825	98.69
489.043	90.69
489.261	90.69
489.479	96.69
489.696	87.69
489.914	83.69
490.132	108.69
490.35	94.69
490.568	80.69
490.786	86.69
491.003	85.69
491.221	88.69
491.439	80.69
491.657	87.69
491.874	83.69
492.092	75.69
492.31	85.69
492.527	88.69
492.745	78.69
492.963	91.69
493.18	86.69
493.398	86.69
493.615	80.69
493.833	90.69
494.05	72.69
494.268	84.69
494.485	87.69
494.703	79.69
494.92	84.69
495.138	103.69
495.355	88.69
495.573	87.69
495.79	81.69
496.008	88.69
496.225	86.69
496.442	92.69
496.66	94.69
496.877	83.69
497.094	93.69
497.312	91.69
497.529	94.69
497.746	92.69
497.963	79.69
498.181	81.69
498.398	94.69
498.615	85.69
498.832	80.69
499.049	94.69
499.267	94.69
499.484	90.69
499.701	72.69
499.918	89.69
500.135	94.69
500.352	94.69
500.569	82.69
500.786	101.69
501.003	94.69
501.22	87.69
501.437	81.69
501.654	85.69
501.871	72.69
502.088	86.69
502.305	90.69
502.522	86.69
502.739	87.69
502.956	96.69
503.172	76.69
503.389	91.69
503.606	87.69
503.823	111.69
504.04	96.69
504.256	131.69
504.473	135.69
504.69	85.69
504.907	104.69
505.123	90.69
505.34	86.69
505.557	90.69
505.773	84.69
505.99	89.69
506.207	88.69
506.423	89.69
506.64	91.69
506.856	86.69
507.073	90.69
507.289	99.69
507.506	81.69
507.722	97.69
507.939	84.69
508.155	104.69
508.372	88.69
508.588	97.69
508.805	82.69
509.021	92.69
509.238	94.69
509.454	100.69
509.67	80.69
509.887	80.69
510.103	66.69
510.319	92.69
510.536	96.69
510.752	88.69
510.968	87.69
511.184	92.69
511.401	76.69
511.617	93.69
511.833	95.69
512.049	97.69
512.265	93.69
512.481	82.69
512.698	90.69
512.914	83.69
513.13	92.69
513.346	89.69
513.562	94.69
513.778	93.69
513.994	92.69
514.21	86.69
514.426	89.69
514.642	102.69
514.858	82.69
515.074	108.69
515.29	88.69
515.506	84.69
515.721	96.69
515.937	96.69
516.153	84.69
516.369	101.69
516.585	76.69
516.801	92.69
517.016	86.69
517.232	95.69
517.448	89.69
517.664	97.69
517.879	88.69
518.095	86.69
518.311	91.69
518.527	101.69
