Data from CBS_2_HRD10591_00048.txt Node
Date: Mon Jan 19 14:05:10 EST 2026
User: Yrep
Spectrometer: HR+D1059
Trigger mode: 1
Integration Time (sec): 1.000000E-1
Scans to average: 1
Electric dark correction enabled: true
Nonlinearity correction enabled: false
Boxcar width: 0
XAxis mode: Wavelengths
Number of Pixels in Spectrum: 2048
>>>>>Begin Spectral Data<<<<<
223.165	-24.31
223.4	-24.31
223.635	-24.31
223.869	-17.31
224.104	-12.31
224.338	-22.31
224.573	-13.31
224.808	-21.31
225.042	-8.31
225.277	5.69
225.511	4.69
225.746	-5.31
225.98	10.69
226.215	7.69
226.449	24.69
226.683	12.69
226.918	27.69
227.152	30.69
227.387	31.69
227.621	44.69
227.856	35.69
228.09	36.69
228.324	52.69
228.559	59.69
228.793	80.69
229.027	62.69
229.262	62.69
229.496	70.69
229.73	76.69
229.964	78.69
230.199	70.69
230.433	74.69
230.667	71.69
230.901	90.69
231.136	74.69
231.37	67.69
231.604	72.69
231.838	74.69
232.072	66.69
232.306	68.69
232.541	81.69
232.775	90.69
233.009	99.69
233.243	80.69
233.477	90.69
233.711	80.69
233.945	69.69
234.179	85.69
234.413	71.69
234.647	80.69
234.881	70.69
235.115	89.69
235.349	84.69
235.583	64.69
235.817	76.69
236.051	72.69
236.285	79.69
236.519	81.69
236.753	74.69
236.987	67.69
237.221	84.69
237.455	79.69
237.689	66.69
237.922	88.69
238.156	82.69
238.39	70.69
238.624	65.69
238.858	83.69
239.091	70.69
239.325	78.69
239.559	69.69
239.793	78.69
240.027	80.69
240.26	68.69
240.494	66.69
240.728	55.69
240.961	64.69
241.195	64.69
241.429	71.69
241.662	71.69
241.896	66.69
242.13	62.69
242.363	88.69
242.597	88.69
242.83	65.69
243.064	76.69
243.298	80.69
243.531	74.69
243.765	74.69
243.998	70.69
244.232	79.69
244.465	69.69
244.699	75.69
244.932	80.69
245.166	66.69
245.399	74.69
245.633	90.69
245.866	61.69
246.099	70.69
246.333	73.69
246.566	55.69
246.8	73.69
247.033	80.69
247.266	72.69
247.5	82.69
247.733	64.69
247.966	76.69
248.2	77.69
248.433	78.69
248.666	77.69
248.899	70.69
249.133	83.69
249.366	90.69
249.599	79.69
249.832	87.69
250.066	80.69
250.299	68.69
250.532	71.69
250.765	81.69
250.998	77.69
251.231	84.69
251.465	84.69
251.698	72.69
251.931	77.69
252.164	66.69
252.397	81.69
252.63	77.69
252.863	87.69
253.096	82.69
253.329	84.69
253.562	82.69
253.795	66.69
254.028	84.69
254.261	86.69
254.494	75.69
254.727	82.69
254.96	69.69
255.193	70.69
255.426	84.69
255.659	81.69
255.892	80.69
256.124	69.69
256.357	70.69
256.59	73.69
256.823	72.69
257.056	85.69
257.289	90.69
257.521	65.69
257.754	88.69
257.987	84.69
258.22	84.69
258.452	72.69
258.685	83.69
258.918	76.69
259.151	78.69
259.383	87.69
259.616	85.69
259.849	89.69
260.081	82.69
260.314	90.69
260.547	76.69
260.779	71.69
261.012	83.69
261.244	86.69
261.477	89.69
261.71	99.69
261.942	94.69
262.175	90.69
262.407	73.69
262.64	80.69
262.872	83.69
263.105	81.69
263.337	91.69
263.57	84.69
263.802	89.69
264.035	76.69
264.267	84.69
264.499	75.69
264.732	75.69
264.964	77.69
265.197	86.69
265.429	83.69
265.661	87.69
265.894	67.69
266.126	92.69
266.358	84.69
266.591	80.69
266.823	64.69
267.055	79.69
267.287	79.69
267.52	86.69
267.752	87.69
267.984	78.69
268.216	75.69
268.448	85.69
268.681	65.69
268.913	90.69
269.145	75.69
269.377	80.69
269.609	81.69
269.841	70.69
270.073	80.69
270.306	78.69
270.538	89.69
270.77	78.69
271.002	97.69
271.234	88.69
271.466	87.69
271.698	72.69
271.93	83.69
272.162	86.69
272.394	103.69
272.626	82.69
272.858	85.69
273.09	85.69
273.322	77.69
273.553	87.69
273.785	90.69
274.017	76.69
274.249	87.69
274.481	82.69
274.713	80.69
274.945	85.69
275.176	82.69
275.408	82.69
275.64	92.69
275.872	78.69
276.104	97.69
276.335	73.69
276.567	71.69
276.799	81.69
277.031	75.69
277.262	79.69
277.494	84.69
277.726	66.69
277.957	84.69
278.189	86.69
278.421	80.69
278.652	80.69
278.884	83.69
279.115	82.69
279.347	90.69
279.579	90.69
279.81	82.69
280.042	86.69
280.273	80.69
280.505	84.69
280.736	80.69
280.968	97.69
281.199	84.69
281.431	82.69
281.662	84.69
281.894	89.69
282.125	82.69
282.356	88.69
282.588	78.69
282.819	80.69
283.051	85.69
283.282	78.69
283.513	77.69
283.745	86.69
283.976	72.69
284.207	74.69
284.439	85.69
284.67	96.69
284.901	97.69
285.132	87.69
285.364	86.69
285.595	87.69
285.826	78.69
286.057	81.69
286.288	84.69
286.52	77.69
286.751	75.69
286.982	84.69
287.213	68.69
287.444	72.69
287.675	90.69
287.906	82.69
288.138	79.69
288.369	93.69
288.6	82.69
288.831	78.69
289.062	79.69
289.293	85.69
289.524	89.69
289.755	90.69
289.986	82.69
290.217	88.69
290.448	84.69
290.679	80.69
290.91	89.69
291.141	86.69
291.371	89.69
291.602	93.69
291.833	73.69
292.064	80.69
292.295	96.69
292.526	90.69
292.757	86.69
292.987	77.69
293.218	84.69
293.449	94.69
293.68	87.69
293.91	83.69
294.141	90.69
294.372	72.69
294.603	93.69
294.833	87.69
295.064	86.69
295.295	96.69
295.525	84.69
295.756	89.69
295.987	102.69
296.217	100.69
296.448	95.69
296.679	73.69
296.909	83.69
297.14	96.69
297.37	75.69
297.601	75.69
297.831	80.69
298.062	92.69
298.292	82.69
298.523	98.69
298.753	66.69
298.984	84.69
299.214	78.69
299.445	98.69
299.675	101.69
299.905	98.69
300.136	87.69
300.366	81.69
300.597	98.69
300.827	89.69
301.057	84.69
301.288	84.69
301.518	86.69
301.748	86.69
301.979	98.69
302.209	84.69
302.439	93.69
302.669	70.69
302.9	81.69
303.13	85.69
303.36	89.69
303.59	70.69
303.82	74.69
304.051	87.69
304.281	86.69
304.511	72.69
304.741	64.69
304.971	85.69
305.201	74.69
305.431	87.69
305.661	84.69
305.891	82.69
306.121	74.69
306.352	93.69
306.582	96.69
306.812	90.69
307.042	80.69
307.272	86.69
307.502	88.69
307.731	84.69
307.961	85.69
308.191	90.69
308.421	89.69
308.651	94.69
308.881	85.69
309.111	82.69
309.341	95.69
309.571	92.69
309.8	87.69
310.03	81.69
310.26	92.69
310.49	84.69
310.72	82.69
310.949	80.69
311.179	88.69
311.409	83.69
311.639	91.69
311.868	96.69
312.098	94.69
312.328	87.69
312.557	92.69
312.787	71.69
313.017	82.69
313.246	96.69
313.476	84.69
313.706	82.69
313.935	92.69
314.165	71.69
314.394	77.69
314.624	89.69
314.853	75.69
315.083	83.69
315.312	86.69
315.542	78.69
315.771	86.69
316.001	83.69
316.23	82.69
316.46	90.69
316.689	92.69
316.919	78.69
317.148	86.69
317.377	82.69
317.607	100.69
317.836	87.69
318.065	84.69
318.295	89.69
318.524	74.69
318.753	84.69
318.983	83.69
319.212	92.69
319.441	93.69
319.67	84.69
319.9	74.69
320.129	73.69
320.358	79.69
320.587	94.69
320.816	84.69
321.046	93.69
321.275	100.69
321.504	78.69
321.733	88.69
321.962	97.69
322.191	87.69
322.42	74.69
322.649	84.69
322.878	71.69
323.108	70.69
323.337	69.69
323.566	83.69
323.795	93.69
324.024	92.69
324.253	82.69
324.482	78.69
324.71	97.69
324.939	97.69
325.168	79.69
325.397	101.69
325.626	89.69
325.855	86.69
326.084	72.69
326.313	82.69
326.542	82.69
326.77	82.69
326.999	61.69
327.228	88.69
327.457	92.69
327.686	94.69
327.914	83.69
328.143	82.69
328.372	81.69
328.6	86.69
328.829	83.69
329.058	84.69
329.287	82.69
329.515	76.69
329.744	92.69
329.972	80.69
330.201	83.69
330.43	81.69
330.658	77.69
330.887	81.69
331.115	80.69
331.344	82.69
331.572	92.69
331.801	86.69
332.03	90.69
332.258	94.69
332.486	82.69
332.715	92.69
332.943	73.69
333.172	82.69
333.4	94.69
333.629	78.69
333.857	92.69
334.085	78.69
334.314	96.69
334.542	77.69
334.771	81.69
334.999	91.69
335.227	86.69
335.455	86.69
335.684	101.69
335.912	109.69
336.14	102.69
336.369	80.69
336.597	72.69
336.825	85.69
337.053	96.69
337.281	81.69
337.51	88.69
337.738	81.69
337.966	92.69
338.194	78.69
338.422	94.69
338.65	94.69
338.878	91.69
339.106	86.69
339.334	71.69
339.562	86.69
339.79	74.69
340.018	74.69
340.246	84.69
340.474	92.69
340.702	94.69
340.93	89.69
341.158	92.69
341.386	87.69
341.614	90.69
341.842	86.69
342.07	100.69
342.298	84.69
342.526	86.69
342.754	88.69
342.981	72.69
343.209	87.69
343.437	92.69
343.665	86.69
343.893	89.69
344.12	85.69
344.348	89.69
344.576	98.69
344.804	84.69
345.031	90.69
345.259	78.69
345.487	76.69
345.714	88.69
345.942	86.69
346.17	85.69
346.397	78.69
346.625	87.69
346.853	93.69
347.08	73.69
347.308	93.69
347.535	81.69
347.763	89.69
347.99	78.69
348.218	80.69
348.445	89.69
348.673	100.69
348.9	87.69
349.128	88.69
349.355	88.69
349.583	85.69
349.81	89.69
350.037	90.69
350.265	87.69
350.492	84.69
350.72	86.69
350.947	72.69
351.174	88.69
351.402	81.69
351.629	90.69
351.856	71.69
352.083	74.69
352.311	83.69
352.538	87.69
352.765	83.69
352.992	85.69
353.22	71.69
353.447	84.69
353.674	97.69
353.901	94.69
354.128	98.69
354.355	93.69
354.583	87.69
354.81	92.69
355.037	94.69
355.264	88.69
355.491	89.69
355.718	80.69
355.945	79.69
356.172	93.69
356.399	95.69
356.626	92.69
356.853	82.69
357.08	86.69
357.307	85.69
357.534	86.69
357.761	87.69
357.988	94.69
358.215	93.69
358.441	89.69
358.668	91.69
358.895	82.69
359.122	88.69
359.349	91.69
359.576	94.69
359.802	87.69
360.029	69.69
360.256	94.69
360.483	82.69
360.709	90.69
360.936	91.69
361.163	87.69
361.39	73.69
361.616	95.69
361.843	76.69
362.07	89.69
362.296	100.69
362.523	100.69
362.749	108.69
362.976	122.69
363.203	136.69
363.429	100.69
363.656	102.69
363.882	90.69
364.109	122.69
364.335	128.69
364.562	137.69
364.788	106.69
365.015	80.69
365.241	77.69
365.468	86.69
365.694	93.69
365.92	84.69
366.147	83.69
366.373	74.69
366.599	57.69
366.826	74.69
367.052	88.69
367.278	78.69
367.505	84.69
367.731	93.69
367.957	90.69
368.184	92.69
368.41	86.69
368.636	106.69
368.862	98.69
369.089	81.69
369.315	90.69
369.541	74.69
369.767	81.69
369.993	89.69
370.219	88.69
370.445	80.69
370.672	80.69
370.898	90.69
371.124	88.69
371.35	83.69
371.576	90.69
371.802	86.69
372.028	82.69
372.254	99.69
372.48	78.69
372.706	75.69
372.932	76.69
373.158	77.69
373.384	93.69
373.61	101.69
373.835	99.69
374.061	102.69
374.287	95.69
374.513	81.69
374.739	87.69
374.965	89.69
375.191	84.69
375.416	75.69
375.642	90.69
375.868	88.69
376.094	99.69
376.319	90.69
376.545	92.69
376.771	92.69
376.997	74.69
377.222	80.69
377.448	90.69
377.674	85.69
377.899	85.69
378.125	90.69
378.35	87.69
378.576	83.69
378.802	97.69
379.027	82.69
379.253	91.69
379.478	84.69
379.704	97.69
379.929	74.69
380.155	74.69
380.38	82.69
380.606	83.69
380.831	98.69
381.057	72.69
381.282	66.69
381.507	82.69
381.733	90.69
381.958	99.69
382.184	101.69
382.409	101.69
382.634	81.69
382.86	82.69
383.085	95.69
383.31	96.69
383.535	90.69
383.761	93.69
383.986	92.69
384.211	99.69
384.436	84.69
384.662	98.69
384.887	82.69
385.112	84.69
385.337	78.69
385.562	82.69
385.787	97.69
386.013	92.69
386.238	83.69
386.463	80.69
386.688	106.69
386.913	94.69
387.138	98.69
387.363	96.69
387.588	93.69
387.813	94.69
388.038	99.69
388.263	94.69
388.488	91.69
388.713	90.69
388.938	85.69
389.163	92.69
389.387	85.69
389.612	79.69
389.837	81.69
390.062	90.69
390.287	82.69
390.512	104.69
390.736	94.69
390.961	88.69
391.186	82.69
391.411	82.69
391.636	88.69
391.86	94.69
392.085	97.69
392.31	113.69
392.534	89.69
392.759	126.69
392.984	180.69
393.208	285.69
393.433	400.69
393.658	312.69
393.882	146.69
394.107	108.69
394.331	120.69
394.556	105.69
394.78	100.69
395.005	110.69
395.229	79.69
395.454	112.69
395.678	99.69
395.903	126.69
396.127	144.69
396.352	153.69
396.576	186.69
396.801	274.69
397.025	323.69
397.249	172.69
397.474	118.69
397.698	108.69
397.922	104.69
398.147	97.69
398.371	77.69
398.595	102.69
398.82	84.69
399.044	100.69
399.268	95.69
399.492	81.69
399.717	92.69
399.941	84.69
400.165	104.69
400.389	89.69
400.613	99.69
400.837	96.69
401.062	85.69
401.286	87.69
401.51	88.69
401.734	87.69
401.958	77.69
402.182	70.69
402.406	91.69
402.63	90.69
402.854	76.69
403.078	74.69
403.302	78.69
403.526	97.69
403.75	84.69
403.974	90.69
404.198	84.69
404.422	93.69
404.645	80.69
404.869	92.69
405.093	85.69
405.317	95.69
405.541	90.69
405.765	79.69
405.988	91.69
406.212	81.69
406.436	82.69
406.66	91.69
406.883	87.69
407.107	93.69
407.331	82.69
407.555	101.69
407.778	103.69
408.002	119.69
408.226	86.69
408.449	88.69
408.673	82.69
408.896	84.69
409.12	96.69
409.344	84.69
409.567	94.69
409.791	101.69
410.014	116.69
410.238	95.69
410.461	86.69
410.685	84.69
410.908	84.69
411.132	81.69
411.355	102.69
411.578	90.69
411.802	98.69
412.025	77.69
412.249	74.69
412.472	91.69
412.695	103.69
412.919	86.69
413.142	72.69
413.365	70.69
413.589	78.69
413.812	87.69
414.035	78.69
414.258	80.69
414.482	84.69
414.705	83.69
414.928	72.69
415.151	98.69
415.374	84.69
415.597	76.69
415.821	81.69
416.044	75.69
416.267	65.69
416.49	92.69
416.713	85.69
416.936	88.69
417.159	92.69
417.382	74.69
417.605	61.69
417.828	85.69
418.051	90.69
418.274	78.69
418.497	94.69
418.72	88.69
418.943	87.69
419.166	76.69
419.389	99.69
419.611	92.69
419.834	76.69
420.057	88.69
420.28	92.69
420.503	94.69
420.726	98.69
420.948	108.69
421.171	94.69
421.394	99.69
421.617	132.69
421.839	140.69
422.062	146.69
422.285	207.69
422.507	361.69
422.73	546.69
422.953	473.69
423.175	254.69
423.398	148.69
423.621	120.69
423.843	122.69
424.066	89.69
424.288	85.69
424.511	85.69
424.733	96.69
424.956	89.69
425.178	95.69
425.401	90.69
425.623	90.69
425.846	90.69
426.068	89.69
426.291	70.69
426.513	82.69
426.735	95.69
426.958	84.69
427.18	96.69
427.402	80.69
427.625	87.69
427.847	79.69
428.069	109.69
428.292	138.69
428.514	149.69
428.736	128.69
428.958	160.69
429.181	141.69
429.403	106.69
429.625	104.69
429.847	133.69
430.069	192.69
430.292	218.69
430.514	187.69
430.736	144.69
430.958	161.69
431.18	110.69
431.402	99.69
431.624	98.69
431.846	143.69
432.068	150.69
432.29	99.69
432.512	87.69
432.734	93.69
432.956	79.69
433.178	91.69
433.4	77.69
433.622	77.69
433.844	87.69
434.066	86.69
434.287	69.69
434.509	71.69
434.731	84.69
434.953	88.69
435.175	80.69
435.397	80.69
435.618	93.69
435.84	94.69
436.062	77.69
436.284	80.69
436.505	87.69
436.727	73.69
436.949	85.69
437.17	96.69
437.392	82.69
437.614	90.69
437.835	87.69
438.057	80.69
438.278	82.69
438.5	90.69
438.721	84.69
438.943	71.69
439.165	84.69
439.386	81.69
439.608	86.69
439.829	80.69
440.05	69.69
440.272	87.69
440.493	100.69
440.715	98.69
440.936	93.69
441.158	93.69
441.379	92.69
441.6	108.69
441.822	88.69
442.043	88.69
442.264	95.69
442.486	149.69
442.707	190.69
442.928	143.69
443.149	120.69
443.371	185.69
443.592	295.69
443.813	262.69
444.034	121.69
444.255	105.69
444.476	85.69
444.698	93.69
444.919	102.69
445.14	214.69
445.361	237.69
445.582	338.69
445.803	291.69
446.024	133.69
446.245	99.69
446.466	92.69
446.687	83.69
446.908	95.69
447.129	88.69
447.35	86.69
447.571	89.69
447.792	84.69
448.013	83.69
448.234	82.69
448.455	87.69
448.675	81.69
448.896	80.69
449.117	81.69
449.338	79.69
449.559	91.69
449.779	72.69
450	69.69
450.221	86.69
450.442	84.69
450.662	84.69
450.883	74.69
451.104	81.69
451.324	86.69
451.545	90.69
451.766	88.69
451.986	71.69
452.207	83.69
452.428	78.69
452.648	88.69
452.869	111.69
453.089	92.69
453.31	90.69
453.53	97.69
453.751	84.69
453.971	74.69
454.192	88.69
454.412	84.69
454.633	77.69
454.853	96.69
455.073	82.69
455.294	80.69
455.514	95.69
455.734	91.69
455.955	88.69
456.175	89.69
456.395	80.69
456.616	86.69
456.836	83.69
457.056	79.69
457.276	87.69
457.497	91.69
457.717	100.69
457.937	118.69
458.157	147.69
458.377	149.69
458.598	139.69
458.818	138.69
459.038	110.69
459.258	95.69
459.478	94.69
459.698	89.69
459.918	77.69
460.138	84.69
460.358	77.69
460.578	87.69
460.798	120.69
461.018	116.69
461.238	78.69
461.458	97.69
461.678	89.69
461.898	88.69
462.118	80.69
462.338	91.69
462.558	77.69
462.777	82.69
462.997	77.69
463.217	90.69
463.437	108.69
463.657	82.69
463.876	81.69
464.096	88.69
464.316	79.69
464.536	89.69
464.755	84.69
464.975	84.69
465.195	82.69
465.414	76.69
465.634	77.69
465.854	83.69
466.073	85.69
466.293	91.69
466.512	82.69
466.732	88.69
466.951	86.69
467.171	89.69
467.391	93.69
467.61	88.69
467.829	88.69
468.049	90.69
468.268	80.69
468.488	97.69
468.707	76.69
468.927	80.69
469.146	84.69
469.365	90.69
469.585	92.69
469.804	96.69
470.023	92.69
470.243	83.69
470.462	87.69
470.681	97.69
470.901	79.69
471.12	80.69
471.339	97.69
471.558	73.69
471.777	82.69
471.997	77.69
472.216	88.69
472.435	78.69
472.654	88.69
472.873	103.69
473.092	90.69
473.311	82.69
473.53	83.69
473.749	88.69
473.968	80.69
474.187	74.69
474.406	104.69
474.625	84.69
474.844	88.69
475.063	84.69
475.282	86.69
475.501	87.69
475.72	96.69
475.939	89.69
476.158	79.69
476.377	70.69
476.596	87.69
476.814	78.69
477.033	82.69
477.252	88.69
477.471	93.69
477.69	80.69
477.908	80.69
478.127	69.69
478.346	81.69
478.564	88.69
478.783	84.69
479.002	94.69
479.22	91.69
479.439	79.69
479.658	102.69
479.876	80.69
480.095	85.69
480.313	87.69
480.532	94.69
480.751	95.69
480.969	79.69
481.188	96.69
481.406	83.69
481.624	80.69
481.843	88.69
482.061	66.69
482.28	82.69
482.498	91.69
482.717	100.69
482.935	89.69
483.153	98.69
483.372	83.69
483.59	88.69
483.808	97.69
484.027	90.69
484.245	104.69
484.463	92.69
484.681	97.69
484.9	91.69
485.118	84.69
485.336	76.69
485.554	101.69
485.772	88.69
485.99	78.69
486.209	84.69
486.427	83.69
486.645	82.69
486.863	79.69
487.081	79.69
487.299	90.69
487.517	115.69
487.735	142.69
487.953	219.69
488.171	161.69
488.389	99.69
488.607	96.69
488.825	96.69
489.043	85.69
489.261	110.69
489.479	88.69
489.696	86.69
489.914	90.69
490.132	93.69
490.35	84.69
490.568	80.69
490.786	78.69
491.003	87.69
491.221	100.69
491.439	84.69
491.657	86.69
491.874	79.69
492.092	88.69
492.31	90.69
492.527	79.69
492.745	83.69
492.963	91.69
493.18	84.69
493.398	93.69
493.615	94.69
493.833	89.69
494.05	96.69
494.268	71.69
494.485	105.69
494.703	101.69
494.92	88.69
495.138	95.69
495.355	86.69
495.573	88.69
495.79	86.69
496.008	74.69
496.225	95.69
496.442	90.69
496.66	78.69
496.877	87.69
497.094	91.69
497.312	98.69
497.529	83.69
497.746	100.69
497.963	81.69
498.181	83.69
498.398	86.69
498.615	89.69
498.832	78.69
499.049	96.69
499.267	92.69
499.484	89.69
499.701	90.69
499.918	73.69
500.135	81.69
500.352	76.69
500.569	81.69
500.786	85.69
501.003	87.69
501.22	89.69
501.437	99.69
501.654	79.69
501.871	101.69
502.088	88.69
502.305	79.69
502.522	85.69
502.739	89.69
502.956	89.69
503.172	86.69
503.389	92.69
503.606	93.69
503.823	94.69
504.04	94.69
504.256	152.69
504.473	142.69
504.69	110.69
504.907	97.69
505.123	90.69
505.34	91.69
505.557	83.69
505.773	89.69
505.99	86.69
506.207	92.69
506.423	84.69
506.64	80.69
506.856	98.69
507.073	77.69
507.289	92.69
507.506	80.69
507.722	87.69
507.939	87.69
508.155	85.69
508.372	80.69
508.588	79.69
508.805	91.69
509.021	84.69
509.238	82.69
509.454	96.69
509.67	89.69
509.887	90.69
510.103	89.69
510.319	68.69
510.536	79.69
510.752	94.69
510.968	104.69
511.184	71.69
511.401	70.69
511.617	96.69
511.833	70.69
512.049	86.69
512.265	95.69
512.481	89.69
512.698	84.69
512.914	89.69
513.13	83.69
513.346	90.69
513.562	93.69
513.778	84.69
513.994	82.69
514.21	78.69
514.426	78.69
514.642	83.69
514.858	75.69
515.074	97.69
515.29	104.69
515.506	80.69
515.721	76.69
515.937	88.69
516.153	79.69
516.369	96.69
516.585	74.69
516.801	99.69
517.016	74.69
517.232	100.69
517.448	99.69
517.664	89.69
517.879	94.69
518.095	88.69
518.311	93.69
