Data from CBS_2_HRD10591_00015.txt Node
Date: Mon Jan 19 14:04:53 EST 2026
User: Yrep
Spectrometer: HR+D1059
Trigger mode: 1
Integration Time (sec): 1.000000E-1
Scans to average: 1
Electric dark correction enabled: true
Nonlinearity correction enabled: false
Boxcar width: 0
XAxis mode: Wavelengths
Number of Pixels in Spectrum: 2048
>>>>>Begin Spectral Data<<<<<
223.165	-12.19
223.4	-12.19
223.635	-12.19
223.869	-14.19
224.104	-34.19
224.338	-28.19
224.573	-17.19
224.808	-28.19
225.042	-8.19
225.277	-2.19
225.511	-14.19
225.746	18.81
225.98	15.81
226.215	10.81
226.449	14.81
226.683	25.81
226.918	35.81
227.152	36.81
227.387	34.81
227.621	35.81
227.856	45.81
228.09	41.81
228.324	53.81
228.559	53.81
228.793	48.81
229.027	58.81
229.262	64.81
229.496	67.81
229.73	67.81
229.964	60.81
230.199	58.81
230.433	74.81
230.667	73.81
230.901	81.81
231.136	86.81
231.37	86.81
231.604	75.81
231.838	69.81
232.072	78.81
232.306	78.81
232.541	79.81
232.775	83.81
233.009	61.81
233.243	70.81
233.477	80.81
233.711	76.81
233.945	85.81
234.179	83.81
234.413	85.81
234.647	65.81
234.881	78.81
235.115	71.81
235.349	64.81
235.583	68.81
235.817	81.81
236.051	69.81
236.285	76.81
236.519	68.81
236.753	77.81
236.987	53.81
237.221	70.81
237.455	70.81
237.689	83.81
237.922	76.81
238.156	55.81
238.39	69.81
238.624	70.81
238.858	73.81
239.091	68.81
239.325	76.81
239.559	78.81
239.793	73.81
240.027	82.81
240.26	70.81
240.494	72.81
240.728	76.81
240.961	67.81
241.195	63.81
241.429	65.81
241.662	55.81
241.896	68.81
242.13	65.81
242.363	62.81
242.597	78.81
242.83	68.81
243.064	62.81
243.298	72.81
243.531	85.81
243.765	76.81
243.998	74.81
244.232	67.81
244.465	84.81
244.699	67.81
244.932	59.81
245.166	70.81
245.399	71.81
245.633	65.81
245.866	81.81
246.099	66.81
246.333	70.81
246.566	85.81
246.8	77.81
247.033	96.81
247.266	89.81
247.5	74.81
247.733	68.81
247.966	85.81
248.2	66.81
248.433	79.81
248.666	78.81
248.899	76.81
249.133	65.81
249.366	76.81
249.599	76.81
249.832	75.81
250.066	81.81
250.299	72.81
250.532	70.81
250.765	89.81
250.998	88.81
251.231	78.81
251.465	82.81
251.698	72.81
251.931	71.81
252.164	61.81
252.397	68.81
252.63	62.81
252.863	76.81
253.096	79.81
253.329	69.81
253.562	74.81
253.795	84.81
254.028	78.81
254.261	82.81
254.494	85.81
254.727	87.81
254.96	66.81
255.193	75.81
255.426	94.81
255.659	72.81
255.892	88.81
256.124	76.81
256.357	69.81
256.59	84.81
256.823	72.81
257.056	70.81
257.289	82.81
257.521	84.81
257.754	80.81
257.987	67.81
258.22	88.81
258.452	63.81
258.685	88.81
258.918	76.81
259.151	76.81
259.383	79.81
259.616	68.81
259.849	69.81
260.081	78.81
260.314	81.81
260.547	67.81
260.779	87.81
261.012	76.81
261.244	88.81
261.477	86.81
261.71	68.81
261.942	75.81
262.175	89.81
262.407	74.81
262.64	74.81
262.872	66.81
263.105	76.81
263.337	78.81
263.57	73.81
263.802	79.81
264.035	76.81
264.267	76.81
264.499	78.81
264.732	84.81
264.964	78.81
265.197	65.81
265.429	78.81
265.661	76.81
265.894	53.81
266.126	84.81
266.358	77.81
266.591	74.81
266.823	81.81
267.055	76.81
267.287	65.81
267.52	78.81
267.752	80.81
267.984	77.81
268.216	89.81
268.448	73.81
268.681	74.81
268.913	82.81
269.145	72.81
269.377	62.81
269.609	68.81
269.841	70.81
270.073	69.81
270.306	71.81
270.538	81.81
270.77	77.81
271.002	86.81
271.234	79.81
271.466	96.81
271.698	84.81
271.93	76.81
272.162	67.81
272.394	70.81
272.626	76.81
272.858	67.81
273.09	84.81
273.322	74.81
273.553	69.81
273.785	78.81
274.017	73.81
274.249	83.81
274.481	90.81
274.713	84.81
274.945	80.81
275.176	76.81
275.408	72.81
275.64	68.81
275.872	81.81
276.104	75.81
276.335	69.81
276.567	106.81
276.799	83.81
277.031	76.81
277.262	95.81
277.494	89.81
277.726	82.81
277.957	88.81
278.189	78.81
278.421	67.81
278.652	68.81
278.884	76.81
279.115	86.81
279.347	88.81
279.579	74.81
279.81	91.81
280.042	68.81
280.273	77.81
280.505	77.81
280.736	88.81
280.968	80.81
281.199	85.81
281.431	84.81
281.662	67.81
281.894	91.81
282.125	89.81
282.356	81.81
282.588	99.81
282.819	94.81
283.051	74.81
283.282	82.81
283.513	82.81
283.745	74.81
283.976	78.81
284.207	87.81
284.439	73.81
284.67	85.81
284.901	78.81
285.132	101.81
285.364	72.81
285.595	86.81
285.826	85.81
286.057	80.81
286.288	83.81
286.52	94.81
286.751	83.81
286.982	81.81
287.213	76.81
287.444	74.81
287.675	92.81
287.906	75.81
288.138	70.81
288.369	69.81
288.6	82.81
288.831	78.81
289.062	84.81
289.293	84.81
289.524	83.81
289.755	78.81
289.986	95.81
290.217	80.81
290.448	79.81
290.679	90.81
290.91	72.81
291.141	76.81
291.371	90.81
291.602	83.81
291.833	79.81
292.064	86.81
292.295	77.81
292.526	73.81
292.757	97.81
292.987	85.81
293.218	84.81
293.449	70.81
293.68	77.81
293.91	83.81
294.141	90.81
294.372	86.81
294.603	96.81
294.833	91.81
295.064	83.81
295.295	84.81
295.525	80.81
295.756	100.81
295.987	92.81
296.217	80.81
296.448	74.81
296.679	69.81
296.909	84.81
297.14	93.81
297.37	94.81
297.601	98.81
297.831	82.81
298.062	92.81
298.292	82.81
298.523	75.81
298.753	72.81
298.984	72.81
299.214	76.81
299.445	83.81
299.675	83.81
299.905	85.81
300.136	95.81
300.366	73.81
300.597	80.81
300.827	87.81
301.057	77.81
301.288	81.81
301.518	85.81
301.748	88.81
301.979	105.81
302.209	88.81
302.439	98.81
302.669	74.81
302.9	80.81
303.13	75.81
303.36	80.81
303.59	81.81
303.82	80.81
304.051	93.81
304.281	81.81
304.511	87.81
304.741	80.81
304.971	80.81
305.201	93.81
305.431	71.81
305.661	104.81
305.891	97.81
306.121	68.81
306.352	87.81
306.582	80.81
306.812	82.81
307.042	86.81
307.272	84.81
307.502	80.81
307.731	78.81
307.961	80.81
308.191	85.81
308.421	90.81
308.651	84.81
308.881	88.81
309.111	84.81
309.341	85.81
309.571	89.81
309.8	80.81
310.03	70.81
310.26	72.81
310.49	84.81
310.72	81.81
310.949	82.81
311.179	88.81
311.409	68.81
311.639	87.81
311.868	85.81
312.098	93.81
312.328	90.81
312.557	69.81
312.787	73.81
313.017	80.81
313.246	74.81
313.476	83.81
313.706	68.81
313.935	76.81
314.165	83.81
314.394	85.81
314.624	90.81
314.853	81.81
315.083	94.81
315.312	72.81
315.542	73.81
315.771	87.81
316.001	72.81
316.23	77.81
316.46	77.81
316.689	89.81
316.919	70.81
317.148	88.81
317.377	81.81
317.607	80.81
317.836	76.81
318.065	90.81
318.295	89.81
318.524	94.81
318.753	86.81
318.983	81.81
319.212	69.81
319.441	75.81
319.67	76.81
319.9	76.81
320.129	85.81
320.358	85.81
320.587	87.81
320.816	82.81
321.046	84.81
321.275	86.81
321.504	86.81
321.733	84.81
321.962	95.81
322.191	78.81
322.42	85.81
322.649	85.81
322.878	91.81
323.108	92.81
323.337	93.81
323.566	76.81
323.795	86.81
324.024	69.81
324.253	91.81
324.482	78.81
324.71	63.81
324.939	80.81
325.168	81.81
325.397	88.81
325.626	74.81
325.855	83.81
326.084	81.81
326.313	83.81
326.542	85.81
326.77	92.81
326.999	86.81
327.228	90.81
327.457	78.81
327.686	69.81
327.914	88.81
328.143	88.81
328.372	66.81
328.6	90.81
328.829	82.81
329.058	90.81
329.287	71.81
329.515	80.81
329.744	86.81
329.972	88.81
330.201	93.81
330.43	76.81
330.658	85.81
330.887	73.81
331.115	74.81
331.344	111.81
331.572	80.81
331.801	80.81
332.03	80.81
332.258	84.81
332.486	82.81
332.715	76.81
332.943	86.81
333.172	82.81
333.4	82.81
333.629	79.81
333.857	63.81
334.085	100.81
334.314	81.81
334.542	88.81
334.771	92.81
334.999	94.81
335.227	93.81
335.455	83.81
335.684	89.81
335.912	102.81
336.14	93.81
336.369	79.81
336.597	83.81
336.825	85.81
337.053	106.81
337.281	94.81
337.51	60.81
337.738	83.81
337.966	83.81
338.194	82.81
338.422	70.81
338.65	88.81
338.878	99.81
339.106	84.81
339.334	87.81
339.562	98.81
339.79	79.81
340.018	71.81
340.246	75.81
340.474	82.81
340.702	88.81
340.93	77.81
341.158	78.81
341.386	86.81
341.614	79.81
341.842	89.81
342.07	81.81
342.298	78.81
342.526	69.81
342.754	73.81
342.981	94.81
343.209	82.81
343.437	105.81
343.665	87.81
343.893	91.81
344.12	88.81
344.348	93.81
344.576	86.81
344.804	93.81
345.031	86.81
345.259	88.81
345.487	94.81
345.714	94.81
345.942	90.81
346.17	87.81
346.397	89.81
346.625	87.81
346.853	78.81
347.08	80.81
347.308	90.81
347.535	71.81
347.763	86.81
347.99	75.81
348.218	92.81
348.445	83.81
348.673	82.81
348.9	80.81
349.128	79.81
349.355	82.81
349.583	82.81
349.81	81.81
350.037	81.81
350.265	89.81
350.492	82.81
350.72	84.81
350.947	60.81
351.174	80.81
351.402	72.81
351.629	77.81
351.856	70.81
352.083	99.81
352.311	74.81
352.538	92.81
352.765	86.81
352.992	98.81
353.22	93.81
353.447	78.81
353.674	90.81
353.901	95.81
354.128	82.81
354.355	78.81
354.583	93.81
354.81	82.81
355.037	75.81
355.264	76.81
355.491	71.81
355.718	79.81
355.945	86.81
356.172	75.81
356.399	81.81
356.626	82.81
356.853	90.81
357.08	90.81
357.307	87.81
357.534	85.81
357.761	89.81
357.988	90.81
358.215	88.81
358.441	70.81
358.668	90.81
358.895	82.81
359.122	82.81
359.349	83.81
359.576	79.81
359.802	71.81
360.029	74.81
360.256	94.81
360.483	76.81
360.709	74.81
360.936	90.81
361.163	87.81
361.39	79.81
361.616	70.81
361.843	78.81
362.07	99.81
362.296	82.81
362.523	89.81
362.749	97.81
362.976	109.81
363.203	95.81
363.429	100.81
363.656	76.81
363.882	80.81
364.109	94.81
364.335	133.81
364.562	140.81
364.788	104.81
365.015	94.81
365.241	88.81
365.468	89.81
365.694	69.81
365.92	87.81
366.147	89.81
366.373	92.81
366.599	90.81
366.826	83.81
367.052	72.81
367.278	85.81
367.505	91.81
367.731	83.81
367.957	88.81
368.184	81.81
368.41	81.81
368.636	89.81
368.862	81.81
369.089	92.81
369.315	75.81
369.541	94.81
369.767	87.81
369.993	78.81
370.219	82.81
370.445	86.81
370.672	105.81
370.898	78.81
371.124	81.81
371.35	87.81
371.576	88.81
371.802	89.81
372.028	72.81
372.254	76.81
372.48	80.81
372.706	78.81
372.932	93.81
373.158	90.81
373.384	94.81
373.61	77.81
373.835	96.81
374.061	92.81
374.287	75.81
374.513	105.81
374.739	79.81
374.965	77.81
375.191	81.81
375.416	84.81
375.642	86.81
375.868	86.81
376.094	82.81
376.319	91.81
376.545	90.81
376.771	89.81
376.997	99.81
377.222	84.81
377.448	76.81
377.674	74.81
377.899	71.81
378.125	90.81
378.35	81.81
378.576	92.81
378.802	88.81
379.027	88.81
379.253	87.81
379.478	94.81
379.704	79.81
379.929	73.81
380.155	76.81
380.38	82.81
380.606	77.81
380.831	83.81
381.057	80.81
381.282	68.81
381.507	86.81
381.733	76.81
381.958	68.81
382.184	88.81
382.409	78.81
382.634	90.81
382.86	91.81
383.085	85.81
383.31	85.81
383.535	67.81
383.761	89.81
383.986	89.81
384.211	69.81
384.436	88.81
384.662	78.81
384.887	70.81
385.112	68.81
385.337	80.81
385.562	78.81
385.787	70.81
386.013	78.81
386.238	72.81
386.463	93.81
386.688	95.81
386.913	89.81
387.138	100.81
387.363	97.81
387.588	80.81
387.813	82.81
388.038	92.81
388.263	85.81
388.488	82.81
388.713	97.81
388.938	92.81
389.163	88.81
389.387	86.81
389.612	100.81
389.837	74.81
390.062	72.81
390.287	73.81
390.512	86.81
390.736	85.81
390.961	76.81
391.186	93.81
391.411	80.81
391.636	88.81
391.86	88.81
392.085	83.81
392.31	98.81
392.534	88.81
392.759	125.81
392.984	155.81
393.208	195.81
393.433	269.81
393.658	214.81
393.882	121.81
394.107	102.81
394.331	95.81
394.556	104.81
394.78	100.81
395.005	110.81
395.229	101.81
395.454	93.81
395.678	94.81
395.903	107.81
396.127	115.81
396.352	110.81
396.576	139.81
396.801	206.81
397.025	232.81
397.249	163.81
397.474	126.81
397.698	115.81
397.922	93.81
398.147	80.81
398.371	86.81
398.595	75.81
398.82	69.81
399.044	86.81
399.268	94.81
399.492	88.81
399.717	91.81
399.941	86.81
400.165	76.81
400.389	83.81
400.613	92.81
400.837	85.81
401.062	90.81
401.286	91.81
401.51	75.81
401.734	73.81
401.958	77.81
402.182	82.81
402.406	78.81
402.63	77.81
402.854	84.81
403.078	91.81
403.302	83.81
403.526	77.81
403.75	89.81
403.974	86.81
404.198	82.81
404.422	100.81
404.645	107.81
404.869	94.81
405.093	96.81
405.317	84.81
405.541	75.81
405.765	88.81
405.988	86.81
406.212	80.81
406.436	86.81
406.66	82.81
406.883	90.81
407.107	80.81
407.331	65.81
407.555	75.81
407.778	96.81
408.002	109.81
408.226	77.81
408.449	86.81
408.673	82.81
408.896	101.81
409.12	87.81
409.344	102.81
409.567	92.81
409.791	95.81
410.014	85.81
410.238	101.81
410.461	85.81
410.685	89.81
410.908	90.81
411.132	88.81
411.355	80.81
411.578	91.81
411.802	93.81
412.025	83.81
412.249	85.81
412.472	73.81
412.695	93.81
412.919	80.81
413.142	78.81
413.365	85.81
413.589	81.81
413.812	110.81
414.035	66.81
414.258	67.81
414.482	80.81
414.705	60.81
414.928	68.81
415.151	90.81
415.374	87.81
415.597	77.81
415.821	79.81
416.044	94.81
416.267	99.81
416.49	84.81
416.713	79.81
416.936	86.81
417.159	82.81
417.382	75.81
417.605	79.81
417.828	81.81
418.051	74.81
418.274	70.81
418.497	78.81
418.72	72.81
418.943	80.81
419.166	83.81
419.389	76.81
419.611	85.81
419.834	93.81
420.057	75.81
420.28	94.81
420.503	98.81
420.726	84.81
420.948	86.81
421.171	102.81
421.394	107.81
421.617	110.81
421.839	130.81
422.062	135.81
422.285	190.81
422.507	299.81
422.73	384.81
422.953	348.81
423.175	239.81
423.398	157.81
423.621	117.81
423.843	120.81
424.066	105.81
424.288	88.81
424.511	82.81
424.733	86.81
424.956	82.81
425.178	84.81
425.401	82.81
425.623	88.81
425.846	81.81
426.068	90.81
426.291	91.81
426.513	88.81
426.735	93.81
426.958	86.81
427.18	92.81
427.402	84.81
427.625	93.81
427.847	80.81
428.069	90.81
428.292	145.81
428.514	146.81
428.736	100.81
428.958	137.81
429.181	126.81
429.403	97.81
429.625	107.81
429.847	125.81
430.069	160.81
430.292	178.81
430.514	151.81
430.736	138.81
430.958	141.81
431.18	99.81
431.402	76.81
431.624	93.81
431.846	118.81
432.068	131.81
432.29	95.81
432.512	93.81
432.734	84.81
432.956	78.81
433.178	71.81
433.4	96.81
433.622	89.81
433.844	95.81
434.066	100.81
434.287	97.81
434.509	73.81
434.731	82.81
434.953	80.81
435.175	84.81
435.397	85.81
435.618	86.81
435.84	77.81
436.062	76.81
436.284	65.81
436.505	81.81
436.727	73.81
436.949	83.81
437.17	68.81
437.392	74.81
437.614	79.81
437.835	64.81
438.057	67.81
438.278	76.81
438.5	81.81
438.721	82.81
438.943	80.81
439.165	80.81
439.386	71.81
439.608	89.81
439.829	77.81
440.05	79.81
440.272	65.81
440.493	69.81
440.715	80.81
440.936	80.81
441.158	93.81
441.379	86.81
441.6	70.81
441.822	82.81
442.043	85.81
442.264	94.81
442.486	114.81
442.707	152.81
442.928	114.81
443.149	97.81
443.371	160.81
443.592	236.81
443.813	201.81
444.034	124.81
444.255	96.81
444.476	79.81
444.698	85.81
444.919	94.81
445.14	162.81
445.361	199.81
445.582	292.81
445.803	246.81
446.024	121.81
446.245	98.81
446.466	89.81
446.687	76.81
446.908	80.81
447.129	66.81
447.35	78.81
447.571	87.81
447.792	88.81
448.013	85.81
448.234	81.81
448.455	82.81
448.675	76.81
448.896	69.81
449.117	69.81
449.338	80.81
449.559	77.81
449.779	77.81
450	66.81
450.221	73.81
450.442	77.81
450.662	81.81
450.883	70.81
451.104	66.81
451.324	92.81
451.545	67.81
451.766	85.81
451.986	88.81
452.207	92.81
452.428	76.81
452.648	90.81
452.869	102.81
453.089	100.81
453.31	87.81
453.53	85.81
453.751	78.81
453.971	95.81
454.192	67.81
454.412	80.81
454.633	94.81
454.853	76.81
455.073	95.81
455.294	84.81
455.514	83.81
455.734	95.81
455.955	78.81
456.175	83.81
456.395	84.81
456.616	81.81
456.836	76.81
457.056	64.81
457.276	86.81
457.497	85.81
457.717	92.81
457.937	100.81
458.157	125.81
458.377	143.81
458.598	144.81
458.818	129.81
459.038	98.81
459.258	96.81
459.478	83.81
459.698	95.81
459.918	94.81
460.138	83.81
460.358	76.81
460.578	89.81
460.798	112.81
461.018	112.81
461.238	98.81
461.458	77.81
461.678	88.81
461.898	90.81
462.118	77.81
462.338	74.81
462.558	78.81
462.777	70.81
462.997	74.81
463.217	82.81
463.437	84.81
463.657	79.81
463.876	77.81
464.096	85.81
464.316	83.81
464.536	83.81
464.755	84.81
464.975	67.81
465.195	97.81
465.414	68.81
465.634	73.81
465.854	76.81
466.073	86.81
466.293	92.81
466.512	92.81
466.732	91.81
466.951	79.81
467.171	75.81
467.391	84.81
467.61	85.81
467.829	69.81
468.049	81.81
468.268	74.81
468.488	98.81
468.707	67.81
468.927	86.81
469.146	86.81
469.365	90.81
469.585	89.81
469.804	79.81
470.023	81.81
470.243	91.81
470.462	90.81
470.681	91.81
470.901	74.81
471.12	69.81
471.339	66.81
471.558	67.81
471.777	83.81
471.997	78.81
472.216	74.81
472.435	68.81
472.654	80.81
472.873	73.81
473.092	81.81
473.311	91.81
473.53	84.81
473.749	90.81
473.968	94.81
474.187	86.81
474.406	92.81
474.625	79.81
474.844	79.81
475.063	90.81
475.282	78.81
475.501	96.81
475.72	85.81
475.939	74.81
476.158	87.81
476.377	82.81
476.596	78.81
476.814	71.81
477.033	77.81
477.252	68.81
477.471	66.81
477.69	92.81
477.908	89.81
478.127	93.81
478.346	80.81
478.564	90.81
478.783	84.81
479.002	89.81
479.22	88.81
479.439	77.81
479.658	74.81
479.876	80.81
480.095	70.81
480.313	62.81
480.532	85.81
480.751	89.81
480.969	95.81
481.188	82.81
481.406	96.81
481.624	76.81
481.843	78.81
482.061	82.81
482.28	84.81
482.498	93.81
482.717	92.81
482.935	83.81
483.153	88.81
483.372	74.81
483.59	82.81
483.808	81.81
484.027	97.81
484.245	78.81
484.463	72.81
484.681	79.81
484.9	87.81
485.118	74.81
485.336	64.81
485.554	79.81
485.772	84.81
485.99	74.81
486.209	61.81
486.427	86.81
486.645	88.81
486.863	90.81
487.081	85.81
487.299	100.81
487.517	109.81
487.735	116.81
487.953	184.81
488.171	168.81
488.389	98.81
488.607	96.81
488.825	91.81
489.043	87.81
489.261	96.81
489.479	76.81
489.696	80.81
489.914	92.81
490.132	100.81
490.35	99.81
490.568	88.81
490.786	89.81
491.003	70.81
491.221	72.81
491.439	72.81
491.657	68.81
491.874	78.81
492.092	76.81
492.31	83.81
492.527	86.81
492.745	84.81
492.963	78.81
493.18	74.81
493.398	92.81
493.615	83.81
493.833	94.81
494.05	87.81
494.268	98.81
494.485	95.81
494.703	81.81
494.92	92.81
495.138	80.81
495.355	88.81
495.573	93.81
495.79	92.81
496.008	88.81
496.225	94.81
496.442	81.81
496.66	82.81
496.877	84.81
497.094	94.81
497.312	86.81
497.529	81.81
497.746	78.81
497.963	83.81
498.181	82.81
498.398	98.81
498.615	88.81
498.832	74.81
499.049	69.81
499.267	92.81
499.484	80.81
499.701	85.81
499.918	85.81
500.135	92.81
500.352	77.81
500.569	78.81
500.786	86.81
501.003	82.81
501.22	88.81
501.437	94.81
501.654	91.81
501.871	91.81
502.088	85.81
502.305	93.81
502.522	80.81
502.739	85.81
502.956	76.81
503.172	88.81
503.389	86.81
503.606	97.81
503.823	93.81
504.04	104.81
504.256	155.81
504.473	136.81
504.69	112.81
504.907	96.81
505.123	88.81
505.34	83.81
505.557	83.81
505.773	89.81
505.99	82.81
506.207	86.81
506.423	83.81
506.64	92.81
506.856	75.81
507.073	79.81
507.289	78.81
507.506	81.81
507.722	104.81
507.939	83.81
508.155	83.81
508.372	86.81
508.588	75.81
508.805	96.81
509.021	74.81
509.238	85.81
509.454	92.81
509.67	84.81
509.887	77.81
510.103	80.81
510.319	82.81
510.536	80.81
510.752	82.81
510.968	84.81
511.184	83.81
511.401	88.81
511.617	94.81
511.833	93.81
512.049	94.81
512.265	92.81
512.481	96.81
512.698	90.81
512.914	92.81
513.13	81.81
513.346	98.81
513.562	84.81
513.778	94.81
513.994	81.81
514.21	90.81
514.426	87.81
514.642	93.81
514.858	74.81
515.074	79.81
515.29	92.81
515.506	90.81
515.721	78.81
515.937	94.81
516.153	85.81
516.369	97.81
516.585	80.81
516.801	88.81
517.016	94.81
517.232	97.81
517.448	84.81
517.664	85.81
517.879	88.81
518.095	76.81
518.311	87.81
518.527	102.81
518.742	120.81
