Data from CBS_2_HRD10591_00043.txt Node
Date: Mon Jan 19 14:05:07 EST 2026
User: Yrep
Spectrometer: HR+D1059
Trigger mode: 1
Integration Time (sec): 1.000000E-1
Scans to average: 1
Electric dark correction enabled: true
Nonlinearity correction enabled: false
Boxcar width: 0
XAxis mode: Wavelengths
Number of Pixels in Spectrum: 2048
>>>>>Begin Spectral Data<<<<<
223.165	-17.06
223.4	-17.06
223.635	-17.06
223.869	-28.06
224.104	-14.06
224.338	-12.06
224.573	-4.06
224.808	-13.06
225.042	1.94
225.277	-6.06
225.511	0.94
225.746	-7.06
225.98	-4.06
226.215	8.94
226.449	14.94
226.683	18.94
226.918	25.94
227.152	33.94
227.387	30.94
227.621	40.94
227.856	40.94
228.09	47.94
228.324	42.94
228.559	44.94
228.793	63.94
229.027	75.94
229.262	61.94
229.496	48.94
229.73	53.94
229.964	79.94
230.199	78.94
230.433	70.94
230.667	88.94
230.901	82.94
231.136	79.94
231.37	61.94
231.604	78.94
231.838	71.94
232.072	87.94
232.306	80.94
232.541	71.94
232.775	74.94
233.009	75.94
233.243	81.94
233.477	71.94
233.711	79.94
233.945	66.94
234.179	84.94
234.413	81.94
234.647	70.94
234.881	85.94
235.115	77.94
235.349	88.94
235.583	63.94
235.817	81.94
236.051	73.94
236.285	73.94
236.519	76.94
236.753	80.94
236.987	66.94
237.221	73.94
237.455	88.94
237.689	84.94
237.922	73.94
238.156	79.94
238.39	63.94
238.624	87.94
238.858	87.94
239.091	72.94
239.325	72.94
239.559	75.94
239.793	61.94
240.027	79.94
240.26	77.94
240.494	77.94
240.728	65.94
240.961	70.94
241.195	71.94
241.429	79.94
241.662	73.94
241.896	68.94
242.13	71.94
242.363	83.94
242.597	64.94
242.83	90.94
243.064	65.94
243.298	81.94
243.531	79.94
243.765	72.94
243.998	83.94
244.232	73.94
244.465	74.94
244.699	58.94
244.932	57.94
245.166	69.94
245.399	80.94
245.633	69.94
245.866	79.94
246.099	74.94
246.333	77.94
246.566	70.94
246.8	71.94
247.033	67.94
247.266	81.94
247.5	78.94
247.733	83.94
247.966	82.94
248.2	89.94
248.433	83.94
248.666	74.94
248.899	67.94
249.133	69.94
249.366	76.94
249.599	78.94
249.832	80.94
250.066	85.94
250.299	73.94
250.532	70.94
250.765	71.94
250.998	81.94
251.231	81.94
251.465	80.94
251.698	76.94
251.931	84.94
252.164	81.94
252.397	73.94
252.63	85.94
252.863	85.94
253.096	70.94
253.329	70.94
253.562	68.94
253.795	76.94
254.028	80.94
254.261	87.94
254.494	64.94
254.727	71.94
254.96	84.94
255.193	73.94
255.426	70.94
255.659	87.94
255.892	77.94
256.124	80.94
256.357	89.94
256.59	94.94
256.823	83.94
257.056	72.94
257.289	77.94
257.521	84.94
257.754	82.94
257.987	93.94
258.22	71.94
258.452	85.94
258.685	66.94
258.918	75.94
259.151	83.94
259.383	78.94
259.616	67.94
259.849	68.94
260.081	74.94
260.314	78.94
260.547	79.94
260.779	75.94
261.012	86.94
261.244	78.94
261.477	95.94
261.71	75.94
261.942	81.94
262.175	87.94
262.407	86.94
262.64	72.94
262.872	59.94
263.105	83.94
263.337	92.94
263.57	69.94
263.802	81.94
264.035	63.94
264.267	75.94
264.499	71.94
264.732	80.94
264.964	76.94
265.197	73.94
265.429	67.94
265.661	72.94
265.894	68.94
266.126	81.94
266.358	75.94
266.591	81.94
266.823	93.94
267.055	99.94
267.287	84.94
267.52	91.94
267.752	73.94
267.984	72.94
268.216	80.94
268.448	86.94
268.681	71.94
268.913	70.94
269.145	73.94
269.377	73.94
269.609	80.94
269.841	75.94
270.073	85.94
270.306	82.94
270.538	87.94
270.77	81.94
271.002	83.94
271.234	78.94
271.466	70.94
271.698	90.94
271.93	91.94
272.162	87.94
272.394	96.94
272.626	66.94
272.858	91.94
273.09	77.94
273.322	80.94
273.553	86.94
273.785	91.94
274.017	66.94
274.249	83.94
274.481	84.94
274.713	70.94
274.945	78.94
275.176	87.94
275.408	99.94
275.64	80.94
275.872	83.94
276.104	82.94
276.335	85.94
276.567	90.94
276.799	76.94
277.031	75.94
277.262	71.94
277.494	74.94
277.726	77.94
277.957	89.94
278.189	91.94
278.421	79.94
278.652	71.94
278.884	71.94
279.115	76.94
279.347	65.94
279.579	84.94
279.81	83.94
280.042	81.94
280.273	80.94
280.505	83.94
280.736	65.94
280.968	86.94
281.199	75.94
281.431	83.94
281.662	87.94
281.894	81.94
282.125	78.94
282.356	87.94
282.588	81.94
282.819	81.94
283.051	74.94
283.282	87.94
283.513	90.94
283.745	83.94
283.976	81.94
284.207	86.94
284.439	77.94
284.67	66.94
284.901	65.94
285.132	73.94
285.364	86.94
285.595	79.94
285.826	95.94
286.057	81.94
286.288	80.94
286.52	83.94
286.751	85.94
286.982	76.94
287.213	83.94
287.444	73.94
287.675	88.94
287.906	95.94
288.138	77.94
288.369	87.94
288.6	94.94
288.831	82.94
289.062	82.94
289.293	89.94
289.524	87.94
289.755	91.94
289.986	79.94
290.217	70.94
290.448	72.94
290.679	95.94
290.91	81.94
291.141	75.94
291.371	83.94
291.602	87.94
291.833	81.94
292.064	86.94
292.295	70.94
292.526	75.94
292.757	78.94
292.987	85.94
293.218	59.94
293.449	70.94
293.68	78.94
293.91	81.94
294.141	84.94
294.372	83.94
294.603	76.94
294.833	83.94
295.064	90.94
295.295	82.94
295.525	85.94
295.756	86.94
295.987	89.94
296.217	89.94
296.448	95.94
296.679	83.94
296.909	80.94
297.14	81.94
297.37	85.94
297.601	89.94
297.831	79.94
298.062	95.94
298.292	83.94
298.523	81.94
298.753	90.94
298.984	98.94
299.214	89.94
299.445	83.94
299.675	87.94
299.905	76.94
300.136	87.94
300.366	88.94
300.597	91.94
300.827	87.94
301.057	97.94
301.288	93.94
301.518	87.94
301.748	84.94
301.979	89.94
302.209	85.94
302.439	86.94
302.669	76.94
302.9	91.94
303.13	93.94
303.36	93.94
303.59	82.94
303.82	79.94
304.051	79.94
304.281	90.94
304.511	85.94
304.741	81.94
304.971	75.94
305.201	81.94
305.431	83.94
305.661	80.94
305.891	92.94
306.121	86.94
306.352	78.94
306.582	101.94
306.812	91.94
307.042	97.94
307.272	72.94
307.502	86.94
307.731	83.94
307.961	79.94
308.191	95.94
308.421	76.94
308.651	89.94
308.881	95.94
309.111	80.94
309.341	85.94
309.571	89.94
309.8	102.94
310.03	81.94
310.26	79.94
310.49	85.94
310.72	86.94
310.949	91.94
311.179	90.94
311.409	78.94
311.639	78.94
311.868	86.94
312.098	71.94
312.328	76.94
312.557	73.94
312.787	86.94
313.017	90.94
313.246	96.94
313.476	85.94
313.706	74.94
313.935	87.94
314.165	87.94
314.394	86.94
314.624	91.94
314.853	91.94
315.083	84.94
315.312	86.94
315.542	76.94
315.771	84.94
316.001	101.94
316.23	72.94
316.46	75.94
316.689	82.94
316.919	80.94
317.148	82.94
317.377	93.94
317.607	80.94
317.836	96.94
318.065	80.94
318.295	97.94
318.524	97.94
318.753	67.94
318.983	79.94
319.212	90.94
319.441	84.94
319.67	77.94
319.9	74.94
320.129	77.94
320.358	74.94
320.587	83.94
320.816	89.94
321.046	80.94
321.275	74.94
321.504	86.94
321.733	93.94
321.962	76.94
322.191	83.94
322.42	95.94
322.649	72.94
322.878	87.94
323.108	82.94
323.337	90.94
323.566	88.94
323.795	91.94
324.024	78.94
324.253	97.94
324.482	77.94
324.71	85.94
324.939	90.94
325.168	75.94
325.397	83.94
325.626	82.94
325.855	86.94
326.084	86.94
326.313	94.94
326.542	86.94
326.77	64.94
326.999	87.94
327.228	89.94
327.457	80.94
327.686	97.94
327.914	88.94
328.143	88.94
328.372	74.94
328.6	89.94
328.829	75.94
329.058	85.94
329.287	74.94
329.515	79.94
329.744	91.94
329.972	89.94
330.201	86.94
330.43	76.94
330.658	77.94
330.887	73.94
331.115	85.94
331.344	95.94
331.572	92.94
331.801	78.94
332.03	80.94
332.258	89.94
332.486	82.94
332.715	95.94
332.943	77.94
333.172	85.94
333.4	84.94
333.629	74.94
333.857	75.94
334.085	71.94
334.314	85.94
334.542	89.94
334.771	75.94
334.999	86.94
335.227	89.94
335.455	72.94
335.684	85.94
335.912	91.94
336.14	78.94
336.369	94.94
336.597	94.94
336.825	88.94
337.053	82.94
337.281	75.94
337.51	91.94
337.738	92.94
337.966	80.94
338.194	71.94
338.422	84.94
338.65	100.94
338.878	74.94
339.106	80.94
339.334	94.94
339.562	77.94
339.79	89.94
340.018	80.94
340.246	87.94
340.474	79.94
340.702	88.94
340.93	93.94
341.158	78.94
341.386	97.94
341.614	79.94
341.842	93.94
342.07	100.94
342.298	88.94
342.526	81.94
342.754	82.94
342.981	85.94
343.209	81.94
343.437	91.94
343.665	79.94
343.893	79.94
344.12	92.94
344.348	79.94
344.576	86.94
344.804	104.94
345.031	81.94
345.259	80.94
345.487	76.94
345.714	81.94
345.942	93.94
346.17	84.94
346.397	71.94
346.625	72.94
346.853	81.94
347.08	68.94
347.308	73.94
347.535	77.94
347.763	69.94
347.99	71.94
348.218	90.94
348.445	95.94
348.673	93.94
348.9	85.94
349.128	67.94
349.355	85.94
349.583	81.94
349.81	87.94
350.037	79.94
350.265	82.94
350.492	69.94
350.72	79.94
350.947	85.94
351.174	90.94
351.402	65.94
351.629	87.94
351.856	79.94
352.083	91.94
352.311	98.94
352.538	83.94
352.765	95.94
352.992	87.94
353.22	66.94
353.447	81.94
353.674	81.94
353.901	83.94
354.128	84.94
354.355	76.94
354.583	84.94
354.81	91.94
355.037	85.94
355.264	85.94
355.491	79.94
355.718	88.94
355.945	78.94
356.172	81.94
356.399	82.94
356.626	75.94
356.853	79.94
357.08	95.94
357.307	93.94
357.534	76.94
357.761	83.94
357.988	73.94
358.215	81.94
358.441	92.94
358.668	82.94
358.895	86.94
359.122	94.94
359.349	99.94
359.576	79.94
359.802	79.94
360.029	67.94
360.256	87.94
360.483	75.94
360.709	69.94
360.936	91.94
361.163	79.94
361.39	73.94
361.616	90.94
361.843	83.94
362.07	80.94
362.296	83.94
362.523	82.94
362.749	89.94
362.976	102.94
363.203	102.94
363.429	80.94
363.656	79.94
363.882	77.94
364.109	86.94
364.335	95.94
364.562	84.94
364.788	92.94
365.015	94.94
365.241	89.94
365.468	78.94
365.694	82.94
365.92	85.94
366.147	70.94
366.373	88.94
366.599	84.94
366.826	73.94
367.052	75.94
367.278	70.94
367.505	80.94
367.731	89.94
367.957	88.94
368.184	70.94
368.41	82.94
368.636	86.94
368.862	76.94
369.089	81.94
369.315	77.94
369.541	75.94
369.767	69.94
369.993	87.94
370.219	74.94
370.445	75.94
370.672	86.94
370.898	70.94
371.124	84.94
371.35	89.94
371.576	88.94
371.802	79.94
372.028	81.94
372.254	80.94
372.48	88.94
372.706	81.94
372.932	89.94
373.158	94.94
373.384	100.94
373.61	84.94
373.835	101.94
374.061	82.94
374.287	94.94
374.513	70.94
374.739	91.94
374.965	69.94
375.191	94.94
375.416	75.94
375.642	81.94
375.868	79.94
376.094	86.94
376.319	75.94
376.545	81.94
376.771	83.94
376.997	69.94
377.222	79.94
377.448	84.94
377.674	89.94
377.899	84.94
378.125	83.94
378.35	81.94
378.576	81.94
378.802	84.94
379.027	71.94
379.253	81.94
379.478	66.94
379.704	72.94
379.929	102.94
380.155	83.94
380.38	87.94
380.606	83.94
380.831	82.94
381.057	70.94
381.282	89.94
381.507	73.94
381.733	82.94
381.958	78.94
382.184	82.94
382.409	72.94
382.634	84.94
382.86	82.94
383.085	85.94
383.31	80.94
383.535	90.94
383.761	102.94
383.986	95.94
384.211	74.94
384.436	91.94
384.662	79.94
384.887	97.94
385.112	69.94
385.337	81.94
385.562	83.94
385.787	78.94
386.013	86.94
386.238	72.94
386.463	79.94
386.688	93.94
386.913	79.94
387.138	81.94
387.363	81.94
387.588	82.94
387.813	88.94
388.038	71.94
388.263	87.94
388.488	90.94
388.713	89.94
388.938	89.94
389.163	85.94
389.387	77.94
389.612	82.94
389.837	79.94
390.062	95.94
390.287	84.94
390.512	71.94
390.736	91.94
390.961	65.94
391.186	85.94
391.411	74.94
391.636	82.94
391.86	80.94
392.085	79.94
392.31	89.94
392.534	90.94
392.759	99.94
392.984	102.94
393.208	129.94
393.433	166.94
393.658	131.94
393.882	98.94
394.107	89.94
394.331	67.94
394.556	78.94
394.78	87.94
395.005	80.94
395.229	93.94
395.454	86.94
395.678	89.94
395.903	105.94
396.127	87.94
396.352	91.94
396.576	110.94
396.801	133.94
397.025	148.94
397.249	109.94
397.474	86.94
397.698	83.94
397.922	87.94
398.147	84.94
398.371	84.94
398.595	73.94
398.82	78.94
399.044	73.94
399.268	87.94
399.492	86.94
399.717	86.94
399.941	66.94
400.165	74.94
400.389	82.94
400.613	78.94
400.837	81.94
401.062	93.94
401.286	69.94
401.51	86.94
401.734	90.94
401.958	71.94
402.182	88.94
402.406	88.94
402.63	79.94
402.854	88.94
403.078	86.94
403.302	81.94
403.526	87.94
403.75	77.94
403.974	81.94
404.198	82.94
404.422	85.94
404.645	77.94
404.869	72.94
405.093	72.94
405.317	79.94
405.541	83.94
405.765	82.94
405.988	97.94
406.212	79.94
406.436	82.94
406.66	79.94
406.883	88.94
407.107	93.94
407.331	71.94
407.555	79.94
407.778	81.94
408.002	100.94
408.226	84.94
408.449	87.94
408.673	75.94
408.896	78.94
409.12	81.94
409.344	89.94
409.567	84.94
409.791	80.94
410.014	93.94
410.238	87.94
410.461	95.94
410.685	87.94
410.908	70.94
411.132	78.94
411.355	81.94
411.578	76.94
411.802	78.94
412.025	86.94
412.249	82.94
412.472	71.94
412.695	91.94
412.919	84.94
413.142	83.94
413.365	87.94
413.589	85.94
413.812	81.94
414.035	83.94
414.258	76.94
414.482	84.94
414.705	81.94
414.928	84.94
415.151	87.94
415.374	72.94
415.597	75.94
415.821	79.94
416.044	91.94
416.267	85.94
416.49	90.94
416.713	93.94
416.936	73.94
417.159	86.94
417.382	82.94
417.605	73.94
417.828	83.94
418.051	66.94
418.274	86.94
418.497	87.94
418.72	88.94
418.943	86.94
419.166	86.94
419.389	74.94
419.611	76.94
419.834	85.94
420.057	77.94
420.28	81.94
420.503	90.94
420.726	72.94
420.948	90.94
421.171	91.94
421.394	90.94
421.617	91.94
421.839	85.94
422.062	91.94
422.285	98.94
422.507	127.94
422.73	168.94
422.953	157.94
423.175	112.94
423.398	91.94
423.621	93.94
423.843	86.94
424.066	81.94
424.288	84.94
424.511	83.94
424.733	92.94
424.956	70.94
425.178	84.94
425.401	72.94
425.623	67.94
425.846	87.94
426.068	75.94
426.291	82.94
426.513	75.94
426.735	88.94
426.958	83.94
427.18	74.94
427.402	73.94
427.625	78.94
427.847	93.94
428.069	90.94
428.292	81.94
428.514	93.94
428.736	86.94
428.958	89.94
429.181	97.94
429.403	84.94
429.625	90.94
429.847	77.94
430.069	101.94
430.292	113.94
430.514	112.94
430.736	82.94
430.958	100.94
431.18	88.94
431.402	71.94
431.624	70.94
431.846	88.94
432.068	99.94
432.29	97.94
432.512	74.94
432.734	71.94
432.956	74.94
433.178	87.94
433.4	65.94
433.622	81.94
433.844	100.94
434.066	88.94
434.287	91.94
434.509	72.94
434.731	82.94
434.953	85.94
435.175	82.94
435.397	83.94
435.618	83.94
435.84	93.94
436.062	91.94
436.284	72.94
436.505	96.94
436.727	77.94
436.949	83.94
437.17	88.94
437.392	83.94
437.614	69.94
437.835	83.94
438.057	83.94
438.278	87.94
438.5	81.94
438.721	83.94
438.943	75.94
439.165	93.94
439.386	74.94
439.608	74.94
439.829	70.94
440.05	81.94
440.272	75.94
440.493	84.94
440.715	79.94
440.936	75.94
441.158	76.94
441.379	79.94
441.6	77.94
441.822	80.94
442.043	77.94
442.264	72.94
442.486	89.94
442.707	101.94
442.928	92.94
443.149	94.94
443.371	106.94
443.592	134.94
443.813	129.94
444.034	95.94
444.255	82.94
444.476	78.94
444.698	77.94
444.919	78.94
445.14	153.94
445.361	119.94
445.582	136.94
445.803	132.94
446.024	77.94
446.245	85.94
446.466	83.94
446.687	78.94
446.908	88.94
447.129	80.94
447.35	85.94
447.571	79.94
447.792	69.94
448.013	60.94
448.234	77.94
448.455	81.94
448.675	83.94
448.896	91.94
449.117	82.94
449.338	76.94
449.559	81.94
449.779	70.94
450	96.94
450.221	70.94
450.442	89.94
450.662	85.94
450.883	82.94
451.104	69.94
451.324	73.94
451.545	87.94
451.766	85.94
451.986	78.94
452.207	73.94
452.428	90.94
452.648	83.94
452.869	88.94
453.089	89.94
453.31	94.94
453.53	89.94
453.751	81.94
453.971	71.94
454.192	77.94
454.412	74.94
454.633	87.94
454.853	86.94
455.073	94.94
455.294	90.94
455.514	67.94
455.734	75.94
455.955	81.94
456.175	86.94
456.395	69.94
456.616	73.94
456.836	82.94
457.056	82.94
457.276	76.94
457.497	82.94
457.717	84.94
457.937	96.94
458.157	103.94
458.377	83.94
458.598	88.94
458.818	95.94
459.038	75.94
459.258	79.94
459.478	85.94
459.698	85.94
459.918	81.94
460.138	79.94
460.358	86.94
460.578	91.94
460.798	91.94
461.018	87.94
461.238	77.94
461.458	80.94
461.678	88.94
461.898	83.94
462.118	80.94
462.338	75.94
462.558	96.94
462.777	88.94
462.997	76.94
463.217	85.94
463.437	79.94
463.657	75.94
463.876	72.94
464.096	61.94
464.316	81.94
464.536	77.94
464.755	97.94
464.975	84.94
465.195	71.94
465.414	87.94
465.634	75.94
465.854	74.94
466.073	79.94
466.293	79.94
466.512	93.94
466.732	86.94
466.951	85.94
467.171	89.94
467.391	82.94
467.61	84.94
467.829	85.94
468.049	74.94
468.268	63.94
468.488	85.94
468.707	79.94
468.927	85.94
469.146	79.94
469.365	85.94
469.585	74.94
469.804	81.94
470.023	82.94
470.243	69.94
470.462	78.94
470.681	75.94
470.901	76.94
471.12	71.94
471.339	86.94
471.558	88.94
471.777	67.94
471.997	83.94
472.216	86.94
472.435	77.94
472.654	84.94
472.873	87.94
473.092	79.94
473.311	81.94
473.53	81.94
473.749	82.94
473.968	83.94
474.187	78.94
474.406	82.94
474.625	78.94
474.844	74.94
475.063	79.94
475.282	80.94
475.501	73.94
475.72	78.94
475.939	90.94
476.158	84.94
476.377	87.94
476.596	74.94
476.814	87.94
477.033	100.94
477.252	82.94
477.471	79.94
477.69	84.94
477.908	80.94
478.127	72.94
478.346	83.94
478.564	89.94
478.783	59.94
479.002	81.94
479.22	81.94
479.439	86.94
479.658	61.94
479.876	76.94
480.095	92.94
480.313	90.94
480.532	63.94
480.751	87.94
480.969	73.94
481.188	69.94
481.406	96.94
481.624	63.94
481.843	73.94
482.061	76.94
482.28	75.94
482.498	77.94
482.717	69.94
482.935	89.94
483.153	78.94
483.372	87.94
483.59	86.94
483.808	78.94
484.027	83.94
484.245	71.94
484.463	64.94
484.681	90.94
484.9	73.94
485.118	80.94
485.336	82.94
485.554	71.94
485.772	83.94
485.99	70.94
486.209	88.94
486.427	71.94
486.645	88.94
486.863	74.94
487.081	80.94
487.299	79.94
487.517	94.94
487.735	87.94
487.953	105.94
488.171	115.94
488.389	83.94
488.607	86.94
488.825	70.94
489.043	86.94
489.261	88.94
489.479	89.94
489.696	83.94
489.914	82.94
490.132	81.94
490.35	78.94
490.568	89.94
490.786	83.94
491.003	83.94
491.221	86.94
491.439	71.94
491.657	76.94
491.874	74.94
492.092	75.94
492.31	88.94
492.527	83.94
492.745	89.94
492.963	66.94
493.18	77.94
493.398	64.94
493.615	73.94
493.833	82.94
494.05	67.94
494.268	92.94
494.485	88.94
494.703	89.94
494.92	84.94
495.138	79.94
495.355	77.94
495.573	82.94
495.79	81.94
496.008	78.94
496.225	91.94
496.442	84.94
496.66	79.94
496.877	82.94
497.094	88.94
497.312	78.94
497.529	71.94
497.746	74.94
497.963	82.94
498.181	78.94
498.398	81.94
498.615	84.94
498.832	86.94
499.049	88.94
499.267	79.94
499.484	87.94
499.701	70.94
499.918	81.94
500.135	79.94
500.352	86.94
500.569	80.94
500.786	78.94
501.003	73.94
501.22	76.94
501.437	81.94
501.654	84.94
501.871	82.94
502.088	70.94
502.305	79.94
502.522	85.94
502.739	93.94
502.956	99.94
503.172	90.94
503.389	83.94
503.606	75.94
503.823	100.94
504.04	91.94
504.256	93.94
504.473	103.94
504.69	96.94
504.907	85.94
505.123	71.94
505.34	81.94
505.557	73.94
505.773	82.94
505.99	81.94
506.207	94.94
506.423	89.94
506.64	72.94
506.856	89.94
507.073	88.94
507.289	82.94
507.506	88.94
507.722	71.94
507.939	85.94
508.155	88.94
508.372	76.94
508.588	75.94
508.805	74.94
509.021	74.94
509.238	80.94
509.454	71.94
509.67	71.94
509.887	69.94
510.103	93.94
510.319	81.94
510.536	88.94
510.752	73.94
510.968	93.94
511.184	91.94
511.401	90.94
511.617	89.94
511.833	87.94
512.049	83.94
512.265	69.94
512.481	79.94
512.698	86.94
512.914	74.94
513.13	85.94
513.346	70.94
513.562	87.94
513.778	82.94
513.994	82.94
514.21	83.94
514.426	95.94
514.642	85.94
514.858	84.94
515.074	86.94
515.29	83.94
515.506	81.94
515.721	88.94
515.937	91.94
516.153	86.94
516.369	93.94
516.585	70.94
516.801	75.94
517.016	79.94
517.232	79.94
517.448	83.94
517.664	89.94
517.879	82.94
518.095	84.94
518.311	74.94
518.527	81.94
518.742	92.94
518.958	104.94
519.173	117.94
519.389	92.94
519.605	81.94
