Data from CBS_2_HRD10591_00039.txt Node
Date: Mon Jan 19 14:05:05 EST 2026
User: Yrep
Spectrometer: HR+D1059
Trigger mode: 1
Integration Time (sec): 1.000000E-1
Scans to average: 1
Electric dark correction enabled: true
Nonlinearity correction enabled: false
Boxcar width: 0
XAxis mode: Wavelengths
Number of Pixels in Spectrum: 2048
>>>>>Begin Spectral Data<<<<<
223.165	-20.25
223.4	-20.25
223.635	-20.25
223.869	-14.25
224.104	-23.25
224.338	-24.25
224.573	-22.25
224.808	-11.25
225.042	-12.25
225.277	-17.25
225.511	-9.25
225.746	10.75
225.98	8.75
226.215	15.75
226.449	23.75
226.683	24.75
226.918	37.75
227.152	32.75
227.387	37.75
227.621	45.75
227.856	41.75
228.09	55.75
228.324	59.75
228.559	37.75
228.793	50.75
229.027	55.75
229.262	75.75
229.496	70.75
229.73	69.75
229.964	73.75
230.199	70.75
230.433	67.75
230.667	70.75
230.901	80.75
231.136	69.75
231.37	78.75
231.604	83.75
231.838	68.75
232.072	81.75
232.306	84.75
232.541	84.75
232.775	64.75
233.009	73.75
233.243	88.75
233.477	77.75
233.711	69.75
233.945	68.75
234.179	76.75
234.413	79.75
234.647	88.75
234.881	75.75
235.115	77.75
235.349	72.75
235.583	64.75
235.817	69.75
236.051	68.75
236.285	81.75
236.519	71.75
236.753	75.75
236.987	76.75
237.221	81.75
237.455	70.75
237.689	86.75
237.922	87.75
238.156	85.75
238.39	71.75
238.624	70.75
238.858	73.75
239.091	76.75
239.325	64.75
239.559	77.75
239.793	62.75
240.027	72.75
240.26	71.75
240.494	72.75
240.728	78.75
240.961	72.75
241.195	85.75
241.429	72.75
241.662	73.75
241.896	65.75
242.13	71.75
242.363	71.75
242.597	78.75
242.83	86.75
243.064	80.75
243.298	78.75
243.531	73.75
243.765	69.75
243.998	70.75
244.232	73.75
244.465	66.75
244.699	72.75
244.932	80.75
245.166	75.75
245.399	75.75
245.633	65.75
245.866	73.75
246.099	70.75
246.333	81.75
246.566	81.75
246.8	73.75
247.033	73.75
247.266	68.75
247.5	69.75
247.733	77.75
247.966	71.75
248.2	79.75
248.433	73.75
248.666	83.75
248.899	68.75
249.133	75.75
249.366	80.75
249.599	81.75
249.832	67.75
250.066	74.75
250.299	79.75
250.532	70.75
250.765	87.75
250.998	77.75
251.231	83.75
251.465	81.75
251.698	85.75
251.931	71.75
252.164	95.75
252.397	77.75
252.63	80.75
252.863	84.75
253.096	73.75
253.329	85.75
253.562	73.75
253.795	85.75
254.028	88.75
254.261	74.75
254.494	77.75
254.727	80.75
254.96	89.75
255.193	76.75
255.426	79.75
255.659	81.75
255.892	89.75
256.124	74.75
256.357	80.75
256.59	68.75
256.823	68.75
257.056	81.75
257.289	78.75
257.521	68.75
257.754	80.75
257.987	69.75
258.22	94.75
258.452	85.75
258.685	78.75
258.918	79.75
259.151	72.75
259.383	82.75
259.616	84.75
259.849	74.75
260.081	79.75
260.314	84.75
260.547	79.75
260.779	82.75
261.012	83.75
261.244	85.75
261.477	85.75
261.71	77.75
261.942	68.75
262.175	74.75
262.407	84.75
262.64	63.75
262.872	78.75
263.105	90.75
263.337	76.75
263.57	78.75
263.802	72.75
264.035	84.75
264.267	79.75
264.499	85.75
264.732	69.75
264.964	73.75
265.197	70.75
265.429	88.75
265.661	77.75
265.894	83.75
266.126	82.75
266.358	70.75
266.591	86.75
266.823	81.75
267.055	89.75
267.287	85.75
267.52	80.75
267.752	75.75
267.984	78.75
268.216	58.75
268.448	64.75
268.681	95.75
268.913	72.75
269.145	77.75
269.377	83.75
269.609	81.75
269.841	73.75
270.073	97.75
270.306	81.75
270.538	78.75
270.77	78.75
271.002	76.75
271.234	87.75
271.466	87.75
271.698	81.75
271.93	66.75
272.162	85.75
272.394	98.75
272.626	76.75
272.858	83.75
273.09	78.75
273.322	75.75
273.553	71.75
273.785	93.75
274.017	83.75
274.249	89.75
274.481	88.75
274.713	96.75
274.945	78.75
275.176	71.75
275.408	87.75
275.64	80.75
275.872	77.75
276.104	84.75
276.335	76.75
276.567	82.75
276.799	81.75
277.031	81.75
277.262	86.75
277.494	71.75
277.726	68.75
277.957	90.75
278.189	69.75
278.421	82.75
278.652	79.75
278.884	79.75
279.115	85.75
279.347	86.75
279.579	89.75
279.81	86.75
280.042	94.75
280.273	74.75
280.505	84.75
280.736	88.75
280.968	79.75
281.199	86.75
281.431	72.75
281.662	78.75
281.894	82.75
282.125	83.75
282.356	77.75
282.588	90.75
282.819	58.75
283.051	65.75
283.282	77.75
283.513	72.75
283.745	69.75
283.976	77.75
284.207	81.75
284.439	86.75
284.67	83.75
284.901	84.75
285.132	82.75
285.364	93.75
285.595	87.75
285.826	77.75
286.057	94.75
286.288	85.75
286.52	87.75
286.751	80.75
286.982	79.75
287.213	79.75
287.444	90.75
287.675	85.75
287.906	76.75
288.138	61.75
288.369	87.75
288.6	88.75
288.831	80.75
289.062	74.75
289.293	95.75
289.524	86.75
289.755	74.75
289.986	93.75
290.217	89.75
290.448	80.75
290.679	77.75
290.91	88.75
291.141	70.75
291.371	84.75
291.602	89.75
291.833	85.75
292.064	86.75
292.295	85.75
292.526	89.75
292.757	92.75
292.987	84.75
293.218	77.75
293.449	92.75
293.68	75.75
293.91	75.75
294.141	95.75
294.372	88.75
294.603	92.75
294.833	83.75
295.064	81.75
295.295	74.75
295.525	87.75
295.756	68.75
295.987	77.75
296.217	98.75
296.448	79.75
296.679	84.75
296.909	94.75
297.14	94.75
297.37	81.75
297.601	78.75
297.831	85.75
298.062	70.75
298.292	85.75
298.523	75.75
298.753	87.75
298.984	85.75
299.214	69.75
299.445	88.75
299.675	91.75
299.905	91.75
300.136	88.75
300.366	97.75
300.597	79.75
300.827	97.75
301.057	81.75
301.288	80.75
301.518	92.75
301.748	77.75
301.979	94.75
302.209	80.75
302.439	86.75
302.669	89.75
302.9	81.75
303.13	99.75
303.36	82.75
303.59	86.75
303.82	87.75
304.051	96.75
304.281	81.75
304.511	84.75
304.741	86.75
304.971	91.75
305.201	79.75
305.431	76.75
305.661	89.75
305.891	84.75
306.121	88.75
306.352	74.75
306.582	92.75
306.812	93.75
307.042	89.75
307.272	87.75
307.502	80.75
307.731	76.75
307.961	82.75
308.191	85.75
308.421	87.75
308.651	71.75
308.881	95.75
309.111	93.75
309.341	95.75
309.571	90.75
309.8	80.75
310.03	84.75
310.26	72.75
310.49	91.75
310.72	95.75
310.949	92.75
311.179	87.75
311.409	82.75
311.639	91.75
311.868	83.75
312.098	80.75
312.328	79.75
312.557	88.75
312.787	78.75
313.017	91.75
313.246	82.75
313.476	97.75
313.706	74.75
313.935	87.75
314.165	89.75
314.394	81.75
314.624	86.75
314.853	83.75
315.083	81.75
315.312	86.75
315.542	85.75
315.771	89.75
316.001	97.75
316.23	83.75
316.46	82.75
316.689	104.75
316.919	83.75
317.148	87.75
317.377	84.75
317.607	93.75
317.836	105.75
318.065	97.75
318.295	91.75
318.524	85.75
318.753	94.75
318.983	87.75
319.212	104.75
319.441	95.75
319.67	85.75
319.9	81.75
320.129	87.75
320.358	87.75
320.587	99.75
320.816	83.75
321.046	92.75
321.275	73.75
321.504	82.75
321.733	88.75
321.962	87.75
322.191	96.75
322.42	91.75
322.649	75.75
322.878	110.75
323.108	100.75
323.337	83.75
323.566	84.75
323.795	107.75
324.024	79.75
324.253	84.75
324.482	81.75
324.71	92.75
324.939	79.75
325.168	79.75
325.397	84.75
325.626	89.75
325.855	79.75
326.084	97.75
326.313	85.75
326.542	79.75
326.77	82.75
326.999	81.75
327.228	81.75
327.457	86.75
327.686	94.75
327.914	85.75
328.143	87.75
328.372	98.75
328.6	79.75
328.829	92.75
329.058	83.75
329.287	89.75
329.515	79.75
329.744	85.75
329.972	66.75
330.201	81.75
330.43	72.75
330.658	84.75
330.887	82.75
331.115	85.75
331.344	81.75
331.572	88.75
331.801	105.75
332.03	92.75
332.258	77.75
332.486	93.75
332.715	92.75
332.943	90.75
333.172	92.75
333.4	82.75
333.629	68.75
333.857	88.75
334.085	84.75
334.314	86.75
334.542	86.75
334.771	88.75
334.999	97.75
335.227	91.75
335.455	84.75
335.684	113.75
335.912	109.75
336.14	92.75
336.369	95.75
336.597	97.75
336.825	90.75
337.053	82.75
337.281	89.75
337.51	84.75
337.738	83.75
337.966	87.75
338.194	85.75
338.422	99.75
338.65	81.75
338.878	90.75
339.106	88.75
339.334	81.75
339.562	78.75
339.79	77.75
340.018	90.75
340.246	87.75
340.474	72.75
340.702	89.75
340.93	79.75
341.158	76.75
341.386	88.75
341.614	77.75
341.842	97.75
342.07	88.75
342.298	75.75
342.526	91.75
342.754	85.75
342.981	83.75
343.209	75.75
343.437	79.75
343.665	86.75
343.893	77.75
344.12	76.75
344.348	81.75
344.576	85.75
344.804	76.75
345.031	99.75
345.259	102.75
345.487	87.75
345.714	73.75
345.942	86.75
346.17	81.75
346.397	99.75
346.625	76.75
346.853	89.75
347.08	92.75
347.308	89.75
347.535	93.75
347.763	74.75
347.99	79.75
348.218	93.75
348.445	91.75
348.673	84.75
348.9	82.75
349.128	80.75
349.355	85.75
349.583	92.75
349.81	86.75
350.037	86.75
350.265	88.75
350.492	85.75
350.72	97.75
350.947	92.75
351.174	79.75
351.402	81.75
351.629	95.75
351.856	69.75
352.083	92.75
352.311	96.75
352.538	79.75
352.765	94.75
352.992	99.75
353.22	103.75
353.447	83.75
353.674	92.75
353.901	81.75
354.128	83.75
354.355	88.75
354.583	77.75
354.81	85.75
355.037	72.75
355.264	75.75
355.491	83.75
355.718	95.75
355.945	86.75
356.172	94.75
356.399	77.75
356.626	80.75
356.853	82.75
357.08	83.75
357.307	88.75
357.534	91.75
357.761	85.75
357.988	80.75
358.215	85.75
358.441	88.75
358.668	79.75
358.895	88.75
359.122	70.75
359.349	60.75
359.576	94.75
359.802	87.75
360.029	81.75
360.256	99.75
360.483	98.75
360.709	88.75
360.936	97.75
361.163	88.75
361.39	92.75
361.616	92.75
361.843	95.75
362.07	93.75
362.296	110.75
362.523	92.75
362.749	102.75
362.976	119.75
363.203	132.75
363.429	100.75
363.656	88.75
363.882	96.75
364.109	129.75
364.335	134.75
364.562	146.75
364.788	107.75
365.015	78.75
365.241	99.75
365.468	85.75
365.694	88.75
365.92	81.75
366.147	89.75
366.373	70.75
366.599	68.75
366.826	91.75
367.052	90.75
367.278	96.75
367.505	81.75
367.731	94.75
367.957	89.75
368.184	85.75
368.41	79.75
368.636	91.75
368.862	91.75
369.089	88.75
369.315	97.75
369.541	101.75
369.767	93.75
369.993	76.75
370.219	96.75
370.445	95.75
370.672	96.75
370.898	89.75
371.124	84.75
371.35	87.75
371.576	103.75
371.802	85.75
372.028	76.75
372.254	84.75
372.48	91.75
372.706	76.75
372.932	87.75
373.158	103.75
373.384	92.75
373.61	116.75
373.835	120.75
374.061	101.75
374.287	98.75
374.513	100.75
374.739	85.75
374.965	101.75
375.191	96.75
375.416	96.75
375.642	94.75
375.868	92.75
376.094	91.75
376.319	78.75
376.545	80.75
376.771	69.75
376.997	83.75
377.222	86.75
377.448	83.75
377.674	69.75
377.899	93.75
378.125	86.75
378.35	89.75
378.576	107.75
378.802	85.75
379.027	85.75
379.253	92.75
379.478	81.75
379.704	92.75
379.929	85.75
380.155	78.75
380.38	91.75
380.606	91.75
380.831	78.75
381.057	81.75
381.282	85.75
381.507	85.75
381.733	94.75
381.958	116.75
382.184	84.75
382.409	92.75
382.634	102.75
382.86	91.75
383.085	95.75
383.31	92.75
383.535	93.75
383.761	87.75
383.986	104.75
384.211	86.75
384.436	95.75
384.662	94.75
384.887	76.75
385.112	81.75
385.337	76.75
385.562	87.75
385.787	97.75
386.013	99.75
386.238	97.75
386.463	73.75
386.688	97.75
386.913	88.75
387.138	95.75
387.363	100.75
387.588	102.75
387.813	99.75
388.038	113.75
388.263	98.75
388.488	104.75
388.713	101.75
388.938	95.75
389.163	79.75
389.387	100.75
389.612	88.75
389.837	83.75
390.062	85.75
390.287	82.75
390.512	89.75
390.736	81.75
390.961	93.75
391.186	88.75
391.411	95.75
391.636	87.75
391.86	98.75
392.085	117.75
392.31	113.75
392.534	98.75
392.759	147.75
392.984	195.75
393.208	369.75
393.433	529.75
393.658	403.75
393.882	189.75
394.107	135.75
394.331	111.75
394.556	119.75
394.78	93.75
395.005	105.75
395.229	84.75
395.454	93.75
395.678	116.75
395.903	140.75
396.127	147.75
396.352	165.75
396.576	212.75
396.801	347.75
397.025	420.75
397.249	232.75
397.474	135.75
397.698	126.75
397.922	106.75
398.147	88.75
398.371	83.75
398.595	79.75
398.82	84.75
399.044	78.75
399.268	74.75
399.492	73.75
399.717	102.75
399.941	90.75
400.165	95.75
400.389	73.75
400.613	101.75
400.837	91.75
401.062	93.75
401.286	81.75
401.51	84.75
401.734	79.75
401.958	86.75
402.182	79.75
402.406	70.75
402.63	87.75
402.854	98.75
403.078	79.75
403.302	84.75
403.526	83.75
403.75	89.75
403.974	77.75
404.198	86.75
404.422	100.75
404.645	98.75
404.869	88.75
405.093	80.75
405.317	84.75
405.541	74.75
405.765	79.75
405.988	96.75
406.212	83.75
406.436	79.75
406.66	91.75
406.883	87.75
407.107	71.75
407.331	86.75
407.555	86.75
407.778	132.75
408.002	126.75
408.226	91.75
408.449	80.75
408.673	88.75
408.896	89.75
409.12	94.75
409.344	103.75
409.567	97.75
409.791	110.75
410.014	100.75
410.238	91.75
410.461	95.75
410.685	87.75
410.908	92.75
411.132	109.75
411.355	92.75
411.578	75.75
411.802	94.75
412.025	86.75
412.249	80.75
412.472	87.75
412.695	90.75
412.919	81.75
413.142	91.75
413.365	77.75
413.589	72.75
413.812	95.75
414.035	104.75
414.258	88.75
414.482	89.75
414.705	84.75
414.928	82.75
415.151	69.75
415.374	102.75
415.597	93.75
415.821	80.75
416.044	79.75
416.267	73.75
416.49	87.75
416.713	87.75
416.936	83.75
417.159	84.75
417.382	82.75
417.605	69.75
417.828	95.75
418.051	84.75
418.274	80.75
418.497	78.75
418.72	86.75
418.943	101.75
419.166	97.75
419.389	97.75
419.611	71.75
419.834	104.75
420.057	81.75
420.28	101.75
420.503	97.75
420.726	92.75
420.948	90.75
421.171	110.75
421.394	100.75
421.617	118.75
421.839	130.75
422.062	140.75
422.285	191.75
422.507	329.75
422.73	512.75
422.953	477.75
423.175	254.75
423.398	143.75
423.621	124.75
423.843	121.75
424.066	105.75
424.288	101.75
424.511	98.75
424.733	92.75
424.956	91.75
425.178	85.75
425.401	90.75
425.623	79.75
425.846	97.75
426.068	84.75
426.291	85.75
426.513	77.75
426.735	84.75
426.958	95.75
427.18	87.75
427.402	86.75
427.625	91.75
427.847	93.75
428.069	115.75
428.292	133.75
428.514	159.75
428.736	116.75
428.958	144.75
429.181	132.75
429.403	95.75
429.625	104.75
429.847	132.75
430.069	187.75
430.292	211.75
430.514	198.75
430.736	143.75
430.958	157.75
431.18	120.75
431.402	95.75
431.624	99.75
431.846	133.75
432.068	163.75
432.29	100.75
432.512	95.75
432.734	84.75
432.956	82.75
433.178	79.75
433.4	85.75
433.622	85.75
433.844	96.75
434.066	78.75
434.287	85.75
434.509	84.75
434.731	85.75
434.953	74.75
435.175	75.75
435.397	74.75
435.618	92.75
435.84	101.75
436.062	84.75
436.284	73.75
436.505	69.75
436.727	73.75
436.949	89.75
437.17	93.75
437.392	87.75
437.614	87.75
437.835	77.75
438.057	87.75
438.278	81.75
438.5	84.75
438.721	84.75
438.943	87.75
439.165	80.75
439.386	80.75
439.608	102.75
439.829	92.75
440.05	91.75
440.272	81.75
440.493	100.75
440.715	85.75
440.936	81.75
441.158	88.75
441.379	94.75
441.6	90.75
441.822	86.75
442.043	89.75
442.264	92.75
442.486	151.75
442.707	193.75
442.928	131.75
443.149	120.75
443.371	161.75
443.592	289.75
443.813	258.75
444.034	118.75
444.255	81.75
444.476	100.75
444.698	102.75
444.919	101.75
445.14	187.75
445.361	223.75
445.582	357.75
445.803	306.75
446.024	141.75
446.245	85.75
446.466	86.75
446.687	81.75
446.908	98.75
447.129	97.75
447.35	82.75
447.571	83.75
447.792	78.75
448.013	74.75
448.234	97.75
448.455	84.75
448.675	77.75
448.896	66.75
449.117	94.75
449.338	88.75
449.559	98.75
449.779	73.75
450	88.75
450.221	77.75
450.442	79.75
450.662	82.75
450.883	103.75
451.104	85.75
451.324	71.75
451.545	91.75
451.766	91.75
451.986	81.75
452.207	83.75
452.428	88.75
452.648	77.75
452.869	111.75
453.089	107.75
453.31	89.75
453.53	76.75
453.751	95.75
453.971	81.75
454.192	80.75
454.412	88.75
454.633	87.75
454.853	76.75
455.073	77.75
455.294	96.75
455.514	84.75
455.734	91.75
455.955	97.75
456.175	87.75
456.395	102.75
456.616	75.75
456.836	87.75
457.056	95.75
457.276	86.75
457.497	93.75
457.717	101.75
457.937	106.75
458.157	139.75
458.377	140.75
458.598	126.75
458.818	150.75
459.038	109.75
459.258	93.75
459.478	66.75
459.698	91.75
459.918	93.75
460.138	96.75
460.358	97.75
460.578	100.75
460.798	110.75
461.018	115.75
461.238	95.75
461.458	81.75
461.678	81.75
461.898	92.75
462.118	99.75
462.338	87.75
462.558	92.75
462.777	86.75
462.997	79.75
463.217	89.75
463.437	78.75
463.657	79.75
463.876	104.75
464.096	86.75
464.316	84.75
464.536	74.75
464.755	86.75
464.975	80.75
465.195	83.75
465.414	93.75
465.634	84.75
465.854	89.75
466.073	74.75
466.293	79.75
466.512	84.75
466.732	83.75
466.951	73.75
467.171	65.75
467.391	90.75
467.61	89.75
467.829	86.75
468.049	96.75
468.268	102.75
468.488	79.75
468.707	88.75
468.927	85.75
469.146	77.75
469.365	86.75
469.585	74.75
469.804	81.75
470.023	91.75
470.243	87.75
470.462	85.75
470.681	89.75
470.901	77.75
471.12	81.75
471.339	98.75
471.558	98.75
471.777	73.75
471.997	76.75
472.216	91.75
472.435	82.75
472.654	79.75
472.873	79.75
473.092	77.75
473.311	91.75
473.53	71.75
473.749	74.75
473.968	88.75
474.187	72.75
474.406	88.75
474.625	87.75
474.844	98.75
475.063	79.75
475.282	83.75
475.501	87.75
475.72	101.75
475.939	94.75
476.158	84.75
476.377	86.75
476.596	92.75
476.814	100.75
477.033	85.75
477.252	88.75
477.471	89.75
477.69	84.75
477.908	97.75
478.127	85.75
478.346	93.75
478.564	88.75
478.783	79.75
479.002	89.75
479.22	87.75
479.439	70.75
479.658	85.75
479.876	88.75
480.095	80.75
480.313	100.75
480.532	85.75
480.751	79.75
480.969	79.75
481.188	98.75
481.406	100.75
481.624	89.75
481.843	99.75
482.061	99.75
482.28	88.75
482.498	83.75
482.717	87.75
482.935	108.75
483.153	95.75
483.372	93.75
483.59	98.75
483.808	89.75
484.027	75.75
484.245	73.75
484.463	80.75
484.681	100.75
484.9	106.75
485.118	97.75
485.336	77.75
485.554	95.75
485.772	88.75
485.99	67.75
486.209	95.75
486.427	100.75
486.645	83.75
486.863	84.75
487.081	102.75
487.299	103.75
487.517	102.75
487.735	132.75
487.953	203.75
488.171	159.75
488.389	108.75
488.607	100.75
488.825	99.75
489.043	98.75
489.261	86.75
489.479	84.75
489.696	80.75
489.914	77.75
490.132	90.75
490.35	96.75
490.568	90.75
490.786	93.75
491.003	88.75
491.221	99.75
491.439	98.75
491.657	94.75
491.874	85.75
492.092	80.75
492.31	66.75
492.527	94.75
492.745	95.75
492.963	96.75
493.18	86.75
493.398	91.75
493.615	69.75
493.833	94.75
494.05	79.75
494.268	90.75
494.485	95.75
494.703	98.75
494.92	87.75
495.138	80.75
495.355	87.75
495.573	101.75
495.79	95.75
496.008	98.75
496.225	91.75
496.442	92.75
496.66	89.75
496.877	102.75
497.094	96.75
497.312	95.75
497.529	71.75
497.746	92.75
497.963	109.75
498.181	109.75
498.398	94.75
498.615	100.75
498.832	82.75
499.049	97.75
499.267	80.75
499.484	78.75
499.701	78.75
499.918	102.75
500.135	99.75
500.352	86.75
500.569	81.75
500.786	96.75
501.003	84.75
501.22	86.75
501.437	86.75
501.654	101.75
501.871	93.75
502.088	88.75
502.305	88.75
502.522	107.75
502.739	84.75
502.956	80.75
503.172	85.75
503.389	83.75
503.606	99.75
503.823	103.75
504.04	102.75
504.256	147.75
504.473	163.75
504.69	102.75
504.907	107.75
505.123	93.75
505.34	87.75
505.557	95.75
505.773	81.75
505.99	96.75
506.207	85.75
506.423	92.75
506.64	87.75
506.856	77.75
507.073	78.75
507.289	96.75
507.506	84.75
507.722	98.75
507.939	92.75
508.155	98.75
508.372	99.75
508.588	74.75
508.805	85.75
509.021	87.75
509.238	79.75
509.454	86.75
509.67	94.75
509.887	82.75
510.103	80.75
510.319	81.75
510.536	83.75
510.752	89.75
510.968	89.75
511.184	91.75
511.401	81.75
511.617	104.75
511.833	77.75
512.049	91.75
512.265	76.75
512.481	91.75
512.698	87.75
512.914	95.75
513.13	87.75
513.346	94.75
513.562	90.75
513.778	98.75
513.994	84.75
514.21	91.75
514.426	91.75
514.642	99.75
514.858	92.75
515.074	95.75
515.29	87.75
515.506	107.75
515.721	84.75
515.937	91.75
516.153	98.75
516.369	87.75
516.585	94.75
516.801	97.75
517.016	83.75
517.232	79.75
517.448	110.75
517.664	92.75
