Data from CBS_2_HRD10591_00031.txt Node
Date: Mon Jan 19 14:05:01 EST 2026
User: Yrep
Spectrometer: HR+D1059
Trigger mode: 1
Integration Time (sec): 1.000000E-1
Scans to average: 1
Electric dark correction enabled: true
Nonlinearity correction enabled: false
Boxcar width: 0
XAxis mode: Wavelengths
Number of Pixels in Spectrum: 2048
>>>>>Begin Spectral Data<<<<<
223.165	-22.38
223.4	-22.38
223.635	-22.38
223.869	-29.38
224.104	-22.38
224.338	-5.38
224.573	-7.38
224.808	-14.38
225.042	-2.38
225.277	-11.38
225.511	-10.38
225.746	6.62
225.98	15.62
226.215	10.62
226.449	13.62
226.683	23.62
226.918	28.62
227.152	26.62
227.387	32.62
227.621	44.62
227.856	36.62
228.09	50.62
228.324	60.62
228.559	51.62
228.793	52.62
229.027	47.62
229.262	75.62
229.496	69.62
229.73	74.62
229.964	61.62
230.199	73.62
230.433	72.62
230.667	67.62
230.901	74.62
231.136	67.62
231.37	83.62
231.604	71.62
231.838	81.62
232.072	81.62
232.306	79.62
232.541	87.62
232.775	90.62
233.009	82.62
233.243	85.62
233.477	67.62
233.711	75.62
233.945	82.62
234.179	79.62
234.413	70.62
234.647	79.62
234.881	80.62
235.115	71.62
235.349	80.62
235.583	78.62
235.817	72.62
236.051	84.62
236.285	63.62
236.519	72.62
236.753	71.62
236.987	75.62
237.221	73.62
237.455	75.62
237.689	62.62
237.922	86.62
238.156	65.62
238.39	64.62
238.624	73.62
238.858	74.62
239.091	78.62
239.325	72.62
239.559	63.62
239.793	72.62
240.027	67.62
240.26	64.62
240.494	72.62
240.728	81.62
240.961	66.62
241.195	77.62
241.429	80.62
241.662	79.62
241.896	79.62
242.13	65.62
242.363	75.62
242.597	80.62
242.83	79.62
243.064	74.62
243.298	76.62
243.531	91.62
243.765	81.62
243.998	66.62
244.232	64.62
244.465	70.62
244.699	88.62
244.932	81.62
245.166	81.62
245.399	68.62
245.633	84.62
245.866	73.62
246.099	85.62
246.333	64.62
246.566	89.62
246.8	70.62
247.033	70.62
247.266	85.62
247.5	72.62
247.733	82.62
247.966	92.62
248.2	80.62
248.433	60.62
248.666	74.62
248.899	82.62
249.133	60.62
249.366	72.62
249.599	70.62
249.832	58.62
250.066	93.62
250.299	81.62
250.532	81.62
250.765	102.62
250.998	87.62
251.231	57.62
251.465	76.62
251.698	82.62
251.931	72.62
252.164	83.62
252.397	80.62
252.63	62.62
252.863	73.62
253.096	67.62
253.329	75.62
253.562	84.62
253.795	84.62
254.028	81.62
254.261	72.62
254.494	72.62
254.727	81.62
254.96	82.62
255.193	74.62
255.426	65.62
255.659	68.62
255.892	79.62
256.124	86.62
256.357	82.62
256.59	82.62
256.823	74.62
257.056	66.62
257.289	82.62
257.521	70.62
257.754	77.62
257.987	80.62
258.22	81.62
258.452	69.62
258.685	77.62
258.918	75.62
259.151	63.62
259.383	84.62
259.616	75.62
259.849	76.62
260.081	88.62
260.314	66.62
260.547	88.62
260.779	60.62
261.012	83.62
261.244	77.62
261.477	79.62
261.71	74.62
261.942	82.62
262.175	86.62
262.407	65.62
262.64	80.62
262.872	80.62
263.105	89.62
263.337	81.62
263.57	67.62
263.802	88.62
264.035	86.62
264.267	76.62
264.499	96.62
264.732	80.62
264.964	85.62
265.197	76.62
265.429	82.62
265.661	86.62
265.894	87.62
266.126	97.62
266.358	68.62
266.591	70.62
266.823	68.62
267.055	85.62
267.287	74.62
267.52	80.62
267.752	62.62
267.984	78.62
268.216	78.62
268.448	74.62
268.681	76.62
268.913	84.62
269.145	77.62
269.377	80.62
269.609	74.62
269.841	75.62
270.073	69.62
270.306	73.62
270.538	75.62
270.77	80.62
271.002	78.62
271.234	88.62
271.466	85.62
271.698	75.62
271.93	78.62
272.162	83.62
272.394	72.62
272.626	76.62
272.858	88.62
273.09	92.62
273.322	74.62
273.553	68.62
273.785	94.62
274.017	77.62
274.249	83.62
274.481	75.62
274.713	68.62
274.945	71.62
275.176	72.62
275.408	85.62
275.64	75.62
275.872	81.62
276.104	66.62
276.335	82.62
276.567	73.62
276.799	78.62
277.031	83.62
277.262	83.62
277.494	74.62
277.726	75.62
277.957	66.62
278.189	72.62
278.421	84.62
278.652	78.62
278.884	95.62
279.115	84.62
279.347	86.62
279.579	88.62
279.81	74.62
280.042	93.62
280.273	92.62
280.505	87.62
280.736	75.62
280.968	86.62
281.199	88.62
281.431	64.62
281.662	74.62
281.894	86.62
282.125	86.62
282.356	85.62
282.588	89.62
282.819	89.62
283.051	69.62
283.282	93.62
283.513	92.62
283.745	92.62
283.976	86.62
284.207	88.62
284.439	77.62
284.67	82.62
284.901	84.62
285.132	87.62
285.364	92.62
285.595	72.62
285.826	79.62
286.057	85.62
286.288	84.62
286.52	77.62
286.751	74.62
286.982	86.62
287.213	86.62
287.444	86.62
287.675	76.62
287.906	85.62
288.138	87.62
288.369	91.62
288.6	86.62
288.831	84.62
289.062	87.62
289.293	99.62
289.524	81.62
289.755	89.62
289.986	86.62
290.217	84.62
290.448	95.62
290.679	86.62
290.91	87.62
291.141	80.62
291.371	75.62
291.602	98.62
291.833	75.62
292.064	82.62
292.295	94.62
292.526	90.62
292.757	84.62
292.987	82.62
293.218	76.62
293.449	83.62
293.68	97.62
293.91	71.62
294.141	95.62
294.372	82.62
294.603	67.62
294.833	90.62
295.064	82.62
295.295	64.62
295.525	61.62
295.756	87.62
295.987	86.62
296.217	74.62
296.448	86.62
296.679	65.62
296.909	92.62
297.14	79.62
297.37	78.62
297.601	91.62
297.831	94.62
298.062	89.62
298.292	76.62
298.523	87.62
298.753	75.62
298.984	82.62
299.214	89.62
299.445	61.62
299.675	86.62
299.905	85.62
300.136	89.62
300.366	80.62
300.597	94.62
300.827	77.62
301.057	94.62
301.288	81.62
301.518	80.62
301.748	90.62
301.979	97.62
302.209	79.62
302.439	81.62
302.669	81.62
302.9	86.62
303.13	89.62
303.36	86.62
303.59	79.62
303.82	78.62
304.051	84.62
304.281	95.62
304.511	93.62
304.741	83.62
304.971	80.62
305.201	89.62
305.431	102.62
305.661	94.62
305.891	77.62
306.121	76.62
306.352	89.62
306.582	80.62
306.812	95.62
307.042	92.62
307.272	101.62
307.502	85.62
307.731	95.62
307.961	82.62
308.191	94.62
308.421	95.62
308.651	99.62
308.881	80.62
309.111	81.62
309.341	88.62
309.571	90.62
309.8	73.62
310.03	81.62
310.26	81.62
310.49	74.62
310.72	86.62
310.949	82.62
311.179	94.62
311.409	80.62
311.639	82.62
311.868	81.62
312.098	85.62
312.328	74.62
312.557	82.62
312.787	79.62
313.017	90.62
313.246	88.62
313.476	80.62
313.706	75.62
313.935	79.62
314.165	74.62
314.394	94.62
314.624	68.62
314.853	75.62
315.083	101.62
315.312	87.62
315.542	102.62
315.771	80.62
316.001	81.62
316.23	86.62
316.46	94.62
316.689	82.62
316.919	88.62
317.148	88.62
317.377	94.62
317.607	74.62
317.836	94.62
318.065	82.62
318.295	111.62
318.524	73.62
318.753	99.62
318.983	92.62
319.212	82.62
319.441	84.62
319.67	76.62
319.9	86.62
320.129	71.62
320.358	89.62
320.587	83.62
320.816	76.62
321.046	89.62
321.275	81.62
321.504	93.62
321.733	96.62
321.962	88.62
322.191	90.62
322.42	89.62
322.649	97.62
322.878	94.62
323.108	84.62
323.337	90.62
323.566	92.62
323.795	91.62
324.024	85.62
324.253	74.62
324.482	77.62
324.71	67.62
324.939	87.62
325.168	71.62
325.397	90.62
325.626	78.62
325.855	86.62
326.084	87.62
326.313	75.62
326.542	84.62
326.77	90.62
326.999	95.62
327.228	84.62
327.457	81.62
327.686	92.62
327.914	78.62
328.143	85.62
328.372	69.62
328.6	78.62
328.829	81.62
329.058	74.62
329.287	83.62
329.515	88.62
329.744	86.62
329.972	95.62
330.201	86.62
330.43	82.62
330.658	91.62
330.887	74.62
331.115	84.62
331.344	93.62
331.572	99.62
331.801	69.62
332.03	75.62
332.258	75.62
332.486	74.62
332.715	89.62
332.943	98.62
333.172	70.62
333.4	85.62
333.629	91.62
333.857	82.62
334.085	81.62
334.314	95.62
334.542	99.62
334.771	91.62
334.999	98.62
335.227	90.62
335.455	88.62
335.684	98.62
335.912	93.62
336.14	90.62
336.369	101.62
336.597	96.62
336.825	90.62
337.053	88.62
337.281	72.62
337.51	96.62
337.738	85.62
337.966	78.62
338.194	85.62
338.422	85.62
338.65	79.62
338.878	92.62
339.106	87.62
339.334	85.62
339.562	83.62
339.79	87.62
340.018	78.62
340.246	82.62
340.474	86.62
340.702	87.62
340.93	81.62
341.158	87.62
341.386	90.62
341.614	83.62
341.842	70.62
342.07	90.62
342.298	82.62
342.526	82.62
342.754	70.62
342.981	80.62
343.209	86.62
343.437	97.62
343.665	95.62
343.893	86.62
344.12	100.62
344.348	104.62
344.576	95.62
344.804	92.62
345.031	83.62
345.259	84.62
345.487	78.62
345.714	95.62
345.942	83.62
346.17	81.62
346.397	92.62
346.625	68.62
346.853	83.62
347.08	82.62
347.308	73.62
347.535	89.62
347.763	96.62
347.99	75.62
348.218	89.62
348.445	96.62
348.673	86.62
348.9	96.62
349.128	84.62
349.355	85.62
349.583	98.62
349.81	74.62
350.037	101.62
350.265	71.62
350.492	86.62
350.72	92.62
350.947	93.62
351.174	93.62
351.402	76.62
351.629	80.62
351.856	69.62
352.083	90.62
352.311	84.62
352.538	73.62
352.765	84.62
352.992	89.62
353.22	79.62
353.447	84.62
353.674	82.62
353.901	76.62
354.128	82.62
354.355	80.62
354.583	87.62
354.81	87.62
355.037	95.62
355.264	87.62
355.491	77.62
355.718	83.62
355.945	90.62
356.172	84.62
356.399	96.62
356.626	97.62
356.853	89.62
357.08	83.62
357.307	77.62
357.534	82.62
357.761	86.62
357.988	88.62
358.215	89.62
358.441	95.62
358.668	96.62
358.895	82.62
359.122	86.62
359.349	89.62
359.576	82.62
359.802	90.62
360.029	82.62
360.256	85.62
360.483	89.62
360.709	87.62
360.936	91.62
361.163	89.62
361.39	85.62
361.616	97.62
361.843	93.62
362.07	96.62
362.296	98.62
362.523	110.62
362.749	126.62
362.976	143.62
363.203	151.62
363.429	117.62
363.656	100.62
363.882	106.62
364.109	124.62
364.335	145.62
364.562	171.62
364.788	132.62
365.015	100.62
365.241	87.62
365.468	91.62
365.694	83.62
365.92	98.62
366.147	90.62
366.373	87.62
366.599	99.62
366.826	93.62
367.052	83.62
367.278	82.62
367.505	87.62
367.731	90.62
367.957	77.62
368.184	84.62
368.41	87.62
368.636	74.62
368.862	108.62
369.089	82.62
369.315	81.62
369.541	82.62
369.767	81.62
369.993	82.62
370.219	92.62
370.445	88.62
370.672	98.62
370.898	103.62
371.124	85.62
371.35	84.62
371.576	92.62
371.802	85.62
372.028	84.62
372.254	86.62
372.48	89.62
372.706	79.62
372.932	93.62
373.158	97.62
373.384	88.62
373.61	104.62
373.835	106.62
374.061	96.62
374.287	93.62
374.513	88.62
374.739	83.62
374.965	85.62
375.191	84.62
375.416	89.62
375.642	88.62
375.868	84.62
376.094	87.62
376.319	80.62
376.545	79.62
376.771	88.62
376.997	81.62
377.222	93.62
377.448	88.62
377.674	86.62
377.899	89.62
378.125	87.62
378.35	85.62
378.576	88.62
378.802	89.62
379.027	84.62
379.253	95.62
379.478	95.62
379.704	87.62
379.929	80.62
380.155	80.62
380.38	84.62
380.606	93.62
380.831	92.62
381.057	85.62
381.282	92.62
381.507	91.62
381.733	86.62
381.958	96.62
382.184	94.62
382.409	90.62
382.634	94.62
382.86	90.62
383.085	100.62
383.31	100.62
383.535	103.62
383.761	92.62
383.986	96.62
384.211	90.62
384.436	86.62
384.662	84.62
384.887	81.62
385.112	89.62
385.337	87.62
385.562	98.62
385.787	104.62
386.013	84.62
386.238	93.62
386.463	91.62
386.688	97.62
386.913	94.62
387.138	102.62
387.363	109.62
387.588	111.62
387.813	112.62
388.038	107.62
388.263	101.62
388.488	89.62
388.713	92.62
388.938	78.62
389.163	97.62
389.387	93.62
389.612	84.62
389.837	103.62
390.062	96.62
390.287	93.62
390.512	87.62
390.736	106.62
390.961	82.62
391.186	82.62
391.411	88.62
391.636	111.62
391.86	89.62
392.085	100.62
392.31	103.62
392.534	106.62
392.759	144.62
392.984	184.62
393.208	288.62
393.433	442.62
393.658	354.62
393.882	174.62
394.107	133.62
394.331	136.62
394.556	138.62
394.78	125.62
395.005	97.62
395.229	109.62
395.454	123.62
395.678	104.62
395.903	142.62
396.127	156.62
396.352	166.62
396.576	194.62
396.801	310.62
397.025	369.62
397.249	193.62
397.474	136.62
397.698	118.62
397.922	106.62
398.147	88.62
398.371	80.62
398.595	88.62
398.82	109.62
399.044	89.62
399.268	86.62
399.492	101.62
399.717	107.62
399.941	92.62
400.165	86.62
400.389	84.62
400.613	94.62
400.837	94.62
401.062	91.62
401.286	92.62
401.51	92.62
401.734	84.62
401.958	93.62
402.182	82.62
402.406	90.62
402.63	84.62
402.854	96.62
403.078	91.62
403.302	94.62
403.526	91.62
403.75	92.62
403.974	79.62
404.198	107.62
404.422	116.62
404.645	127.62
404.869	94.62
405.093	82.62
405.317	85.62
405.541	80.62
405.765	79.62
405.988	82.62
406.212	94.62
406.436	90.62
406.66	91.62
406.883	91.62
407.107	100.62
407.331	88.62
407.555	92.62
407.778	112.62
408.002	115.62
408.226	84.62
408.449	88.62
408.673	83.62
408.896	103.62
409.12	93.62
409.344	106.62
409.567	96.62
409.791	117.62
410.014	114.62
410.238	106.62
410.461	110.62
410.685	90.62
410.908	89.62
411.132	104.62
411.355	98.62
411.578	89.62
411.802	83.62
412.025	101.62
412.249	83.62
412.472	72.62
412.695	74.62
412.919	67.62
413.142	88.62
413.365	94.62
413.589	85.62
413.812	87.62
414.035	94.62
414.258	101.62
414.482	81.62
414.705	80.62
414.928	87.62
415.151	84.62
415.374	91.62
415.597	97.62
415.821	89.62
416.044	93.62
416.267	80.62
416.49	98.62
416.713	97.62
416.936	97.62
417.159	91.62
417.382	86.62
417.605	74.62
417.828	101.62
418.051	80.62
418.274	101.62
418.497	82.62
418.72	98.62
418.943	90.62
419.166	92.62
419.389	98.62
419.611	100.62
419.834	92.62
420.057	94.62
420.28	89.62
420.503	88.62
420.726	108.62
420.948	112.62
421.171	101.62
421.394	107.62
421.617	141.62
421.839	148.62
422.062	167.62
422.285	257.62
422.507	415.62
422.73	628.62
422.953	558.62
423.175	330.62
423.398	200.62
423.621	137.62
423.843	110.62
424.066	112.62
424.288	110.62
424.511	108.62
424.733	94.62
424.956	101.62
425.178	75.62
425.401	98.62
425.623	93.62
425.846	85.62
426.068	99.62
426.291	89.62
426.513	91.62
426.735	102.62
426.958	96.62
427.18	89.62
427.402	86.62
427.625	104.62
427.847	88.62
428.069	109.62
428.292	162.62
428.514	178.62
428.736	137.62
428.958	146.62
429.181	152.62
429.403	115.62
429.625	106.62
429.847	159.62
430.069	233.62
430.292	264.62
430.514	242.62
430.736	172.62
430.958	166.62
431.18	110.62
431.402	98.62
431.624	117.62
431.846	157.62
432.068	178.62
432.29	106.62
432.512	97.62
432.734	94.62
432.956	90.62
433.178	99.62
433.4	89.62
433.622	89.62
433.844	88.62
434.066	89.62
434.287	78.62
434.509	64.62
434.731	76.62
434.953	93.62
435.175	94.62
435.397	103.62
435.618	92.62
435.84	92.62
436.062	104.62
436.284	88.62
436.505	78.62
436.727	81.62
436.949	94.62
437.17	84.62
437.392	92.62
437.614	93.62
437.835	89.62
438.057	89.62
438.278	94.62
438.5	87.62
438.721	68.62
438.943	96.62
439.165	93.62
439.386	93.62
439.608	86.62
439.829	75.62
440.05	77.62
440.272	101.62
440.493	96.62
440.715	105.62
440.936	97.62
441.158	96.62
441.379	87.62
441.6	106.62
441.822	88.62
442.043	92.62
442.264	118.62
442.486	156.62
442.707	237.62
442.928	144.62
443.149	121.62
443.371	197.62
443.592	366.62
443.813	326.62
444.034	140.62
444.255	108.62
444.476	110.62
444.698	100.62
444.919	110.62
445.14	209.62
445.361	282.62
445.582	436.62
445.803	392.62
446.024	162.62
446.245	106.62
446.466	94.62
446.687	90.62
446.908	92.62
447.129	93.62
447.35	88.62
447.571	90.62
447.792	70.62
448.013	77.62
448.234	70.62
448.455	75.62
448.675	103.62
448.896	88.62
449.117	94.62
449.338	72.62
449.559	81.62
449.779	93.62
450	84.62
450.221	79.62
450.442	87.62
450.662	83.62
450.883	85.62
451.104	85.62
451.324	79.62
451.545	88.62
451.766	86.62
451.986	89.62
452.207	88.62
452.428	88.62
452.648	90.62
452.869	106.62
453.089	109.62
453.31	100.62
453.53	89.62
453.751	94.62
453.971	75.62
454.192	78.62
454.412	81.62
454.633	99.62
454.853	93.62
455.073	88.62
455.294	96.62
455.514	75.62
455.734	92.62
455.955	94.62
456.175	98.62
456.395	96.62
456.616	86.62
456.836	94.62
457.056	87.62
457.276	84.62
457.497	87.62
457.717	103.62
457.937	132.62
458.157	153.62
458.377	169.62
458.598	153.62
458.818	179.62
459.038	116.62
459.258	96.62
459.478	89.62
459.698	102.62
459.918	94.62
460.138	92.62
460.358	102.62
460.578	109.62
460.798	127.62
461.018	125.62
461.238	102.62
461.458	80.62
461.678	88.62
461.898	87.62
462.118	82.62
462.338	80.62
462.558	88.62
462.777	81.62
462.997	81.62
463.217	81.62
463.437	81.62
463.657	88.62
463.876	79.62
464.096	84.62
464.316	85.62
464.536	77.62
464.755	78.62
464.975	93.62
465.195	92.62
465.414	94.62
465.634	71.62
465.854	82.62
466.073	62.62
466.293	83.62
466.512	88.62
466.732	88.62
466.951	81.62
467.171	73.62
467.391	64.62
467.61	81.62
467.829	83.62
468.049	89.62
468.268	96.62
468.488	90.62
468.707	105.62
468.927	88.62
469.146	75.62
469.365	81.62
469.585	74.62
469.804	73.62
470.023	72.62
470.243	96.62
470.462	76.62
470.681	85.62
470.901	92.62
471.12	99.62
471.339	94.62
471.558	97.62
471.777	95.62
471.997	86.62
472.216	89.62
472.435	96.62
472.654	83.62
472.873	96.62
473.092	84.62
473.311	84.62
473.53	72.62
473.749	104.62
473.968	89.62
474.187	99.62
474.406	91.62
474.625	92.62
474.844	91.62
475.063	76.62
475.282	86.62
475.501	75.62
475.72	95.62
475.939	79.62
476.158	93.62
476.377	87.62
476.596	87.62
476.814	87.62
477.033	72.62
477.252	77.62
477.471	82.62
477.69	73.62
477.908	80.62
478.127	87.62
478.346	74.62
478.564	78.62
478.783	78.62
479.002	93.62
479.22	78.62
479.439	93.62
479.658	87.62
479.876	85.62
480.095	95.62
480.313	90.62
480.532	70.62
480.751	98.62
480.969	98.62
481.188	89.62
481.406	86.62
481.624	89.62
481.843	77.62
482.061	80.62
482.28	98.62
482.498	97.62
482.717	105.62
482.935	103.62
483.153	95.62
483.372	95.62
483.59	86.62
483.808	89.62
484.027	95.62
484.245	94.62
484.463	88.62
484.681	98.62
484.9	95.62
485.118	98.62
485.336	81.62
485.554	90.62
485.772	99.62
485.99	87.62
486.209	96.62
486.427	88.62
486.645	91.62
486.863	84.62
487.081	89.62
487.299	93.62
487.517	114.62
487.735	140.62
487.953	253.62
488.171	221.62
488.389	116.62
488.607	93.62
488.825	96.62
489.043	81.62
489.261	70.62
489.479	82.62
489.696	88.62
489.914	87.62
490.132	75.62
490.35	89.62
490.568	77.62
490.786	85.62
491.003	82.62
491.221	82.62
491.439	81.62
491.657	100.62
491.874	87.62
492.092	98.62
492.31	77.62
492.527	85.62
492.745	96.62
492.963	96.62
493.18	92.62
493.398	82.62
493.615	91.62
493.833	102.62
494.05	87.62
494.268	71.62
494.485	85.62
494.703	96.62
494.92	101.62
495.138	93.62
495.355	105.62
495.573	89.62
495.79	95.62
496.008	86.62
496.225	84.62
496.442	104.62
496.66	81.62
496.877	85.62
497.094	102.62
497.312	80.62
497.529	92.62
497.746	85.62
497.963	76.62
498.181	94.62
498.398	83.62
498.615	88.62
498.832	88.62
499.049	74.62
499.267	92.62
499.484	108.62
499.701	95.62
499.918	96.62
500.135	96.62
500.352	98.62
500.569	77.62
500.786	85.62
501.003	105.62
501.22	81.62
501.437	85.62
501.654	88.62
501.871	88.62
502.088	82.62
502.305	75.62
502.522	92.62
502.739	104.62
502.956	100.62
503.172	85.62
503.389	95.62
503.606	92.62
503.823	101.62
504.04	116.62
504.256	178.62
504.473	180.62
504.69	125.62
504.907	116.62
505.123	92.62
505.34	86.62
505.557	70.62
505.773	78.62
505.99	80.62
506.207	88.62
506.423	95.62
506.64	93.62
506.856	85.62
507.073	74.62
507.289	84.62
507.506	69.62
507.722	84.62
507.939	92.62
508.155	82.62
508.372	88.62
508.588	91.62
508.805	92.62
509.021	82.62
509.238	87.62
509.454	92.62
509.67	94.62
509.887	88.62
510.103	83.62
510.319	86.62
510.536	84.62
510.752	84.62
510.968	83.62
511.184	89.62
511.401	86.62
511.617	80.62
511.833	72.62
512.049	84.62
512.265	92.62
512.481	71.62
512.698	98.62
512.914	78.62
513.13	95.62
513.346	80.62
513.562	88.62
513.778	87.62
513.994	100.62
514.21	94.62
514.426	85.62
514.642	85.62
514.858	82.62
515.074	89.62
515.29	81.62
515.506	78.62
515.721	88.62
515.937	96.62
516.153	78.62
516.369	92.62
516.585	97.62
516.801	78.62
517.016	96.62
517.232	88.62
517.448	98.62
