Data from CBS_2_HRD10591_00046.txt Node
Date: Mon Jan 19 14:05:09 EST 2026
User: Yrep
Spectrometer: HR+D1059
Trigger mode: 1
Integration Time (sec): 1.000000E-1
Scans to average: 1
Electric dark correction enabled: true
Nonlinearity correction enabled: false
Boxcar width: 0
XAxis mode: Wavelengths
Number of Pixels in Spectrum: 2048
>>>>>Begin Spectral Data<<<<<
223.165	-24.56
223.4	-24.56
223.635	-24.56
223.869	-26.56
224.104	-7.56
224.338	-5.56
224.573	-20.56
224.808	-17.56
225.042	-17.56
225.277	-8.56
225.511	6.44
225.746	3.44
225.98	21.44
226.215	8.44
226.449	23.44
226.683	19.44
226.918	23.44
227.152	22.44
227.387	17.44
227.621	32.44
227.856	38.44
228.09	42.44
228.324	45.44
228.559	69.44
228.793	60.44
229.027	44.44
229.262	52.44
229.496	56.44
229.73	52.44
229.964	73.44
230.199	58.44
230.433	78.44
230.667	67.44
230.901	64.44
231.136	67.44
231.37	85.44
231.604	80.44
231.838	59.44
232.072	76.44
232.306	76.44
232.541	81.44
232.775	72.44
233.009	62.44
233.243	67.44
233.477	61.44
233.711	84.44
233.945	68.44
234.179	72.44
234.413	95.44
234.647	62.44
234.881	77.44
235.115	78.44
235.349	71.44
235.583	73.44
235.817	76.44
236.051	63.44
236.285	70.44
236.519	68.44
236.753	68.44
236.987	68.44
237.221	66.44
237.455	73.44
237.689	70.44
237.922	71.44
238.156	76.44
238.39	81.44
238.624	73.44
238.858	71.44
239.091	79.44
239.325	63.44
239.559	79.44
239.793	72.44
240.027	84.44
240.26	62.44
240.494	72.44
240.728	78.44
240.961	81.44
241.195	76.44
241.429	78.44
241.662	79.44
241.896	70.44
242.13	72.44
242.363	72.44
242.597	70.44
242.83	68.44
243.064	79.44
243.298	80.44
243.531	64.44
243.765	64.44
243.998	60.44
244.232	79.44
244.465	73.44
244.699	82.44
244.932	66.44
245.166	72.44
245.399	90.44
245.633	64.44
245.866	56.44
246.099	66.44
246.333	78.44
246.566	80.44
246.8	81.44
247.033	69.44
247.266	78.44
247.5	61.44
247.733	66.44
247.966	75.44
248.2	67.44
248.433	76.44
248.666	72.44
248.899	77.44
249.133	71.44
249.366	72.44
249.599	92.44
249.832	70.44
250.066	80.44
250.299	74.44
250.532	60.44
250.765	74.44
250.998	65.44
251.231	81.44
251.465	68.44
251.698	82.44
251.931	96.44
252.164	78.44
252.397	70.44
252.63	71.44
252.863	70.44
253.096	77.44
253.329	75.44
253.562	90.44
253.795	76.44
254.028	90.44
254.261	78.44
254.494	72.44
254.727	75.44
254.96	75.44
255.193	71.44
255.426	66.44
255.659	77.44
255.892	75.44
256.124	71.44
256.357	68.44
256.59	78.44
256.823	72.44
257.056	78.44
257.289	83.44
257.521	77.44
257.754	79.44
257.987	77.44
258.22	82.44
258.452	66.44
258.685	75.44
258.918	56.44
259.151	71.44
259.383	74.44
259.616	64.44
259.849	69.44
260.081	94.44
260.314	68.44
260.547	69.44
260.779	69.44
261.012	70.44
261.244	66.44
261.477	77.44
261.71	82.44
261.942	70.44
262.175	79.44
262.407	70.44
262.64	79.44
262.872	71.44
263.105	75.44
263.337	90.44
263.57	86.44
263.802	69.44
264.035	76.44
264.267	66.44
264.499	90.44
264.732	75.44
264.964	78.44
265.197	76.44
265.429	85.44
265.661	76.44
265.894	82.44
266.126	67.44
266.358	97.44
266.591	68.44
266.823	70.44
267.055	79.44
267.287	63.44
267.52	76.44
267.752	83.44
267.984	70.44
268.216	73.44
268.448	86.44
268.681	83.44
268.913	84.44
269.145	73.44
269.377	67.44
269.609	73.44
269.841	83.44
270.073	80.44
270.306	64.44
270.538	76.44
270.77	72.44
271.002	84.44
271.234	84.44
271.466	88.44
271.698	80.44
271.93	85.44
272.162	79.44
272.394	82.44
272.626	78.44
272.858	77.44
273.09	80.44
273.322	84.44
273.553	82.44
273.785	77.44
274.017	73.44
274.249	80.44
274.481	86.44
274.713	79.44
274.945	83.44
275.176	80.44
275.408	74.44
275.64	78.44
275.872	89.44
276.104	86.44
276.335	65.44
276.567	80.44
276.799	84.44
277.031	80.44
277.262	73.44
277.494	90.44
277.726	75.44
277.957	60.44
278.189	78.44
278.421	74.44
278.652	84.44
278.884	68.44
279.115	76.44
279.347	84.44
279.579	84.44
279.81	77.44
280.042	91.44
280.273	86.44
280.505	79.44
280.736	84.44
280.968	90.44
281.199	86.44
281.431	84.44
281.662	90.44
281.894	83.44
282.125	82.44
282.356	68.44
282.588	86.44
282.819	85.44
283.051	64.44
283.282	83.44
283.513	82.44
283.745	86.44
283.976	81.44
284.207	71.44
284.439	78.44
284.67	86.44
284.901	76.44
285.132	90.44
285.364	76.44
285.595	95.44
285.826	92.44
286.057	89.44
286.288	76.44
286.52	71.44
286.751	76.44
286.982	76.44
287.213	71.44
287.444	82.44
287.675	80.44
287.906	92.44
288.138	74.44
288.369	76.44
288.6	70.44
288.831	63.44
289.062	78.44
289.293	85.44
289.524	74.44
289.755	77.44
289.986	81.44
290.217	93.44
290.448	82.44
290.679	82.44
290.91	87.44
291.141	86.44
291.371	72.44
291.602	79.44
291.833	71.44
292.064	70.44
292.295	83.44
292.526	88.44
292.757	93.44
292.987	72.44
293.218	78.44
293.449	84.44
293.68	86.44
293.91	85.44
294.141	77.44
294.372	88.44
294.603	84.44
294.833	92.44
295.064	75.44
295.295	84.44
295.525	80.44
295.756	92.44
295.987	82.44
296.217	88.44
296.448	90.44
296.679	72.44
296.909	79.44
297.14	78.44
297.37	88.44
297.601	94.44
297.831	90.44
298.062	86.44
298.292	59.44
298.523	92.44
298.753	81.44
298.984	79.44
299.214	78.44
299.445	82.44
299.675	78.44
299.905	83.44
300.136	88.44
300.366	93.44
300.597	97.44
300.827	82.44
301.057	80.44
301.288	82.44
301.518	82.44
301.748	90.44
301.979	107.44
302.209	87.44
302.439	66.44
302.669	80.44
302.9	89.44
303.13	100.44
303.36	87.44
303.59	91.44
303.82	77.44
304.051	88.44
304.281	84.44
304.511	75.44
304.741	89.44
304.971	85.44
305.201	79.44
305.431	78.44
305.661	73.44
305.891	89.44
306.121	85.44
306.352	82.44
306.582	86.44
306.812	82.44
307.042	75.44
307.272	84.44
307.502	79.44
307.731	68.44
307.961	92.44
308.191	72.44
308.421	71.44
308.651	99.44
308.881	84.44
309.111	76.44
309.341	75.44
309.571	97.44
309.8	69.44
310.03	78.44
310.26	75.44
310.49	79.44
310.72	76.44
310.949	83.44
311.179	85.44
311.409	76.44
311.639	80.44
311.868	100.44
312.098	87.44
312.328	100.44
312.557	89.44
312.787	84.44
313.017	92.44
313.246	73.44
313.476	70.44
313.706	80.44
313.935	78.44
314.165	75.44
314.394	86.44
314.624	95.44
314.853	82.44
315.083	96.44
315.312	94.44
315.542	79.44
315.771	78.44
316.001	86.44
316.23	80.44
316.46	89.44
316.689	93.44
316.919	90.44
317.148	86.44
317.377	84.44
317.607	84.44
317.836	86.44
318.065	96.44
318.295	82.44
318.524	71.44
318.753	82.44
318.983	101.44
319.212	73.44
319.441	79.44
319.67	87.44
319.9	84.44
320.129	86.44
320.358	76.44
320.587	80.44
320.816	78.44
321.046	93.44
321.275	57.44
321.504	88.44
321.733	78.44
321.962	92.44
322.191	80.44
322.42	70.44
322.649	83.44
322.878	81.44
323.108	79.44
323.337	88.44
323.566	70.44
323.795	85.44
324.024	75.44
324.253	89.44
324.482	84.44
324.71	73.44
324.939	80.44
325.168	88.44
325.397	88.44
325.626	81.44
325.855	89.44
326.084	85.44
326.313	88.44
326.542	76.44
326.77	82.44
326.999	81.44
327.228	74.44
327.457	83.44
327.686	78.44
327.914	85.44
328.143	84.44
328.372	71.44
328.6	90.44
328.829	80.44
329.058	85.44
329.287	90.44
329.515	90.44
329.744	72.44
329.972	78.44
330.201	82.44
330.43	77.44
330.658	89.44
330.887	79.44
331.115	80.44
331.344	81.44
331.572	79.44
331.801	94.44
332.03	67.44
332.258	82.44
332.486	85.44
332.715	75.44
332.943	84.44
333.172	71.44
333.4	89.44
333.629	91.44
333.857	80.44
334.085	83.44
334.314	74.44
334.542	77.44
334.771	101.44
334.999	86.44
335.227	95.44
335.455	78.44
335.684	94.44
335.912	100.44
336.14	86.44
336.369	89.44
336.597	89.44
336.825	88.44
337.053	70.44
337.281	70.44
337.51	75.44
337.738	90.44
337.966	76.44
338.194	71.44
338.422	80.44
338.65	90.44
338.878	84.44
339.106	98.44
339.334	87.44
339.562	82.44
339.79	88.44
340.018	82.44
340.246	73.44
340.474	94.44
340.702	82.44
340.93	74.44
341.158	90.44
341.386	89.44
341.614	78.44
341.842	91.44
342.07	75.44
342.298	82.44
342.526	83.44
342.754	80.44
342.981	80.44
343.209	88.44
343.437	108.44
343.665	70.44
343.893	96.44
344.12	85.44
344.348	67.44
344.576	82.44
344.804	78.44
345.031	93.44
345.259	78.44
345.487	88.44
345.714	76.44
345.942	84.44
346.17	73.44
346.397	73.44
346.625	95.44
346.853	76.44
347.08	79.44
347.308	78.44
347.535	91.44
347.763	91.44
347.99	84.44
348.218	74.44
348.445	90.44
348.673	83.44
348.9	87.44
349.128	85.44
349.355	80.44
349.583	88.44
349.81	82.44
350.037	79.44
350.265	82.44
350.492	76.44
350.72	82.44
350.947	89.44
351.174	79.44
351.402	83.44
351.629	75.44
351.856	91.44
352.083	84.44
352.311	84.44
352.538	87.44
352.765	74.44
352.992	94.44
353.22	84.44
353.447	76.44
353.674	78.44
353.901	85.44
354.128	75.44
354.355	86.44
354.583	64.44
354.81	86.44
355.037	86.44
355.264	86.44
355.491	85.44
355.718	75.44
355.945	90.44
356.172	83.44
356.399	82.44
356.626	100.44
356.853	79.44
357.08	96.44
357.307	75.44
357.534	78.44
357.761	76.44
357.988	90.44
358.215	99.44
358.441	91.44
358.668	84.44
358.895	83.44
359.122	87.44
359.349	91.44
359.576	91.44
359.802	85.44
360.029	82.44
360.256	88.44
360.483	86.44
360.709	90.44
360.936	81.44
361.163	90.44
361.39	72.44
361.616	78.44
361.843	78.44
362.07	95.44
362.296	98.44
362.523	112.44
362.749	106.44
362.976	113.44
363.203	134.44
363.429	93.44
363.656	98.44
363.882	86.44
364.109	107.44
364.335	128.44
364.562	131.44
364.788	117.44
365.015	87.44
365.241	79.44
365.468	90.44
365.694	70.44
365.92	63.44
366.147	81.44
366.373	82.44
366.599	81.44
366.826	83.44
367.052	83.44
367.278	83.44
367.505	84.44
367.731	89.44
367.957	90.44
368.184	74.44
368.41	87.44
368.636	79.44
368.862	79.44
369.089	88.44
369.315	82.44
369.541	91.44
369.767	84.44
369.993	98.44
370.219	80.44
370.445	90.44
370.672	94.44
370.898	91.44
371.124	82.44
371.35	80.44
371.576	85.44
371.802	72.44
372.028	87.44
372.254	96.44
372.48	86.44
372.706	87.44
372.932	67.44
373.158	74.44
373.384	90.44
373.61	93.44
373.835	101.44
374.061	91.44
374.287	85.44
374.513	80.44
374.739	85.44
374.965	87.44
375.191	92.44
375.416	91.44
375.642	108.44
375.868	85.44
376.094	88.44
376.319	76.44
376.545	71.44
376.771	90.44
376.997	77.44
377.222	89.44
377.448	96.44
377.674	89.44
377.899	91.44
378.125	87.44
378.35	80.44
378.576	59.44
378.802	83.44
379.027	91.44
379.253	86.44
379.478	69.44
379.704	86.44
379.929	76.44
380.155	81.44
380.38	79.44
380.606	89.44
380.831	80.44
381.057	76.44
381.282	76.44
381.507	82.44
381.733	91.44
381.958	96.44
382.184	84.44
382.409	92.44
382.634	88.44
382.86	97.44
383.085	89.44
383.31	96.44
383.535	94.44
383.761	96.44
383.986	79.44
384.211	73.44
384.436	86.44
384.662	82.44
384.887	97.44
385.112	79.44
385.337	92.44
385.562	88.44
385.787	99.44
386.013	95.44
386.238	87.44
386.463	89.44
386.688	98.44
386.913	91.44
387.138	92.44
387.363	99.44
387.588	96.44
387.813	96.44
388.038	90.44
388.263	82.44
388.488	94.44
388.713	94.44
388.938	87.44
389.163	104.44
389.387	79.44
389.612	90.44
389.837	95.44
390.062	86.44
390.287	97.44
390.512	91.44
390.736	79.44
390.961	87.44
391.186	93.44
391.411	90.44
391.636	96.44
391.86	86.44
392.085	102.44
392.31	104.44
392.534	107.44
392.759	110.44
392.984	167.44
393.208	279.44
393.433	426.44
393.658	328.44
393.882	153.44
394.107	116.44
394.331	96.44
394.556	106.44
394.78	103.44
395.005	85.44
395.229	76.44
395.454	87.44
395.678	109.44
395.903	122.44
396.127	130.44
396.352	167.44
396.576	186.44
396.801	279.44
397.025	325.44
397.249	179.44
397.474	133.44
397.698	99.44
397.922	98.44
398.147	80.44
398.371	95.44
398.595	86.44
398.82	77.44
399.044	95.44
399.268	99.44
399.492	88.44
399.717	76.44
399.941	79.44
400.165	86.44
400.389	72.44
400.613	88.44
400.837	88.44
401.062	76.44
401.286	85.44
401.51	88.44
401.734	87.44
401.958	87.44
402.182	80.44
402.406	75.44
402.63	92.44
402.854	93.44
403.078	90.44
403.302	92.44
403.526	91.44
403.75	82.44
403.974	82.44
404.198	72.44
404.422	95.44
404.645	94.44
404.869	92.44
405.093	84.44
405.317	81.44
405.541	82.44
405.765	83.44
405.988	84.44
406.212	87.44
406.436	69.44
406.66	90.44
406.883	85.44
407.107	86.44
407.331	91.44
407.555	97.44
407.778	107.44
408.002	90.44
408.226	85.44
408.449	88.44
408.673	92.44
408.896	83.44
409.12	84.44
409.344	80.44
409.567	101.44
409.791	95.44
410.014	96.44
410.238	87.44
410.461	103.44
410.685	66.44
410.908	75.44
411.132	99.44
411.355	94.44
411.578	85.44
411.802	92.44
412.025	82.44
412.249	86.44
412.472	86.44
412.695	87.44
412.919	84.44
413.142	105.44
413.365	78.44
413.589	94.44
413.812	87.44
414.035	86.44
414.258	74.44
414.482	90.44
414.705	86.44
414.928	82.44
415.151	91.44
415.374	94.44
415.597	74.44
415.821	94.44
416.044	70.44
416.267	72.44
416.49	87.44
416.713	77.44
416.936	96.44
417.159	82.44
417.382	78.44
417.605	67.44
417.828	86.44
418.051	96.44
418.274	91.44
418.497	82.44
418.72	86.44
418.943	76.44
419.166	80.44
419.389	83.44
419.611	92.44
419.834	75.44
420.057	77.44
420.28	79.44
420.503	87.44
420.726	81.44
420.948	95.44
421.171	83.44
421.394	104.44
421.617	117.44
421.839	113.44
422.062	130.44
422.285	172.44
422.507	311.44
422.73	488.44
422.953	442.44
423.175	210.44
423.398	126.44
423.621	96.44
423.843	91.44
424.066	85.44
424.288	95.44
424.511	102.44
424.733	85.44
424.956	87.44
425.178	97.44
425.401	95.44
425.623	88.44
425.846	93.44
426.068	78.44
426.291	98.44
426.513	86.44
426.735	88.44
426.958	96.44
427.18	87.44
427.402	86.44
427.625	88.44
427.847	91.44
428.069	94.44
428.292	127.44
428.514	162.44
428.736	101.44
428.958	140.44
429.181	142.44
429.403	98.44
429.625	93.44
429.847	138.44
430.069	161.44
430.292	190.44
430.514	204.44
430.736	135.44
430.958	142.44
431.18	99.44
431.402	90.44
431.624	86.44
431.846	103.44
432.068	140.44
432.29	99.44
432.512	83.44
432.734	87.44
432.956	85.44
433.178	73.44
433.4	88.44
433.622	85.44
433.844	82.44
434.066	75.44
434.287	87.44
434.509	80.44
434.731	81.44
434.953	62.44
435.175	85.44
435.397	88.44
435.618	83.44
435.84	74.44
436.062	87.44
436.284	96.44
436.505	82.44
436.727	86.44
436.949	94.44
437.17	76.44
437.392	72.44
437.614	80.44
437.835	84.44
438.057	69.44
438.278	80.44
438.5	78.44
438.721	85.44
438.943	78.44
439.165	67.44
439.386	81.44
439.608	83.44
439.829	80.44
440.05	84.44
440.272	82.44
440.493	71.44
440.715	78.44
440.936	68.44
441.158	80.44
441.379	76.44
441.6	87.44
441.822	98.44
442.043	86.44
442.264	100.44
442.486	127.44
442.707	185.44
442.928	128.44
443.149	110.44
443.371	173.44
443.592	291.44
443.813	250.44
444.034	109.44
444.255	88.44
444.476	100.44
444.698	87.44
444.919	93.44
445.14	168.44
445.361	195.44
445.582	328.44
445.803	303.44
446.024	127.44
446.245	87.44
446.466	71.44
446.687	71.44
446.908	76.44
447.129	87.44
447.35	89.44
447.571	82.44
447.792	69.44
448.013	73.44
448.234	77.44
448.455	79.44
448.675	72.44
448.896	89.44
449.117	61.44
449.338	76.44
449.559	73.44
449.779	75.44
450	73.44
450.221	94.44
450.442	63.44
450.662	84.44
450.883	95.44
451.104	91.44
451.324	80.44
451.545	83.44
451.766	80.44
451.986	76.44
452.207	84.44
452.428	88.44
452.648	77.44
452.869	103.44
453.089	87.44
453.31	83.44
453.53	83.44
453.751	88.44
453.971	86.44
454.192	76.44
454.412	81.44
454.633	79.44
454.853	90.44
455.073	77.44
455.294	83.44
455.514	75.44
455.734	81.44
455.955	88.44
456.175	88.44
456.395	94.44
456.616	77.44
456.836	69.44
457.056	81.44
457.276	85.44
457.497	80.44
457.717	89.44
457.937	109.44
458.157	125.44
458.377	116.44
458.598	113.44
458.818	126.44
459.038	100.44
459.258	80.44
459.478	85.44
459.698	86.44
459.918	87.44
460.138	84.44
460.358	83.44
460.578	91.44
460.798	131.44
461.018	95.44
461.238	91.44
461.458	109.44
461.678	90.44
461.898	81.44
462.118	97.44
462.338	88.44
462.558	87.44
462.777	72.44
462.997	86.44
463.217	79.44
463.437	74.44
463.657	89.44
463.876	81.44
464.096	82.44
464.316	78.44
464.536	86.44
464.755	84.44
464.975	72.44
465.195	73.44
465.414	66.44
465.634	85.44
465.854	86.44
466.073	88.44
466.293	82.44
466.512	82.44
466.732	88.44
466.951	85.44
467.171	76.44
467.391	78.44
467.61	84.44
467.829	81.44
468.049	75.44
468.268	80.44
468.488	90.44
468.707	83.44
468.927	84.44
469.146	76.44
469.365	87.44
469.585	74.44
469.804	74.44
470.023	82.44
470.243	79.44
470.462	80.44
470.681	86.44
470.901	67.44
471.12	73.44
471.339	77.44
471.558	84.44
471.777	73.44
471.997	82.44
472.216	81.44
472.435	76.44
472.654	82.44
472.873	87.44
473.092	84.44
473.311	68.44
473.53	76.44
473.749	73.44
473.968	81.44
474.187	88.44
474.406	92.44
474.625	85.44
474.844	70.44
475.063	86.44
475.282	77.44
475.501	84.44
475.72	76.44
475.939	78.44
476.158	80.44
476.377	69.44
476.596	86.44
476.814	82.44
477.033	84.44
477.252	76.44
477.471	87.44
477.69	93.44
477.908	82.44
478.127	76.44
478.346	84.44
478.564	73.44
478.783	75.44
479.002	80.44
479.22	87.44
479.439	89.44
479.658	94.44
479.876	79.44
480.095	79.44
480.313	80.44
480.532	100.44
480.751	88.44
480.969	71.44
481.188	87.44
481.406	91.44
481.624	91.44
481.843	75.44
482.061	85.44
482.28	79.44
482.498	85.44
482.717	77.44
482.935	79.44
483.153	72.44
483.372	90.44
483.59	93.44
483.808	99.44
484.027	92.44
484.245	86.44
484.463	80.44
484.681	92.44
484.9	86.44
485.118	73.44
485.336	84.44
485.554	94.44
485.772	66.44
485.99	85.44
486.209	93.44
486.427	87.44
486.645	82.44
486.863	76.44
487.081	64.44
487.299	63.44
487.517	82.44
487.735	126.44
487.953	185.44
488.171	151.44
488.389	87.44
488.607	81.44
488.825	78.44
489.043	69.44
489.261	98.44
489.479	78.44
489.696	84.44
489.914	96.44
490.132	93.44
490.35	91.44
490.568	85.44
490.786	84.44
491.003	63.44
491.221	90.44
491.439	81.44
491.657	88.44
491.874	96.44
492.092	77.44
492.31	77.44
492.527	79.44
492.745	79.44
492.963	85.44
493.18	88.44
493.398	82.44
493.615	62.44
493.833	87.44
494.05	85.44
494.268	83.44
494.485	86.44
494.703	75.44
494.92	78.44
495.138	68.44
495.355	79.44
495.573	95.44
495.79	90.44
496.008	80.44
496.225	97.44
496.442	97.44
496.66	78.44
496.877	70.44
497.094	83.44
497.312	90.44
497.529	71.44
497.746	94.44
497.963	94.44
498.181	82.44
498.398	72.44
498.615	69.44
498.832	81.44
499.049	96.44
499.267	86.44
499.484	84.44
499.701	85.44
499.918	85.44
500.135	92.44
500.352	82.44
500.569	87.44
500.786	84.44
501.003	91.44
501.22	87.44
501.437	74.44
501.654	92.44
501.871	94.44
502.088	84.44
502.305	76.44
502.522	92.44
502.739	88.44
502.956	82.44
503.172	70.44
503.389	83.44
503.606	80.44
503.823	101.44
504.04	94.44
504.256	139.44
504.473	138.44
504.69	120.44
504.907	78.44
505.123	84.44
505.34	90.44
505.557	73.44
505.773	86.44
505.99	91.44
506.207	80.44
506.423	76.44
506.64	73.44
506.856	90.44
507.073	84.44
507.289	73.44
507.506	88.44
507.722	72.44
507.939	77.44
508.155	76.44
508.372	82.44
508.588	70.44
508.805	76.44
509.021	64.44
509.238	86.44
509.454	90.44
509.67	81.44
509.887	87.44
510.103	87.44
510.319	75.44
510.536	84.44
510.752	79.44
510.968	73.44
511.184	70.44
511.401	82.44
511.617	95.44
511.833	75.44
512.049	98.44
512.265	84.44
512.481	75.44
512.698	82.44
512.914	71.44
513.13	80.44
513.346	87.44
513.562	82.44
513.778	74.44
513.994	79.44
514.21	84.44
514.426	81.44
514.642	99.44
514.858	78.44
515.074	79.44
515.29	93.44
515.506	73.44
515.721	88.44
515.937	87.44
516.153	79.44
516.369	85.44
516.585	94.44
516.801	84.44
517.016	84.44
517.232	76.44
517.448	93.44
517.664	85.44
517.879	85.44
518.095	93.44
518.311	92.44
518.527	95.44
518.742	96.44
518.958	190.44
