Data from CBS_2_HRD10591_00035.txt Node
Date: Mon Jan 19 14:05:03 EST 2026
User: Yrep
Spectrometer: HR+D1059
Trigger mode: 1
Integration Time (sec): 1.000000E-1
Scans to average: 1
Electric dark correction enabled: true
Nonlinearity correction enabled: false
Boxcar width: 0
XAxis mode: Wavelengths
Number of Pixels in Spectrum: 2048
>>>>>Begin Spectral Data<<<<<
223.165	-14.06
223.4	-14.06
223.635	-14.06
223.869	-17.06
224.104	-9.06
224.338	-29.06
224.573	-18.06
224.808	-6.06
225.042	-4.06
225.277	-13.06
225.511	-6.06
225.746	6.94
225.98	-6.06
226.215	21.94
226.449	22.94
226.683	17.94
226.918	24.94
227.152	27.94
227.387	46.94
227.621	44.94
227.856	40.94
228.09	42.94
228.324	45.94
228.559	50.94
228.793	52.94
229.027	61.94
229.262	73.94
229.496	57.94
229.73	64.94
229.964	72.94
230.199	70.94
230.433	69.94
230.667	77.94
230.901	81.94
231.136	85.94
231.37	76.94
231.604	68.94
231.838	81.94
232.072	86.94
232.306	87.94
232.541	70.94
232.775	69.94
233.009	63.94
233.243	81.94
233.477	73.94
233.711	74.94
233.945	79.94
234.179	72.94
234.413	80.94
234.647	88.94
234.881	83.94
235.115	76.94
235.349	92.94
235.583	67.94
235.817	88.94
236.051	89.94
236.285	77.94
236.519	80.94
236.753	87.94
236.987	77.94
237.221	54.94
237.455	75.94
237.689	85.94
237.922	77.94
238.156	67.94
238.39	81.94
238.624	76.94
238.858	61.94
239.091	81.94
239.325	70.94
239.559	63.94
239.793	60.94
240.027	69.94
240.26	68.94
240.494	69.94
240.728	77.94
240.961	82.94
241.195	87.94
241.429	72.94
241.662	61.94
241.896	73.94
242.13	69.94
242.363	76.94
242.597	82.94
242.83	75.94
243.064	76.94
243.298	73.94
243.531	73.94
243.765	75.94
243.998	90.94
244.232	86.94
244.465	88.94
244.699	81.94
244.932	83.94
245.166	74.94
245.399	75.94
245.633	82.94
245.866	86.94
246.099	85.94
246.333	74.94
246.566	84.94
246.8	81.94
247.033	67.94
247.266	74.94
247.5	76.94
247.733	73.94
247.966	80.94
248.2	72.94
248.433	78.94
248.666	70.94
248.899	70.94
249.133	74.94
249.366	87.94
249.599	78.94
249.832	65.94
250.066	75.94
250.299	67.94
250.532	81.94
250.765	62.94
250.998	80.94
251.231	76.94
251.465	80.94
251.698	82.94
251.931	63.94
252.164	67.94
252.397	81.94
252.63	88.94
252.863	84.94
253.096	80.94
253.329	77.94
253.562	79.94
253.795	89.94
254.028	77.94
254.261	72.94
254.494	76.94
254.727	85.94
254.96	95.94
255.193	68.94
255.426	78.94
255.659	76.94
255.892	84.94
256.124	72.94
256.357	64.94
256.59	88.94
256.823	70.94
257.056	69.94
257.289	72.94
257.521	81.94
257.754	74.94
257.987	74.94
258.22	74.94
258.452	79.94
258.685	90.94
258.918	73.94
259.151	76.94
259.383	76.94
259.616	74.94
259.849	85.94
260.081	80.94
260.314	76.94
260.547	72.94
260.779	88.94
261.012	81.94
261.244	77.94
261.477	84.94
261.71	89.94
261.942	80.94
262.175	80.94
262.407	78.94
262.64	71.94
262.872	85.94
263.105	73.94
263.337	70.94
263.57	73.94
263.802	67.94
264.035	70.94
264.267	81.94
264.499	75.94
264.732	72.94
264.964	88.94
265.197	85.94
265.429	85.94
265.661	85.94
265.894	77.94
266.126	71.94
266.358	91.94
266.591	92.94
266.823	89.94
267.055	73.94
267.287	70.94
267.52	85.94
267.752	86.94
267.984	93.94
268.216	82.94
268.448	80.94
268.681	88.94
268.913	87.94
269.145	78.94
269.377	83.94
269.609	80.94
269.841	73.94
270.073	74.94
270.306	74.94
270.538	71.94
270.77	84.94
271.002	86.94
271.234	85.94
271.466	79.94
271.698	72.94
271.93	83.94
272.162	74.94
272.394	86.94
272.626	83.94
272.858	88.94
273.09	62.94
273.322	86.94
273.553	76.94
273.785	94.94
274.017	89.94
274.249	77.94
274.481	88.94
274.713	85.94
274.945	73.94
275.176	68.94
275.408	78.94
275.64	97.94
275.872	77.94
276.104	75.94
276.335	96.94
276.567	76.94
276.799	72.94
277.031	78.94
277.262	84.94
277.494	88.94
277.726	82.94
277.957	75.94
278.189	82.94
278.421	83.94
278.652	77.94
278.884	64.94
279.115	88.94
279.347	78.94
279.579	86.94
279.81	77.94
280.042	79.94
280.273	81.94
280.505	87.94
280.736	100.94
280.968	82.94
281.199	80.94
281.431	65.94
281.662	80.94
281.894	85.94
282.125	71.94
282.356	82.94
282.588	82.94
282.819	93.94
283.051	90.94
283.282	82.94
283.513	84.94
283.745	82.94
283.976	81.94
284.207	88.94
284.439	76.94
284.67	85.94
284.901	84.94
285.132	92.94
285.364	73.94
285.595	88.94
285.826	89.94
286.057	73.94
286.288	77.94
286.52	91.94
286.751	85.94
286.982	76.94
287.213	70.94
287.444	90.94
287.675	76.94
287.906	76.94
288.138	86.94
288.369	86.94
288.6	76.94
288.831	95.94
289.062	86.94
289.293	94.94
289.524	97.94
289.755	78.94
289.986	83.94
290.217	90.94
290.448	81.94
290.679	86.94
290.91	80.94
291.141	82.94
291.371	82.94
291.602	69.94
291.833	82.94
292.064	80.94
292.295	83.94
292.526	65.94
292.757	73.94
292.987	80.94
293.218	78.94
293.449	81.94
293.68	89.94
293.91	84.94
294.141	80.94
294.372	71.94
294.603	90.94
294.833	89.94
295.064	87.94
295.295	76.94
295.525	84.94
295.756	74.94
295.987	82.94
296.217	92.94
296.448	74.94
296.679	88.94
296.909	89.94
297.14	97.94
297.37	84.94
297.601	83.94
297.831	81.94
298.062	83.94
298.292	94.94
298.523	92.94
298.753	90.94
298.984	85.94
299.214	92.94
299.445	89.94
299.675	98.94
299.905	101.94
300.136	87.94
300.366	84.94
300.597	88.94
300.827	96.94
301.057	83.94
301.288	83.94
301.518	85.94
301.748	73.94
301.979	97.94
302.209	86.94
302.439	93.94
302.669	77.94
302.9	81.94
303.13	84.94
303.36	61.94
303.59	96.94
303.82	82.94
304.051	90.94
304.281	81.94
304.511	93.94
304.741	66.94
304.971	78.94
305.201	74.94
305.431	86.94
305.661	82.94
305.891	90.94
306.121	73.94
306.352	80.94
306.582	89.94
306.812	99.94
307.042	81.94
307.272	91.94
307.502	84.94
307.731	98.94
307.961	84.94
308.191	76.94
308.421	90.94
308.651	102.94
308.881	88.94
309.111	109.94
309.341	106.94
309.571	89.94
309.8	81.94
310.03	78.94
310.26	75.94
310.49	69.94
310.72	66.94
310.949	85.94
311.179	80.94
311.409	83.94
311.639	74.94
311.868	78.94
312.098	85.94
312.328	82.94
312.557	89.94
312.787	87.94
313.017	82.94
313.246	90.94
313.476	67.94
313.706	76.94
313.935	86.94
314.165	89.94
314.394	85.94
314.624	91.94
314.853	83.94
315.083	84.94
315.312	87.94
315.542	92.94
315.771	86.94
316.001	105.94
316.23	99.94
316.46	75.94
316.689	90.94
316.919	88.94
317.148	90.94
317.377	89.94
317.607	74.94
317.836	92.94
318.065	96.94
318.295	89.94
318.524	92.94
318.753	81.94
318.983	83.94
319.212	81.94
319.441	88.94
319.67	94.94
319.9	77.94
320.129	85.94
320.358	83.94
320.587	86.94
320.816	96.94
321.046	83.94
321.275	90.94
321.504	100.94
321.733	86.94
321.962	92.94
322.191	93.94
322.42	84.94
322.649	71.94
322.878	84.94
323.108	85.94
323.337	84.94
323.566	90.94
323.795	88.94
324.024	93.94
324.253	86.94
324.482	83.94
324.71	84.94
324.939	96.94
325.168	93.94
325.397	80.94
325.626	93.94
325.855	81.94
326.084	84.94
326.313	103.94
326.542	72.94
326.77	97.94
326.999	99.94
327.228	90.94
327.457	73.94
327.686	95.94
327.914	82.94
328.143	99.94
328.372	82.94
328.6	90.94
328.829	94.94
329.058	96.94
329.287	87.94
329.515	95.94
329.744	81.94
329.972	89.94
330.201	78.94
330.43	82.94
330.658	88.94
330.887	90.94
331.115	86.94
331.344	90.94
331.572	81.94
331.801	77.94
332.03	70.94
332.258	72.94
332.486	75.94
332.715	81.94
332.943	72.94
333.172	83.94
333.4	79.94
333.629	82.94
333.857	89.94
334.085	93.94
334.314	94.94
334.542	92.94
334.771	90.94
334.999	109.94
335.227	113.94
335.455	114.94
335.684	99.94
335.912	99.94
336.14	102.94
336.369	97.94
336.597	104.94
336.825	91.94
337.053	102.94
337.281	79.94
337.51	86.94
337.738	94.94
337.966	93.94
338.194	87.94
338.422	82.94
338.65	84.94
338.878	95.94
339.106	77.94
339.334	88.94
339.562	95.94
339.79	82.94
340.018	89.94
340.246	66.94
340.474	77.94
340.702	85.94
340.93	81.94
341.158	80.94
341.386	94.94
341.614	84.94
341.842	87.94
342.07	82.94
342.298	74.94
342.526	74.94
342.754	80.94
342.981	92.94
343.209	74.94
343.437	102.94
343.665	85.94
343.893	82.94
344.12	86.94
344.348	87.94
344.576	79.94
344.804	74.94
345.031	95.94
345.259	87.94
345.487	82.94
345.714	74.94
345.942	80.94
346.17	88.94
346.397	87.94
346.625	71.94
346.853	83.94
347.08	79.94
347.308	98.94
347.535	86.94
347.763	87.94
347.99	90.94
348.218	86.94
348.445	83.94
348.673	93.94
348.9	86.94
349.128	97.94
349.355	83.94
349.583	94.94
349.81	73.94
350.037	91.94
350.265	90.94
350.492	80.94
350.72	75.94
350.947	80.94
351.174	100.94
351.402	78.94
351.629	83.94
351.856	102.94
352.083	80.94
352.311	80.94
352.538	105.94
352.765	92.94
352.992	92.94
353.22	86.94
353.447	95.94
353.674	85.94
353.901	91.94
354.128	84.94
354.355	85.94
354.583	75.94
354.81	84.94
355.037	82.94
355.264	96.94
355.491	81.94
355.718	82.94
355.945	83.94
356.172	84.94
356.399	73.94
356.626	77.94
356.853	94.94
357.08	80.94
357.307	101.94
357.534	96.94
357.761	81.94
357.988	92.94
358.215	88.94
358.441	107.94
358.668	84.94
358.895	99.94
359.122	89.94
359.349	86.94
359.576	103.94
359.802	94.94
360.029	88.94
360.256	96.94
360.483	77.94
360.709	66.94
360.936	83.94
361.163	90.94
361.39	92.94
361.616	95.94
361.843	103.94
362.07	110.94
362.296	122.94
362.523	133.94
362.749	107.94
362.976	135.94
363.203	138.94
363.429	113.94
363.656	98.94
363.882	104.94
364.109	118.94
364.335	184.94
364.562	185.94
364.788	130.94
365.015	104.94
365.241	75.94
365.468	94.94
365.694	92.94
365.92	89.94
366.147	90.94
366.373	85.94
366.599	101.94
366.826	84.94
367.052	97.94
367.278	80.94
367.505	86.94
367.731	101.94
367.957	90.94
368.184	86.94
368.41	97.94
368.636	75.94
368.862	90.94
369.089	84.94
369.315	99.94
369.541	93.94
369.767	87.94
369.993	78.94
370.219	87.94
370.445	91.94
370.672	85.94
370.898	89.94
371.124	78.94
371.35	71.94
371.576	98.94
371.802	88.94
372.028	82.94
372.254	84.94
372.48	76.94
372.706	84.94
372.932	102.94
373.158	104.94
373.384	96.94
373.61	116.94
373.835	112.94
374.061	104.94
374.287	92.94
374.513	86.94
374.739	79.94
374.965	88.94
375.191	104.94
375.416	97.94
375.642	97.94
375.868	76.94
376.094	113.94
376.319	84.94
376.545	92.94
376.771	89.94
376.997	86.94
377.222	73.94
377.448	85.94
377.674	92.94
377.899	97.94
378.125	97.94
378.35	79.94
378.576	104.94
378.802	82.94
379.027	93.94
379.253	87.94
379.478	86.94
379.704	81.94
379.929	75.94
380.155	89.94
380.38	84.94
380.606	76.94
380.831	74.94
381.057	85.94
381.282	85.94
381.507	84.94
381.733	97.94
381.958	94.94
382.184	94.94
382.409	87.94
382.634	92.94
382.86	100.94
383.085	81.94
383.31	88.94
383.535	89.94
383.761	104.94
383.986	95.94
384.211	110.94
384.436	86.94
384.662	86.94
384.887	79.94
385.112	97.94
385.337	109.94
385.562	102.94
385.787	111.94
386.013	92.94
386.238	90.94
386.463	101.94
386.688	102.94
386.913	95.94
387.138	93.94
387.363	96.94
387.588	101.94
387.813	113.94
388.038	98.94
388.263	101.94
388.488	95.94
388.713	92.94
388.938	90.94
389.163	87.94
389.387	87.94
389.612	92.94
389.837	97.94
390.062	86.94
390.287	79.94
390.512	92.94
390.736	86.94
390.961	81.94
391.186	94.94
391.411	79.94
391.636	90.94
391.86	98.94
392.085	104.94
392.31	111.94
392.534	135.94
392.759	141.94
392.984	191.94
393.208	349.94
393.433	481.94
393.658	371.94
393.882	182.94
394.107	101.94
394.331	128.94
394.556	141.94
394.78	119.94
395.005	129.94
395.229	100.94
395.454	99.94
395.678	103.94
395.903	145.94
396.127	168.94
396.352	176.94
396.576	226.94
396.801	338.94
397.025	390.94
397.249	220.94
397.474	148.94
397.698	105.94
397.922	93.94
398.147	79.94
398.371	86.94
398.595	99.94
398.82	84.94
399.044	92.94
399.268	94.94
399.492	74.94
399.717	84.94
399.941	78.94
400.165	93.94
400.389	89.94
400.613	95.94
400.837	90.94
401.062	88.94
401.286	80.94
401.51	108.94
401.734	90.94
401.958	93.94
402.182	87.94
402.406	80.94
402.63	81.94
402.854	98.94
403.078	101.94
403.302	102.94
403.526	105.94
403.75	93.94
403.974	89.94
404.198	92.94
404.422	89.94
404.645	101.94
404.869	88.94
405.093	98.94
405.317	95.94
405.541	102.94
405.765	90.94
405.988	88.94
406.212	72.94
406.436	94.94
406.66	110.94
406.883	101.94
407.107	99.94
407.331	98.94
407.555	95.94
407.778	117.94
408.002	121.94
408.226	98.94
408.449	84.94
408.673	92.94
408.896	91.94
409.12	94.94
409.344	103.94
409.567	120.94
409.791	132.94
410.014	127.94
410.238	110.94
410.461	101.94
410.685	79.94
410.908	101.94
411.132	96.94
411.355	93.94
411.578	100.94
411.802	93.94
412.025	75.94
412.249	82.94
412.472	85.94
412.695	98.94
412.919	91.94
413.142	93.94
413.365	90.94
413.589	92.94
413.812	90.94
414.035	84.94
414.258	89.94
414.482	89.94
414.705	69.94
414.928	74.94
415.151	84.94
415.374	88.94
415.597	75.94
415.821	89.94
416.044	97.94
416.267	92.94
416.49	93.94
416.713	89.94
416.936	91.94
417.159	87.94
417.382	87.94
417.605	86.94
417.828	102.94
418.051	78.94
418.274	86.94
418.497	86.94
418.72	92.94
418.943	82.94
419.166	90.94
419.389	92.94
419.611	92.94
419.834	98.94
420.057	98.94
420.28	108.94
420.503	87.94
420.726	104.94
420.948	98.94
421.171	104.94
421.394	137.94
421.617	137.94
421.839	158.94
422.062	208.94
422.285	289.94
422.507	465.94
422.73	717.94
422.953	634.94
423.175	372.94
423.398	204.94
423.621	153.94
423.843	132.94
424.066	113.94
424.288	121.94
424.511	90.94
424.733	97.94
424.956	104.94
425.178	96.94
425.401	101.94
425.623	86.94
425.846	112.94
426.068	91.94
426.291	99.94
426.513	92.94
426.735	85.94
426.958	93.94
427.18	88.94
427.402	86.94
427.625	88.94
427.847	97.94
428.069	116.94
428.292	156.94
428.514	192.94
428.736	129.94
428.958	176.94
429.181	164.94
429.403	129.94
429.625	110.94
429.847	165.94
430.069	239.94
430.292	261.94
430.514	255.94
430.736	199.94
430.958	199.94
431.18	118.94
431.402	89.94
431.624	111.94
431.846	160.94
432.068	175.94
432.29	110.94
432.512	96.94
432.734	80.94
432.956	88.94
433.178	86.94
433.4	82.94
433.622	86.94
433.844	85.94
434.066	93.94
434.287	78.94
434.509	79.94
434.731	82.94
434.953	98.94
435.175	98.94
435.397	99.94
435.618	88.94
435.84	105.94
436.062	89.94
436.284	84.94
436.505	103.94
436.727	85.94
436.949	94.94
437.17	83.94
437.392	95.94
437.614	85.94
437.835	72.94
438.057	83.94
438.278	87.94
438.5	81.94
438.721	79.94
438.943	94.94
439.165	85.94
439.386	98.94
439.608	89.94
439.829	85.94
440.05	93.94
440.272	79.94
440.493	87.94
440.715	83.94
440.936	88.94
441.158	104.94
441.379	86.94
441.6	93.94
441.822	95.94
442.043	92.94
442.264	118.94
442.486	180.94
442.707	268.94
442.928	174.94
443.149	141.94
443.371	212.94
443.592	407.94
443.813	341.94
444.034	137.94
444.255	100.94
444.476	108.94
444.698	103.94
444.919	108.94
445.14	210.94
445.361	273.94
445.582	501.94
445.803	417.94
446.024	175.94
446.245	127.94
446.466	99.94
446.687	100.94
446.908	94.94
447.129	97.94
447.35	85.94
447.571	81.94
447.792	89.94
448.013	85.94
448.234	87.94
448.455	76.94
448.675	78.94
448.896	83.94
449.117	95.94
449.338	95.94
449.559	98.94
449.779	86.94
450	80.94
450.221	78.94
450.442	96.94
450.662	84.94
450.883	85.94
451.104	84.94
451.324	92.94
451.545	81.94
451.766	99.94
451.986	92.94
452.207	94.94
452.428	92.94
452.648	106.94
452.869	127.94
453.089	122.94
453.31	94.94
453.53	83.94
453.751	92.94
453.971	111.94
454.192	96.94
454.412	88.94
454.633	80.94
454.853	95.94
455.073	86.94
455.294	79.94
455.514	88.94
455.734	86.94
455.955	91.94
456.175	84.94
456.395	86.94
456.616	81.94
456.836	90.94
457.056	79.94
457.276	87.94
457.497	85.94
457.717	112.94
457.937	144.94
458.157	178.94
458.377	172.94
458.598	166.94
458.818	201.94
459.038	129.94
459.258	106.94
459.478	87.94
459.698	89.94
459.918	88.94
460.138	88.94
460.358	91.94
460.578	96.94
460.798	140.94
461.018	130.94
461.238	89.94
461.458	81.94
461.678	94.94
461.898	78.94
462.118	83.94
462.338	89.94
462.558	91.94
462.777	84.94
462.997	75.94
463.217	74.94
463.437	72.94
463.657	77.94
463.876	87.94
464.096	88.94
464.316	91.94
464.536	77.94
464.755	68.94
464.975	64.94
465.195	73.94
465.414	93.94
465.634	76.94
465.854	74.94
466.073	91.94
466.293	89.94
466.512	79.94
466.732	92.94
466.951	72.94
467.171	84.94
467.391	74.94
467.61	86.94
467.829	85.94
468.049	96.94
468.268	72.94
468.488	93.94
468.707	98.94
468.927	81.94
469.146	72.94
469.365	93.94
469.585	77.94
469.804	101.94
470.023	85.94
470.243	92.94
470.462	110.94
470.681	85.94
470.901	76.94
471.12	85.94
471.339	74.94
471.558	90.94
471.777	90.94
471.997	89.94
472.216	87.94
472.435	86.94
472.654	92.94
472.873	83.94
473.092	102.94
473.311	82.94
473.53	92.94
473.749	93.94
473.968	101.94
474.187	82.94
474.406	88.94
474.625	104.94
474.844	94.94
475.063	75.94
475.282	70.94
475.501	86.94
475.72	89.94
475.939	90.94
476.158	82.94
476.377	75.94
476.596	85.94
476.814	71.94
477.033	92.94
477.252	102.94
477.471	82.94
477.69	86.94
477.908	71.94
478.127	84.94
478.346	81.94
478.564	81.94
478.783	89.94
479.002	90.94
479.22	74.94
479.439	87.94
479.658	91.94
479.876	99.94
480.095	97.94
480.313	88.94
480.532	95.94
480.751	90.94
480.969	96.94
481.188	89.94
481.406	81.94
481.624	90.94
481.843	101.94
482.061	80.94
482.28	89.94
482.498	106.94
482.717	90.94
482.935	76.94
483.153	95.94
483.372	93.94
483.59	106.94
483.808	89.94
484.027	94.94
484.245	80.94
484.463	91.94
484.681	97.94
484.9	98.94
485.118	104.94
485.336	93.94
485.554	86.94
485.772	85.94
485.99	90.94
486.209	100.94
486.427	84.94
486.645	86.94
486.863	100.94
487.081	97.94
487.299	95.94
487.517	110.94
487.735	157.94
487.953	290.94
488.171	241.94
488.389	103.94
488.607	97.94
488.825	104.94
489.043	92.94
489.261	93.94
489.479	89.94
489.696	108.94
489.914	92.94
490.132	93.94
490.35	79.94
490.568	80.94
490.786	98.94
491.003	77.94
491.221	86.94
491.439	82.94
491.657	80.94
491.874	86.94
492.092	87.94
492.31	87.94
492.527	81.94
492.745	85.94
492.963	77.94
493.18	89.94
493.398	82.94
493.615	95.94
493.833	80.94
494.05	82.94
494.268	72.94
494.485	92.94
494.703	89.94
494.92	96.94
495.138	92.94
495.355	101.94
495.573	84.94
495.79	96.94
496.008	91.94
496.225	116.94
496.442	102.94
496.66	105.94
496.877	90.94
497.094	91.94
497.312	83.94
497.529	85.94
497.746	85.94
497.963	81.94
498.181	74.94
498.398	85.94
498.615	95.94
498.832	88.94
499.049	94.94
499.267	86.94
499.484	101.94
499.701	87.94
499.918	105.94
500.135	101.94
500.352	75.94
500.569	92.94
500.786	98.94
501.003	97.94
501.22	91.94
501.437	89.94
501.654	95.94
501.871	109.94
502.088	80.94
502.305	78.94
502.522	92.94
502.739	77.94
502.956	98.94
503.172	99.94
503.389	77.94
503.606	80.94
503.823	93.94
504.04	121.94
504.256	189.94
504.473	198.94
504.69	119.94
504.907	100.94
505.123	94.94
505.34	96.94
505.557	103.94
505.773	97.94
505.99	98.94
506.207	102.94
506.423	82.94
506.64	94.94
506.856	100.94
507.073	84.94
507.289	90.94
507.506	73.94
507.722	74.94
507.939	74.94
508.155	79.94
508.372	88.94
508.588	88.94
508.805	96.94
509.021	92.94
509.238	89.94
509.454	86.94
509.67	82.94
509.887	89.94
510.103	81.94
510.319	83.94
510.536	89.94
510.752	81.94
510.968	81.94
511.184	79.94
511.401	102.94
511.617	88.94
511.833	88.94
512.049	95.94
512.265	108.94
512.481	84.94
512.698	86.94
512.914	102.94
513.13	96.94
513.346	83.94
513.562	94.94
513.778	93.94
513.994	97.94
514.21	88.94
514.426	81.94
514.642	90.94
514.858	93.94
515.074	88.94
515.29	88.94
515.506	98.94
515.721	86.94
515.937	86.94
516.153	94.94
516.369	94.94
516.585	102.94
516.801	95.94
517.016	90.94
517.232	96.94
