Data from CBS_2_HRD10591_00033.txt Node
Date: Mon Jan 19 14:05:02 EST 2026
User: Yrep
Spectrometer: HR+D1059
Trigger mode: 1
Integration Time (sec): 1.000000E-1
Scans to average: 1
Electric dark correction enabled: true
Nonlinearity correction enabled: false
Boxcar width: 0
XAxis mode: Wavelengths
Number of Pixels in Spectrum: 2048
>>>>>Begin Spectral Data<<<<<
223.165	-10.44
223.4	-10.44
223.635	-10.44
223.869	-16.44
224.104	-25.44
224.338	-23.44
224.573	-10.44
224.808	-17.44
225.042	1.56
225.277	-3.44
225.511	6.56
225.746	-2.44
225.98	10.56
226.215	6.56
226.449	12.56
226.683	23.56
226.918	27.56
227.152	20.56
227.387	36.56
227.621	42.56
227.856	35.56
228.09	49.56
228.324	45.56
228.559	59.56
228.793	59.56
229.027	68.56
229.262	61.56
229.496	70.56
229.73	67.56
229.964	67.56
230.199	75.56
230.433	62.56
230.667	73.56
230.901	80.56
231.136	84.56
231.37	97.56
231.604	70.56
231.838	81.56
232.072	83.56
232.306	94.56
232.541	69.56
232.775	66.56
233.009	85.56
233.243	75.56
233.477	83.56
233.711	83.56
233.945	75.56
234.179	82.56
234.413	93.56
234.647	79.56
234.881	81.56
235.115	72.56
235.349	85.56
235.583	83.56
235.817	71.56
236.051	82.56
236.285	83.56
236.519	91.56
236.753	75.56
236.987	70.56
237.221	79.56
237.455	85.56
237.689	81.56
237.922	78.56
238.156	79.56
238.39	74.56
238.624	65.56
238.858	86.56
239.091	85.56
239.325	76.56
239.559	73.56
239.793	63.56
240.027	75.56
240.26	69.56
240.494	88.56
240.728	87.56
240.961	85.56
241.195	80.56
241.429	87.56
241.662	65.56
241.896	71.56
242.13	82.56
242.363	77.56
242.597	77.56
242.83	98.56
243.064	85.56
243.298	78.56
243.531	78.56
243.765	69.56
243.998	73.56
244.232	76.56
244.465	79.56
244.699	74.56
244.932	65.56
245.166	85.56
245.399	73.56
245.633	88.56
245.866	95.56
246.099	75.56
246.333	70.56
246.566	84.56
246.8	82.56
247.033	70.56
247.266	83.56
247.5	85.56
247.733	91.56
247.966	61.56
248.2	75.56
248.433	91.56
248.666	87.56
248.899	78.56
249.133	72.56
249.366	85.56
249.599	67.56
249.832	84.56
250.066	63.56
250.299	70.56
250.532	75.56
250.765	61.56
250.998	81.56
251.231	80.56
251.465	83.56
251.698	97.56
251.931	82.56
252.164	72.56
252.397	80.56
252.63	74.56
252.863	78.56
253.096	64.56
253.329	85.56
253.562	69.56
253.795	83.56
254.028	86.56
254.261	77.56
254.494	81.56
254.727	85.56
254.96	73.56
255.193	79.56
255.426	77.56
255.659	89.56
255.892	91.56
256.124	93.56
256.357	77.56
256.59	83.56
256.823	81.56
257.056	75.56
257.289	74.56
257.521	86.56
257.754	72.56
257.987	71.56
258.22	76.56
258.452	88.56
258.685	82.56
258.918	84.56
259.151	90.56
259.383	73.56
259.616	72.56
259.849	79.56
260.081	77.56
260.314	70.56
260.547	66.56
260.779	81.56
261.012	80.56
261.244	86.56
261.477	74.56
261.71	77.56
261.942	77.56
262.175	72.56
262.407	78.56
262.64	77.56
262.872	74.56
263.105	71.56
263.337	78.56
263.57	80.56
263.802	75.56
264.035	89.56
264.267	67.56
264.499	78.56
264.732	84.56
264.964	71.56
265.197	83.56
265.429	74.56
265.661	75.56
265.894	78.56
266.126	70.56
266.358	88.56
266.591	79.56
266.823	80.56
267.055	88.56
267.287	84.56
267.52	72.56
267.752	80.56
267.984	85.56
268.216	81.56
268.448	72.56
268.681	81.56
268.913	71.56
269.145	73.56
269.377	79.56
269.609	91.56
269.841	82.56
270.073	82.56
270.306	78.56
270.538	83.56
270.77	77.56
271.002	89.56
271.234	88.56
271.466	75.56
271.698	73.56
271.93	61.56
272.162	93.56
272.394	88.56
272.626	83.56
272.858	80.56
273.09	82.56
273.322	86.56
273.553	88.56
273.785	81.56
274.017	87.56
274.249	80.56
274.481	73.56
274.713	88.56
274.945	76.56
275.176	88.56
275.408	83.56
275.64	89.56
275.872	83.56
276.104	84.56
276.335	82.56
276.567	94.56
276.799	82.56
277.031	94.56
277.262	83.56
277.494	105.56
277.726	73.56
277.957	87.56
278.189	75.56
278.421	81.56
278.652	81.56
278.884	73.56
279.115	83.56
279.347	81.56
279.579	84.56
279.81	83.56
280.042	83.56
280.273	77.56
280.505	80.56
280.736	88.56
280.968	89.56
281.199	82.56
281.431	79.56
281.662	86.56
281.894	76.56
282.125	75.56
282.356	91.56
282.588	74.56
282.819	73.56
283.051	82.56
283.282	73.56
283.513	81.56
283.745	84.56
283.976	82.56
284.207	93.56
284.439	79.56
284.67	87.56
284.901	88.56
285.132	78.56
285.364	91.56
285.595	90.56
285.826	89.56
286.057	91.56
286.288	80.56
286.52	81.56
286.751	82.56
286.982	83.56
287.213	95.56
287.444	93.56
287.675	82.56
287.906	93.56
288.138	83.56
288.369	83.56
288.6	93.56
288.831	79.56
289.062	73.56
289.293	83.56
289.524	71.56
289.755	74.56
289.986	84.56
290.217	74.56
290.448	82.56
290.679	89.56
290.91	85.56
291.141	80.56
291.371	93.56
291.602	86.56
291.833	83.56
292.064	93.56
292.295	73.56
292.526	83.56
292.757	80.56
292.987	78.56
293.218	90.56
293.449	96.56
293.68	86.56
293.91	84.56
294.141	85.56
294.372	64.56
294.603	75.56
294.833	91.56
295.064	86.56
295.295	81.56
295.525	81.56
295.756	88.56
295.987	84.56
296.217	95.56
296.448	93.56
296.679	75.56
296.909	64.56
297.14	72.56
297.37	97.56
297.601	91.56
297.831	76.56
298.062	90.56
298.292	80.56
298.523	75.56
298.753	91.56
298.984	94.56
299.214	73.56
299.445	73.56
299.675	84.56
299.905	81.56
300.136	82.56
300.366	81.56
300.597	86.56
300.827	96.56
301.057	87.56
301.288	81.56
301.518	97.56
301.748	81.56
301.979	86.56
302.209	62.56
302.439	94.56
302.669	78.56
302.9	89.56
303.13	89.56
303.36	80.56
303.59	70.56
303.82	80.56
304.051	75.56
304.281	83.56
304.511	104.56
304.741	80.56
304.971	85.56
305.201	83.56
305.431	76.56
305.661	82.56
305.891	89.56
306.121	79.56
306.352	74.56
306.582	83.56
306.812	83.56
307.042	74.56
307.272	85.56
307.502	83.56
307.731	85.56
307.961	102.56
308.191	85.56
308.421	90.56
308.651	89.56
308.881	66.56
309.111	90.56
309.341	87.56
309.571	80.56
309.8	65.56
310.03	91.56
310.26	95.56
310.49	83.56
310.72	89.56
310.949	84.56
311.179	96.56
311.409	100.56
311.639	90.56
311.868	93.56
312.098	91.56
312.328	69.56
312.557	101.56
312.787	73.56
313.017	92.56
313.246	86.56
313.476	83.56
313.706	79.56
313.935	87.56
314.165	82.56
314.394	87.56
314.624	88.56
314.853	82.56
315.083	96.56
315.312	85.56
315.542	74.56
315.771	75.56
316.001	85.56
316.23	104.56
316.46	83.56
316.689	93.56
316.919	97.56
317.148	73.56
317.377	82.56
317.607	87.56
317.836	94.56
318.065	87.56
318.295	79.56
318.524	81.56
318.753	74.56
318.983	81.56
319.212	90.56
319.441	104.56
319.67	80.56
319.9	90.56
320.129	81.56
320.358	79.56
320.587	82.56
320.816	79.56
321.046	98.56
321.275	85.56
321.504	77.56
321.733	72.56
321.962	91.56
322.191	91.56
322.42	85.56
322.649	89.56
322.878	76.56
323.108	81.56
323.337	81.56
323.566	94.56
323.795	76.56
324.024	85.56
324.253	93.56
324.482	93.56
324.71	91.56
324.939	84.56
325.168	85.56
325.397	64.56
325.626	89.56
325.855	90.56
326.084	77.56
326.313	98.56
326.542	79.56
326.77	93.56
326.999	79.56
327.228	87.56
327.457	91.56
327.686	86.56
327.914	91.56
328.143	88.56
328.372	88.56
328.6	89.56
328.829	85.56
329.058	85.56
329.287	75.56
329.515	91.56
329.744	78.56
329.972	81.56
330.201	89.56
330.43	99.56
330.658	75.56
330.887	69.56
331.115	85.56
331.344	78.56
331.572	81.56
331.801	80.56
332.03	89.56
332.258	83.56
332.486	79.56
332.715	77.56
332.943	80.56
333.172	105.56
333.4	83.56
333.629	95.56
333.857	89.56
334.085	92.56
334.314	90.56
334.542	91.56
334.771	90.56
334.999	100.56
335.227	93.56
335.455	78.56
335.684	89.56
335.912	77.56
336.14	74.56
336.369	97.56
336.597	85.56
336.825	83.56
337.053	97.56
337.281	76.56
337.51	61.56
337.738	83.56
337.966	79.56
338.194	74.56
338.422	89.56
338.65	85.56
338.878	79.56
339.106	86.56
339.334	83.56
339.562	79.56
339.79	75.56
340.018	78.56
340.246	72.56
340.474	93.56
340.702	85.56
340.93	98.56
341.158	95.56
341.386	86.56
341.614	95.56
341.842	81.56
342.07	91.56
342.298	83.56
342.526	85.56
342.754	91.56
342.981	86.56
343.209	77.56
343.437	105.56
343.665	85.56
343.893	97.56
344.12	86.56
344.348	67.56
344.576	84.56
344.804	83.56
345.031	98.56
345.259	79.56
345.487	89.56
345.714	84.56
345.942	89.56
346.17	83.56
346.397	86.56
346.625	94.56
346.853	86.56
347.08	79.56
347.308	93.56
347.535	104.56
347.763	74.56
347.99	86.56
348.218	91.56
348.445	97.56
348.673	71.56
348.9	77.56
349.128	79.56
349.355	89.56
349.583	83.56
349.81	90.56
350.037	85.56
350.265	81.56
350.492	89.56
350.72	93.56
350.947	79.56
351.174	75.56
351.402	97.56
351.629	63.56
351.856	89.56
352.083	70.56
352.311	89.56
352.538	82.56
352.765	81.56
352.992	70.56
353.22	85.56
353.447	94.56
353.674	84.56
353.901	95.56
354.128	87.56
354.355	86.56
354.583	78.56
354.81	88.56
355.037	93.56
355.264	89.56
355.491	91.56
355.718	94.56
355.945	100.56
356.172	89.56
356.399	89.56
356.626	90.56
356.853	74.56
357.08	77.56
357.307	83.56
357.534	86.56
357.761	82.56
357.988	87.56
358.215	84.56
358.441	82.56
358.668	81.56
358.895	90.56
359.122	83.56
359.349	81.56
359.576	88.56
359.802	72.56
360.029	87.56
360.256	95.56
360.483	93.56
360.709	88.56
360.936	87.56
361.163	72.56
361.39	94.56
361.616	67.56
361.843	81.56
362.07	93.56
362.296	95.56
362.523	83.56
362.749	90.56
362.976	103.56
363.203	83.56
363.429	98.56
363.656	95.56
363.882	85.56
364.109	87.56
364.335	99.56
364.562	97.56
364.788	87.56
365.015	100.56
365.241	94.56
365.468	86.56
365.694	86.56
365.92	92.56
366.147	84.56
366.373	85.56
366.599	98.56
366.826	67.56
367.052	81.56
367.278	87.56
367.505	85.56
367.731	93.56
367.957	88.56
368.184	79.56
368.41	81.56
368.636	77.56
368.862	96.56
369.089	88.56
369.315	77.56
369.541	83.56
369.767	80.56
369.993	99.56
370.219	79.56
370.445	80.56
370.672	77.56
370.898	86.56
371.124	85.56
371.35	66.56
371.576	86.56
371.802	82.56
372.028	83.56
372.254	84.56
372.48	83.56
372.706	79.56
372.932	92.56
373.158	88.56
373.384	81.56
373.61	111.56
373.835	94.56
374.061	88.56
374.287	86.56
374.513	89.56
374.739	86.56
374.965	93.56
375.191	96.56
375.416	75.56
375.642	99.56
375.868	83.56
376.094	95.56
376.319	85.56
376.545	88.56
376.771	85.56
376.997	79.56
377.222	90.56
377.448	66.56
377.674	85.56
377.899	97.56
378.125	85.56
378.35	75.56
378.576	90.56
378.802	86.56
379.027	89.56
379.253	77.56
379.478	90.56
379.704	81.56
379.929	89.56
380.155	95.56
380.38	85.56
380.606	71.56
380.831	81.56
381.057	78.56
381.282	69.56
381.507	81.56
381.733	80.56
381.958	86.56
382.184	78.56
382.409	101.56
382.634	82.56
382.86	96.56
383.085	74.56
383.31	87.56
383.535	85.56
383.761	95.56
383.986	77.56
384.211	73.56
384.436	77.56
384.662	83.56
384.887	73.56
385.112	79.56
385.337	88.56
385.562	72.56
385.787	81.56
386.013	76.56
386.238	81.56
386.463	98.56
386.688	92.56
386.913	83.56
387.138	84.56
387.363	81.56
387.588	78.56
387.813	93.56
388.038	82.56
388.263	92.56
388.488	95.56
388.713	92.56
388.938	99.56
389.163	86.56
389.387	66.56
389.612	87.56
389.837	105.56
390.062	85.56
390.287	81.56
390.512	87.56
390.736	69.56
390.961	79.56
391.186	82.56
391.411	77.56
391.636	80.56
391.86	79.56
392.085	95.56
392.31	65.56
392.534	88.56
392.759	84.56
392.984	92.56
393.208	105.56
393.433	112.56
393.658	103.56
393.882	91.56
394.107	82.56
394.331	95.56
394.556	83.56
394.78	86.56
395.005	75.56
395.229	101.56
395.454	87.56
395.678	87.56
395.903	78.56
396.127	95.56
396.352	98.56
396.576	82.56
396.801	98.56
397.025	104.56
397.249	85.56
397.474	104.56
397.698	103.56
397.922	96.56
398.147	77.56
398.371	101.56
398.595	77.56
398.82	81.56
399.044	98.56
399.268	87.56
399.492	81.56
399.717	83.56
399.941	92.56
400.165	77.56
400.389	80.56
400.613	83.56
400.837	74.56
401.062	78.56
401.286	82.56
401.51	81.56
401.734	88.56
401.958	76.56
402.182	78.56
402.406	85.56
402.63	68.56
402.854	77.56
403.078	83.56
403.302	97.56
403.526	88.56
403.75	91.56
403.974	84.56
404.198	84.56
404.422	87.56
404.645	87.56
404.869	94.56
405.093	73.56
405.317	89.56
405.541	89.56
405.765	83.56
405.988	89.56
406.212	87.56
406.436	74.56
406.66	97.56
406.883	81.56
407.107	87.56
407.331	98.56
407.555	72.56
407.778	84.56
408.002	82.56
408.226	89.56
408.449	83.56
408.673	86.56
408.896	79.56
409.12	93.56
409.344	84.56
409.567	92.56
409.791	89.56
410.014	83.56
410.238	69.56
410.461	91.56
410.685	82.56
410.908	87.56
411.132	86.56
411.355	85.56
411.578	87.56
411.802	82.56
412.025	89.56
412.249	94.56
412.472	83.56
412.695	91.56
412.919	74.56
413.142	80.56
413.365	77.56
413.589	80.56
413.812	94.56
414.035	97.56
414.258	87.56
414.482	81.56
414.705	87.56
414.928	89.56
415.151	85.56
415.374	85.56
415.597	77.56
415.821	80.56
416.044	90.56
416.267	88.56
416.49	91.56
416.713	90.56
416.936	78.56
417.159	90.56
417.382	84.56
417.605	76.56
417.828	83.56
418.051	87.56
418.274	73.56
418.497	77.56
418.72	85.56
418.943	87.56
419.166	80.56
419.389	75.56
419.611	72.56
419.834	73.56
420.057	82.56
420.28	74.56
420.503	84.56
420.726	83.56
420.948	83.56
421.171	87.56
421.394	90.56
421.617	85.56
421.839	90.56
422.062	91.56
422.285	92.56
422.507	103.56
422.73	137.56
422.953	142.56
423.175	113.56
423.398	94.56
423.621	93.56
423.843	75.56
424.066	89.56
424.288	81.56
424.511	93.56
424.733	95.56
424.956	84.56
425.178	101.56
425.401	87.56
425.623	75.56
425.846	81.56
426.068	93.56
426.291	91.56
426.513	93.56
426.735	85.56
426.958	75.56
427.18	99.56
427.402	86.56
427.625	89.56
427.847	91.56
428.069	83.56
428.292	84.56
428.514	99.56
428.736	90.56
428.958	91.56
429.181	102.56
429.403	90.56
429.625	90.56
429.847	83.56
430.069	94.56
430.292	97.56
430.514	99.56
430.736	80.56
430.958	89.56
431.18	79.56
431.402	83.56
431.624	82.56
431.846	97.56
432.068	81.56
432.29	85.56
432.512	88.56
432.734	78.56
432.956	79.56
433.178	75.56
433.4	74.56
433.622	89.56
433.844	71.56
434.066	81.56
434.287	86.56
434.509	96.56
434.731	81.56
434.953	77.56
435.175	74.56
435.397	93.56
435.618	74.56
435.84	87.56
436.062	91.56
436.284	74.56
436.505	78.56
436.727	68.56
436.949	86.56
437.17	73.56
437.392	86.56
437.614	94.56
437.835	82.56
438.057	100.56
438.278	81.56
438.5	72.56
438.721	86.56
438.943	91.56
439.165	88.56
439.386	73.56
439.608	71.56
439.829	93.56
440.05	79.56
440.272	79.56
440.493	80.56
440.715	88.56
440.936	93.56
441.158	89.56
441.379	87.56
441.6	90.56
441.822	75.56
442.043	92.56
442.264	67.56
442.486	97.56
442.707	94.56
442.928	91.56
443.149	86.56
443.371	114.56
443.592	121.56
443.813	104.56
444.034	86.56
444.255	84.56
444.476	87.56
444.698	95.56
444.919	80.56
445.14	135.56
445.361	132.56
445.582	125.56
445.803	126.56
446.024	106.56
446.245	99.56
446.466	76.56
446.687	97.56
446.908	83.56
447.129	92.56
447.35	76.56
447.571	71.56
447.792	89.56
448.013	77.56
448.234	83.56
448.455	90.56
448.675	85.56
448.896	77.56
449.117	76.56
449.338	73.56
449.559	80.56
449.779	87.56
450	89.56
450.221	81.56
450.442	84.56
450.662	79.56
450.883	70.56
451.104	79.56
451.324	79.56
451.545	79.56
451.766	85.56
451.986	81.56
452.207	97.56
452.428	69.56
452.648	68.56
452.869	80.56
453.089	89.56
453.31	87.56
453.53	82.56
453.751	82.56
453.971	90.56
454.192	78.56
454.412	90.56
454.633	93.56
454.853	81.56
455.073	98.56
455.294	83.56
455.514	85.56
455.734	87.56
455.955	86.56
456.175	99.56
456.395	78.56
456.616	98.56
456.836	88.56
457.056	82.56
457.276	61.56
457.497	74.56
457.717	88.56
457.937	94.56
458.157	81.56
458.377	75.56
458.598	98.56
458.818	95.56
459.038	81.56
459.258	88.56
459.478	93.56
459.698	89.56
459.918	99.56
460.138	90.56
460.358	75.56
460.578	81.56
460.798	84.56
461.018	95.56
461.238	84.56
461.458	103.56
461.678	79.56
461.898	89.56
462.118	90.56
462.338	93.56
462.558	81.56
462.777	76.56
462.997	70.56
463.217	75.56
463.437	89.56
463.657	79.56
463.876	76.56
464.096	77.56
464.316	83.56
464.536	74.56
464.755	84.56
464.975	81.56
465.195	87.56
465.414	69.56
465.634	87.56
465.854	81.56
466.073	75.56
466.293	76.56
466.512	78.56
466.732	102.56
466.951	81.56
467.171	68.56
467.391	85.56
467.61	90.56
467.829	92.56
468.049	95.56
468.268	90.56
468.488	91.56
468.707	92.56
468.927	87.56
469.146	77.56
469.365	81.56
469.585	88.56
469.804	82.56
470.023	84.56
470.243	87.56
470.462	75.56
470.681	87.56
470.901	93.56
471.12	85.56
471.339	80.56
471.558	86.56
471.777	96.56
471.997	76.56
472.216	89.56
472.435	85.56
472.654	96.56
472.873	90.56
473.092	79.56
473.311	79.56
473.53	72.56
473.749	90.56
473.968	91.56
474.187	93.56
474.406	97.56
474.625	81.56
474.844	78.56
475.063	89.56
475.282	90.56
475.501	81.56
475.72	91.56
475.939	92.56
476.158	90.56
476.377	78.56
476.596	83.56
476.814	79.56
477.033	90.56
477.252	77.56
477.471	86.56
477.69	96.56
477.908	81.56
478.127	85.56
478.346	83.56
478.564	82.56
478.783	75.56
479.002	80.56
479.22	91.56
479.439	81.56
479.658	87.56
479.876	87.56
480.095	80.56
480.313	87.56
480.532	94.56
480.751	76.56
480.969	83.56
481.188	75.56
481.406	83.56
481.624	74.56
481.843	103.56
482.061	85.56
482.28	79.56
482.498	82.56
482.717	75.56
482.935	71.56
483.153	81.56
483.372	79.56
483.59	83.56
483.808	74.56
484.027	75.56
484.245	79.56
484.463	83.56
484.681	70.56
484.9	87.56
485.118	76.56
485.336	71.56
485.554	88.56
485.772	86.56
485.99	82.56
486.209	76.56
486.427	84.56
486.645	74.56
486.863	81.56
487.081	88.56
487.299	73.56
487.517	74.56
487.735	85.56
487.953	88.56
488.171	101.56
488.389	74.56
488.607	69.56
488.825	83.56
489.043	85.56
489.261	87.56
489.479	81.56
489.696	91.56
489.914	82.56
490.132	88.56
490.35	81.56
490.568	78.56
490.786	90.56
491.003	85.56
491.221	79.56
491.439	76.56
491.657	81.56
491.874	93.56
492.092	83.56
492.31	84.56
492.527	93.56
492.745	81.56
492.963	86.56
493.18	93.56
493.398	86.56
493.615	91.56
493.833	89.56
494.05	102.56
494.268	81.56
494.485	89.56
494.703	93.56
494.92	104.56
495.138	99.56
495.355	82.56
495.573	81.56
495.79	80.56
496.008	79.56
496.225	87.56
496.442	75.56
496.66	103.56
496.877	94.56
497.094	96.56
497.312	92.56
497.529	93.56
497.746	91.56
497.963	94.56
498.181	85.56
498.398	82.56
498.615	89.56
498.832	72.56
499.049	82.56
499.267	97.56
499.484	90.56
499.701	85.56
499.918	103.56
500.135	94.56
500.352	88.56
500.569	88.56
500.786	92.56
501.003	66.56
501.22	85.56
501.437	93.56
501.654	90.56
501.871	73.56
502.088	77.56
502.305	90.56
502.522	75.56
502.739	77.56
502.956	83.56
503.172	75.56
503.389	90.56
503.606	81.56
503.823	100.56
504.04	98.56
504.256	97.56
504.473	93.56
504.69	87.56
504.907	89.56
505.123	97.56
505.34	71.56
505.557	79.56
505.773	91.56
505.99	79.56
506.207	95.56
506.423	78.56
506.64	77.56
506.856	90.56
507.073	69.56
507.289	81.56
507.506	79.56
507.722	79.56
507.939	83.56
508.155	73.56
508.372	85.56
508.588	76.56
508.805	95.56
509.021	97.56
509.238	101.56
509.454	81.56
509.67	84.56
509.887	80.56
510.103	71.56
510.319	67.56
510.536	88.56
510.752	83.56
510.968	67.56
511.184	76.56
511.401	74.56
511.617	86.56
511.833	87.56
512.049	84.56
512.265	89.56
512.481	86.56
512.698	86.56
512.914	84.56
513.13	88.56
513.346	82.56
513.562	95.56
513.778	75.56
513.994	89.56
514.21	77.56
514.426	86.56
514.642	85.56
514.858	101.56
515.074	72.56
515.29	85.56
515.506	72.56
515.721	91.56
515.937	84.56
516.153	82.56
516.369	97.56
516.585	79.56
516.801	77.56
517.016	91.56
517.232	80.56
517.448	103.56
517.664	80.56
517.879	71.56
518.095	81.56
518.311	80.56
518.527	90.56
518.742	85.56
518.958	86.56
519.173	89.56
519.389	77.56
519.605	95.56
