Data from CBS_2_HRD10591_00001.txt Node
Date: Mon Jan 19 14:04:46 EST 2026
User: Yrep
Spectrometer: HR+D1059
Trigger mode: 1
Integration Time (sec): 1.000000E-1
Scans to average: 1
Electric dark correction enabled: true
Nonlinearity correction enabled: false
Boxcar width: 0
XAxis mode: Wavelengths
Number of Pixels in Spectrum: 2048
>>>>>Begin Spectral Data<<<<<
223.165	-23.19
223.4	-23.19
223.635	-23.19
223.869	-22.19
224.104	-19.19
224.338	-18.19
224.573	-26.19
224.808	-12.19
225.042	-11.19
225.277	-3.19
225.511	15.81
225.746	6.81
225.98	5.81
226.215	-2.19
226.449	21.81
226.683	19.81
226.918	33.81
227.152	33.81
227.387	36.81
227.621	33.81
227.856	58.81
228.09	43.81
228.324	54.81
228.559	51.81
228.793	70.81
229.027	52.81
229.262	54.81
229.496	62.81
229.73	70.81
229.964	60.81
230.199	83.81
230.433	65.81
230.667	76.81
230.901	73.81
231.136	79.81
231.37	79.81
231.604	70.81
231.838	85.81
232.072	76.81
232.306	81.81
232.541	80.81
232.775	70.81
233.009	73.81
233.243	79.81
233.477	67.81
233.711	95.81
233.945	80.81
234.179	71.81
234.413	67.81
234.647	85.81
234.881	75.81
235.115	81.81
235.349	72.81
235.583	74.81
235.817	72.81
236.051	81.81
236.285	87.81
236.519	82.81
236.753	73.81
236.987	84.81
237.221	73.81
237.455	74.81
237.689	77.81
237.922	78.81
238.156	64.81
238.39	77.81
238.624	80.81
238.858	70.81
239.091	66.81
239.325	65.81
239.559	79.81
239.793	76.81
240.027	74.81
240.26	67.81
240.494	83.81
240.728	76.81
240.961	72.81
241.195	67.81
241.429	77.81
241.662	75.81
241.896	72.81
242.13	85.81
242.363	69.81
242.597	71.81
242.83	73.81
243.064	63.81
243.298	77.81
243.531	83.81
243.765	62.81
243.998	80.81
244.232	87.81
244.465	72.81
244.699	73.81
244.932	85.81
245.166	78.81
245.399	77.81
245.633	74.81
245.866	72.81
246.099	78.81
246.333	77.81
246.566	75.81
246.8	72.81
247.033	77.81
247.266	67.81
247.5	66.81
247.733	75.81
247.966	77.81
248.2	84.81
248.433	84.81
248.666	69.81
248.899	79.81
249.133	84.81
249.366	82.81
249.599	79.81
249.832	63.81
250.066	78.81
250.299	71.81
250.532	91.81
250.765	95.81
250.998	92.81
251.231	77.81
251.465	79.81
251.698	78.81
251.931	64.81
252.164	66.81
252.397	77.81
252.63	72.81
252.863	79.81
253.096	70.81
253.329	68.81
253.562	76.81
253.795	73.81
254.028	81.81
254.261	77.81
254.494	83.81
254.727	85.81
254.96	95.81
255.193	87.81
255.426	66.81
255.659	79.81
255.892	80.81
256.124	72.81
256.357	88.81
256.59	70.81
256.823	85.81
257.056	75.81
257.289	79.81
257.521	88.81
257.754	83.81
257.987	71.81
258.22	78.81
258.452	81.81
258.685	70.81
258.918	73.81
259.151	76.81
259.383	84.81
259.616	75.81
259.849	88.81
260.081	90.81
260.314	59.81
260.547	89.81
260.779	73.81
261.012	75.81
261.244	69.81
261.477	86.81
261.71	87.81
261.942	78.81
262.175	73.81
262.407	79.81
262.64	63.81
262.872	71.81
263.105	92.81
263.337	77.81
263.57	67.81
263.802	84.81
264.035	87.81
264.267	69.81
264.499	74.81
264.732	70.81
264.964	83.81
265.197	79.81
265.429	83.81
265.661	79.81
265.894	77.81
266.126	89.81
266.358	91.81
266.591	67.81
266.823	85.81
267.055	67.81
267.287	81.81
267.52	75.81
267.752	71.81
267.984	67.81
268.216	65.81
268.448	55.81
268.681	72.81
268.913	78.81
269.145	92.81
269.377	91.81
269.609	78.81
269.841	68.81
270.073	81.81
270.306	82.81
270.538	84.81
270.77	88.81
271.002	84.81
271.234	87.81
271.466	77.81
271.698	73.81
271.93	83.81
272.162	86.81
272.394	73.81
272.626	92.81
272.858	83.81
273.09	84.81
273.322	85.81
273.553	84.81
273.785	83.81
274.017	80.81
274.249	84.81
274.481	81.81
274.713	71.81
274.945	77.81
275.176	87.81
275.408	65.81
275.64	91.81
275.872	74.81
276.104	86.81
276.335	87.81
276.567	64.81
276.799	71.81
277.031	77.81
277.262	89.81
277.494	91.81
277.726	85.81
277.957	92.81
278.189	72.81
278.421	77.81
278.652	93.81
278.884	76.81
279.115	72.81
279.347	95.81
279.579	93.81
279.81	90.81
280.042	84.81
280.273	95.81
280.505	79.81
280.736	86.81
280.968	79.81
281.199	76.81
281.431	86.81
281.662	81.81
281.894	78.81
282.125	79.81
282.356	94.81
282.588	92.81
282.819	91.81
283.051	87.81
283.282	81.81
283.513	87.81
283.745	83.81
283.976	92.81
284.207	90.81
284.439	79.81
284.67	98.81
284.901	82.81
285.132	107.81
285.364	83.81
285.595	93.81
285.826	78.81
286.057	89.81
286.288	94.81
286.52	75.81
286.751	84.81
286.982	86.81
287.213	79.81
287.444	81.81
287.675	82.81
287.906	74.81
288.138	82.81
288.369	94.81
288.6	77.81
288.831	85.81
289.062	93.81
289.293	77.81
289.524	84.81
289.755	76.81
289.986	77.81
290.217	86.81
290.448	105.81
290.679	82.81
290.91	88.81
291.141	82.81
291.371	94.81
291.602	81.81
291.833	80.81
292.064	78.81
292.295	87.81
292.526	77.81
292.757	86.81
292.987	83.81
293.218	81.81
293.449	104.81
293.68	98.81
293.91	85.81
294.141	73.81
294.372	69.81
294.603	96.81
294.833	81.81
295.064	98.81
295.295	93.81
295.525	80.81
295.756	96.81
295.987	90.81
296.217	82.81
296.448	91.81
296.679	73.81
296.909	81.81
297.14	78.81
297.37	89.81
297.601	73.81
297.831	82.81
298.062	93.81
298.292	84.81
298.523	95.81
298.753	82.81
298.984	76.81
299.214	96.81
299.445	112.81
299.675	93.81
299.905	101.81
300.136	91.81
300.366	83.81
300.597	105.81
300.827	104.81
301.057	82.81
301.288	87.81
301.518	99.81
301.748	79.81
301.979	103.81
302.209	85.81
302.439	74.81
302.669	85.81
302.9	74.81
303.13	92.81
303.36	84.81
303.59	86.81
303.82	100.81
304.051	87.81
304.281	95.81
304.511	86.81
304.741	87.81
304.971	84.81
305.201	93.81
305.431	76.81
305.661	96.81
305.891	94.81
306.121	82.81
306.352	77.81
306.582	78.81
306.812	87.81
307.042	80.81
307.272	90.81
307.502	88.81
307.731	96.81
307.961	87.81
308.191	93.81
308.421	113.81
308.651	88.81
308.881	93.81
309.111	93.81
309.341	99.81
309.571	108.81
309.8	81.81
310.03	102.81
310.26	89.81
310.49	93.81
310.72	81.81
310.949	88.81
311.179	83.81
311.409	81.81
311.639	89.81
311.868	99.81
312.098	83.81
312.328	79.81
312.557	82.81
312.787	88.81
313.017	78.81
313.246	83.81
313.476	75.81
313.706	91.81
313.935	82.81
314.165	97.81
314.394	83.81
314.624	93.81
314.853	90.81
315.083	71.81
315.312	81.81
315.542	98.81
315.771	104.81
316.001	88.81
316.23	79.81
316.46	103.81
316.689	87.81
316.919	86.81
317.148	89.81
317.377	104.81
317.607	104.81
317.836	111.81
318.065	104.81
318.295	102.81
318.524	87.81
318.753	92.81
318.983	91.81
319.212	97.81
319.441	76.81
319.67	89.81
319.9	82.81
320.129	86.81
320.358	87.81
320.587	79.81
320.816	103.81
321.046	88.81
321.275	102.81
321.504	114.81
321.733	88.81
321.962	85.81
322.191	110.81
322.42	102.81
322.649	100.81
322.878	112.81
323.108	90.81
323.337	72.81
323.566	74.81
323.795	81.81
324.024	84.81
324.253	92.81
324.482	85.81
324.71	84.81
324.939	93.81
325.168	88.81
325.397	88.81
325.626	82.81
325.855	68.81
326.084	81.81
326.313	79.81
326.542	90.81
326.77	87.81
326.999	95.81
327.228	84.81
327.457	102.81
327.686	91.81
327.914	92.81
328.143	74.81
328.372	91.81
328.6	85.81
328.829	97.81
329.058	93.81
329.287	68.81
329.515	78.81
329.744	79.81
329.972	80.81
330.201	83.81
330.43	95.81
330.658	85.81
330.887	98.81
331.115	102.81
331.344	83.81
331.572	93.81
331.801	95.81
332.03	100.81
332.258	83.81
332.486	70.81
332.715	76.81
332.943	87.81
333.172	99.81
333.4	92.81
333.629	90.81
333.857	95.81
334.085	105.81
334.314	116.81
334.542	101.81
334.771	109.81
334.999	114.81
335.227	127.81
335.455	97.81
335.684	116.81
335.912	124.81
336.14	128.81
336.369	131.81
336.597	101.81
336.825	93.81
337.053	92.81
337.281	101.81
337.51	85.81
337.738	96.81
337.966	113.81
338.194	93.81
338.422	84.81
338.65	80.81
338.878	74.81
339.106	88.81
339.334	79.81
339.562	82.81
339.79	91.81
340.018	91.81
340.246	91.81
340.474	94.81
340.702	88.81
340.93	93.81
341.158	99.81
341.386	78.81
341.614	95.81
341.842	88.81
342.07	93.81
342.298	73.81
342.526	85.81
342.754	92.81
342.981	88.81
343.209	88.81
343.437	85.81
343.665	92.81
343.893	103.81
344.12	93.81
344.348	100.81
344.576	77.81
344.804	85.81
345.031	96.81
345.259	91.81
345.487	90.81
345.714	79.81
345.942	92.81
346.17	91.81
346.397	89.81
346.625	93.81
346.853	88.81
347.08	83.81
347.308	80.81
347.535	91.81
347.763	110.81
347.99	98.81
348.218	77.81
348.445	103.81
348.673	91.81
348.9	102.81
349.128	85.81
349.355	95.81
349.583	94.81
349.81	104.81
350.037	101.81
350.265	79.81
350.492	86.81
350.72	89.81
350.947	88.81
351.174	88.81
351.402	83.81
351.629	80.81
351.856	91.81
352.083	86.81
352.311	86.81
352.538	94.81
352.765	91.81
352.992	100.81
353.22	90.81
353.447	80.81
353.674	95.81
353.901	91.81
354.128	81.81
354.355	76.81
354.583	87.81
354.81	87.81
355.037	85.81
355.264	89.81
355.491	92.81
355.718	81.81
355.945	95.81
356.172	79.81
356.399	84.81
356.626	98.81
356.853	108.81
357.08	98.81
357.307	103.81
357.534	92.81
357.761	109.81
357.988	92.81
358.215	105.81
358.441	91.81
358.668	94.81
358.895	86.81
359.122	101.81
359.349	103.81
359.576	84.81
359.802	96.81
360.029	78.81
360.256	101.81
360.483	95.81
360.709	96.81
360.936	100.81
361.163	110.81
361.39	99.81
361.616	116.81
361.843	120.81
362.07	130.81
362.296	160.81
362.523	157.81
362.749	189.81
362.976	211.81
363.203	221.81
363.429	170.81
363.656	136.81
363.882	158.81
364.109	225.81
364.335	259.81
364.562	270.81
364.788	192.81
365.015	119.81
365.241	111.81
365.468	99.81
365.694	88.81
365.92	88.81
366.147	88.81
366.373	93.81
366.599	89.81
366.826	92.81
367.052	85.81
367.278	98.81
367.505	101.81
367.731	123.81
367.957	103.81
368.184	97.81
368.41	99.81
368.636	92.81
368.862	89.81
369.089	96.81
369.315	93.81
369.541	82.81
369.767	91.81
369.993	99.81
370.219	113.81
370.445	89.81
370.672	107.81
370.898	100.81
371.124	96.81
371.35	85.81
371.576	86.81
371.802	82.81
372.028	96.81
372.254	98.81
372.48	98.81
372.706	79.81
372.932	101.81
373.158	106.81
373.384	106.81
373.61	133.81
373.835	135.81
374.061	121.81
374.287	112.81
374.513	117.81
374.739	101.81
374.965	103.81
375.191	103.81
375.416	93.81
375.642	95.81
375.868	102.81
376.094	101.81
376.319	93.81
376.545	90.81
376.771	107.81
376.997	99.81
377.222	87.81
377.448	82.81
377.674	78.81
377.899	104.81
378.125	87.81
378.35	102.81
378.576	109.81
378.802	85.81
379.027	86.81
379.253	91.81
379.478	101.81
379.704	94.81
379.929	97.81
380.155	87.81
380.38	101.81
380.606	91.81
380.831	87.81
381.057	109.81
381.282	95.81
381.507	93.81
381.733	89.81
381.958	104.81
382.184	104.81
382.409	104.81
382.634	105.81
382.86	109.81
383.085	99.81
383.31	109.81
383.535	101.81
383.761	109.81
383.986	102.81
384.211	101.81
384.436	101.81
384.662	97.81
384.887	101.81
385.112	115.81
385.337	113.81
385.562	93.81
385.787	117.81
386.013	116.81
386.238	124.81
386.463	98.81
386.688	113.81
386.913	108.81
387.138	106.81
387.363	112.81
387.588	121.81
387.813	121.81
388.038	105.81
388.263	102.81
388.488	123.81
388.713	111.81
388.938	100.81
389.163	105.81
389.387	80.81
389.612	108.81
389.837	111.81
390.062	109.81
390.287	103.81
390.512	100.81
390.736	100.81
390.961	114.81
391.186	106.81
391.411	118.81
391.636	112.81
391.86	118.81
392.085	119.81
392.31	131.81
392.534	160.81
392.759	212.81
392.984	307.81
393.208	491.81
393.433	657.81
393.658	517.81
393.882	273.81
394.107	194.81
394.331	167.81
394.556	184.81
394.78	155.81
395.005	139.81
395.229	117.81
395.454	140.81
395.678	159.81
395.903	209.81
396.127	233.81
396.352	271.81
396.576	312.81
396.801	500.81
397.025	545.81
397.249	337.81
397.474	246.81
397.698	179.81
397.922	121.81
398.147	118.81
398.371	109.81
398.595	121.81
398.82	91.81
399.044	101.81
399.268	105.81
399.492	96.81
399.717	109.81
399.941	79.81
400.165	89.81
400.389	106.81
400.613	91.81
400.837	94.81
401.062	93.81
401.286	113.81
401.51	107.81
401.734	91.81
401.958	96.81
402.182	91.81
402.406	90.81
402.63	102.81
402.854	109.81
403.078	113.81
403.302	115.81
403.526	118.81
403.75	110.81
403.974	109.81
404.198	119.81
404.422	156.81
404.645	167.81
404.869	128.81
405.093	116.81
405.317	104.81
405.541	95.81
405.765	96.81
405.988	86.81
406.212	102.81
406.436	100.81
406.66	97.81
406.883	93.81
407.107	100.81
407.331	91.81
407.555	117.81
407.778	151.81
408.002	124.81
408.226	95.81
408.449	118.81
408.673	113.81
408.896	103.81
409.12	119.81
409.344	116.81
409.567	149.81
409.791	168.81
410.014	157.81
410.238	146.81
410.461	138.81
410.685	126.81
410.908	111.81
411.132	118.81
411.355	94.81
411.578	100.81
411.802	94.81
412.025	94.81
412.249	96.81
412.472	107.81
412.695	97.81
412.919	105.81
413.142	98.81
413.365	90.81
413.589	98.81
413.812	93.81
414.035	91.81
414.258	91.81
414.482	84.81
414.705	85.81
414.928	85.81
415.151	85.81
415.374	96.81
415.597	95.81
415.821	87.81
416.044	74.81
416.267	103.81
416.49	83.81
416.713	100.81
416.936	74.81
417.159	89.81
417.382	91.81
417.605	85.81
417.828	87.81
418.051	87.81
418.274	99.81
418.497	97.81
418.72	102.81
418.943	92.81
419.166	101.81
419.389	105.81
419.611	115.81
419.834	108.81
420.057	95.81
420.28	99.81
420.503	114.81
420.726	129.81
420.948	134.81
421.171	156.81
421.394	189.81
421.617	214.81
421.839	255.81
422.062	305.81
422.285	458.81
422.507	646.81
422.73	815.81
422.953	765.81
423.175	546.81
423.398	373.81
423.621	238.81
423.843	187.81
424.066	164.81
424.288	156.81
424.511	132.81
424.733	131.81
424.956	116.81
425.178	114.81
425.401	102.81
425.623	104.81
425.846	95.81
426.068	104.81
426.291	91.81
426.513	90.81
426.735	109.81
426.958	115.81
427.18	113.81
427.402	115.81
427.625	105.81
427.847	106.81
428.069	146.81
428.292	239.81
428.514	284.81
428.736	206.81
428.958	258.81
429.181	248.81
429.403	149.81
429.625	141.81
429.847	216.81
430.069	389.81
430.292	442.81
430.514	382.81
430.736	293.81
430.958	281.81
431.18	152.81
431.402	125.81
431.624	134.81
431.846	235.81
432.068	264.81
432.29	143.81
432.512	112.81
432.734	98.81
432.956	79.81
433.178	96.81
433.4	87.81
433.622	96.81
433.844	104.81
434.066	104.81
434.287	101.81
434.509	83.81
434.731	95.81
434.953	95.81
435.175	83.81
435.397	117.81
435.618	119.81
435.84	135.81
436.062	139.81
436.284	123.81
436.505	103.81
436.727	100.81
436.949	104.81
437.17	82.81
437.392	98.81
437.614	95.81
437.835	96.81
438.057	99.81
438.278	86.81
438.5	92.81
438.721	91.81
438.943	87.81
439.165	92.81
439.386	95.81
439.608	97.81
439.829	95.81
440.05	87.81
440.272	95.81
440.493	99.81
440.715	98.81
440.936	103.81
441.158	113.81
441.379	91.81
441.6	115.81
441.822	107.81
442.043	123.81
442.264	176.81
442.486	305.81
442.707	427.81
442.928	263.81
443.149	211.81
443.371	368.81
443.592	639.81
443.813	526.81
444.034	224.81
444.255	125.81
444.476	127.81
444.698	128.81
444.919	145.81
445.14	297.81
445.361	456.81
445.582	769.81
445.803	660.81
446.024	269.81
446.245	154.81
446.466	109.81
446.687	93.81
446.908	113.81
447.129	102.81
447.35	90.81
447.571	86.81
447.792	103.81
448.013	91.81
448.234	79.81
448.455	112.81
448.675	104.81
448.896	92.81
449.117	83.81
449.338	96.81
449.559	109.81
449.779	88.81
450	107.81
450.221	91.81
450.442	82.81
450.662	92.81
450.883	88.81
451.104	93.81
451.324	102.81
451.545	100.81
451.766	117.81
451.986	104.81
452.207	101.81
452.428	80.81
452.648	131.81
452.869	160.81
453.089	143.81
453.31	111.81
453.53	97.81
453.751	108.81
453.971	99.81
454.192	92.81
454.412	88.81
454.633	99.81
454.853	98.81
455.073	90.81
455.294	101.81
455.514	108.81
455.734	88.81
455.955	91.81
456.175	104.81
456.395	93.81
456.616	101.81
456.836	96.81
457.056	107.81
457.276	104.81
457.497	102.81
457.717	144.81
457.937	212.81
458.157	286.81
458.377	308.81
458.598	277.81
458.818	319.81
459.038	187.81
459.258	126.81
459.478	101.81
459.698	102.81
459.918	98.81
460.138	112.81
460.358	94.81
460.578	131.81
460.798	167.81
461.018	169.81
461.238	98.81
461.458	83.81
461.678	91.81
461.898	77.81
462.118	91.81
462.338	88.81
462.558	92.81
462.777	76.81
462.997	78.81
463.217	96.81
463.437	86.81
463.657	93.81
463.876	81.81
464.096	89.81
464.316	100.81
464.536	96.81
464.755	80.81
464.975	88.81
465.195	96.81
465.414	97.81
465.634	87.81
465.854	80.81
466.073	87.81
466.293	86.81
466.512	87.81
466.732	99.81
466.951	88.81
467.171	93.81
467.391	89.81
467.61	89.81
467.829	91.81
468.049	89.81
468.268	110.81
468.488	111.81
468.707	92.81
468.927	100.81
469.146	98.81
469.365	79.81
469.585	79.81
469.804	88.81
470.023	97.81
470.243	75.81
470.462	79.81
470.681	86.81
470.901	88.81
471.12	89.81
471.339	92.81
471.558	100.81
471.777	98.81
471.997	97.81
472.216	80.81
472.435	84.81
472.654	102.81
472.873	92.81
473.092	90.81
473.311	82.81
473.53	103.81
473.749	89.81
473.968	95.81
474.187	88.81
474.406	101.81
474.625	85.81
474.844	95.81
475.063	85.81
475.282	86.81
475.501	74.81
475.72	94.81
475.939	87.81
476.158	80.81
476.377	93.81
476.596	93.81
476.814	83.81
477.033	84.81
477.252	89.81
477.471	75.81
477.69	91.81
477.908	90.81
478.127	101.81
478.346	89.81
478.564	95.81
478.783	99.81
479.002	77.81
479.22	95.81
479.439	97.81
479.658	87.81
479.876	98.81
480.095	97.81
480.313	101.81
480.532	93.81
480.751	95.81
480.969	107.81
481.188	103.81
481.406	110.81
481.624	96.81
481.843	92.81
482.061	87.81
482.28	96.81
482.498	103.81
482.717	96.81
482.935	120.81
483.153	91.81
483.372	101.81
483.59	108.81
483.808	90.81
484.027	110.81
484.245	113.81
484.463	87.81
484.681	115.81
484.9	109.81
485.118	103.81
485.336	95.81
485.554	95.81
485.772	100.81
485.99	100.81
486.209	80.81
486.427	101.81
486.645	87.81
486.863	86.81
487.081	112.81
487.299	115.81
487.517	146.81
487.735	233.81
487.953	472.81
488.171	406.81
488.389	166.81
488.607	135.81
488.825	118.81
489.043	121.81
489.261	110.81
489.479	104.81
489.696	94.81
489.914	103.81
490.132	98.81
490.35	110.81
490.568	102.81
490.786	73.81
491.003	77.81
491.221	93.81
491.439	95.81
491.657	93.81
491.874	88.81
492.092	99.81
492.31	105.81
492.527	92.81
492.745	108.81
492.963	100.81
493.18	89.81
493.398	104.81
493.615	101.81
493.833	111.81
494.05	109.81
494.268	86.81
494.485	86.81
494.703	97.81
494.92	102.81
495.138	93.81
495.355	91.81
495.573	84.81
495.79	88.81
496.008	111.81
496.225	97.81
496.442	123.81
496.66	109.81
496.877	88.81
497.094	97.81
497.312	97.81
497.529	94.81
497.746	109.81
497.963	98.81
498.181	85.81
498.398	102.81
498.615	103.81
498.832	102.81
499.049	102.81
499.267	95.81
499.484	100.81
499.701	111.81
499.918	109.81
500.135	99.81
500.352	95.81
500.569	98.81
500.786	111.81
501.003	102.81
501.22	84.81
501.437	91.81
501.654	100.81
501.871	119.81
502.088	97.81
502.305	104.81
502.522	99.81
502.739	104.81
502.956	115.81
503.172	115.81
503.389	106.81
503.606	120.81
503.823	115.81
504.04	190.81
504.256	324.81
504.473	313.81
504.69	167.81
504.907	121.81
505.123	108.81
505.34	104.81
505.557	96.81
505.773	114.81
505.99	87.81
506.207	95.81
506.423	86.81
506.64	93.81
506.856	95.81
507.073	104.81
507.289	102.81
507.506	97.81
507.722	99.81
507.939	92.81
508.155	87.81
508.372	80.81
508.588	85.81
508.805	95.81
509.021	94.81
509.238	111.81
509.454	109.81
509.67	96.81
509.887	96.81
510.103	93.81
510.319	101.81
510.536	83.81
510.752	104.81
510.968	89.81
511.184	104.81
511.401	112.81
511.617	95.81
511.833	91.81
512.049	98.81
512.265	103.81
512.481	97.81
512.698	92.81
512.914	105.81
513.13	97.81
513.346	90.81
513.562	95.81
513.778	93.81
513.994	96.81
