Data from CBS_2_HRD10591_00038.txt Node
Date: Mon Jan 19 14:05:05 EST 2026
User: Yrep
Spectrometer: HR+D1059
Trigger mode: 1
Integration Time (sec): 1.000000E-1
Scans to average: 1
Electric dark correction enabled: true
Nonlinearity correction enabled: false
Boxcar width: 0
XAxis mode: Wavelengths
Number of Pixels in Spectrum: 2048
>>>>>Begin Spectral Data<<<<<
223.165	-19.94
223.4	-19.94
223.635	-19.94
223.869	-16.94
224.104	-5.94
224.338	-18.94
224.573	-13.94
224.808	-27.94
225.042	-3.94
225.277	-9.94
225.511	-12.94
225.746	9.06
225.98	4.06
226.215	12.06
226.449	22.06
226.683	13.06
226.918	34.06
227.152	36.06
227.387	36.06
227.621	36.06
227.856	50.06
228.09	51.06
228.324	49.06
228.559	57.06
228.793	52.06
229.027	49.06
229.262	51.06
229.496	69.06
229.73	63.06
229.964	81.06
230.199	57.06
230.433	72.06
230.667	72.06
230.901	78.06
231.136	72.06
231.37	78.06
231.604	81.06
231.838	76.06
232.072	82.06
232.306	82.06
232.541	77.06
232.775	74.06
233.009	81.06
233.243	97.06
233.477	83.06
233.711	88.06
233.945	81.06
234.179	83.06
234.413	87.06
234.647	74.06
234.881	83.06
235.115	93.06
235.349	79.06
235.583	81.06
235.817	58.06
236.051	74.06
236.285	85.06
236.519	75.06
236.753	78.06
236.987	73.06
237.221	70.06
237.455	76.06
237.689	87.06
237.922	77.06
238.156	82.06
238.39	80.06
238.624	74.06
238.858	81.06
239.091	74.06
239.325	86.06
239.559	80.06
239.793	82.06
240.027	69.06
240.26	72.06
240.494	75.06
240.728	78.06
240.961	82.06
241.195	73.06
241.429	74.06
241.662	74.06
241.896	69.06
242.13	64.06
242.363	79.06
242.597	79.06
242.83	78.06
243.064	87.06
243.298	65.06
243.531	57.06
243.765	65.06
243.998	71.06
244.232	60.06
244.465	78.06
244.699	64.06
244.932	74.06
245.166	82.06
245.399	79.06
245.633	72.06
245.866	77.06
246.099	75.06
246.333	72.06
246.566	83.06
246.8	83.06
247.033	83.06
247.266	77.06
247.5	84.06
247.733	84.06
247.966	72.06
248.2	76.06
248.433	73.06
248.666	72.06
248.899	87.06
249.133	75.06
249.366	63.06
249.599	73.06
249.832	82.06
250.066	67.06
250.299	67.06
250.532	71.06
250.765	71.06
250.998	85.06
251.231	70.06
251.465	83.06
251.698	81.06
251.931	68.06
252.164	82.06
252.397	77.06
252.63	86.06
252.863	71.06
253.096	64.06
253.329	67.06
253.562	63.06
253.795	79.06
254.028	73.06
254.261	75.06
254.494	66.06
254.727	76.06
254.96	66.06
255.193	74.06
255.426	66.06
255.659	79.06
255.892	71.06
256.124	89.06
256.357	84.06
256.59	75.06
256.823	65.06
257.056	74.06
257.289	85.06
257.521	73.06
257.754	63.06
257.987	90.06
258.22	68.06
258.452	80.06
258.685	94.06
258.918	78.06
259.151	87.06
259.383	93.06
259.616	73.06
259.849	88.06
260.081	83.06
260.314	77.06
260.547	76.06
260.779	73.06
261.012	79.06
261.244	85.06
261.477	73.06
261.71	71.06
261.942	89.06
262.175	80.06
262.407	71.06
262.64	77.06
262.872	80.06
263.105	77.06
263.337	81.06
263.57	86.06
263.802	80.06
264.035	81.06
264.267	77.06
264.499	77.06
264.732	70.06
264.964	84.06
265.197	91.06
265.429	77.06
265.661	73.06
265.894	85.06
266.126	89.06
266.358	85.06
266.591	92.06
266.823	81.06
267.055	85.06
267.287	72.06
267.52	95.06
267.752	88.06
267.984	80.06
268.216	67.06
268.448	81.06
268.681	85.06
268.913	84.06
269.145	76.06
269.377	74.06
269.609	69.06
269.841	69.06
270.073	85.06
270.306	84.06
270.538	82.06
270.77	74.06
271.002	77.06
271.234	87.06
271.466	78.06
271.698	80.06
271.93	72.06
272.162	78.06
272.394	75.06
272.626	82.06
272.858	75.06
273.09	82.06
273.322	80.06
273.553	81.06
273.785	76.06
274.017	81.06
274.249	79.06
274.481	69.06
274.713	82.06
274.945	70.06
275.176	75.06
275.408	73.06
275.64	80.06
275.872	85.06
276.104	90.06
276.335	81.06
276.567	83.06
276.799	74.06
277.031	82.06
277.262	79.06
277.494	74.06
277.726	87.06
277.957	88.06
278.189	95.06
278.421	87.06
278.652	81.06
278.884	84.06
279.115	94.06
279.347	77.06
279.579	95.06
279.81	87.06
280.042	88.06
280.273	84.06
280.505	82.06
280.736	68.06
280.968	78.06
281.199	80.06
281.431	74.06
281.662	79.06
281.894	85.06
282.125	86.06
282.356	75.06
282.588	66.06
282.819	76.06
283.051	89.06
283.282	84.06
283.513	88.06
283.745	86.06
283.976	79.06
284.207	92.06
284.439	71.06
284.67	73.06
284.901	87.06
285.132	89.06
285.364	85.06
285.595	79.06
285.826	81.06
286.057	93.06
286.288	80.06
286.52	83.06
286.751	79.06
286.982	91.06
287.213	75.06
287.444	70.06
287.675	84.06
287.906	68.06
288.138	82.06
288.369	81.06
288.6	83.06
288.831	75.06
289.062	89.06
289.293	70.06
289.524	74.06
289.755	81.06
289.986	67.06
290.217	85.06
290.448	83.06
290.679	93.06
290.91	86.06
291.141	79.06
291.371	85.06
291.602	91.06
291.833	89.06
292.064	87.06
292.295	80.06
292.526	83.06
292.757	86.06
292.987	69.06
293.218	80.06
293.449	59.06
293.68	80.06
293.91	86.06
294.141	81.06
294.372	76.06
294.603	85.06
294.833	86.06
295.064	80.06
295.295	82.06
295.525	85.06
295.756	94.06
295.987	87.06
296.217	85.06
296.448	77.06
296.679	93.06
296.909	76.06
297.14	87.06
297.37	83.06
297.601	72.06
297.831	89.06
298.062	96.06
298.292	72.06
298.523	87.06
298.753	78.06
298.984	80.06
299.214	84.06
299.445	73.06
299.675	80.06
299.905	72.06
300.136	81.06
300.366	105.06
300.597	80.06
300.827	93.06
301.057	83.06
301.288	67.06
301.518	71.06
301.748	81.06
301.979	87.06
302.209	81.06
302.439	91.06
302.669	83.06
302.9	81.06
303.13	90.06
303.36	84.06
303.59	95.06
303.82	75.06
304.051	73.06
304.281	87.06
304.511	86.06
304.741	77.06
304.971	89.06
305.201	88.06
305.431	74.06
305.661	68.06
305.891	88.06
306.121	93.06
306.352	94.06
306.582	86.06
306.812	89.06
307.042	86.06
307.272	74.06
307.502	74.06
307.731	90.06
307.961	80.06
308.191	81.06
308.421	86.06
308.651	85.06
308.881	87.06
309.111	92.06
309.341	71.06
309.571	88.06
309.8	81.06
310.03	72.06
310.26	78.06
310.49	76.06
310.72	78.06
310.949	75.06
311.179	92.06
311.409	87.06
311.639	87.06
311.868	80.06
312.098	76.06
312.328	83.06
312.557	95.06
312.787	81.06
313.017	86.06
313.246	75.06
313.476	85.06
313.706	77.06
313.935	75.06
314.165	83.06
314.394	85.06
314.624	86.06
314.853	86.06
315.083	80.06
315.312	72.06
315.542	83.06
315.771	95.06
316.001	80.06
316.23	77.06
316.46	65.06
316.689	92.06
316.919	88.06
317.148	72.06
317.377	74.06
317.607	65.06
317.836	88.06
318.065	80.06
318.295	87.06
318.524	88.06
318.753	82.06
318.983	84.06
319.212	92.06
319.441	81.06
319.67	89.06
319.9	79.06
320.129	71.06
320.358	67.06
320.587	94.06
320.816	70.06
321.046	86.06
321.275	84.06
321.504	76.06
321.733	82.06
321.962	81.06
322.191	95.06
322.42	80.06
322.649	85.06
322.878	79.06
323.108	82.06
323.337	78.06
323.566	87.06
323.795	90.06
324.024	79.06
324.253	59.06
324.482	87.06
324.71	69.06
324.939	88.06
325.168	71.06
325.397	84.06
325.626	76.06
325.855	70.06
326.084	83.06
326.313	82.06
326.542	85.06
326.77	88.06
326.999	68.06
327.228	68.06
327.457	69.06
327.686	93.06
327.914	85.06
328.143	89.06
328.372	76.06
328.6	87.06
328.829	87.06
329.058	77.06
329.287	90.06
329.515	77.06
329.744	79.06
329.972	86.06
330.201	83.06
330.43	71.06
330.658	80.06
330.887	82.06
331.115	77.06
331.344	88.06
331.572	72.06
331.801	85.06
332.03	87.06
332.258	89.06
332.486	72.06
332.715	72.06
332.943	75.06
333.172	71.06
333.4	81.06
333.629	78.06
333.857	85.06
334.085	103.06
334.314	92.06
334.542	77.06
334.771	78.06
334.999	97.06
335.227	82.06
335.455	99.06
335.684	79.06
335.912	80.06
336.14	87.06
336.369	80.06
336.597	74.06
336.825	87.06
337.053	89.06
337.281	96.06
337.51	83.06
337.738	95.06
337.966	73.06
338.194	77.06
338.422	73.06
338.65	83.06
338.878	87.06
339.106	88.06
339.334	70.06
339.562	79.06
339.79	73.06
340.018	95.06
340.246	88.06
340.474	86.06
340.702	79.06
340.93	81.06
341.158	75.06
341.386	80.06
341.614	82.06
341.842	79.06
342.07	89.06
342.298	73.06
342.526	92.06
342.754	79.06
342.981	79.06
343.209	86.06
343.437	94.06
343.665	88.06
343.893	97.06
344.12	71.06
344.348	80.06
344.576	81.06
344.804	79.06
345.031	72.06
345.259	63.06
345.487	87.06
345.714	71.06
345.942	91.06
346.17	84.06
346.397	86.06
346.625	79.06
346.853	75.06
347.08	77.06
347.308	82.06
347.535	79.06
347.763	93.06
347.99	79.06
348.218	89.06
348.445	87.06
348.673	85.06
348.9	74.06
349.128	77.06
349.355	69.06
349.583	70.06
349.81	84.06
350.037	63.06
350.265	88.06
350.492	83.06
350.72	81.06
350.947	80.06
351.174	85.06
351.402	71.06
351.629	70.06
351.856	78.06
352.083	82.06
352.311	87.06
352.538	85.06
352.765	80.06
352.992	99.06
353.22	85.06
353.447	75.06
353.674	83.06
353.901	83.06
354.128	72.06
354.355	75.06
354.583	91.06
354.81	89.06
355.037	82.06
355.264	85.06
355.491	63.06
355.718	81.06
355.945	79.06
356.172	73.06
356.399	85.06
356.626	79.06
356.853	76.06
357.08	86.06
357.307	71.06
357.534	79.06
357.761	72.06
357.988	85.06
358.215	85.06
358.441	78.06
358.668	72.06
358.895	83.06
359.122	95.06
359.349	73.06
359.576	64.06
359.802	72.06
360.029	90.06
360.256	92.06
360.483	81.06
360.709	83.06
360.936	77.06
361.163	83.06
361.39	96.06
361.616	84.06
361.843	78.06
362.07	81.06
362.296	89.06
362.523	88.06
362.749	101.06
362.976	94.06
363.203	99.06
363.429	93.06
363.656	83.06
363.882	80.06
364.109	79.06
364.335	105.06
364.562	106.06
364.788	93.06
365.015	84.06
365.241	69.06
365.468	75.06
365.694	77.06
365.92	86.06
366.147	83.06
366.373	80.06
366.599	79.06
366.826	65.06
367.052	88.06
367.278	82.06
367.505	84.06
367.731	84.06
367.957	79.06
368.184	74.06
368.41	86.06
368.636	88.06
368.862	70.06
369.089	85.06
369.315	87.06
369.541	84.06
369.767	77.06
369.993	93.06
370.219	72.06
370.445	86.06
370.672	88.06
370.898	81.06
371.124	71.06
371.35	80.06
371.576	83.06
371.802	92.06
372.028	88.06
372.254	81.06
372.48	77.06
372.706	85.06
372.932	73.06
373.158	77.06
373.384	73.06
373.61	87.06
373.835	72.06
374.061	83.06
374.287	91.06
374.513	84.06
374.739	77.06
374.965	72.06
375.191	87.06
375.416	74.06
375.642	90.06
375.868	76.06
376.094	87.06
376.319	84.06
376.545	82.06
376.771	77.06
376.997	67.06
377.222	72.06
377.448	81.06
377.674	74.06
377.899	77.06
378.125	86.06
378.35	75.06
378.576	76.06
378.802	82.06
379.027	79.06
379.253	96.06
379.478	72.06
379.704	80.06
379.929	90.06
380.155	84.06
380.38	79.06
380.606	92.06
380.831	79.06
381.057	71.06
381.282	84.06
381.507	85.06
381.733	80.06
381.958	72.06
382.184	82.06
382.409	73.06
382.634	81.06
382.86	83.06
383.085	79.06
383.31	72.06
383.535	83.06
383.761	72.06
383.986	87.06
384.211	83.06
384.436	92.06
384.662	74.06
384.887	79.06
385.112	93.06
385.337	64.06
385.562	82.06
385.787	87.06
386.013	94.06
386.238	81.06
386.463	83.06
386.688	89.06
386.913	94.06
387.138	81.06
387.363	82.06
387.588	93.06
387.813	95.06
388.038	82.06
388.263	92.06
388.488	78.06
388.713	77.06
388.938	66.06
389.163	78.06
389.387	89.06
389.612	93.06
389.837	72.06
390.062	90.06
390.287	86.06
390.512	85.06
390.736	72.06
390.961	104.06
391.186	86.06
391.411	91.06
391.636	80.06
391.86	92.06
392.085	90.06
392.31	83.06
392.534	82.06
392.759	96.06
392.984	105.06
393.208	139.06
393.433	192.06
393.658	162.06
393.882	118.06
394.107	81.06
394.331	104.06
394.556	81.06
394.78	85.06
395.005	86.06
395.229	88.06
395.454	88.06
395.678	93.06
395.903	86.06
396.127	107.06
396.352	102.06
396.576	122.06
396.801	137.06
397.025	174.06
397.249	127.06
397.474	93.06
397.698	88.06
397.922	87.06
398.147	67.06
398.371	66.06
398.595	63.06
398.82	80.06
399.044	90.06
399.268	78.06
399.492	87.06
399.717	85.06
399.941	91.06
400.165	76.06
400.389	77.06
400.613	75.06
400.837	71.06
401.062	83.06
401.286	89.06
401.51	82.06
401.734	89.06
401.958	82.06
402.182	81.06
402.406	83.06
402.63	71.06
402.854	72.06
403.078	77.06
403.302	74.06
403.526	81.06
403.75	81.06
403.974	80.06
404.198	84.06
404.422	71.06
404.645	87.06
404.869	77.06
405.093	67.06
405.317	87.06
405.541	77.06
405.765	89.06
405.988	75.06
406.212	89.06
406.436	89.06
406.66	83.06
406.883	103.06
407.107	68.06
407.331	81.06
407.555	74.06
407.778	93.06
408.002	95.06
408.226	73.06
408.449	82.06
408.673	73.06
408.896	81.06
409.12	72.06
409.344	85.06
409.567	100.06
409.791	80.06
410.014	93.06
410.238	76.06
410.461	84.06
410.685	59.06
410.908	72.06
411.132	76.06
411.355	80.06
411.578	81.06
411.802	79.06
412.025	83.06
412.249	88.06
412.472	91.06
412.695	80.06
412.919	78.06
413.142	88.06
413.365	88.06
413.589	84.06
413.812	65.06
414.035	100.06
414.258	73.06
414.482	75.06
414.705	59.06
414.928	79.06
415.151	80.06
415.374	85.06
415.597	78.06
415.821	101.06
416.044	96.06
416.267	97.06
416.49	75.06
416.713	70.06
416.936	79.06
417.159	81.06
417.382	76.06
417.605	77.06
417.828	83.06
418.051	88.06
418.274	65.06
418.497	80.06
418.72	76.06
418.943	78.06
419.166	88.06
419.389	81.06
419.611	77.06
419.834	81.06
420.057	77.06
420.28	88.06
420.503	87.06
420.726	83.06
420.948	88.06
421.171	86.06
421.394	95.06
421.617	89.06
421.839	87.06
422.062	109.06
422.285	124.06
422.507	155.06
422.73	216.06
422.953	187.06
423.175	128.06
423.398	99.06
423.621	100.06
423.843	81.06
424.066	81.06
424.288	101.06
424.511	80.06
424.733	81.06
424.956	87.06
425.178	78.06
425.401	80.06
425.623	76.06
425.846	101.06
426.068	79.06
426.291	76.06
426.513	72.06
426.735	77.06
426.958	82.06
427.18	68.06
427.402	79.06
427.625	83.06
427.847	81.06
428.069	78.06
428.292	92.06
428.514	104.06
428.736	96.06
428.958	103.06
429.181	107.06
429.403	72.06
429.625	79.06
429.847	82.06
430.069	103.06
430.292	128.06
430.514	125.06
430.736	77.06
430.958	104.06
431.18	88.06
431.402	73.06
431.624	91.06
431.846	89.06
432.068	98.06
432.29	84.06
432.512	69.06
432.734	95.06
432.956	70.06
433.178	81.06
433.4	101.06
433.622	91.06
433.844	71.06
434.066	70.06
434.287	71.06
434.509	80.06
434.731	87.06
434.953	78.06
435.175	87.06
435.397	78.06
435.618	86.06
435.84	93.06
436.062	87.06
436.284	70.06
436.505	83.06
436.727	66.06
436.949	82.06
437.17	60.06
437.392	73.06
437.614	85.06
437.835	90.06
438.057	89.06
438.278	80.06
438.5	94.06
438.721	73.06
438.943	74.06
439.165	83.06
439.386	80.06
439.608	71.06
439.829	85.06
440.05	94.06
440.272	70.06
440.493	80.06
440.715	76.06
440.936	79.06
441.158	69.06
441.379	79.06
441.6	87.06
441.822	84.06
442.043	71.06
442.264	79.06
442.486	102.06
442.707	120.06
442.928	93.06
443.149	96.06
443.371	102.06
443.592	149.06
443.813	144.06
444.034	99.06
444.255	89.06
444.476	83.06
444.698	86.06
444.919	85.06
445.14	156.06
445.361	143.06
445.582	189.06
445.803	167.06
446.024	79.06
446.245	85.06
446.466	82.06
446.687	73.06
446.908	89.06
447.129	72.06
447.35	64.06
447.571	77.06
447.792	91.06
448.013	95.06
448.234	81.06
448.455	83.06
448.675	95.06
448.896	81.06
449.117	78.06
449.338	94.06
449.559	79.06
449.779	79.06
450	69.06
450.221	85.06
450.442	81.06
450.662	83.06
450.883	80.06
451.104	73.06
451.324	81.06
451.545	76.06
451.766	83.06
451.986	77.06
452.207	79.06
452.428	60.06
452.648	79.06
452.869	80.06
453.089	83.06
453.31	93.06
453.53	89.06
453.751	74.06
453.971	76.06
454.192	86.06
454.412	77.06
454.633	92.06
454.853	102.06
455.073	88.06
455.294	76.06
455.514	87.06
455.734	76.06
455.955	89.06
456.175	79.06
456.395	69.06
456.616	87.06
456.836	86.06
457.056	83.06
457.276	85.06
457.497	87.06
457.717	87.06
457.937	86.06
458.157	105.06
458.377	94.06
458.598	104.06
458.818	96.06
459.038	65.06
459.258	77.06
459.478	80.06
459.698	83.06
459.918	93.06
460.138	63.06
460.358	84.06
460.578	90.06
460.798	93.06
461.018	83.06
461.238	64.06
461.458	83.06
461.678	79.06
461.898	88.06
462.118	72.06
462.338	73.06
462.558	92.06
462.777	77.06
462.997	73.06
463.217	90.06
463.437	86.06
463.657	87.06
463.876	61.06
464.096	81.06
464.316	93.06
464.536	91.06
464.755	80.06
464.975	71.06
465.195	83.06
465.414	85.06
465.634	83.06
465.854	85.06
466.073	69.06
466.293	92.06
466.512	64.06
466.732	75.06
466.951	82.06
467.171	73.06
467.391	73.06
467.61	69.06
467.829	73.06
468.049	71.06
468.268	79.06
468.488	88.06
468.707	86.06
468.927	88.06
469.146	86.06
469.365	82.06
469.585	84.06
469.804	85.06
470.023	78.06
470.243	88.06
470.462	85.06
470.681	81.06
470.901	84.06
471.12	85.06
471.339	92.06
471.558	79.06
471.777	84.06
471.997	97.06
472.216	77.06
472.435	76.06
472.654	81.06
472.873	89.06
473.092	72.06
473.311	79.06
473.53	73.06
473.749	79.06
473.968	79.06
474.187	87.06
474.406	81.06
474.625	83.06
474.844	80.06
475.063	91.06
475.282	71.06
475.501	86.06
475.72	89.06
475.939	77.06
476.158	77.06
476.377	65.06
476.596	89.06
476.814	69.06
477.033	84.06
477.252	77.06
477.471	83.06
477.69	85.06
477.908	74.06
478.127	73.06
478.346	82.06
478.564	91.06
478.783	90.06
479.002	86.06
479.22	89.06
479.439	83.06
479.658	81.06
479.876	77.06
480.095	87.06
480.313	88.06
480.532	83.06
480.751	94.06
480.969	82.06
481.188	81.06
481.406	73.06
481.624	82.06
481.843	85.06
482.061	94.06
482.28	80.06
482.498	85.06
482.717	74.06
482.935	75.06
483.153	87.06
483.372	71.06
483.59	78.06
483.808	87.06
484.027	88.06
484.245	94.06
484.463	84.06
484.681	91.06
484.9	86.06
485.118	87.06
485.336	83.06
485.554	74.06
485.772	77.06
485.99	90.06
486.209	89.06
486.427	89.06
486.645	90.06
486.863	81.06
487.081	72.06
487.299	72.06
487.517	94.06
487.735	82.06
487.953	129.06
488.171	109.06
488.389	81.06
488.607	93.06
488.825	83.06
489.043	73.06
489.261	93.06
489.479	83.06
489.696	94.06
489.914	82.06
490.132	81.06
490.35	87.06
490.568	91.06
490.786	85.06
491.003	80.06
491.221	96.06
491.439	96.06
491.657	93.06
491.874	76.06
492.092	76.06
492.31	96.06
492.527	77.06
492.745	94.06
492.963	82.06
493.18	82.06
493.398	76.06
493.615	75.06
493.833	79.06
494.05	84.06
494.268	82.06
494.485	91.06
494.703	74.06
494.92	92.06
495.138	72.06
495.355	83.06
495.573	77.06
495.79	88.06
496.008	87.06
496.225	65.06
496.442	85.06
496.66	83.06
496.877	82.06
497.094	76.06
497.312	88.06
497.529	80.06
497.746	73.06
497.963	92.06
498.181	90.06
498.398	96.06
498.615	92.06
498.832	82.06
499.049	81.06
499.267	93.06
499.484	97.06
499.701	86.06
499.918	81.06
500.135	76.06
500.352	90.06
500.569	78.06
500.786	85.06
501.003	82.06
501.22	79.06
501.437	85.06
501.654	83.06
501.871	74.06
502.088	78.06
502.305	93.06
502.522	85.06
502.739	87.06
502.956	79.06
503.172	81.06
503.389	86.06
503.606	79.06
503.823	70.06
504.04	97.06
504.256	104.06
504.473	113.06
504.69	85.06
504.907	89.06
505.123	73.06
505.34	79.06
505.557	86.06
505.773	74.06
505.99	87.06
506.207	87.06
506.423	77.06
506.64	70.06
506.856	75.06
507.073	72.06
507.289	84.06
507.506	80.06
507.722	90.06
507.939	74.06
508.155	79.06
508.372	79.06
508.588	90.06
508.805	86.06
509.021	70.06
509.238	71.06
509.454	81.06
509.67	79.06
509.887	91.06
510.103	78.06
510.319	81.06
510.536	83.06
510.752	73.06
510.968	67.06
511.184	87.06
511.401	66.06
511.617	78.06
511.833	85.06
512.049	85.06
512.265	78.06
512.481	80.06
512.698	83.06
512.914	81.06
513.13	87.06
513.346	78.06
513.562	79.06
513.778	99.06
513.994	88.06
514.21	89.06
514.426	82.06
514.642	85.06
514.858	73.06
515.074	97.06
515.29	96.06
515.506	70.06
515.721	82.06
515.937	70.06
516.153	82.06
516.369	81.06
516.585	86.06
516.801	80.06
517.016	67.06
517.232	63.06
517.448	87.06
517.664	88.06
517.879	79.06
518.095	81.06
518.311	88.06
518.527	87.06
518.742	97.06
518.958	118.06
519.173	132.06
519.389	98.06
519.605	88.06
