Data from CBS_2_HRD10591_00028.txt Node
Date: Mon Jan 19 14:05:00 EST 2026
User: Yrep
Spectrometer: HR+D1059
Trigger mode: 1
Integration Time (sec): 1.000000E-1
Scans to average: 1
Electric dark correction enabled: true
Nonlinearity correction enabled: false
Boxcar width: 0
XAxis mode: Wavelengths
Number of Pixels in Spectrum: 2048
>>>>>Begin Spectral Data<<<<<
223.165	-11.75
223.4	-11.75
223.635	-11.75
223.869	-28.75
224.104	-2.75
224.338	-10.75
224.573	-8.75
224.808	-24.75
225.042	-13.75
225.277	-12.75
225.511	-4.75
225.746	-12.75
225.98	15.25
226.215	16.25
226.449	16.25
226.683	25.25
226.918	24.25
227.152	34.25
227.387	28.25
227.621	46.25
227.856	46.25
228.09	42.25
228.324	49.25
228.559	49.25
228.793	55.25
229.027	70.25
229.262	68.25
229.496	64.25
229.73	75.25
229.964	71.25
230.199	75.25
230.433	57.25
230.667	68.25
230.901	86.25
231.136	91.25
231.37	77.25
231.604	79.25
231.838	79.25
232.072	87.25
232.306	82.25
232.541	66.25
232.775	85.25
233.009	89.25
233.243	85.25
233.477	79.25
233.711	64.25
233.945	62.25
234.179	74.25
234.413	87.25
234.647	80.25
234.881	79.25
235.115	77.25
235.349	74.25
235.583	81.25
235.817	79.25
236.051	86.25
236.285	72.25
236.519	92.25
236.753	68.25
236.987	68.25
237.221	70.25
237.455	74.25
237.689	67.25
237.922	77.25
238.156	83.25
238.39	75.25
238.624	58.25
238.858	77.25
239.091	84.25
239.325	72.25
239.559	80.25
239.793	73.25
240.027	82.25
240.26	76.25
240.494	76.25
240.728	75.25
240.961	66.25
241.195	62.25
241.429	86.25
241.662	58.25
241.896	65.25
242.13	75.25
242.363	67.25
242.597	74.25
242.83	67.25
243.064	67.25
243.298	69.25
243.531	72.25
243.765	76.25
243.998	73.25
244.232	84.25
244.465	84.25
244.699	90.25
244.932	88.25
245.166	84.25
245.399	77.25
245.633	82.25
245.866	58.25
246.099	80.25
246.333	79.25
246.566	80.25
246.8	91.25
247.033	81.25
247.266	72.25
247.5	68.25
247.733	86.25
247.966	72.25
248.2	70.25
248.433	80.25
248.666	80.25
248.899	92.25
249.133	80.25
249.366	87.25
249.599	87.25
249.832	84.25
250.066	86.25
250.299	80.25
250.532	63.25
250.765	79.25
250.998	73.25
251.231	79.25
251.465	81.25
251.698	94.25
251.931	79.25
252.164	75.25
252.397	80.25
252.63	86.25
252.863	78.25
253.096	82.25
253.329	87.25
253.562	82.25
253.795	84.25
254.028	76.25
254.261	81.25
254.494	82.25
254.727	79.25
254.96	82.25
255.193	80.25
255.426	76.25
255.659	79.25
255.892	69.25
256.124	89.25
256.357	64.25
256.59	81.25
256.823	84.25
257.056	89.25
257.289	83.25
257.521	80.25
257.754	70.25
257.987	75.25
258.22	84.25
258.452	76.25
258.685	73.25
258.918	80.25
259.151	81.25
259.383	74.25
259.616	85.25
259.849	88.25
260.081	65.25
260.314	69.25
260.547	76.25
260.779	76.25
261.012	92.25
261.244	76.25
261.477	79.25
261.71	74.25
261.942	75.25
262.175	78.25
262.407	82.25
262.64	75.25
262.872	75.25
263.105	74.25
263.337	94.25
263.57	91.25
263.802	78.25
264.035	87.25
264.267	83.25
264.499	87.25
264.732	76.25
264.964	85.25
265.197	76.25
265.429	78.25
265.661	71.25
265.894	74.25
266.126	68.25
266.358	92.25
266.591	89.25
266.823	87.25
267.055	71.25
267.287	84.25
267.52	69.25
267.752	87.25
267.984	82.25
268.216	75.25
268.448	76.25
268.681	95.25
268.913	99.25
269.145	76.25
269.377	88.25
269.609	84.25
269.841	82.25
270.073	84.25
270.306	84.25
270.538	88.25
270.77	87.25
271.002	81.25
271.234	86.25
271.466	81.25
271.698	85.25
271.93	81.25
272.162	87.25
272.394	88.25
272.626	94.25
272.858	72.25
273.09	84.25
273.322	80.25
273.553	84.25
273.785	85.25
274.017	74.25
274.249	86.25
274.481	76.25
274.713	93.25
274.945	74.25
275.176	86.25
275.408	78.25
275.64	90.25
275.872	85.25
276.104	91.25
276.335	78.25
276.567	92.25
276.799	81.25
277.031	90.25
277.262	107.25
277.494	85.25
277.726	69.25
277.957	74.25
278.189	89.25
278.421	75.25
278.652	95.25
278.884	82.25
279.115	82.25
279.347	91.25
279.579	100.25
279.81	87.25
280.042	83.25
280.273	83.25
280.505	71.25
280.736	95.25
280.968	94.25
281.199	83.25
281.431	83.25
281.662	81.25
281.894	88.25
282.125	77.25
282.356	87.25
282.588	90.25
282.819	101.25
283.051	82.25
283.282	76.25
283.513	82.25
283.745	86.25
283.976	85.25
284.207	78.25
284.439	80.25
284.67	91.25
284.901	91.25
285.132	92.25
285.364	86.25
285.595	86.25
285.826	81.25
286.057	87.25
286.288	82.25
286.52	79.25
286.751	84.25
286.982	88.25
287.213	79.25
287.444	74.25
287.675	86.25
287.906	97.25
288.138	86.25
288.369	88.25
288.6	79.25
288.831	83.25
289.062	82.25
289.293	83.25
289.524	80.25
289.755	83.25
289.986	71.25
290.217	90.25
290.448	76.25
290.679	82.25
290.91	90.25
291.141	96.25
291.371	94.25
291.602	98.25
291.833	90.25
292.064	85.25
292.295	79.25
292.526	82.25
292.757	80.25
292.987	84.25
293.218	84.25
293.449	89.25
293.68	86.25
293.91	78.25
294.141	87.25
294.372	81.25
294.603	91.25
294.833	80.25
295.064	84.25
295.295	102.25
295.525	80.25
295.756	81.25
295.987	88.25
296.217	90.25
296.448	89.25
296.679	72.25
296.909	92.25
297.14	93.25
297.37	100.25
297.601	95.25
297.831	95.25
298.062	87.25
298.292	82.25
298.523	76.25
298.753	86.25
298.984	88.25
299.214	84.25
299.445	96.25
299.675	94.25
299.905	107.25
300.136	105.25
300.366	91.25
300.597	91.25
300.827	114.25
301.057	84.25
301.288	83.25
301.518	81.25
301.748	86.25
301.979	97.25
302.209	93.25
302.439	84.25
302.669	94.25
302.9	74.25
303.13	76.25
303.36	92.25
303.59	91.25
303.82	89.25
304.051	75.25
304.281	98.25
304.511	87.25
304.741	94.25
304.971	86.25
305.201	95.25
305.431	103.25
305.661	86.25
305.891	74.25
306.121	72.25
306.352	87.25
306.582	87.25
306.812	85.25
307.042	83.25
307.272	80.25
307.502	97.25
307.731	88.25
307.961	86.25
308.191	84.25
308.421	105.25
308.651	88.25
308.881	86.25
309.111	85.25
309.341	82.25
309.571	102.25
309.8	86.25
310.03	85.25
310.26	77.25
310.49	88.25
310.72	81.25
310.949	92.25
311.179	82.25
311.409	70.25
311.639	96.25
311.868	84.25
312.098	85.25
312.328	84.25
312.557	102.25
312.787	98.25
313.017	110.25
313.246	90.25
313.476	81.25
313.706	94.25
313.935	86.25
314.165	104.25
314.394	83.25
314.624	72.25
314.853	85.25
315.083	81.25
315.312	91.25
315.542	106.25
315.771	97.25
316.001	102.25
316.23	103.25
316.46	101.25
316.689	90.25
316.919	94.25
317.148	100.25
317.377	92.25
317.607	83.25
317.836	90.25
318.065	98.25
318.295	95.25
318.524	88.25
318.753	83.25
318.983	85.25
319.212	67.25
319.441	83.25
319.67	86.25
319.9	81.25
320.129	89.25
320.358	82.25
320.587	97.25
320.816	106.25
321.046	94.25
321.275	96.25
321.504	95.25
321.733	82.25
321.962	94.25
322.191	91.25
322.42	94.25
322.649	98.25
322.878	91.25
323.108	91.25
323.337	95.25
323.566	91.25
323.795	79.25
324.024	105.25
324.253	76.25
324.482	89.25
324.71	94.25
324.939	98.25
325.168	91.25
325.397	92.25
325.626	93.25
325.855	98.25
326.084	93.25
326.313	90.25
326.542	86.25
326.77	94.25
326.999	88.25
327.228	88.25
327.457	96.25
327.686	90.25
327.914	79.25
328.143	83.25
328.372	89.25
328.6	90.25
328.829	94.25
329.058	105.25
329.287	84.25
329.515	88.25
329.744	82.25
329.972	97.25
330.201	112.25
330.43	93.25
330.658	88.25
330.887	90.25
331.115	95.25
331.344	82.25
331.572	86.25
331.801	87.25
332.03	89.25
332.258	85.25
332.486	88.25
332.715	77.25
332.943	102.25
333.172	84.25
333.4	84.25
333.629	81.25
333.857	96.25
334.085	84.25
334.314	102.25
334.542	86.25
334.771	119.25
334.999	112.25
335.227	99.25
335.455	94.25
335.684	96.25
335.912	115.25
336.14	122.25
336.369	103.25
336.597	102.25
336.825	93.25
337.053	87.25
337.281	85.25
337.51	100.25
337.738	101.25
337.966	100.25
338.194	79.25
338.422	78.25
338.65	73.25
338.878	98.25
339.106	94.25
339.334	78.25
339.562	94.25
339.79	104.25
340.018	92.25
340.246	81.25
340.474	96.25
340.702	84.25
340.93	88.25
341.158	88.25
341.386	85.25
341.614	72.25
341.842	93.25
342.07	81.25
342.298	88.25
342.526	88.25
342.754	82.25
342.981	82.25
343.209	92.25
343.437	105.25
343.665	91.25
343.893	90.25
344.12	85.25
344.348	93.25
344.576	92.25
344.804	64.25
345.031	82.25
345.259	86.25
345.487	83.25
345.714	85.25
345.942	91.25
346.17	86.25
346.397	96.25
346.625	83.25
346.853	81.25
347.08	78.25
347.308	98.25
347.535	100.25
347.763	92.25
347.99	84.25
348.218	88.25
348.445	94.25
348.673	85.25
348.9	99.25
349.128	90.25
349.355	94.25
349.583	106.25
349.81	79.25
350.037	98.25
350.265	83.25
350.492	94.25
350.72	86.25
350.947	87.25
351.174	73.25
351.402	84.25
351.629	88.25
351.856	91.25
352.083	96.25
352.311	102.25
352.538	89.25
352.765	82.25
352.992	89.25
353.22	91.25
353.447	87.25
353.674	84.25
353.901	83.25
354.128	95.25
354.355	90.25
354.583	94.25
354.81	93.25
355.037	98.25
355.264	86.25
355.491	82.25
355.718	88.25
355.945	87.25
356.172	83.25
356.399	86.25
356.626	91.25
356.853	91.25
357.08	81.25
357.307	94.25
357.534	86.25
357.761	75.25
357.988	110.25
358.215	102.25
358.441	104.25
358.668	88.25
358.895	91.25
359.122	98.25
359.349	99.25
359.576	86.25
359.802	90.25
360.029	97.25
360.256	99.25
360.483	83.25
360.709	84.25
360.936	96.25
361.163	97.25
361.39	90.25
361.616	100.25
361.843	96.25
362.07	103.25
362.296	120.25
362.523	128.25
362.749	138.25
362.976	158.25
363.203	156.25
363.429	127.25
363.656	103.25
363.882	120.25
364.109	141.25
364.335	169.25
364.562	182.25
364.788	126.25
365.015	122.25
365.241	94.25
365.468	104.25
365.694	89.25
365.92	94.25
366.147	84.25
366.373	90.25
366.599	93.25
366.826	82.25
367.052	96.25
367.278	102.25
367.505	78.25
367.731	95.25
367.957	102.25
368.184	94.25
368.41	91.25
368.636	83.25
368.862	95.25
369.089	92.25
369.315	96.25
369.541	90.25
369.767	92.25
369.993	88.25
370.219	95.25
370.445	93.25
370.672	111.25
370.898	94.25
371.124	98.25
371.35	89.25
371.576	99.25
371.802	79.25
372.028	90.25
372.254	100.25
372.48	93.25
372.706	91.25
372.932	92.25
373.158	84.25
373.384	103.25
373.61	114.25
373.835	108.25
374.061	107.25
374.287	119.25
374.513	94.25
374.739	105.25
374.965	100.25
375.191	113.25
375.416	96.25
375.642	110.25
375.868	104.25
376.094	96.25
376.319	86.25
376.545	100.25
376.771	99.25
376.997	92.25
377.222	78.25
377.448	91.25
377.674	102.25
377.899	82.25
378.125	101.25
378.35	94.25
378.576	88.25
378.802	99.25
379.027	101.25
379.253	98.25
379.478	98.25
379.704	95.25
379.929	96.25
380.155	91.25
380.38	91.25
380.606	79.25
380.831	90.25
381.057	91.25
381.282	90.25
381.507	100.25
381.733	116.25
381.958	101.25
382.184	87.25
382.409	101.25
382.634	97.25
382.86	100.25
383.085	104.25
383.31	110.25
383.535	90.25
383.761	118.25
383.986	92.25
384.211	94.25
384.436	90.25
384.662	99.25
384.887	98.25
385.112	110.25
385.337	94.25
385.562	96.25
385.787	101.25
386.013	105.25
386.238	103.25
386.463	90.25
386.688	96.25
386.913	104.25
387.138	95.25
387.363	118.25
387.588	105.25
387.813	105.25
388.038	110.25
388.263	99.25
388.488	89.25
388.713	98.25
388.938	116.25
389.163	94.25
389.387	94.25
389.612	104.25
389.837	111.25
390.062	76.25
390.287	85.25
390.512	99.25
390.736	117.25
390.961	98.25
391.186	105.25
391.411	107.25
391.636	100.25
391.86	106.25
392.085	99.25
392.31	120.25
392.534	119.25
392.759	146.25
392.984	205.25
393.208	337.25
393.433	482.25
393.658	390.25
393.882	172.25
394.107	136.25
394.331	130.25
394.556	138.25
394.78	107.25
395.005	104.25
395.229	104.25
395.454	121.25
395.678	131.25
395.903	150.25
396.127	155.25
396.352	171.25
396.576	216.25
396.801	330.25
397.025	416.25
397.249	223.25
397.474	154.25
397.698	139.25
397.922	104.25
398.147	102.25
398.371	99.25
398.595	97.25
398.82	104.25
399.044	92.25
399.268	82.25
399.492	110.25
399.717	110.25
399.941	94.25
400.165	80.25
400.389	86.25
400.613	79.25
400.837	90.25
401.062	96.25
401.286	101.25
401.51	76.25
401.734	83.25
401.958	83.25
402.182	90.25
402.406	103.25
402.63	95.25
402.854	103.25
403.078	88.25
403.302	97.25
403.526	108.25
403.75	91.25
403.974	98.25
404.198	100.25
404.422	105.25
404.645	102.25
404.869	86.25
405.093	84.25
405.317	73.25
405.541	98.25
405.765	94.25
405.988	94.25
406.212	93.25
406.436	90.25
406.66	94.25
406.883	98.25
407.107	93.25
407.331	94.25
407.555	102.25
407.778	121.25
408.002	116.25
408.226	105.25
408.449	90.25
408.673	102.25
408.896	101.25
409.12	104.25
409.344	113.25
409.567	128.25
409.791	138.25
410.014	136.25
410.238	115.25
410.461	87.25
410.685	81.25
410.908	113.25
411.132	110.25
411.355	99.25
411.578	99.25
411.802	100.25
412.025	101.25
412.249	96.25
412.472	98.25
412.695	73.25
412.919	76.25
413.142	98.25
413.365	75.25
413.589	94.25
413.812	88.25
414.035	105.25
414.258	96.25
414.482	104.25
414.705	94.25
414.928	94.25
415.151	87.25
415.374	98.25
415.597	84.25
415.821	96.25
416.044	88.25
416.267	87.25
416.49	80.25
416.713	95.25
416.936	96.25
417.159	76.25
417.382	83.25
417.605	86.25
417.828	98.25
418.051	87.25
418.274	90.25
418.497	91.25
418.72	87.25
418.943	90.25
419.166	106.25
419.389	99.25
419.611	95.25
419.834	103.25
420.057	106.25
420.28	93.25
420.503	104.25
420.726	100.25
420.948	103.25
421.171	113.25
421.394	129.25
421.617	160.25
421.839	170.25
422.062	202.25
422.285	267.25
422.507	429.25
422.73	589.25
422.953	543.25
423.175	358.25
423.398	216.25
423.621	156.25
423.843	140.25
424.066	131.25
424.288	130.25
424.511	133.25
424.733	119.25
424.956	102.25
425.178	118.25
425.401	102.25
425.623	96.25
425.846	98.25
426.068	88.25
426.291	92.25
426.513	80.25
426.735	100.25
426.958	101.25
427.18	83.25
427.402	106.25
427.625	98.25
427.847	105.25
428.069	122.25
428.292	154.25
428.514	200.25
428.736	129.25
428.958	170.25
429.181	175.25
429.403	116.25
429.625	121.25
429.847	164.25
430.069	214.25
430.292	266.25
430.514	234.25
430.736	172.25
430.958	179.25
431.18	119.25
431.402	113.25
431.624	142.25
431.846	164.25
432.068	186.25
432.29	109.25
432.512	101.25
432.734	85.25
432.956	73.25
433.178	101.25
433.4	97.25
433.622	85.25
433.844	91.25
434.066	108.25
434.287	95.25
434.509	97.25
434.731	76.25
434.953	87.25
435.175	96.25
435.397	93.25
435.618	122.25
435.84	121.25
436.062	99.25
436.284	94.25
436.505	98.25
436.727	95.25
436.949	98.25
437.17	86.25
437.392	106.25
437.614	95.25
437.835	90.25
438.057	87.25
438.278	90.25
438.5	85.25
438.721	94.25
438.943	91.25
439.165	104.25
439.386	83.25
439.608	84.25
439.829	92.25
440.05	96.25
440.272	102.25
440.493	105.25
440.715	95.25
440.936	90.25
441.158	96.25
441.379	96.25
441.6	99.25
441.822	102.25
442.043	91.25
442.264	124.25
442.486	183.25
442.707	243.25
442.928	172.25
443.149	126.25
443.371	224.25
443.592	380.25
443.813	322.25
444.034	140.25
444.255	112.25
444.476	103.25
444.698	99.25
444.919	120.25
445.14	199.25
445.361	283.25
445.582	449.25
445.803	392.25
446.024	169.25
446.245	102.25
446.466	86.25
446.687	102.25
446.908	99.25
447.129	107.25
447.35	96.25
447.571	104.25
447.792	101.25
448.013	96.25
448.234	85.25
448.455	74.25
448.675	99.25
448.896	92.25
449.117	84.25
449.338	90.25
449.559	83.25
449.779	88.25
450	86.25
450.221	90.25
450.442	90.25
450.662	80.25
450.883	96.25
451.104	84.25
451.324	95.25
451.545	93.25
451.766	86.25
451.986	87.25
452.207	94.25
452.428	90.25
452.648	110.25
452.869	131.25
453.089	107.25
453.31	97.25
453.53	102.25
453.751	85.25
453.971	92.25
454.192	102.25
454.412	96.25
454.633	85.25
454.853	90.25
455.073	93.25
455.294	80.25
455.514	100.25
455.734	88.25
455.955	93.25
456.175	89.25
456.395	110.25
456.616	100.25
456.836	96.25
457.056	89.25
457.276	89.25
457.497	103.25
457.717	107.25
457.937	146.25
458.157	194.25
458.377	194.25
458.598	180.25
458.818	195.25
459.038	116.25
459.258	98.25
459.478	95.25
459.698	84.25
459.918	93.25
460.138	100.25
460.358	106.25
460.578	103.25
460.798	136.25
461.018	131.25
461.238	96.25
461.458	78.25
461.678	82.25
461.898	94.25
462.118	98.25
462.338	95.25
462.558	88.25
462.777	88.25
462.997	89.25
463.217	107.25
463.437	99.25
463.657	94.25
463.876	97.25
464.096	86.25
464.316	98.25
464.536	91.25
464.755	88.25
464.975	85.25
465.195	91.25
465.414	90.25
465.634	85.25
465.854	88.25
466.073	91.25
466.293	104.25
466.512	102.25
466.732	94.25
466.951	85.25
467.171	99.25
467.391	95.25
467.61	85.25
467.829	100.25
468.049	88.25
468.268	95.25
468.488	96.25
468.707	86.25
468.927	95.25
469.146	82.25
469.365	96.25
469.585	94.25
469.804	99.25
470.023	74.25
470.243	81.25
470.462	85.25
470.681	82.25
470.901	94.25
471.12	86.25
471.339	96.25
471.558	90.25
471.777	101.25
471.997	101.25
472.216	88.25
472.435	97.25
472.654	102.25
472.873	91.25
473.092	111.25
473.311	93.25
473.53	98.25
473.749	95.25
473.968	100.25
474.187	100.25
474.406	85.25
474.625	92.25
474.844	105.25
475.063	86.25
475.282	94.25
475.501	86.25
475.72	82.25
475.939	89.25
476.158	84.25
476.377	82.25
476.596	79.25
476.814	76.25
477.033	84.25
477.252	83.25
477.471	84.25
477.69	99.25
477.908	114.25
478.127	98.25
478.346	84.25
478.564	88.25
478.783	100.25
479.002	94.25
479.22	106.25
479.439	76.25
479.658	99.25
479.876	102.25
480.095	91.25
480.313	90.25
480.532	100.25
480.751	105.25
480.969	86.25
481.188	105.25
481.406	102.25
481.624	90.25
481.843	71.25
482.061	98.25
482.28	86.25
482.498	93.25
482.717	90.25
482.935	95.25
483.153	99.25
483.372	87.25
483.59	104.25
483.808	102.25
484.027	108.25
484.245	101.25
484.463	101.25
484.681	117.25
484.9	104.25
485.118	97.25
485.336	99.25
485.554	93.25
485.772	109.25
485.99	100.25
486.209	90.25
486.427	93.25
486.645	84.25
486.863	89.25
487.081	86.25
487.299	102.25
487.517	110.25
487.735	168.25
487.953	296.25
488.171	226.25
488.389	123.25
488.607	102.25
488.825	96.25
489.043	95.25
489.261	101.25
489.479	93.25
489.696	88.25
489.914	96.25
490.132	105.25
490.35	104.25
490.568	91.25
490.786	83.25
491.003	80.25
491.221	86.25
491.439	90.25
491.657	105.25
491.874	104.25
492.092	97.25
492.31	108.25
492.527	105.25
492.745	85.25
492.963	81.25
493.18	83.25
493.398	99.25
493.615	104.25
493.833	82.25
494.05	80.25
494.268	90.25
494.485	92.25
494.703	97.25
494.92	92.25
495.138	99.25
495.355	82.25
495.573	97.25
495.79	99.25
496.008	104.25
496.225	95.25
496.442	116.25
496.66	105.25
496.877	95.25
497.094	104.25
497.312	91.25
497.529	83.25
497.746	96.25
497.963	100.25
498.181	100.25
498.398	105.25
498.615	90.25
498.832	88.25
499.049	94.25
499.267	103.25
499.484	91.25
499.701	109.25
499.918	102.25
500.135	87.25
500.352	101.25
500.569	97.25
500.786	99.25
501.003	104.25
501.22	87.25
501.437	97.25
501.654	98.25
501.871	98.25
502.088	95.25
502.305	108.25
502.522	96.25
502.739	75.25
502.956	94.25
503.172	90.25
503.389	87.25
503.606	99.25
503.823	117.25
504.04	118.25
504.256	220.25
504.473	227.25
504.69	137.25
504.907	104.25
505.123	92.25
505.34	99.25
505.557	88.25
505.773	102.25
505.99	94.25
506.207	96.25
506.423	86.25
506.64	83.25
506.856	104.25
507.073	94.25
507.289	99.25
507.506	98.25
507.722	88.25
507.939	103.25
508.155	110.25
508.372	97.25
508.588	100.25
508.805	94.25
509.021	85.25
509.238	84.25
509.454	84.25
509.67	94.25
509.887	102.25
510.103	101.25
510.319	87.25
510.536	97.25
510.752	96.25
510.968	81.25
511.184	95.25
511.401	90.25
511.617	103.25
511.833	106.25
512.049	97.25
512.265	87.25
512.481	101.25
512.698	104.25
512.914	92.25
513.13	98.25
513.346	96.25
513.562	93.25
513.778	105.25
513.994	84.25
514.21	93.25
514.426	97.25
514.642	95.25
514.858	90.25
515.074	89.25
515.29	111.25
515.506	84.25
