Data from CBS_2_HRD10591_00003.txt Node
Date: Mon Jan 19 14:04:47 EST 2026
User: Yrep
Spectrometer: HR+D1059
Trigger mode: 1
Integration Time (sec): 1.000000E-1
Scans to average: 1
Electric dark correction enabled: true
Nonlinearity correction enabled: false
Boxcar width: 0
XAxis mode: Wavelengths
Number of Pixels in Spectrum: 2048
>>>>>Begin Spectral Data<<<<<
223.165	-24.81
223.4	-24.81
223.635	-24.81
223.869	-22.81
224.104	-15.81
224.338	-24.81
224.573	-13.81
224.808	-1.81
225.042	-7.81
225.277	-12.81
225.511	0.19
225.746	3.19
225.98	9.19
226.215	13.19
226.449	12.19
226.683	33.19
226.918	26.19
227.152	27.19
227.387	39.19
227.621	37.19
227.856	58.19
228.09	42.19
228.324	48.19
228.559	60.19
228.793	66.19
229.027	58.19
229.262	78.19
229.496	75.19
229.73	68.19
229.964	83.19
230.199	60.19
230.433	76.19
230.667	81.19
230.901	74.19
231.136	78.19
231.37	80.19
231.604	79.19
231.838	92.19
232.072	80.19
232.306	88.19
232.541	91.19
232.775	87.19
233.009	69.19
233.243	74.19
233.477	79.19
233.711	81.19
233.945	69.19
234.179	80.19
234.413	71.19
234.647	90.19
234.881	82.19
235.115	78.19
235.349	77.19
235.583	89.19
235.817	80.19
236.051	75.19
236.285	72.19
236.519	80.19
236.753	67.19
236.987	82.19
237.221	78.19
237.455	66.19
237.689	74.19
237.922	78.19
238.156	70.19
238.39	82.19
238.624	84.19
238.858	84.19
239.091	81.19
239.325	87.19
239.559	81.19
239.793	96.19
240.027	78.19
240.26	82.19
240.494	105.19
240.728	77.19
240.961	76.19
241.195	85.19
241.429	83.19
241.662	86.19
241.896	87.19
242.13	84.19
242.363	77.19
242.597	73.19
242.83	78.19
243.064	74.19
243.298	62.19
243.531	67.19
243.765	68.19
243.998	80.19
244.232	88.19
244.465	88.19
244.699	83.19
244.932	83.19
245.166	67.19
245.399	65.19
245.633	71.19
245.866	80.19
246.099	68.19
246.333	84.19
246.566	85.19
246.8	96.19
247.033	70.19
247.266	72.19
247.5	87.19
247.733	74.19
247.966	81.19
248.2	74.19
248.433	75.19
248.666	82.19
248.899	79.19
249.133	79.19
249.366	83.19
249.599	83.19
249.832	89.19
250.066	84.19
250.299	67.19
250.532	80.19
250.765	75.19
250.998	86.19
251.231	76.19
251.465	82.19
251.698	80.19
251.931	75.19
252.164	80.19
252.397	84.19
252.63	80.19
252.863	93.19
253.096	93.19
253.329	87.19
253.562	78.19
253.795	87.19
254.028	95.19
254.261	71.19
254.494	80.19
254.727	89.19
254.96	64.19
255.193	92.19
255.426	83.19
255.659	74.19
255.892	78.19
256.124	88.19
256.357	91.19
256.59	74.19
256.823	81.19
257.056	67.19
257.289	75.19
257.521	79.19
257.754	78.19
257.987	75.19
258.22	71.19
258.452	87.19
258.685	71.19
258.918	75.19
259.151	90.19
259.383	83.19
259.616	82.19
259.849	81.19
260.081	82.19
260.314	92.19
260.547	83.19
260.779	79.19
261.012	90.19
261.244	82.19
261.477	85.19
261.71	85.19
261.942	89.19
262.175	91.19
262.407	67.19
262.64	83.19
262.872	81.19
263.105	94.19
263.337	94.19
263.57	79.19
263.802	70.19
264.035	87.19
264.267	87.19
264.499	74.19
264.732	88.19
264.964	76.19
265.197	86.19
265.429	72.19
265.661	86.19
265.894	89.19
266.126	104.19
266.358	98.19
266.591	80.19
266.823	88.19
267.055	80.19
267.287	77.19
267.52	76.19
267.752	82.19
267.984	77.19
268.216	77.19
268.448	92.19
268.681	90.19
268.913	92.19
269.145	81.19
269.377	86.19
269.609	83.19
269.841	69.19
270.073	87.19
270.306	83.19
270.538	80.19
270.77	90.19
271.002	78.19
271.234	71.19
271.466	77.19
271.698	79.19
271.93	85.19
272.162	82.19
272.394	84.19
272.626	74.19
272.858	87.19
273.09	90.19
273.322	77.19
273.553	98.19
273.785	87.19
274.017	91.19
274.249	74.19
274.481	89.19
274.713	94.19
274.945	84.19
275.176	74.19
275.408	91.19
275.64	93.19
275.872	66.19
276.104	72.19
276.335	79.19
276.567	79.19
276.799	83.19
277.031	97.19
277.262	88.19
277.494	85.19
277.726	85.19
277.957	83.19
278.189	80.19
278.421	85.19
278.652	85.19
278.884	82.19
279.115	91.19
279.347	89.19
279.579	93.19
279.81	100.19
280.042	95.19
280.273	75.19
280.505	89.19
280.736	90.19
280.968	83.19
281.199	100.19
281.431	90.19
281.662	83.19
281.894	69.19
282.125	86.19
282.356	77.19
282.588	82.19
282.819	84.19
283.051	100.19
283.282	75.19
283.513	78.19
283.745	86.19
283.976	90.19
284.207	84.19
284.439	75.19
284.67	93.19
284.901	83.19
285.132	92.19
285.364	100.19
285.595	89.19
285.826	92.19
286.057	93.19
286.288	99.19
286.52	96.19
286.751	87.19
286.982	96.19
287.213	89.19
287.444	98.19
287.675	80.19
287.906	88.19
288.138	91.19
288.369	88.19
288.6	94.19
288.831	99.19
289.062	94.19
289.293	81.19
289.524	82.19
289.755	107.19
289.986	87.19
290.217	86.19
290.448	88.19
290.679	84.19
290.91	73.19
291.141	89.19
291.371	89.19
291.602	101.19
291.833	94.19
292.064	83.19
292.295	83.19
292.526	84.19
292.757	81.19
292.987	90.19
293.218	91.19
293.449	100.19
293.68	96.19
293.91	94.19
294.141	95.19
294.372	85.19
294.603	94.19
294.833	85.19
295.064	90.19
295.295	100.19
295.525	97.19
295.756	97.19
295.987	90.19
296.217	97.19
296.448	92.19
296.679	86.19
296.909	94.19
297.14	99.19
297.37	101.19
297.601	98.19
297.831	94.19
298.062	82.19
298.292	101.19
298.523	88.19
298.753	85.19
298.984	92.19
299.214	75.19
299.445	103.19
299.675	91.19
299.905	84.19
300.136	104.19
300.366	108.19
300.597	101.19
300.827	98.19
301.057	94.19
301.288	96.19
301.518	91.19
301.748	90.19
301.979	95.19
302.209	95.19
302.439	91.19
302.669	90.19
302.9	95.19
303.13	88.19
303.36	90.19
303.59	82.19
303.82	86.19
304.051	79.19
304.281	94.19
304.511	97.19
304.741	90.19
304.971	92.19
305.201	86.19
305.431	89.19
305.661	94.19
305.891	92.19
306.121	75.19
306.352	82.19
306.582	93.19
306.812	81.19
307.042	81.19
307.272	95.19
307.502	85.19
307.731	87.19
307.961	98.19
308.191	89.19
308.421	103.19
308.651	103.19
308.881	95.19
309.111	98.19
309.341	118.19
309.571	106.19
309.8	91.19
310.03	84.19
310.26	91.19
310.49	86.19
310.72	86.19
310.949	86.19
311.179	86.19
311.409	95.19
311.639	88.19
311.868	90.19
312.098	79.19
312.328	94.19
312.557	90.19
312.787	107.19
313.017	90.19
313.246	98.19
313.476	87.19
313.706	90.19
313.935	96.19
314.165	91.19
314.394	92.19
314.624	99.19
314.853	96.19
315.083	80.19
315.312	97.19
315.542	102.19
315.771	106.19
316.001	118.19
316.23	113.19
316.46	92.19
316.689	82.19
316.919	92.19
317.148	95.19
317.377	100.19
317.607	100.19
317.836	94.19
318.065	127.19
318.295	111.19
318.524	94.19
318.753	99.19
318.983	93.19
319.212	99.19
319.441	101.19
319.67	105.19
319.9	86.19
320.129	95.19
320.358	98.19
320.587	91.19
320.816	99.19
321.046	98.19
321.275	87.19
321.504	94.19
321.733	108.19
321.962	99.19
322.191	94.19
322.42	90.19
322.649	95.19
322.878	94.19
323.108	101.19
323.337	91.19
323.566	104.19
323.795	102.19
324.024	80.19
324.253	94.19
324.482	95.19
324.71	88.19
324.939	97.19
325.168	83.19
325.397	98.19
325.626	98.19
325.855	95.19
326.084	78.19
326.313	92.19
326.542	88.19
326.77	100.19
326.999	101.19
327.228	88.19
327.457	89.19
327.686	101.19
327.914	93.19
328.143	83.19
328.372	92.19
328.6	87.19
328.829	86.19
329.058	97.19
329.287	94.19
329.515	100.19
329.744	96.19
329.972	100.19
330.201	94.19
330.43	100.19
330.658	90.19
330.887	78.19
331.115	98.19
331.344	85.19
331.572	86.19
331.801	86.19
332.03	104.19
332.258	89.19
332.486	81.19
332.715	94.19
332.943	94.19
333.172	92.19
333.4	91.19
333.629	96.19
333.857	100.19
334.085	101.19
334.314	104.19
334.542	100.19
334.771	123.19
334.999	119.19
335.227	123.19
335.455	102.19
335.684	116.19
335.912	132.19
336.14	131.19
336.369	115.19
336.597	116.19
336.825	114.19
337.053	103.19
337.281	97.19
337.51	104.19
337.738	84.19
337.966	106.19
338.194	88.19
338.422	83.19
338.65	97.19
338.878	96.19
339.106	91.19
339.334	113.19
339.562	88.19
339.79	98.19
340.018	84.19
340.246	90.19
340.474	91.19
340.702	92.19
340.93	81.19
341.158	92.19
341.386	100.19
341.614	86.19
341.842	86.19
342.07	88.19
342.298	89.19
342.526	99.19
342.754	86.19
342.981	93.19
343.209	92.19
343.437	108.19
343.665	94.19
343.893	102.19
344.12	90.19
344.348	90.19
344.576	104.19
344.804	102.19
345.031	84.19
345.259	85.19
345.487	102.19
345.714	100.19
345.942	101.19
346.17	100.19
346.397	89.19
346.625	81.19
346.853	103.19
347.08	104.19
347.308	92.19
347.535	83.19
347.763	114.19
347.99	84.19
348.218	109.19
348.445	90.19
348.673	98.19
348.9	114.19
349.128	106.19
349.355	104.19
349.583	76.19
349.81	95.19
350.037	94.19
350.265	95.19
350.492	89.19
350.72	88.19
350.947	96.19
351.174	92.19
351.402	84.19
351.629	95.19
351.856	88.19
352.083	96.19
352.311	86.19
352.538	101.19
352.765	88.19
352.992	96.19
353.22	89.19
353.447	99.19
353.674	79.19
353.901	92.19
354.128	91.19
354.355	99.19
354.583	85.19
354.81	98.19
355.037	94.19
355.264	91.19
355.491	84.19
355.718	95.19
355.945	99.19
356.172	103.19
356.399	98.19
356.626	104.19
356.853	99.19
357.08	98.19
357.307	88.19
357.534	96.19
357.761	113.19
357.988	104.19
358.215	100.19
358.441	90.19
358.668	94.19
358.895	78.19
359.122	90.19
359.349	93.19
359.576	94.19
359.802	90.19
360.029	100.19
360.256	99.19
360.483	112.19
360.709	91.19
360.936	112.19
361.163	98.19
361.39	84.19
361.616	115.19
361.843	112.19
362.07	130.19
362.296	158.19
362.523	170.19
362.749	177.19
362.976	212.19
363.203	218.19
363.429	151.19
363.656	145.19
363.882	164.19
364.109	198.19
364.335	266.19
364.562	272.19
364.788	169.19
365.015	108.19
365.241	102.19
365.468	97.19
365.694	96.19
365.92	88.19
366.147	90.19
366.373	99.19
366.599	94.19
366.826	90.19
367.052	103.19
367.278	87.19
367.505	85.19
367.731	108.19
367.957	98.19
368.184	105.19
368.41	96.19
368.636	82.19
368.862	113.19
369.089	107.19
369.315	86.19
369.541	99.19
369.767	88.19
369.993	72.19
370.219	98.19
370.445	111.19
370.672	114.19
370.898	96.19
371.124	91.19
371.35	90.19
371.576	95.19
371.802	80.19
372.028	101.19
372.254	104.19
372.48	104.19
372.706	95.19
372.932	104.19
373.158	112.19
373.384	128.19
373.61	140.19
373.835	131.19
374.061	99.19
374.287	97.19
374.513	102.19
374.739	110.19
374.965	101.19
375.191	102.19
375.416	102.19
375.642	104.19
375.868	98.19
376.094	97.19
376.319	100.19
376.545	97.19
376.771	95.19
376.997	102.19
377.222	108.19
377.448	94.19
377.674	84.19
377.899	104.19
378.125	102.19
378.35	95.19
378.576	82.19
378.802	90.19
379.027	100.19
379.253	108.19
379.478	94.19
379.704	105.19
379.929	99.19
380.155	89.19
380.38	102.19
380.606	91.19
380.831	108.19
381.057	98.19
381.282	98.19
381.507	107.19
381.733	92.19
381.958	96.19
382.184	100.19
382.409	119.19
382.634	110.19
382.86	113.19
383.085	118.19
383.31	122.19
383.535	116.19
383.761	119.19
383.986	114.19
384.211	102.19
384.436	102.19
384.662	111.19
384.887	116.19
385.112	116.19
385.337	120.19
385.562	118.19
385.787	110.19
386.013	116.19
386.238	126.19
386.463	132.19
386.688	120.19
386.913	118.19
387.138	132.19
387.363	125.19
387.588	129.19
387.813	123.19
388.038	130.19
388.263	107.19
388.488	116.19
388.713	120.19
388.938	124.19
389.163	105.19
389.387	102.19
389.612	96.19
389.837	114.19
390.062	107.19
390.287	116.19
390.512	109.19
390.736	105.19
390.961	117.19
391.186	123.19
391.411	124.19
391.636	124.19
391.86	124.19
392.085	125.19
392.31	145.19
392.534	164.19
392.759	205.19
392.984	326.19
393.208	542.19
393.433	698.19
393.658	544.19
393.882	286.19
394.107	198.19
394.331	186.19
394.556	181.19
394.78	151.19
395.005	150.19
395.229	130.19
395.454	153.19
395.678	158.19
395.903	206.19
396.127	252.19
396.352	264.19
396.576	328.19
396.801	510.19
397.025	582.19
397.249	357.19
397.474	240.19
397.698	167.19
397.922	121.19
398.147	115.19
398.371	120.19
398.595	115.19
398.82	99.19
399.044	107.19
399.268	99.19
399.492	119.19
399.717	106.19
399.941	107.19
400.165	100.19
400.389	96.19
400.613	99.19
400.837	128.19
401.062	122.19
401.286	107.19
401.51	106.19
401.734	117.19
401.958	105.19
402.182	110.19
402.406	102.19
402.63	101.19
402.854	104.19
403.078	113.19
403.302	118.19
403.526	117.19
403.75	120.19
403.974	112.19
404.198	116.19
404.422	159.19
404.645	169.19
404.869	146.19
405.093	103.19
405.317	99.19
405.541	104.19
405.765	97.19
405.988	104.19
406.212	127.19
406.436	102.19
406.66	101.19
406.883	101.19
407.107	101.19
407.331	111.19
407.555	117.19
407.778	154.19
408.002	161.19
408.226	114.19
408.449	118.19
408.673	106.19
408.896	100.19
409.12	109.19
409.344	149.19
409.567	160.19
409.791	155.19
410.014	171.19
410.238	139.19
410.461	126.19
410.685	131.19
410.908	125.19
411.132	101.19
411.355	103.19
411.578	109.19
411.802	100.19
412.025	119.19
412.249	100.19
412.472	98.19
412.695	111.19
412.919	80.19
413.142	105.19
413.365	105.19
413.589	102.19
413.812	97.19
414.035	104.19
414.258	105.19
414.482	94.19
414.705	103.19
414.928	96.19
415.151	91.19
415.374	102.19
415.597	90.19
415.821	100.19
416.044	107.19
416.267	99.19
416.49	97.19
416.713	105.19
416.936	108.19
417.159	106.19
417.382	102.19
417.605	108.19
417.828	98.19
418.051	105.19
418.274	101.19
418.497	97.19
418.72	104.19
418.943	115.19
419.166	103.19
419.389	103.19
419.611	124.19
419.834	131.19
420.057	114.19
420.28	115.19
420.503	129.19
420.726	127.19
420.948	135.19
421.171	149.19
421.394	175.19
421.617	214.19
421.839	234.19
422.062	300.19
422.285	419.19
422.507	610.19
422.73	746.19
422.953	691.19
423.175	484.19
423.398	348.19
423.621	253.19
423.843	194.19
424.066	185.19
424.288	156.19
424.511	136.19
424.733	130.19
424.956	124.19
425.178	123.19
425.401	132.19
425.623	117.19
425.846	103.19
426.068	101.19
426.291	121.19
426.513	124.19
426.735	105.19
426.958	97.19
427.18	108.19
427.402	105.19
427.625	114.19
427.847	120.19
428.069	145.19
428.292	246.19
428.514	264.19
428.736	196.19
428.958	241.19
429.181	259.19
429.403	153.19
429.625	150.19
429.847	240.19
430.069	344.19
430.292	390.19
430.514	393.19
430.736	267.19
430.958	264.19
431.18	155.19
431.402	123.19
431.624	138.19
431.846	216.19
432.068	258.19
432.29	174.19
432.512	118.19
432.734	91.19
432.956	107.19
433.178	101.19
433.4	119.19
433.622	103.19
433.844	96.19
434.066	111.19
434.287	105.19
434.509	88.19
434.731	100.19
434.953	103.19
435.175	106.19
435.397	108.19
435.618	121.19
435.84	124.19
436.062	122.19
436.284	95.19
436.505	102.19
436.727	102.19
436.949	108.19
437.17	108.19
437.392	88.19
437.614	97.19
437.835	94.19
438.057	110.19
438.278	105.19
438.5	100.19
438.721	117.19
438.943	92.19
439.165	100.19
439.386	90.19
439.608	111.19
439.829	106.19
440.05	107.19
440.272	89.19
440.493	107.19
440.715	95.19
440.936	96.19
441.158	110.19
441.379	96.19
441.6	100.19
441.822	115.19
442.043	125.19
442.264	149.19
442.486	290.19
442.707	402.19
442.928	263.19
443.149	216.19
443.371	360.19
443.592	626.19
443.813	507.19
444.034	202.19
444.255	152.19
444.476	147.19
444.698	141.19
444.919	135.19
445.14	294.19
445.361	445.19
445.582	738.19
445.803	601.19
446.024	259.19
446.245	149.19
446.466	123.19
446.687	118.19
446.908	94.19
447.129	100.19
447.35	95.19
447.571	96.19
447.792	93.19
448.013	94.19
448.234	98.19
448.455	94.19
448.675	102.19
448.896	94.19
449.117	94.19
449.338	96.19
449.559	100.19
449.779	98.19
450	86.19
450.221	87.19
450.442	108.19
450.662	103.19
450.883	85.19
451.104	99.19
451.324	96.19
451.545	110.19
451.766	103.19
451.986	93.19
452.207	112.19
452.428	101.19
452.648	126.19
452.869	168.19
453.089	154.19
453.31	118.19
453.53	103.19
453.751	118.19
453.971	112.19
454.192	98.19
454.412	98.19
454.633	89.19
454.853	88.19
455.073	107.19
455.294	99.19
455.514	102.19
455.734	104.19
455.955	99.19
456.175	85.19
456.395	102.19
456.616	107.19
456.836	100.19
457.056	92.19
457.276	115.19
457.497	117.19
457.717	129.19
457.937	222.19
458.157	263.19
458.377	296.19
458.598	285.19
458.818	295.19
459.038	200.19
459.258	105.19
459.478	99.19
459.698	99.19
459.918	88.19
460.138	100.19
460.358	107.19
460.578	117.19
460.798	171.19
461.018	161.19
461.238	95.19
461.458	94.19
461.678	89.19
461.898	95.19
462.118	94.19
462.338	86.19
462.558	94.19
462.777	90.19
462.997	89.19
463.217	91.19
463.437	93.19
463.657	102.19
463.876	92.19
464.096	86.19
464.316	98.19
464.536	106.19
464.755	101.19
464.975	88.19
465.195	91.19
465.414	84.19
465.634	95.19
465.854	97.19
466.073	105.19
466.293	97.19
466.512	100.19
466.732	104.19
466.951	101.19
467.171	83.19
467.391	103.19
467.61	86.19
467.829	99.19
468.049	95.19
468.268	110.19
468.488	102.19
468.707	114.19
468.927	96.19
469.146	98.19
469.365	102.19
469.585	99.19
469.804	102.19
470.023	94.19
470.243	102.19
470.462	84.19
470.681	110.19
470.901	98.19
471.12	100.19
471.339	100.19
471.558	91.19
471.777	84.19
471.997	86.19
472.216	84.19
472.435	107.19
472.654	99.19
472.873	102.19
473.092	84.19
473.311	94.19
473.53	92.19
473.749	102.19
473.968	110.19
474.187	97.19
474.406	99.19
474.625	100.19
474.844	89.19
475.063	110.19
475.282	95.19
475.501	91.19
475.72	96.19
475.939	83.19
476.158	95.19
476.377	99.19
476.596	96.19
476.814	103.19
477.033	90.19
477.252	106.19
477.471	100.19
477.69	99.19
477.908	102.19
478.127	95.19
478.346	101.19
478.564	102.19
478.783	96.19
479.002	93.19
479.22	102.19
479.439	97.19
479.658	91.19
479.876	91.19
480.095	107.19
480.313	89.19
480.532	97.19
480.751	93.19
480.969	99.19
481.188	96.19
481.406	105.19
481.624	113.19
481.843	114.19
482.061	114.19
482.28	100.19
482.498	101.19
482.717	102.19
482.935	108.19
483.153	106.19
483.372	106.19
483.59	91.19
483.808	88.19
484.027	114.19
484.245	122.19
484.463	105.19
484.681	116.19
484.9	110.19
485.118	106.19
485.336	99.19
485.554	107.19
485.772	103.19
485.99	104.19
486.209	85.19
486.427	100.19
486.645	100.19
486.863	99.19
487.081	126.19
487.299	132.19
487.517	150.19
487.735	232.19
487.953	483.19
488.171	406.19
488.389	177.19
488.607	125.19
488.825	111.19
489.043	113.19
489.261	105.19
489.479	88.19
489.696	97.19
489.914	106.19
490.132	101.19
490.35	104.19
490.568	108.19
490.786	111.19
491.003	104.19
491.221	95.19
491.439	99.19
491.657	94.19
491.874	97.19
492.092	100.19
492.31	115.19
492.527	111.19
492.745	92.19
492.963	94.19
493.18	106.19
493.398	96.19
493.615	104.19
493.833	85.19
494.05	106.19
494.268	103.19
494.485	100.19
494.703	105.19
494.92	101.19
495.138	89.19
495.355	103.19
495.573	87.19
495.79	95.19
496.008	112.19
496.225	105.19
496.442	115.19
496.66	118.19
496.877	103.19
497.094	103.19
497.312	103.19
497.529	104.19
497.746	102.19
497.963	99.19
498.181	102.19
498.398	112.19
498.615	100.19
498.832	93.19
499.049	88.19
499.267	96.19
499.484	92.19
499.701	110.19
499.918	107.19
500.135	105.19
500.352	111.19
500.569	104.19
500.786	104.19
501.003	107.19
501.22	99.19
501.437	99.19
501.654	101.19
501.871	100.19
502.088	94.19
502.305	108.19
502.522	100.19
502.739	111.19
502.956	107.19
503.172	99.19
503.389	108.19
503.606	106.19
503.823	130.19
504.04	175.19
504.256	306.19
504.473	342.19
504.69	169.19
504.907	124.19
505.123	111.19
505.34	94.19
505.557	91.19
505.773	116.19
505.99	106.19
506.207	115.19
506.423	122.19
506.64	95.19
506.856	108.19
507.073	102.19
507.289	91.19
507.506	103.19
507.722	101.19
507.939	92.19
508.155	109.19
508.372	106.19
508.588	88.19
508.805	100.19
509.021	108.19
509.238	103.19
509.454	105.19
509.67	92.19
509.887	106.19
510.103	111.19
510.319	107.19
510.536	90.19
510.752	89.19
510.968	110.19
511.184	107.19
511.401	110.19
511.617	110.19
511.833	98.19
512.049	95.19
512.265	96.19
