Data from CBS_2_HRD10591_00014.txt Node
Date: Mon Jan 19 14:04:53 EST 2026
User: Yrep
Spectrometer: HR+D1059
Trigger mode: 1
Integration Time (sec): 1.000000E-1
Scans to average: 1
Electric dark correction enabled: true
Nonlinearity correction enabled: false
Boxcar width: 0
XAxis mode: Wavelengths
Number of Pixels in Spectrum: 2048
>>>>>Begin Spectral Data<<<<<
223.165	1.25
223.4	1.25
223.635	1.25
223.869	-19.75
224.104	-22.75
224.338	-17.75
224.573	-20.75
224.808	-16.75
225.042	-15.75
225.277	-2.75
225.511	3.25
225.746	12.25
225.98	4.25
226.215	1.25
226.449	12.25
226.683	21.25
226.918	19.25
227.152	41.25
227.387	37.25
227.621	41.25
227.856	45.25
228.09	39.25
228.324	69.25
228.559	63.25
228.793	58.25
229.027	64.25
229.262	77.25
229.496	65.25
229.73	72.25
229.964	76.25
230.199	81.25
230.433	83.25
230.667	76.25
230.901	86.25
231.136	65.25
231.37	83.25
231.604	78.25
231.838	100.25
232.072	86.25
232.306	69.25
232.541	77.25
232.775	92.25
233.009	75.25
233.243	74.25
233.477	65.25
233.711	73.25
233.945	77.25
234.179	80.25
234.413	83.25
234.647	90.25
234.881	76.25
235.115	74.25
235.349	74.25
235.583	94.25
235.817	79.25
236.051	78.25
236.285	76.25
236.519	77.25
236.753	77.25
236.987	72.25
237.221	74.25
237.455	74.25
237.689	83.25
237.922	75.25
238.156	76.25
238.39	92.25
238.624	85.25
238.858	63.25
239.091	77.25
239.325	66.25
239.559	76.25
239.793	66.25
240.027	84.25
240.26	79.25
240.494	92.25
240.728	83.25
240.961	72.25
241.195	78.25
241.429	69.25
241.662	72.25
241.896	77.25
242.13	69.25
242.363	69.25
242.597	64.25
242.83	84.25
243.064	93.25
243.298	76.25
243.531	83.25
243.765	68.25
243.998	78.25
244.232	81.25
244.465	75.25
244.699	87.25
244.932	80.25
245.166	85.25
245.399	74.25
245.633	79.25
245.866	67.25
246.099	75.25
246.333	82.25
246.566	86.25
246.8	79.25
247.033	83.25
247.266	84.25
247.5	81.25
247.733	77.25
247.966	89.25
248.2	86.25
248.433	80.25
248.666	73.25
248.899	65.25
249.133	83.25
249.366	86.25
249.599	85.25
249.832	83.25
250.066	95.25
250.299	81.25
250.532	80.25
250.765	74.25
250.998	72.25
251.231	69.25
251.465	72.25
251.698	79.25
251.931	92.25
252.164	74.25
252.397	86.25
252.63	74.25
252.863	88.25
253.096	88.25
253.329	91.25
253.562	83.25
253.795	71.25
254.028	91.25
254.261	77.25
254.494	87.25
254.727	72.25
254.96	66.25
255.193	83.25
255.426	73.25
255.659	73.25
255.892	85.25
256.124	89.25
256.357	101.25
256.59	75.25
256.823	84.25
257.056	76.25
257.289	89.25
257.521	81.25
257.754	75.25
257.987	67.25
258.22	83.25
258.452	70.25
258.685	78.25
258.918	79.25
259.151	83.25
259.383	76.25
259.616	91.25
259.849	95.25
260.081	77.25
260.314	102.25
260.547	92.25
260.779	74.25
261.012	80.25
261.244	80.25
261.477	75.25
261.71	75.25
261.942	75.25
262.175	85.25
262.407	74.25
262.64	76.25
262.872	78.25
263.105	87.25
263.337	81.25
263.57	83.25
263.802	84.25
264.035	82.25
264.267	86.25
264.499	82.25
264.732	85.25
264.964	90.25
265.197	80.25
265.429	70.25
265.661	77.25
265.894	79.25
266.126	85.25
266.358	78.25
266.591	87.25
266.823	85.25
267.055	68.25
267.287	74.25
267.52	83.25
267.752	67.25
267.984	77.25
268.216	77.25
268.448	75.25
268.681	68.25
268.913	90.25
269.145	83.25
269.377	77.25
269.609	91.25
269.841	82.25
270.073	82.25
270.306	86.25
270.538	87.25
270.77	93.25
271.002	87.25
271.234	100.25
271.466	77.25
271.698	94.25
271.93	82.25
272.162	95.25
272.394	91.25
272.626	88.25
272.858	89.25
273.09	98.25
273.322	95.25
273.553	96.25
273.785	93.25
274.017	80.25
274.249	90.25
274.481	83.25
274.713	83.25
274.945	96.25
275.176	100.25
275.408	88.25
275.64	77.25
275.872	76.25
276.104	73.25
276.335	82.25
276.567	86.25
276.799	93.25
277.031	83.25
277.262	97.25
277.494	84.25
277.726	87.25
277.957	93.25
278.189	102.25
278.421	87.25
278.652	85.25
278.884	71.25
279.115	88.25
279.347	84.25
279.579	79.25
279.81	92.25
280.042	83.25
280.273	84.25
280.505	88.25
280.736	83.25
280.968	77.25
281.199	87.25
281.431	105.25
281.662	83.25
281.894	91.25
282.125	87.25
282.356	85.25
282.588	88.25
282.819	86.25
283.051	79.25
283.282	82.25
283.513	99.25
283.745	91.25
283.976	85.25
284.207	88.25
284.439	84.25
284.67	82.25
284.901	96.25
285.132	87.25
285.364	88.25
285.595	89.25
285.826	96.25
286.057	86.25
286.288	78.25
286.52	98.25
286.751	86.25
286.982	92.25
287.213	92.25
287.444	85.25
287.675	99.25
287.906	96.25
288.138	86.25
288.369	103.25
288.6	55.25
288.831	92.25
289.062	82.25
289.293	83.25
289.524	83.25
289.755	91.25
289.986	77.25
290.217	83.25
290.448	77.25
290.679	92.25
290.91	86.25
291.141	87.25
291.371	86.25
291.602	85.25
291.833	88.25
292.064	89.25
292.295	92.25
292.526	93.25
292.757	90.25
292.987	91.25
293.218	80.25
293.449	83.25
293.68	99.25
293.91	88.25
294.141	85.25
294.372	77.25
294.603	93.25
294.833	80.25
295.064	88.25
295.295	83.25
295.525	99.25
295.756	83.25
295.987	88.25
296.217	81.25
296.448	83.25
296.679	105.25
296.909	96.25
297.14	78.25
297.37	98.25
297.601	80.25
297.831	87.25
298.062	112.25
298.292	84.25
298.523	89.25
298.753	85.25
298.984	75.25
299.214	89.25
299.445	91.25
299.675	97.25
299.905	100.25
300.136	99.25
300.366	101.25
300.597	97.25
300.827	100.25
301.057	82.25
301.288	100.25
301.518	97.25
301.748	84.25
301.979	90.25
302.209	107.25
302.439	73.25
302.669	80.25
302.9	75.25
303.13	95.25
303.36	88.25
303.59	79.25
303.82	91.25
304.051	91.25
304.281	77.25
304.511	95.25
304.741	71.25
304.971	87.25
305.201	104.25
305.431	91.25
305.661	88.25
305.891	88.25
306.121	94.25
306.352	95.25
306.582	95.25
306.812	73.25
307.042	87.25
307.272	99.25
307.502	85.25
307.731	74.25
307.961	104.25
308.191	106.25
308.421	101.25
308.651	89.25
308.881	89.25
309.111	101.25
309.341	95.25
309.571	104.25
309.8	93.25
310.03	77.25
310.26	101.25
310.49	97.25
310.72	84.25
310.949	90.25
311.179	96.25
311.409	93.25
311.639	88.25
311.868	96.25
312.098	87.25
312.328	91.25
312.557	96.25
312.787	98.25
313.017	107.25
313.246	69.25
313.476	89.25
313.706	96.25
313.935	85.25
314.165	100.25
314.394	95.25
314.624	100.25
314.853	95.25
315.083	91.25
315.312	87.25
315.542	95.25
315.771	72.25
316.001	100.25
316.23	105.25
316.46	102.25
316.689	99.25
316.919	91.25
317.148	93.25
317.377	88.25
317.607	92.25
317.836	96.25
318.065	103.25
318.295	86.25
318.524	77.25
318.753	92.25
318.983	95.25
319.212	92.25
319.441	85.25
319.67	81.25
319.9	98.25
320.129	90.25
320.358	89.25
320.587	93.25
320.816	82.25
321.046	95.25
321.275	103.25
321.504	90.25
321.733	96.25
321.962	94.25
322.191	102.25
322.42	100.25
322.649	100.25
322.878	99.25
323.108	101.25
323.337	89.25
323.566	108.25
323.795	101.25
324.024	87.25
324.253	87.25
324.482	92.25
324.71	85.25
324.939	99.25
325.168	80.25
325.397	103.25
325.626	97.25
325.855	84.25
326.084	86.25
326.313	87.25
326.542	97.25
326.77	86.25
326.999	83.25
327.228	92.25
327.457	92.25
327.686	84.25
327.914	95.25
328.143	96.25
328.372	104.25
328.6	88.25
328.829	86.25
329.058	99.25
329.287	96.25
329.515	79.25
329.744	95.25
329.972	80.25
330.201	87.25
330.43	85.25
330.658	83.25
330.887	84.25
331.115	97.25
331.344	92.25
331.572	117.25
331.801	103.25
332.03	96.25
332.258	96.25
332.486	81.25
332.715	91.25
332.943	90.25
333.172	111.25
333.4	94.25
333.629	97.25
333.857	89.25
334.085	88.25
334.314	99.25
334.542	107.25
334.771	102.25
334.999	106.25
335.227	98.25
335.455	99.25
335.684	106.25
335.912	118.25
336.14	132.25
336.369	95.25
336.597	92.25
336.825	107.25
337.053	112.25
337.281	107.25
337.51	100.25
337.738	119.25
337.966	96.25
338.194	85.25
338.422	84.25
338.65	75.25
338.878	103.25
339.106	89.25
339.334	97.25
339.562	85.25
339.79	96.25
340.018	100.25
340.246	83.25
340.474	86.25
340.702	88.25
340.93	87.25
341.158	95.25
341.386	88.25
341.614	87.25
341.842	100.25
342.07	81.25
342.298	99.25
342.526	88.25
342.754	85.25
342.981	90.25
343.209	84.25
343.437	99.25
343.665	90.25
343.893	75.25
344.12	101.25
344.348	95.25
344.576	79.25
344.804	100.25
345.031	100.25
345.259	80.25
345.487	92.25
345.714	95.25
345.942	91.25
346.17	84.25
346.397	88.25
346.625	89.25
346.853	92.25
347.08	108.25
347.308	107.25
347.535	96.25
347.763	99.25
347.99	93.25
348.218	98.25
348.445	94.25
348.673	96.25
348.9	102.25
349.128	97.25
349.355	98.25
349.583	87.25
349.81	102.25
350.037	91.25
350.265	85.25
350.492	101.25
350.72	85.25
350.947	86.25
351.174	86.25
351.402	78.25
351.629	87.25
351.856	89.25
352.083	96.25
352.311	103.25
352.538	93.25
352.765	78.25
352.992	98.25
353.22	90.25
353.447	100.25
353.674	93.25
353.901	81.25
354.128	104.25
354.355	90.25
354.583	91.25
354.81	106.25
355.037	70.25
355.264	99.25
355.491	72.25
355.718	98.25
355.945	89.25
356.172	93.25
356.399	96.25
356.626	83.25
356.853	95.25
357.08	93.25
357.307	101.25
357.534	88.25
357.761	90.25
357.988	99.25
358.215	120.25
358.441	108.25
358.668	103.25
358.895	90.25
359.122	97.25
359.349	97.25
359.576	90.25
359.802	91.25
360.029	83.25
360.256	91.25
360.483	92.25
360.709	107.25
360.936	100.25
361.163	94.25
361.39	97.25
361.616	92.25
361.843	111.25
362.07	112.25
362.296	131.25
362.523	134.25
362.749	157.25
362.976	159.25
363.203	168.25
363.429	119.25
363.656	114.25
363.882	133.25
364.109	170.25
364.335	205.25
364.562	211.25
364.788	148.25
365.015	113.25
365.241	84.25
365.468	98.25
365.694	95.25
365.92	107.25
366.147	84.25
366.373	82.25
366.599	95.25
366.826	88.25
367.052	93.25
367.278	96.25
367.505	83.25
367.731	93.25
367.957	103.25
368.184	106.25
368.41	101.25
368.636	91.25
368.862	98.25
369.089	105.25
369.315	94.25
369.541	96.25
369.767	83.25
369.993	95.25
370.219	103.25
370.445	103.25
370.672	96.25
370.898	100.25
371.124	103.25
371.35	105.25
371.576	97.25
371.802	102.25
372.028	112.25
372.254	121.25
372.48	101.25
372.706	93.25
372.932	104.25
373.158	95.25
373.384	108.25
373.61	128.25
373.835	109.25
374.061	106.25
374.287	83.25
374.513	110.25
374.739	99.25
374.965	101.25
375.191	94.25
375.416	93.25
375.642	97.25
375.868	99.25
376.094	112.25
376.319	95.25
376.545	103.25
376.771	101.25
376.997	98.25
377.222	92.25
377.448	90.25
377.674	85.25
377.899	91.25
378.125	93.25
378.35	100.25
378.576	93.25
378.802	105.25
379.027	96.25
379.253	95.25
379.478	118.25
379.704	87.25
379.929	90.25
380.155	103.25
380.38	99.25
380.606	83.25
380.831	101.25
381.057	100.25
381.282	91.25
381.507	96.25
381.733	111.25
381.958	89.25
382.184	99.25
382.409	102.25
382.634	115.25
382.86	101.25
383.085	105.25
383.31	98.25
383.535	95.25
383.761	92.25
383.986	88.25
384.211	101.25
384.436	96.25
384.662	106.25
384.887	110.25
385.112	91.25
385.337	88.25
385.562	97.25
385.787	100.25
386.013	109.25
386.238	100.25
386.463	88.25
386.688	120.25
386.913	106.25
387.138	95.25
387.363	109.25
387.588	109.25
387.813	115.25
388.038	115.25
388.263	114.25
388.488	111.25
388.713	111.25
388.938	99.25
389.163	100.25
389.387	98.25
389.612	91.25
389.837	87.25
390.062	92.25
390.287	106.25
390.512	98.25
390.736	108.25
390.961	98.25
391.186	106.25
391.411	107.25
391.636	105.25
391.86	102.25
392.085	99.25
392.31	123.25
392.534	133.25
392.759	138.25
392.984	217.25
393.208	357.25
393.433	450.25
393.658	361.25
393.882	191.25
394.107	132.25
394.331	146.25
394.556	140.25
394.78	137.25
395.005	118.25
395.229	118.25
395.454	108.25
395.678	127.25
395.903	148.25
396.127	169.25
396.352	192.25
396.576	228.25
396.801	321.25
397.025	371.25
397.249	226.25
397.474	179.25
397.698	153.25
397.922	116.25
398.147	100.25
398.371	106.25
398.595	97.25
398.82	105.25
399.044	88.25
399.268	87.25
399.492	103.25
399.717	110.25
399.941	97.25
400.165	83.25
400.389	100.25
400.613	90.25
400.837	92.25
401.062	89.25
401.286	92.25
401.51	98.25
401.734	89.25
401.958	81.25
402.182	100.25
402.406	108.25
402.63	86.25
402.854	94.25
403.078	99.25
403.302	97.25
403.526	103.25
403.75	101.25
403.974	100.25
404.198	106.25
404.422	116.25
404.645	122.25
404.869	116.25
405.093	108.25
405.317	81.25
405.541	105.25
405.765	91.25
405.988	86.25
406.212	99.25
406.436	103.25
406.66	99.25
406.883	116.25
407.107	77.25
407.331	108.25
407.555	104.25
407.778	127.25
408.002	126.25
408.226	105.25
408.449	93.25
408.673	96.25
408.896	91.25
409.12	95.25
409.344	116.25
409.567	131.25
409.791	146.25
410.014	142.25
410.238	128.25
410.461	117.25
410.685	115.25
410.908	113.25
411.132	104.25
411.355	99.25
411.578	108.25
411.802	97.25
412.025	83.25
412.249	103.25
412.472	93.25
412.695	96.25
412.919	90.25
413.142	101.25
413.365	87.25
413.589	83.25
413.812	94.25
414.035	68.25
414.258	95.25
414.482	101.25
414.705	101.25
414.928	89.25
415.151	89.25
415.374	93.25
415.597	91.25
415.821	102.25
416.044	93.25
416.267	101.25
416.49	95.25
416.713	102.25
416.936	89.25
417.159	97.25
417.382	91.25
417.605	81.25
417.828	95.25
418.051	89.25
418.274	96.25
418.497	89.25
418.72	90.25
418.943	95.25
419.166	107.25
419.389	85.25
419.611	98.25
419.834	94.25
420.057	106.25
420.28	118.25
420.503	103.25
420.726	111.25
420.948	113.25
421.171	135.25
421.394	137.25
421.617	164.25
421.839	196.25
422.062	229.25
422.285	321.25
422.507	481.25
422.73	597.25
422.953	554.25
423.175	405.25
423.398	268.25
423.621	181.25
423.843	151.25
424.066	140.25
424.288	132.25
424.511	114.25
424.733	114.25
424.956	116.25
425.178	107.25
425.401	113.25
425.623	108.25
425.846	106.25
426.068	113.25
426.291	115.25
426.513	100.25
426.735	97.25
426.958	92.25
427.18	99.25
427.402	93.25
427.625	97.25
427.847	110.25
428.069	130.25
428.292	192.25
428.514	201.25
428.736	151.25
428.958	187.25
429.181	174.25
429.403	121.25
429.625	131.25
429.847	161.25
430.069	246.25
430.292	298.25
430.514	253.25
430.736	199.25
430.958	191.25
431.18	119.25
431.402	105.25
431.624	122.25
431.846	170.25
432.068	194.25
432.29	119.25
432.512	101.25
432.734	101.25
432.956	88.25
433.178	89.25
433.4	88.25
433.622	94.25
433.844	96.25
434.066	97.25
434.287	85.25
434.509	82.25
434.731	100.25
434.953	83.25
435.175	93.25
435.397	107.25
435.618	106.25
435.84	128.25
436.062	100.25
436.284	104.25
436.505	90.25
436.727	90.25
436.949	93.25
437.17	85.25
437.392	95.25
437.614	96.25
437.835	85.25
438.057	93.25
438.278	100.25
438.5	99.25
438.721	83.25
438.943	93.25
439.165	82.25
439.386	102.25
439.608	88.25
439.829	99.25
440.05	98.25
440.272	102.25
440.493	96.25
440.715	98.25
440.936	103.25
441.158	89.25
441.379	77.25
441.6	91.25
441.822	97.25
442.043	102.25
442.264	137.25
442.486	219.25
442.707	291.25
442.928	202.25
443.149	159.25
443.371	241.25
443.592	431.25
443.813	366.25
444.034	157.25
444.255	108.25
444.476	95.25
444.698	108.25
444.919	124.25
445.14	224.25
445.361	297.25
445.582	512.25
445.803	453.25
446.024	211.25
446.245	127.25
446.466	107.25
446.687	92.25
446.908	100.25
447.129	102.25
447.35	99.25
447.571	91.25
447.792	84.25
448.013	100.25
448.234	89.25
448.455	91.25
448.675	107.25
448.896	87.25
449.117	93.25
449.338	84.25
449.559	105.25
449.779	100.25
450	105.25
450.221	98.25
450.442	105.25
450.662	98.25
450.883	103.25
451.104	99.25
451.324	93.25
451.545	88.25
451.766	94.25
451.986	95.25
452.207	100.25
452.428	96.25
452.648	125.25
452.869	142.25
453.089	119.25
453.31	105.25
453.53	83.25
453.751	91.25
453.971	99.25
454.192	80.25
454.412	87.25
454.633	95.25
454.853	91.25
455.073	94.25
455.294	88.25
455.514	89.25
455.734	96.25
455.955	89.25
456.175	98.25
456.395	83.25
456.616	92.25
456.836	93.25
457.056	81.25
457.276	89.25
457.497	89.25
457.717	109.25
457.937	167.25
458.157	217.25
458.377	226.25
458.598	214.25
458.818	227.25
459.038	132.25
459.258	92.25
459.478	111.25
459.698	83.25
459.918	83.25
460.138	96.25
460.358	102.25
460.578	117.25
460.798	141.25
461.018	148.25
461.238	92.25
461.458	98.25
461.678	91.25
461.898	74.25
462.118	88.25
462.338	92.25
462.558	82.25
462.777	93.25
462.997	91.25
463.217	89.25
463.437	84.25
463.657	82.25
463.876	90.25
464.096	90.25
464.316	86.25
464.536	72.25
464.755	91.25
464.975	79.25
465.195	96.25
465.414	81.25
465.634	86.25
465.854	89.25
466.073	94.25
466.293	85.25
466.512	98.25
466.732	91.25
466.951	83.25
467.171	94.25
467.391	80.25
467.61	84.25
467.829	87.25
468.049	95.25
468.268	97.25
468.488	92.25
468.707	103.25
468.927	94.25
469.146	86.25
469.365	87.25
469.585	91.25
469.804	100.25
470.023	103.25
470.243	78.25
470.462	99.25
470.681	100.25
470.901	95.25
471.12	85.25
471.339	100.25
471.558	89.25
471.777	98.25
471.997	94.25
472.216	92.25
472.435	90.25
472.654	85.25
472.873	87.25
473.092	102.25
473.311	89.25
473.53	93.25
473.749	84.25
473.968	76.25
474.187	95.25
474.406	96.25
474.625	95.25
474.844	91.25
475.063	78.25
475.282	81.25
475.501	105.25
475.72	100.25
475.939	95.25
476.158	79.25
476.377	102.25
476.596	95.25
476.814	86.25
477.033	75.25
477.252	84.25
477.471	73.25
477.69	91.25
477.908	90.25
478.127	85.25
478.346	90.25
478.564	96.25
478.783	100.25
479.002	89.25
479.22	91.25
479.439	88.25
479.658	90.25
479.876	76.25
480.095	91.25
480.313	83.25
480.532	82.25
480.751	90.25
480.969	107.25
481.188	76.25
481.406	105.25
481.624	86.25
481.843	99.25
482.061	107.25
482.28	92.25
482.498	106.25
482.717	93.25
482.935	98.25
483.153	89.25
483.372	105.25
483.59	98.25
483.808	96.25
484.027	113.25
484.245	117.25
484.463	115.25
484.681	107.25
484.9	114.25
485.118	99.25
485.336	97.25
485.554	99.25
485.772	104.25
485.99	100.25
486.209	97.25
486.427	98.25
486.645	108.25
486.863	97.25
487.081	98.25
487.299	111.25
487.517	123.25
487.735	156.25
487.953	367.25
488.171	276.25
488.389	145.25
488.607	117.25
488.825	107.25
489.043	96.25
489.261	89.25
489.479	100.25
489.696	94.25
489.914	103.25
490.132	98.25
490.35	94.25
490.568	86.25
490.786	95.25
491.003	96.25
491.221	103.25
491.439	103.25
491.657	101.25
491.874	111.25
492.092	95.25
492.31	99.25
492.527	105.25
492.745	91.25
492.963	92.25
493.18	92.25
493.398	100.25
493.615	97.25
493.833	84.25
494.05	100.25
494.268	88.25
494.485	88.25
494.703	101.25
494.92	86.25
495.138	95.25
495.355	106.25
495.573	95.25
495.79	99.25
496.008	105.25
496.225	123.25
496.442	120.25
496.66	99.25
496.877	96.25
497.094	104.25
497.312	97.25
497.529	101.25
497.746	106.25
497.963	101.25
498.181	100.25
498.398	108.25
498.615	103.25
498.832	98.25
499.049	97.25
499.267	104.25
499.484	86.25
499.701	112.25
499.918	97.25
500.135	102.25
500.352	107.25
500.569	93.25
500.786	78.25
501.003	99.25
501.22	95.25
501.437	92.25
501.654	83.25
501.871	92.25
502.088	92.25
502.305	98.25
502.522	111.25
502.739	97.25
502.956	113.25
503.172	108.25
503.389	91.25
503.606	103.25
503.823	112.25
504.04	145.25
504.256	252.25
504.473	252.25
504.69	136.25
504.907	108.25
505.123	95.25
505.34	88.25
505.557	95.25
505.773	88.25
505.99	97.25
506.207	93.25
506.423	95.25
506.64	83.25
506.856	97.25
507.073	90.25
507.289	95.25
507.506	93.25
507.722	87.25
507.939	91.25
508.155	84.25
508.372	103.25
508.588	93.25
508.805	94.25
509.021	96.25
509.238	100.25
509.454	85.25
509.67	89.25
509.887	75.25
510.103	99.25
510.319	91.25
510.536	104.25
510.752	91.25
510.968	89.25
511.184	92.25
511.401	78.25
511.617	100.25
511.833	101.25
512.049	100.25
512.265	95.25
512.481	95.25
512.698	107.25
512.914	92.25
513.13	103.25
513.346	107.25
513.562	92.25
513.778	90.25
513.994	98.25
514.21	103.25
514.426	102.25
514.642	104.25
