Data from CBS_2_HRD10591_00008.txt Node
Date: Mon Jan 19 14:04:50 EST 2026
User: Yrep
Spectrometer: HR+D1059
Trigger mode: 1
Integration Time (sec): 1.000000E-1
Scans to average: 1
Electric dark correction enabled: true
Nonlinearity correction enabled: false
Boxcar width: 0
XAxis mode: Wavelengths
Number of Pixels in Spectrum: 2048
>>>>>Begin Spectral Data<<<<<
223.165	-15
223.4	-15
223.635	-15
223.869	-19
224.104	-27
224.338	-12
224.573	-9
224.808	1
225.042	-12
225.277	-6
225.511	3
225.746	3
225.98	6
226.215	18
226.449	10
226.683	6
226.918	14
227.152	39
227.387	35
227.621	36
227.856	45
228.09	47
228.324	52
228.559	58
228.793	60
229.027	62
229.262	73
229.496	61
229.73	59
229.964	85
230.199	79
230.433	84
230.667	70
230.901	76
231.136	69
231.37	81
231.604	71
231.838	81
232.072	67
232.306	64
232.541	81
232.775	84
233.009	76
233.243	89
233.477	71
233.711	69
233.945	75
234.179	93
234.413	85
234.647	89
234.881	66
235.115	73
235.349	81
235.583	86
235.817	74
236.051	76
236.285	74
236.519	65
236.753	64
236.987	86
237.221	74
237.455	69
237.689	79
237.922	73
238.156	63
238.39	71
238.624	85
238.858	74
239.091	79
239.325	82
239.559	53
239.793	82
240.027	82
240.26	77
240.494	63
240.728	69
240.961	73
241.195	84
241.429	79
241.662	73
241.896	77
242.13	77
242.363	79
242.597	83
242.83	85
243.064	76
243.298	76
243.531	71
243.765	74
243.998	81
244.232	78
244.465	77
244.699	57
244.932	86
245.166	69
245.399	64
245.633	75
245.866	66
246.099	69
246.333	71
246.566	73
246.8	77
247.033	77
247.266	75
247.5	79
247.733	83
247.966	69
248.2	78
248.433	86
248.666	75
248.899	88
249.133	59
249.366	87
249.599	82
249.832	90
250.066	87
250.299	61
250.532	80
250.765	78
250.998	70
251.231	85
251.465	73
251.698	71
251.931	83
252.164	76
252.397	76
252.63	75
252.863	71
253.096	87
253.329	88
253.562	82
253.795	84
254.028	69
254.261	74
254.494	80
254.727	62
254.96	81
255.193	82
255.426	78
255.659	85
255.892	91
256.124	76
256.357	74
256.59	75
256.823	83
257.056	82
257.289	83
257.521	83
257.754	81
257.987	78
258.22	77
258.452	72
258.685	89
258.918	64
259.151	88
259.383	75
259.616	87
259.849	97
260.081	79
260.314	92
260.547	81
260.779	88
261.012	78
261.244	79
261.477	82
261.71	69
261.942	83
262.175	78
262.407	72
262.64	73
262.872	80
263.105	92
263.337	79
263.57	89
263.802	79
264.035	94
264.267	80
264.499	89
264.732	82
264.964	61
265.197	75
265.429	71
265.661	85
265.894	73
266.126	93
266.358	91
266.591	94
266.823	88
267.055	75
267.287	87
267.52	81
267.752	86
267.984	80
268.216	85
268.448	93
268.681	85
268.913	98
269.145	78
269.377	85
269.609	100
269.841	82
270.073	80
270.306	91
270.538	104
270.77	83
271.002	85
271.234	79
271.466	78
271.698	82
271.93	74
272.162	81
272.394	78
272.626	73
272.858	91
273.09	89
273.322	92
273.553	81
273.785	78
274.017	93
274.249	93
274.481	79
274.713	91
274.945	83
275.176	82
275.408	78
275.64	70
275.872	85
276.104	86
276.335	94
276.567	81
276.799	101
277.031	93
277.262	85
277.494	96
277.726	90
277.957	88
278.189	84
278.421	97
278.652	91
278.884	81
279.115	82
279.347	93
279.579	81
279.81	88
280.042	82
280.273	81
280.505	87
280.736	96
280.968	91
281.199	87
281.431	74
281.662	88
281.894	89
282.125	92
282.356	85
282.588	81
282.819	97
283.051	88
283.282	81
283.513	89
283.745	80
283.976	76
284.207	93
284.439	94
284.67	86
284.901	90
285.132	93
285.364	89
285.595	93
285.826	82
286.057	90
286.288	83
286.52	66
286.751	61
286.982	68
287.213	76
287.444	71
287.675	84
287.906	77
288.138	74
288.369	93
288.6	95
288.831	89
289.062	93
289.293	84
289.524	97
289.755	81
289.986	84
290.217	89
290.448	93
290.679	87
290.91	93
291.141	97
291.371	89
291.602	78
291.833	91
292.064	90
292.295	79
292.526	94
292.757	78
292.987	93
293.218	85
293.449	88
293.68	91
293.91	85
294.141	82
294.372	84
294.603	92
294.833	84
295.064	85
295.295	89
295.525	89
295.756	99
295.987	93
296.217	80
296.448	81
296.679	99
296.909	85
297.14	88
297.37	83
297.601	101
297.831	75
298.062	91
298.292	81
298.523	90
298.753	95
298.984	91
299.214	95
299.445	89
299.675	96
299.905	109
300.136	99
300.366	94
300.597	94
300.827	97
301.057	97
301.288	85
301.518	79
301.748	94
301.979	109
302.209	85
302.439	96
302.669	91
302.9	88
303.13	101
303.36	96
303.59	82
303.82	91
304.051	90
304.281	90
304.511	95
304.741	86
304.971	96
305.201	87
305.431	87
305.661	103
305.891	92
306.121	93
306.352	87
306.582	84
306.812	99
307.042	87
307.272	83
307.502	83
307.731	87
307.961	92
308.191	116
308.421	90
308.651	88
308.881	84
309.111	88
309.341	89
309.571	117
309.8	81
310.03	73
310.26	83
310.49	93
310.72	96
310.949	99
311.179	87
311.409	73
311.639	84
311.868	91
312.098	96
312.328	91
312.557	79
312.787	101
313.017	88
313.246	106
313.476	91
313.706	89
313.935	95
314.165	89
314.394	92
314.624	83
314.853	87
315.083	82
315.312	91
315.542	102
315.771	99
316.001	98
316.23	85
316.46	72
316.689	92
316.919	88
317.148	97
317.377	99
317.607	105
317.836	93
318.065	94
318.295	117
318.524	106
318.753	99
318.983	91
319.212	104
319.441	86
319.67	94
319.9	93
320.129	84
320.358	87
320.587	78
320.816	89
321.046	81
321.275	94
321.504	98
321.733	100
321.962	102
322.191	109
322.42	100
322.649	105
322.878	97
323.108	103
323.337	109
323.566	95
323.795	91
324.024	81
324.253	96
324.482	87
324.71	94
324.939	99
325.168	88
325.397	96
325.626	90
325.855	74
326.084	91
326.313	91
326.542	89
326.77	85
326.999	88
327.228	91
327.457	105
327.686	104
327.914	75
328.143	90
328.372	86
328.6	89
328.829	81
329.058	88
329.287	85
329.515	95
329.744	93
329.972	93
330.201	85
330.43	98
330.658	85
330.887	87
331.115	82
331.344	87
331.572	101
331.801	87
332.03	95
332.258	82
332.486	101
332.715	92
332.943	88
333.172	89
333.4	81
333.629	102
333.857	94
334.085	110
334.314	106
334.542	109
334.771	112
334.999	123
335.227	115
335.455	107
335.684	112
335.912	107
336.14	131
336.369	122
336.597	111
336.825	97
337.053	89
337.281	98
337.51	95
337.738	83
337.966	83
338.194	99
338.422	96
338.65	76
338.878	95
339.106	97
339.334	94
339.562	83
339.79	85
340.018	82
340.246	89
340.474	89
340.702	96
340.93	86
341.158	97
341.386	93
341.614	103
341.842	93
342.07	95
342.298	93
342.526	109
342.754	82
342.981	87
343.209	96
343.437	105
343.665	102
343.893	110
344.12	83
344.348	104
344.576	89
344.804	79
345.031	76
345.259	85
345.487	110
345.714	91
345.942	90
346.17	91
346.397	82
346.625	102
346.853	91
347.08	94
347.308	101
347.535	91
347.763	96
347.99	91
348.218	102
348.445	98
348.673	94
348.9	89
349.128	97
349.355	96
349.583	93
349.81	88
350.037	93
350.265	95
350.492	91
350.72	93
350.947	92
351.174	79
351.402	93
351.629	84
351.856	89
352.083	86
352.311	71
352.538	90
352.765	89
352.992	87
353.22	100
353.447	100
353.674	82
353.901	96
354.128	87
354.355	97
354.583	87
354.81	90
355.037	88
355.264	93
355.491	97
355.718	81
355.945	94
356.172	89
356.399	91
356.626	80
356.853	95
357.08	95
357.307	99
357.534	90
357.761	80
357.988	95
358.215	107
358.441	91
358.668	86
358.895	101
359.122	85
359.349	82
359.576	104
359.802	77
360.029	83
360.256	110
360.483	104
360.709	99
360.936	110
361.163	109
361.39	92
361.616	107
361.843	106
362.07	128
362.296	149
362.523	178
362.749	157
362.976	205
363.203	240
363.429	151
363.656	135
363.882	137
364.109	182
364.335	253
364.562	289
364.788	170
365.015	113
365.241	104
365.468	98
365.694	100
365.92	73
366.147	83
366.373	105
366.599	96
366.826	110
367.052	103
367.278	106
367.505	104
367.731	118
367.957	106
368.184	102
368.41	97
368.636	100
368.862	125
369.089	98
369.315	86
369.541	94
369.767	95
369.993	94
370.219	93
370.445	118
370.672	111
370.898	99
371.124	87
371.35	88
371.576	90
371.802	97
372.028	90
372.254	123
372.48	85
372.706	98
372.932	101
373.158	92
373.384	105
373.61	130
373.835	113
374.061	114
374.287	114
374.513	121
374.739	106
374.965	113
375.191	104
375.416	109
375.642	85
375.868	96
376.094	104
376.319	99
376.545	104
376.771	111
376.997	91
377.222	93
377.448	98
377.674	98
377.899	80
378.125	91
378.35	98
378.576	92
378.802	97
379.027	109
379.253	105
379.478	92
379.704	101
379.929	104
380.155	95
380.38	95
380.606	97
380.831	107
381.057	95
381.282	89
381.507	110
381.733	105
381.958	102
382.184	122
382.409	88
382.634	94
382.86	113
383.085	101
383.31	103
383.535	116
383.761	112
383.986	117
384.211	95
384.436	106
384.662	95
384.887	104
385.112	93
385.337	99
385.562	111
385.787	112
386.013	109
386.238	115
386.463	99
386.688	95
386.913	118
387.138	114
387.363	123
387.588	121
387.813	122
388.038	125
388.263	117
388.488	114
388.713	98
388.938	92
389.163	106
389.387	107
389.612	97
389.837	102
390.062	104
390.287	95
390.512	109
390.736	106
390.961	105
391.186	95
391.411	106
391.636	99
391.86	116
392.085	120
392.31	126
392.534	151
392.759	196
392.984	297
393.208	509
393.433	709
393.658	552
393.882	256
394.107	181
394.331	166
394.556	178
394.78	138
395.005	142
395.229	122
395.454	141
395.678	181
395.903	197
396.127	205
396.352	250
396.576	309
396.801	507
397.025	573
397.249	347
397.474	217
397.698	169
397.922	125
398.147	108
398.371	115
398.595	88
398.82	99
399.044	93
399.268	111
399.492	102
399.717	105
399.941	100
400.165	94
400.389	97
400.613	82
400.837	96
401.062	96
401.286	107
401.51	88
401.734	95
401.958	82
402.182	93
402.406	89
402.63	91
402.854	106
403.078	110
403.302	111
403.526	99
403.75	112
403.974	104
404.198	98
404.422	114
404.645	103
404.869	95
405.093	93
405.317	91
405.541	97
405.765	109
405.988	99
406.212	96
406.436	89
406.66	91
406.883	105
407.107	90
407.331	89
407.555	126
407.778	154
408.002	140
408.226	103
408.449	109
408.673	100
408.896	113
409.12	118
409.344	136
409.567	148
409.791	160
410.014	147
410.238	143
410.461	127
410.685	121
410.908	123
411.132	114
411.355	101
411.578	105
411.802	99
412.025	110
412.249	103
412.472	86
412.695	87
412.919	95
413.142	100
413.365	95
413.589	85
413.812	93
414.035	93
414.258	101
414.482	90
414.705	92
414.928	89
415.151	95
415.374	95
415.597	96
415.821	88
416.044	95
416.267	93
416.49	109
416.713	96
416.936	91
417.159	94
417.382	92
417.605	86
417.828	96
418.051	86
418.274	100
418.497	107
418.72	98
418.943	100
419.166	101
419.389	104
419.611	83
419.834	102
420.057	113
420.28	113
420.503	105
420.726	113
420.948	126
421.171	125
421.394	148
421.617	211
421.839	219
422.062	277
422.285	463
422.507	767
422.73	1046
422.953	957
423.175	589
423.398	346
423.621	225
423.843	185
424.066	153
424.288	154
424.511	138
424.733	109
424.956	109
425.178	109
425.401	104
425.623	111
425.846	111
426.068	97
426.291	102
426.513	102
426.735	99
426.958	107
427.18	113
427.402	104
427.625	104
427.847	105
428.069	139
428.292	224
428.514	267
428.736	173
428.958	232
429.181	240
429.403	142
429.625	143
429.847	219
430.069	342
430.292	376
430.514	352
430.736	265
430.958	283
431.18	163
431.402	115
431.624	134
431.846	216
432.068	264
432.29	150
432.512	118
432.734	95
432.956	102
433.178	96
433.4	100
433.622	113
433.844	105
434.066	100
434.287	95
434.509	95
434.731	93
434.953	103
435.175	118
435.397	111
435.618	121
435.84	121
436.062	125
436.284	112
436.505	103
436.727	104
436.949	104
437.17	87
437.392	93
437.614	93
437.835	92
438.057	82
438.278	104
438.5	98
438.721	84
438.943	100
439.165	102
439.386	93
439.608	102
439.829	98
440.05	90
440.272	97
440.493	87
440.715	103
440.936	101
441.158	97
441.379	98
441.6	105
441.822	111
442.043	113
442.264	133
442.486	268
442.707	391
442.928	243
443.149	183
443.371	333
443.592	628
443.813	513
444.034	199
444.255	139
444.476	101
444.698	120
444.919	143
445.14	254
445.361	416
445.582	749
445.803	633
446.024	234
446.245	125
446.466	111
446.687	105
446.908	110
447.129	99
447.35	105
447.571	86
447.792	95
448.013	98
448.234	93
448.455	99
448.675	87
448.896	98
449.117	93
449.338	91
449.559	96
449.779	96
450	94
450.221	92
450.442	94
450.662	104
450.883	96
451.104	92
451.324	96
451.545	96
451.766	96
451.986	93
452.207	115
452.428	91
452.648	128
452.869	146
453.089	129
453.31	113
453.53	111
453.751	94
453.971	93
454.192	98
454.412	102
454.633	102
454.853	97
455.073	93
455.294	87
455.514	87
455.734	106
455.955	105
456.175	97
456.395	87
456.616	89
456.836	95
457.056	98
457.276	104
457.497	93
457.717	115
457.937	214
458.157	267
458.377	278
458.598	254
458.818	267
459.038	145
459.258	110
459.478	107
459.698	111
459.918	102
460.138	93
460.358	105
460.578	114
460.798	190
461.018	180
461.238	99
461.458	86
461.678	98
461.898	96
462.118	97
462.338	105
462.558	98
462.777	103
462.997	91
463.217	99
463.437	93
463.657	81
463.876	102
464.096	97
464.316	91
464.536	98
464.755	97
464.975	99
465.195	90
465.414	87
465.634	99
465.854	93
466.073	90
466.293	94
466.512	105
466.732	99
466.951	97
467.171	91
467.391	89
467.61	76
467.829	80
468.049	96
468.268	99
468.488	102
468.707	118
468.927	93
469.146	111
469.365	79
469.585	102
469.804	82
470.023	84
470.243	83
470.462	91
470.681	98
470.901	98
471.12	98
471.339	81
471.558	98
471.777	98
471.997	90
472.216	100
472.435	90
472.654	85
472.873	91
473.092	98
473.311	82
473.53	91
473.749	93
473.968	104
474.187	100
474.406	114
474.625	75
474.844	88
475.063	95
475.282	86
475.501	87
475.72	98
475.939	99
476.158	92
476.377	102
476.596	101
476.814	98
477.033	89
477.252	88
477.471	97
477.69	102
477.908	91
478.127	100
478.346	99
478.564	101
478.783	79
479.002	105
479.22	94
479.439	93
479.658	97
479.876	101
480.095	93
480.313	98
480.532	89
480.751	88
480.969	102
481.188	98
481.406	114
481.624	103
481.843	101
482.061	109
482.28	93
482.498	94
482.717	103
482.935	94
483.153	108
483.372	123
483.59	111
483.808	98
484.027	106
484.245	107
484.463	115
484.681	106
484.9	113
485.118	97
485.336	97
485.554	94
485.772	101
485.99	90
486.209	85
486.427	101
486.645	99
486.863	85
487.081	102
487.299	121
487.517	143
487.735	221
487.953	490
488.171	363
488.389	144
488.607	125
488.825	116
489.043	115
489.261	105
489.479	98
489.696	90
489.914	106
490.132	96
490.35	92
490.568	97
490.786	102
491.003	101
491.221	99
491.439	88
491.657	97
491.874	107
492.092	82
492.31	100
492.527	97
492.745	93
492.963	105
493.18	113
493.398	92
493.615	107
493.833	80
494.05	103
494.268	111
494.485	98
494.703	86
494.92	82
495.138	109
495.355	99
495.573	96
495.79	94
496.008	103
496.225	100
496.442	113
496.66	112
496.877	98
497.094	100
497.312	89
497.529	99
497.746	99
497.963	91
498.181	98
498.398	88
498.615	109
498.832	88
499.049	100
499.267	109
499.484	109
499.701	104
499.918	93
500.135	106
500.352	99
500.569	86
500.786	100
501.003	101
501.22	99
501.437	86
501.654	117
501.871	109
502.088	87
502.305	119
502.522	103
502.739	101
502.956	98
503.172	111
503.389	108
503.606	100
503.823	134
504.04	167
504.256	318
504.473	321
504.69	144
504.907	106
505.123	100
505.34	107
505.557	83
505.773	96
505.99	100
506.207	95
506.423	98
506.64	99
506.856	100
507.073	94
507.289	99
507.506	83
507.722	80
507.939	90
508.155	99
508.372	93
508.588	95
508.805	96
509.021	97
509.238	102
509.454	120
509.67	90
509.887	100
510.103	85
510.319	100
510.536	87
510.752	108
510.968	93
511.184	90
511.401	93
511.617	94
511.833	88
512.049	93
512.265	90
512.481	118
512.698	101
512.914	99
513.13	96
513.346	79
513.562	88
513.778	96
513.994	82
514.21	88
514.426	110
514.642	97
514.858	86
515.074	96
515.29	111
515.506	80
515.721	90
515.937	113
516.153	99
516.369	112
516.585	99
516.801	111
517.016	113
517.232	112
517.448	122
517.664	113
517.879	109
518.095	125
518.311	125
518.527	133
518.742	208
518.958	403
519.173	480
519.389	190
519.605	124
519.82	108
520.036	100
520.251	111
520.467	97
520.682	89
520.898	103
521.113	101
521.329	88
521.544	98
521.76	95
521.975	109
522.19	116
522.406	100
522.621	102
522.836	105
523.052	106
523.267	110
523.482	109
523.698	101
523.913	109
524.128	110
524.343	102
524.559	111
524.774	95
524.989	106
525.204	114
525.419	117
525.634	122
525.849	166
526.064	245
526.28	583
526.495	962
526.71	1014
526.925	608
527.14	733
527.355	678
527.57	206
527.785	130
527.999	120
528.214	110
528.429	109
528.644	95
528.859	122
529.074	103
529.289	109
529.503	105
529.718	117
529.933	119
530.148	112
530.363	104
530.577	123
530.792	126
531.007	118
531.221	104
531.436	125
531.651	129
531.865	127
532.08	123
532.295	117
532.509	119
532.724	128
532.938	139
533.153	121
533.367	118
533.582	123
533.796	133
534.011	123
534.225	136
534.44	147
534.654	157
534.868	194
535.083	408
535.297	322
535.511	159
535.726	148
535.94	147
536.154	154
536.369	135
536.583	125
536.797	141
537.011	134
537.225	148
537.44	133
537.654	139
537.868	122
538.082	149
538.296	133
538.51	139
538.724	138
538.938	134
539.153	142
539.367	142
539.581	143
539.795	126
540.009	138
540.222	132
540.436	139
540.65	130
540.864	135
541.078	148
541.292	138
541.506	138
541.72	139
541.934	125
542.147	148
542.361	147
542.575	136
542.789	128
543.002	151
543.216	153
543.43	146
543.644	146
543.857	149
544.071	142
544.285	136
544.498	136
544.712	138
544.925	135
545.139	154
545.352	165
545.566	140
545.779	147
545.993	162
546.206	166
546.42	173
546.633	186
546.847	212
547.06	231
547.274	290
547.487	339
547.7	390
547.914	383
548.127	381
548.34	441
548.554	416
548.767	410
548.98	419
549.193	398
549.407	400
549.62	436
549.833	493
550.046	534
550.259	564
550.473	527
550.686	573
550.899	634
551.112	686
551.325	765
551.538	795
551.751	720
551.964	642
552.177	637
552.39	630
552.603	591
552.816	578
553.029	583
553.242	605
553.455	594
553.667	611
553.88	637
554.093	651
554.306	659
554.519	644
554.732	644
554.944	593
555.157	590
555.37	563
555.583	568
555.795	531
556.008	491
556.221	478
556.433	455
556.646	430
556.859	392
557.071	367
557.284	358
557.496	333
557.709	329
557.921	340
558.134	342
558.346	507
558.559	463
558.771	413
558.984	784
559.196	1048
559.409	540
559.621	786
559.833	608
560.046	734
560.258	615
560.47	659
560.683	315
560.895	205
561.107	190
561.32	183
561.532	175
561.744	149
561.956	169
562.168	162
562.381	146
562.593	162
562.805	149
563.017	143
563.229	152
563.441	159
563.653	138
563.865	138
564.077	142
564.289	139
564.501	125
564.713	139
564.925	128
565.137	143
565.349	129
565.561	140
565.773	126
565.985	132
566.197	116
566.408	131
566.62	129
566.832	130
567.044	132
567.255	132
567.467	134
567.679	137
567.891	148
568.102	134
568.314	136
568.526	150
568.737	150
568.949	136
569.161	143
569.372	125
569.584	136
569.795	145
570.007	132
570.218	125
570.43	137
570.641	140
570.853	135
571.064	114
571.276	142
571.487	133
571.698	134
571.91	144
572.121	136
572.333	139
572.544	131
572.755	146
572.966	125
573.178	129
573.389	128
573.6	130
573.811	135
574.023	137
574.234	139
574.445	128
574.656	137
574.867	119
575.078	114
575.289	136
575.501	129
575.712	132
575.923	135
576.134	115
576.345	125
576.556	122
576.767	115
576.978	114
577.188	118
577.399	103
577.61	108
577.821	109
578.032	101
578.243	117
