Data from CBS_2_HRD10591_00020.txt Node
Date: Mon Jan 19 14:04:56 EST 2026
User: Yrep
Spectrometer: HR+D1059
Trigger mode: 1
Integration Time (sec): 1.000000E-1
Scans to average: 1
Electric dark correction enabled: true
Nonlinearity correction enabled: false
Boxcar width: 0
XAxis mode: Wavelengths
Number of Pixels in Spectrum: 2048
>>>>>Begin Spectral Data<<<<<
223.165	-14.56
223.4	-14.56
223.635	-14.56
223.869	-28.56
224.104	-26.56
224.338	-23.56
224.573	-11.56
224.808	0.44
225.042	-1.56
225.277	-11.56
225.511	-5.56
225.746	17.44
225.98	8.44
226.215	15.44
226.449	13.44
226.683	12.44
226.918	23.44
227.152	32.44
227.387	42.44
227.621	44.44
227.856	56.44
228.09	34.44
228.324	56.44
228.559	56.44
228.793	56.44
229.027	63.44
229.262	63.44
229.496	58.44
229.73	63.44
229.964	71.44
230.199	62.44
230.433	81.44
230.667	90.44
230.901	77.44
231.136	70.44
231.37	59.44
231.604	76.44
231.838	79.44
232.072	85.44
232.306	74.44
232.541	69.44
232.775	76.44
233.009	92.44
233.243	89.44
233.477	73.44
233.711	95.44
233.945	74.44
234.179	78.44
234.413	78.44
234.647	86.44
234.881	78.44
235.115	90.44
235.349	83.44
235.583	85.44
235.817	77.44
236.051	67.44
236.285	73.44
236.519	73.44
236.753	91.44
236.987	80.44
237.221	70.44
237.455	66.44
237.689	69.44
237.922	87.44
238.156	78.44
238.39	70.44
238.624	72.44
238.858	68.44
239.091	79.44
239.325	84.44
239.559	87.44
239.793	80.44
240.027	75.44
240.26	75.44
240.494	67.44
240.728	79.44
240.961	56.44
241.195	67.44
241.429	66.44
241.662	84.44
241.896	80.44
242.13	81.44
242.363	67.44
242.597	74.44
242.83	65.44
243.064	78.44
243.298	89.44
243.531	80.44
243.765	73.44
243.998	96.44
244.232	81.44
244.465	80.44
244.699	76.44
244.932	92.44
245.166	79.44
245.399	74.44
245.633	65.44
245.866	81.44
246.099	84.44
246.333	68.44
246.566	71.44
246.8	69.44
247.033	59.44
247.266	72.44
247.5	72.44
247.733	73.44
247.966	69.44
248.2	86.44
248.433	88.44
248.666	58.44
248.899	76.44
249.133	76.44
249.366	88.44
249.599	85.44
249.832	80.44
250.066	63.44
250.299	69.44
250.532	86.44
250.765	77.44
250.998	79.44
251.231	68.44
251.465	78.44
251.698	83.44
251.931	84.44
252.164	79.44
252.397	80.44
252.63	82.44
252.863	80.44
253.096	75.44
253.329	73.44
253.562	84.44
253.795	81.44
254.028	95.44
254.261	94.44
254.494	83.44
254.727	64.44
254.96	74.44
255.193	78.44
255.426	74.44
255.659	84.44
255.892	68.44
256.124	86.44
256.357	76.44
256.59	76.44
256.823	78.44
257.056	76.44
257.289	79.44
257.521	71.44
257.754	74.44
257.987	77.44
258.22	95.44
258.452	97.44
258.685	83.44
258.918	86.44
259.151	76.44
259.383	77.44
259.616	74.44
259.849	79.44
260.081	78.44
260.314	81.44
260.547	78.44
260.779	100.44
261.012	92.44
261.244	83.44
261.477	77.44
261.71	74.44
261.942	80.44
262.175	75.44
262.407	82.44
262.64	86.44
262.872	88.44
263.105	73.44
263.337	74.44
263.57	82.44
263.802	78.44
264.035	72.44
264.267	78.44
264.499	82.44
264.732	80.44
264.964	71.44
265.197	96.44
265.429	85.44
265.661	74.44
265.894	90.44
266.126	89.44
266.358	83.44
266.591	97.44
266.823	77.44
267.055	74.44
267.287	78.44
267.52	68.44
267.752	71.44
267.984	80.44
268.216	78.44
268.448	77.44
268.681	85.44
268.913	72.44
269.145	83.44
269.377	82.44
269.609	78.44
269.841	89.44
270.073	90.44
270.306	79.44
270.538	79.44
270.77	69.44
271.002	78.44
271.234	83.44
271.466	89.44
271.698	80.44
271.93	84.44
272.162	80.44
272.394	84.44
272.626	85.44
272.858	84.44
273.09	84.44
273.322	85.44
273.553	94.44
273.785	79.44
274.017	65.44
274.249	79.44
274.481	70.44
274.713	84.44
274.945	88.44
275.176	78.44
275.408	84.44
275.64	85.44
275.872	79.44
276.104	84.44
276.335	76.44
276.567	85.44
276.799	83.44
277.031	67.44
277.262	81.44
277.494	92.44
277.726	83.44
277.957	74.44
278.189	75.44
278.421	76.44
278.652	77.44
278.884	82.44
279.115	70.44
279.347	82.44
279.579	86.44
279.81	93.44
280.042	82.44
280.273	68.44
280.505	77.44
280.736	72.44
280.968	90.44
281.199	84.44
281.431	82.44
281.662	76.44
281.894	79.44
282.125	82.44
282.356	74.44
282.588	66.44
282.819	86.44
283.051	75.44
283.282	90.44
283.513	92.44
283.745	76.44
283.976	82.44
284.207	84.44
284.439	81.44
284.67	87.44
284.901	90.44
285.132	79.44
285.364	79.44
285.595	74.44
285.826	80.44
286.057	82.44
286.288	81.44
286.52	75.44
286.751	74.44
286.982	80.44
287.213	85.44
287.444	75.44
287.675	81.44
287.906	90.44
288.138	97.44
288.369	86.44
288.6	98.44
288.831	88.44
289.062	80.44
289.293	78.44
289.524	82.44
289.755	81.44
289.986	86.44
290.217	77.44
290.448	81.44
290.679	74.44
290.91	78.44
291.141	81.44
291.371	80.44
291.602	93.44
291.833	77.44
292.064	95.44
292.295	86.44
292.526	84.44
292.757	82.44
292.987	70.44
293.218	86.44
293.449	76.44
293.68	73.44
293.91	87.44
294.141	97.44
294.372	88.44
294.603	89.44
294.833	78.44
295.064	97.44
295.295	76.44
295.525	61.44
295.756	86.44
295.987	66.44
296.217	76.44
296.448	92.44
296.679	85.44
296.909	88.44
297.14	86.44
297.37	104.44
297.601	88.44
297.831	73.44
298.062	83.44
298.292	71.44
298.523	85.44
298.753	92.44
298.984	84.44
299.214	82.44
299.445	88.44
299.675	82.44
299.905	79.44
300.136	76.44
300.366	81.44
300.597	72.44
300.827	92.44
301.057	82.44
301.288	89.44
301.518	93.44
301.748	82.44
301.979	95.44
302.209	96.44
302.439	80.44
302.669	92.44
302.9	96.44
303.13	94.44
303.36	86.44
303.59	97.44
303.82	92.44
304.051	71.44
304.281	85.44
304.511	83.44
304.741	91.44
304.971	84.44
305.201	98.44
305.431	93.44
305.661	91.44
305.891	69.44
306.121	93.44
306.352	69.44
306.582	80.44
306.812	64.44
307.042	92.44
307.272	74.44
307.502	90.44
307.731	96.44
307.961	64.44
308.191	86.44
308.421	89.44
308.651	79.44
308.881	94.44
309.111	94.44
309.341	99.44
309.571	81.44
309.8	91.44
310.03	69.44
310.26	83.44
310.49	71.44
310.72	81.44
310.949	80.44
311.179	87.44
311.409	82.44
311.639	76.44
311.868	97.44
312.098	81.44
312.328	65.44
312.557	88.44
312.787	86.44
313.017	87.44
313.246	79.44
313.476	84.44
313.706	87.44
313.935	82.44
314.165	68.44
314.394	94.44
314.624	81.44
314.853	87.44
315.083	81.44
315.312	95.44
315.542	81.44
315.771	100.44
316.001	97.44
316.23	93.44
316.46	79.44
316.689	88.44
316.919	89.44
317.148	82.44
317.377	79.44
317.607	86.44
317.836	83.44
318.065	93.44
318.295	92.44
318.524	81.44
318.753	86.44
318.983	80.44
319.212	97.44
319.441	83.44
319.67	66.44
319.9	84.44
320.129	78.44
320.358	87.44
320.587	100.44
320.816	75.44
321.046	93.44
321.275	84.44
321.504	84.44
321.733	88.44
321.962	89.44
322.191	81.44
322.42	85.44
322.649	87.44
322.878	77.44
323.108	78.44
323.337	93.44
323.566	105.44
323.795	75.44
324.024	95.44
324.253	72.44
324.482	81.44
324.71	91.44
324.939	76.44
325.168	78.44
325.397	88.44
325.626	79.44
325.855	82.44
326.084	81.44
326.313	94.44
326.542	82.44
326.77	78.44
326.999	91.44
327.228	88.44
327.457	91.44
327.686	86.44
327.914	84.44
328.143	94.44
328.372	92.44
328.6	84.44
328.829	73.44
329.058	89.44
329.287	86.44
329.515	92.44
329.744	87.44
329.972	74.44
330.201	74.44
330.43	72.44
330.658	63.44
330.887	76.44
331.115	87.44
331.344	84.44
331.572	98.44
331.801	79.44
332.03	74.44
332.258	91.44
332.486	80.44
332.715	101.44
332.943	97.44
333.172	87.44
333.4	90.44
333.629	93.44
333.857	85.44
334.085	91.44
334.314	89.44
334.542	90.44
334.771	88.44
334.999	88.44
335.227	97.44
335.455	87.44
335.684	92.44
335.912	96.44
336.14	81.44
336.369	78.44
336.597	86.44
336.825	76.44
337.053	93.44
337.281	82.44
337.51	79.44
337.738	87.44
337.966	97.44
338.194	83.44
338.422	96.44
338.65	84.44
338.878	80.44
339.106	94.44
339.334	86.44
339.562	86.44
339.79	76.44
340.018	81.44
340.246	84.44
340.474	97.44
340.702	68.44
340.93	101.44
341.158	84.44
341.386	73.44
341.614	92.44
341.842	104.44
342.07	89.44
342.298	90.44
342.526	82.44
342.754	86.44
342.981	95.44
343.209	89.44
343.437	98.44
343.665	79.44
343.893	84.44
344.12	89.44
344.348	70.44
344.576	100.44
344.804	93.44
345.031	66.44
345.259	74.44
345.487	92.44
345.714	82.44
345.942	89.44
346.17	95.44
346.397	89.44
346.625	93.44
346.853	88.44
347.08	89.44
347.308	86.44
347.535	95.44
347.763	87.44
347.99	83.44
348.218	76.44
348.445	89.44
348.673	86.44
348.9	86.44
349.128	99.44
349.355	82.44
349.583	93.44
349.81	89.44
350.037	83.44
350.265	77.44
350.492	92.44
350.72	79.44
350.947	85.44
351.174	89.44
351.402	93.44
351.629	72.44
351.856	85.44
352.083	89.44
352.311	88.44
352.538	81.44
352.765	81.44
352.992	98.44
353.22	90.44
353.447	93.44
353.674	82.44
353.901	97.44
354.128	87.44
354.355	74.44
354.583	92.44
354.81	93.44
355.037	89.44
355.264	90.44
355.491	81.44
355.718	84.44
355.945	84.44
356.172	79.44
356.399	85.44
356.626	89.44
356.853	88.44
357.08	79.44
357.307	74.44
357.534	88.44
357.761	70.44
357.988	84.44
358.215	93.44
358.441	88.44
358.668	79.44
358.895	87.44
359.122	86.44
359.349	79.44
359.576	77.44
359.802	85.44
360.029	79.44
360.256	101.44
360.483	88.44
360.709	84.44
360.936	88.44
361.163	81.44
361.39	98.44
361.616	87.44
361.843	96.44
362.07	82.44
362.296	80.44
362.523	95.44
362.749	114.44
362.976	115.44
363.203	118.44
363.429	94.44
363.656	112.44
363.882	89.44
364.109	101.44
364.335	124.44
364.562	146.44
364.788	102.44
365.015	90.44
365.241	97.44
365.468	81.44
365.694	81.44
365.92	80.44
366.147	82.44
366.373	85.44
366.599	85.44
366.826	93.44
367.052	99.44
367.278	103.44
367.505	89.44
367.731	102.44
367.957	98.44
368.184	77.44
368.41	96.44
368.636	90.44
368.862	86.44
369.089	85.44
369.315	86.44
369.541	102.44
369.767	82.44
369.993	78.44
370.219	80.44
370.445	90.44
370.672	73.44
370.898	95.44
371.124	81.44
371.35	89.44
371.576	90.44
371.802	78.44
372.028	84.44
372.254	80.44
372.48	98.44
372.706	89.44
372.932	83.44
373.158	85.44
373.384	95.44
373.61	84.44
373.835	89.44
374.061	83.44
374.287	82.44
374.513	97.44
374.739	96.44
374.965	92.44
375.191	95.44
375.416	80.44
375.642	85.44
375.868	88.44
376.094	78.44
376.319	83.44
376.545	86.44
376.771	79.44
376.997	79.44
377.222	104.44
377.448	84.44
377.674	88.44
377.899	96.44
378.125	73.44
378.35	87.44
378.576	87.44
378.802	86.44
379.027	93.44
379.253	81.44
379.478	86.44
379.704	84.44
379.929	85.44
380.155	84.44
380.38	81.44
380.606	78.44
380.831	73.44
381.057	88.44
381.282	86.44
381.507	96.44
381.733	95.44
381.958	85.44
382.184	80.44
382.409	92.44
382.634	79.44
382.86	96.44
383.085	92.44
383.31	96.44
383.535	99.44
383.761	82.44
383.986	88.44
384.211	82.44
384.436	94.44
384.662	92.44
384.887	83.44
385.112	92.44
385.337	89.44
385.562	74.44
385.787	88.44
386.013	86.44
386.238	80.44
386.463	81.44
386.688	95.44
386.913	98.44
387.138	83.44
387.363	93.44
387.588	91.44
387.813	98.44
388.038	96.44
388.263	83.44
388.488	74.44
388.713	80.44
388.938	102.44
389.163	90.44
389.387	89.44
389.612	88.44
389.837	102.44
390.062	89.44
390.287	79.44
390.512	85.44
390.736	91.44
390.961	82.44
391.186	74.44
391.411	87.44
391.636	82.44
391.86	81.44
392.085	103.44
392.31	92.44
392.534	93.44
392.759	82.44
392.984	116.44
393.208	169.44
393.433	218.44
393.658	178.44
393.882	109.44
394.107	98.44
394.331	120.44
394.556	90.44
394.78	86.44
395.005	94.44
395.229	97.44
395.454	77.44
395.678	97.44
395.903	98.44
396.127	117.44
396.352	112.44
396.576	133.44
396.801	164.44
397.025	184.44
397.249	145.44
397.474	98.44
397.698	104.44
397.922	88.44
398.147	93.44
398.371	88.44
398.595	91.44
398.82	104.44
399.044	89.44
399.268	92.44
399.492	82.44
399.717	93.44
399.941	74.44
400.165	82.44
400.389	87.44
400.613	82.44
400.837	75.44
401.062	74.44
401.286	80.44
401.51	82.44
401.734	83.44
401.958	88.44
402.182	81.44
402.406	89.44
402.63	75.44
402.854	95.44
403.078	81.44
403.302	92.44
403.526	91.44
403.75	97.44
403.974	86.44
404.198	88.44
404.422	98.44
404.645	98.44
404.869	99.44
405.093	88.44
405.317	105.44
405.541	106.44
405.765	89.44
405.988	104.44
406.212	77.44
406.436	73.44
406.66	84.44
406.883	89.44
407.107	81.44
407.331	94.44
407.555	96.44
407.778	98.44
408.002	101.44
408.226	97.44
408.449	83.44
408.673	84.44
408.896	83.44
409.12	89.44
409.344	81.44
409.567	101.44
409.791	98.44
410.014	103.44
410.238	103.44
410.461	90.44
410.685	87.44
410.908	95.44
411.132	95.44
411.355	89.44
411.578	82.44
411.802	81.44
412.025	95.44
412.249	90.44
412.472	73.44
412.695	71.44
412.919	84.44
413.142	88.44
413.365	91.44
413.589	81.44
413.812	87.44
414.035	89.44
414.258	74.44
414.482	74.44
414.705	85.44
414.928	85.44
415.151	75.44
415.374	88.44
415.597	79.44
415.821	88.44
416.044	77.44
416.267	95.44
416.49	87.44
416.713	73.44
416.936	80.44
417.159	74.44
417.382	91.44
417.605	80.44
417.828	81.44
418.051	84.44
418.274	83.44
418.497	93.44
418.72	88.44
418.943	88.44
419.166	79.44
419.389	87.44
419.611	84.44
419.834	82.44
420.057	87.44
420.28	88.44
420.503	93.44
420.726	97.44
420.948	88.44
421.171	99.44
421.394	116.44
421.617	106.44
421.839	120.44
422.062	134.44
422.285	161.44
422.507	221.44
422.73	302.44
422.953	273.44
423.175	193.44
423.398	134.44
423.621	110.44
423.843	100.44
424.066	101.44
424.288	99.44
424.511	101.44
424.733	106.44
424.956	88.44
425.178	108.44
425.401	95.44
425.623	85.44
425.846	98.44
426.068	69.44
426.291	87.44
426.513	97.44
426.735	93.44
426.958	82.44
427.18	89.44
427.402	86.44
427.625	94.44
427.847	94.44
428.069	101.44
428.292	120.44
428.514	127.44
428.736	113.44
428.958	121.44
429.181	129.44
429.403	103.44
429.625	99.44
429.847	101.44
430.069	145.44
430.292	151.44
430.514	145.44
430.736	101.44
430.958	138.44
431.18	112.44
431.402	100.44
431.624	83.44
431.846	110.44
432.068	111.44
432.29	86.44
432.512	83.44
432.734	96.44
432.956	84.44
433.178	81.44
433.4	79.44
433.622	96.44
433.844	104.44
434.066	80.44
434.287	88.44
434.509	100.44
434.731	90.44
434.953	88.44
435.175	88.44
435.397	88.44
435.618	82.44
435.84	100.44
436.062	95.44
436.284	99.44
436.505	91.44
436.727	96.44
436.949	99.44
437.17	72.44
437.392	81.44
437.614	78.44
437.835	69.44
438.057	95.44
438.278	81.44
438.5	88.44
438.721	95.44
438.943	86.44
439.165	74.44
439.386	95.44
439.608	92.44
439.829	80.44
440.05	93.44
440.272	94.44
440.493	87.44
440.715	78.44
440.936	94.44
441.158	87.44
441.379	72.44
441.6	87.44
441.822	88.44
442.043	88.44
442.264	92.44
442.486	117.44
442.707	153.44
442.928	132.44
443.149	108.44
443.371	148.44
443.592	203.44
443.813	173.44
444.034	111.44
444.255	96.44
444.476	92.44
444.698	104.44
444.919	94.44
445.14	168.44
445.361	159.44
445.582	221.44
445.803	219.44
446.024	127.44
446.245	112.44
446.466	95.44
446.687	94.44
446.908	94.44
447.129	95.44
447.35	82.44
447.571	87.44
447.792	90.44
448.013	81.44
448.234	81.44
448.455	72.44
448.675	87.44
448.896	82.44
449.117	95.44
449.338	72.44
449.559	77.44
449.779	85.44
450	88.44
450.221	86.44
450.442	77.44
450.662	94.44
450.883	87.44
451.104	76.44
451.324	96.44
451.545	100.44
451.766	81.44
451.986	92.44
452.207	82.44
452.428	96.44
452.648	96.44
452.869	101.44
453.089	72.44
453.31	88.44
453.53	74.44
453.751	87.44
453.971	73.44
454.192	83.44
454.412	85.44
454.633	83.44
454.853	92.44
455.073	92.44
455.294	85.44
455.514	78.44
455.734	88.44
455.955	86.44
456.175	89.44
456.395	74.44
456.616	80.44
456.836	89.44
457.056	85.44
457.276	88.44
457.497	87.44
457.717	87.44
457.937	109.44
458.157	124.44
458.377	136.44
458.598	129.44
458.818	124.44
459.038	100.44
459.258	96.44
459.478	92.44
459.698	90.44
459.918	81.44
460.138	97.44
460.358	91.44
460.578	93.44
460.798	109.44
461.018	103.44
461.238	88.44
461.458	84.44
461.678	70.44
461.898	88.44
462.118	82.44
462.338	73.44
462.558	90.44
462.777	73.44
462.997	86.44
463.217	68.44
463.437	85.44
463.657	83.44
463.876	90.44
464.096	72.44
464.316	70.44
464.536	70.44
464.755	98.44
464.975	86.44
465.195	89.44
465.414	92.44
465.634	77.44
465.854	73.44
466.073	78.44
466.293	81.44
466.512	78.44
466.732	89.44
466.951	86.44
467.171	92.44
467.391	72.44
467.61	80.44
467.829	82.44
468.049	89.44
468.268	89.44
468.488	91.44
468.707	96.44
468.927	102.44
469.146	87.44
469.365	67.44
469.585	69.44
469.804	73.44
470.023	79.44
470.243	91.44
470.462	74.44
470.681	78.44
470.901	88.44
471.12	86.44
471.339	92.44
471.558	84.44
471.777	77.44
471.997	83.44
472.216	78.44
472.435	79.44
472.654	86.44
472.873	87.44
473.092	92.44
473.311	88.44
473.53	86.44
473.749	81.44
473.968	92.44
474.187	83.44
474.406	76.44
474.625	81.44
474.844	87.44
475.063	88.44
475.282	88.44
475.501	75.44
475.72	104.44
475.939	86.44
476.158	72.44
476.377	77.44
476.596	69.44
476.814	95.44
477.033	71.44
477.252	83.44
477.471	83.44
477.69	72.44
477.908	87.44
478.127	83.44
478.346	82.44
478.564	86.44
478.783	87.44
479.002	82.44
479.22	86.44
479.439	94.44
479.658	82.44
479.876	86.44
480.095	85.44
480.313	89.44
480.532	104.44
480.751	88.44
480.969	96.44
481.188	92.44
481.406	87.44
481.624	75.44
481.843	81.44
482.061	96.44
482.28	96.44
482.498	89.44
482.717	72.44
482.935	106.44
483.153	92.44
483.372	85.44
483.59	100.44
483.808	82.44
484.027	78.44
484.245	96.44
484.463	79.44
484.681	92.44
484.9	87.44
485.118	93.44
485.336	71.44
485.554	78.44
485.772	90.44
485.99	75.44
486.209	79.44
486.427	97.44
486.645	83.44
486.863	99.44
487.081	82.44
487.299	87.44
487.517	86.44
487.735	120.44
487.953	158.44
488.171	148.44
488.389	102.44
488.607	95.44
488.825	98.44
489.043	71.44
489.261	84.44
489.479	89.44
489.696	82.44
489.914	90.44
490.132	97.44
490.35	90.44
490.568	94.44
490.786	88.44
491.003	101.44
491.221	81.44
491.439	97.44
491.657	76.44
491.874	95.44
492.092	84.44
492.31	102.44
492.527	90.44
492.745	88.44
492.963	90.44
493.18	82.44
493.398	89.44
493.615	88.44
493.833	82.44
494.05	93.44
494.268	80.44
494.485	90.44
494.703	101.44
494.92	87.44
495.138	106.44
495.355	84.44
495.573	97.44
495.79	85.44
496.008	100.44
496.225	95.44
496.442	90.44
496.66	100.44
496.877	83.44
497.094	102.44
497.312	94.44
497.529	87.44
497.746	76.44
497.963	82.44
498.181	83.44
498.398	103.44
498.615	94.44
498.832	95.44
499.049	82.44
499.267	90.44
499.484	104.44
499.701	92.44
499.918	92.44
500.135	87.44
500.352	88.44
500.569	98.44
500.786	89.44
501.003	102.44
501.22	96.44
501.437	88.44
501.654	79.44
501.871	87.44
502.088	85.44
502.305	78.44
502.522	86.44
502.739	84.44
502.956	89.44
503.172	92.44
503.389	90.44
503.606	85.44
503.823	95.44
504.04	95.44
504.256	124.44
504.473	153.44
504.69	79.44
504.907	84.44
505.123	80.44
505.34	83.44
505.557	83.44
505.773	88.44
505.99	87.44
506.207	88.44
506.423	91.44
506.64	96.44
506.856	92.44
507.073	90.44
507.289	79.44
507.506	87.44
507.722	77.44
507.939	80.44
508.155	83.44
508.372	93.44
508.588	90.44
508.805	86.44
509.021	88.44
509.238	73.44
509.454	87.44
509.67	90.44
509.887	80.44
510.103	75.44
510.319	76.44
510.536	92.44
510.752	90.44
510.968	90.44
511.184	82.44
511.401	96.44
511.617	64.44
511.833	82.44
512.049	86.44
512.265	97.44
512.481	81.44
512.698	87.44
512.914	80.44
513.13	96.44
513.346	81.44
513.562	85.44
513.778	88.44
513.994	70.44
514.21	92.44
514.426	88.44
514.642	93.44
514.858	86.44
515.074	88.44
515.29	93.44
515.506	92.44
515.721	77.44
515.937	85.44
516.153	93.44
516.369	90.44
516.585	103.44
516.801	88.44
517.016	87.44
517.232	88.44
517.448	89.44
517.664	94.44
517.879	82.44
518.095	83.44
518.311	100.44
518.527	109.44
