Data from CBS_2_HRD10591_00036.txt Node
Date: Mon Jan 19 14:05:04 EST 2026
User: Yrep
Spectrometer: HR+D1059
Trigger mode: 1
Integration Time (sec): 1.000000E-1
Scans to average: 1
Electric dark correction enabled: true
Nonlinearity correction enabled: false
Boxcar width: 0
XAxis mode: Wavelengths
Number of Pixels in Spectrum: 2048
>>>>>Begin Spectral Data<<<<<
223.165	-10
223.4	-10
223.635	-10
223.869	-24
224.104	-35
224.338	-28
224.573	-16
224.808	-3
225.042	1
225.277	-5
225.511	-3
225.746	10
225.98	12
226.215	14
226.449	21
226.683	10
226.918	31
227.152	25
227.387	32
227.621	51
227.856	33
228.09	55
228.324	51
228.559	68
228.793	72
229.027	57
229.262	74
229.496	63
229.73	65
229.964	60
230.199	79
230.433	62
230.667	75
230.901	64
231.136	88
231.37	67
231.604	81
231.838	77
232.072	101
232.306	87
232.541	86
232.775	72
233.009	65
233.243	67
233.477	63
233.711	78
233.945	71
234.179	88
234.413	81
234.647	78
234.881	61
235.115	88
235.349	77
235.583	79
235.817	70
236.051	93
236.285	79
236.519	80
236.753	64
236.987	75
237.221	74
237.455	80
237.689	61
237.922	89
238.156	70
238.39	78
238.624	70
238.858	74
239.091	81
239.325	62
239.559	74
239.793	65
240.027	73
240.26	69
240.494	93
240.728	75
240.961	67
241.195	71
241.429	82
241.662	71
241.896	84
242.13	67
242.363	81
242.597	69
242.83	78
243.064	68
243.298	70
243.531	73
243.765	68
243.998	67
244.232	90
244.465	91
244.699	88
244.932	75
245.166	70
245.399	71
245.633	70
245.866	87
246.099	73
246.333	75
246.566	78
246.8	75
247.033	71
247.266	78
247.5	68
247.733	87
247.966	80
248.2	80
248.433	76
248.666	67
248.899	88
249.133	81
249.366	75
249.599	81
249.832	70
250.066	74
250.299	86
250.532	81
250.765	65
250.998	69
251.231	79
251.465	86
251.698	75
251.931	59
252.164	66
252.397	65
252.63	71
252.863	70
253.096	70
253.329	78
253.562	78
253.795	68
254.028	77
254.261	76
254.494	90
254.727	87
254.96	68
255.193	83
255.426	74
255.659	89
255.892	74
256.124	61
256.357	72
256.59	82
256.823	86
257.056	86
257.289	93
257.521	79
257.754	75
257.987	91
258.22	80
258.452	79
258.685	82
258.918	72
259.151	78
259.383	74
259.616	73
259.849	73
260.081	84
260.314	68
260.547	83
260.779	69
261.012	86
261.244	90
261.477	85
261.71	83
261.942	74
262.175	73
262.407	89
262.64	73
262.872	71
263.105	81
263.337	89
263.57	71
263.802	82
264.035	84
264.267	87
264.499	88
264.732	97
264.964	79
265.197	81
265.429	81
265.661	94
265.894	87
266.126	83
266.358	90
266.591	74
266.823	81
267.055	78
267.287	83
267.52	96
267.752	86
267.984	86
268.216	95
268.448	94
268.681	87
268.913	81
269.145	80
269.377	76
269.609	80
269.841	84
270.073	86
270.306	83
270.538	88
270.77	73
271.002	84
271.234	81
271.466	78
271.698	71
271.93	72
272.162	81
272.394	97
272.626	73
272.858	71
273.09	104
273.322	73
273.553	78
273.785	90
274.017	82
274.249	68
274.481	74
274.713	91
274.945	76
275.176	79
275.408	81
275.64	98
275.872	88
276.104	78
276.335	87
276.567	80
276.799	73
277.031	72
277.262	82
277.494	87
277.726	93
277.957	89
278.189	86
278.421	80
278.652	94
278.884	97
279.115	88
279.347	82
279.579	69
279.81	77
280.042	93
280.273	89
280.505	95
280.736	72
280.968	81
281.199	85
281.431	72
281.662	76
281.894	82
282.125	74
282.356	67
282.588	79
282.819	72
283.051	93
283.282	85
283.513	74
283.745	80
283.976	85
284.207	79
284.439	92
284.67	78
284.901	90
285.132	83
285.364	73
285.595	85
285.826	87
286.057	100
286.288	85
286.52	86
286.751	67
286.982	90
287.213	79
287.444	83
287.675	96
287.906	74
288.138	94
288.369	79
288.6	97
288.831	85
289.062	89
289.293	77
289.524	87
289.755	77
289.986	82
290.217	86
290.448	87
290.679	80
290.91	87
291.141	94
291.371	90
291.602	87
291.833	82
292.064	71
292.295	76
292.526	89
292.757	82
292.987	85
293.218	83
293.449	72
293.68	87
293.91	76
294.141	101
294.372	83
294.603	81
294.833	63
295.064	69
295.295	96
295.525	86
295.756	85
295.987	98
296.217	85
296.448	83
296.679	83
296.909	81
297.14	67
297.37	79
297.601	76
297.831	86
298.062	99
298.292	77
298.523	91
298.753	78
298.984	90
299.214	95
299.445	91
299.675	101
299.905	91
300.136	81
300.366	74
300.597	89
300.827	81
301.057	96
301.288	93
301.518	91
301.748	83
301.979	112
302.209	80
302.439	94
302.669	86
302.9	81
303.13	69
303.36	97
303.59	75
303.82	84
304.051	85
304.281	95
304.511	87
304.741	76
304.971	84
305.201	85
305.431	78
305.661	91
305.891	83
306.121	90
306.352	86
306.582	88
306.812	81
307.042	81
307.272	73
307.502	86
307.731	81
307.961	81
308.191	98
308.421	98
308.651	82
308.881	79
309.111	83
309.341	101
309.571	78
309.8	82
310.03	82
310.26	89
310.49	69
310.72	86
310.949	83
311.179	92
311.409	89
311.639	101
311.868	74
312.098	100
312.328	85
312.557	83
312.787	83
313.017	82
313.246	79
313.476	68
313.706	85
313.935	93
314.165	92
314.394	87
314.624	83
314.853	86
315.083	91
315.312	86
315.542	78
315.771	89
316.001	94
316.23	97
316.46	78
316.689	91
316.919	82
317.148	79
317.377	92
317.607	92
317.836	95
318.065	100
318.295	81
318.524	82
318.753	89
318.983	78
319.212	84
319.441	84
319.67	94
319.9	90
320.129	90
320.358	84
320.587	90
320.816	91
321.046	85
321.275	93
321.504	99
321.733	86
321.962	90
322.191	79
322.42	93
322.649	89
322.878	91
323.108	87
323.337	83
323.566	75
323.795	88
324.024	91
324.253	81
324.482	85
324.71	87
324.939	92
325.168	89
325.397	93
325.626	88
325.855	84
326.084	93
326.313	81
326.542	96
326.77	79
326.999	94
327.228	92
327.457	78
327.686	70
327.914	82
328.143	105
328.372	93
328.6	76
328.829	87
329.058	86
329.287	86
329.515	78
329.744	89
329.972	75
330.201	89
330.43	101
330.658	89
330.887	88
331.115	89
331.344	76
331.572	81
331.801	78
332.03	82
332.258	81
332.486	78
332.715	80
332.943	84
333.172	71
333.4	89
333.629	73
333.857	84
334.085	87
334.314	102
334.542	86
334.771	80
334.999	98
335.227	91
335.455	99
335.684	96
335.912	91
336.14	94
336.369	87
336.597	77
336.825	98
337.053	78
337.281	78
337.51	80
337.738	96
337.966	89
338.194	82
338.422	71
338.65	93
338.878	99
339.106	81
339.334	86
339.562	93
339.79	81
340.018	71
340.246	94
340.474	76
340.702	77
340.93	98
341.158	83
341.386	88
341.614	84
341.842	75
342.07	80
342.298	92
342.526	66
342.754	66
342.981	88
343.209	80
343.437	98
343.665	93
343.893	95
344.12	84
344.348	97
344.576	93
344.804	87
345.031	91
345.259	78
345.487	88
345.714	92
345.942	84
346.17	89
346.397	93
346.625	90
346.853	90
347.08	70
347.308	66
347.535	85
347.763	75
347.99	113
348.218	79
348.445	86
348.673	91
348.9	87
349.128	88
349.355	97
349.583	79
349.81	98
350.037	72
350.265	75
350.492	73
350.72	69
350.947	85
351.174	81
351.402	90
351.629	77
351.856	75
352.083	79
352.311	79
352.538	88
352.765	93
352.992	86
353.22	81
353.447	75
353.674	88
353.901	97
354.128	86
354.355	92
354.583	74
354.81	76
355.037	89
355.264	87
355.491	81
355.718	87
355.945	89
356.172	95
356.399	80
356.626	86
356.853	96
357.08	100
357.307	74
357.534	82
357.761	85
357.988	93
358.215	95
358.441	75
358.668	94
358.895	83
359.122	77
359.349	86
359.576	80
359.802	88
360.029	88
360.256	91
360.483	89
360.709	70
360.936	82
361.163	91
361.39	93
361.616	94
361.843	67
362.07	81
362.296	89
362.523	98
362.749	109
362.976	113
363.203	102
363.429	87
363.656	105
363.882	93
364.109	110
364.335	125
364.562	133
364.788	113
365.015	86
365.241	96
365.468	88
365.694	90
365.92	73
366.147	73
366.373	89
366.599	82
366.826	89
367.052	74
367.278	85
367.505	84
367.731	91
367.957	115
368.184	95
368.41	75
368.636	79
368.862	94
369.089	85
369.315	85
369.541	90
369.767	78
369.993	79
370.219	86
370.445	72
370.672	85
370.898	89
371.124	75
371.35	84
371.576	84
371.802	82
372.028	90
372.254	95
372.48	75
372.706	83
372.932	87
373.158	101
373.384	85
373.61	82
373.835	105
374.061	98
374.287	79
374.513	88
374.739	95
374.965	94
375.191	72
375.416	106
375.642	103
375.868	96
376.094	93
376.319	80
376.545	75
376.771	88
376.997	81
377.222	73
377.448	88
377.674	84
377.899	89
378.125	81
378.35	85
378.576	81
378.802	87
379.027	81
379.253	82
379.478	75
379.704	72
379.929	86
380.155	82
380.38	86
380.606	78
380.831	99
381.057	89
381.282	78
381.507	74
381.733	83
381.958	93
382.184	91
382.409	83
382.634	88
382.86	74
383.085	87
383.31	95
383.535	97
383.761	81
383.986	95
384.211	75
384.436	90
384.662	71
384.887	83
385.112	88
385.337	75
385.562	90
385.787	94
386.013	89
386.238	81
386.463	74
386.688	99
386.913	86
387.138	87
387.363	91
387.588	98
387.813	86
388.038	95
388.263	93
388.488	92
388.713	83
388.938	80
389.163	93
389.387	89
389.612	79
389.837	90
390.062	102
390.287	93
390.512	90
390.736	95
390.961	83
391.186	95
391.411	99
391.636	94
391.86	90
392.085	74
392.31	98
392.534	105
392.759	105
392.984	136
393.208	225
393.433	303
393.658	229
393.882	111
394.107	113
394.331	109
394.556	119
394.78	105
395.005	89
395.229	104
395.454	110
395.678	93
395.903	113
396.127	116
396.352	118
396.576	151
396.801	207
397.025	246
397.249	154
397.474	115
397.698	81
397.922	72
398.147	84
398.371	81
398.595	86
398.82	97
399.044	85
399.268	89
399.492	85
399.717	88
399.941	76
400.165	86
400.389	82
400.613	85
400.837	80
401.062	84
401.286	88
401.51	88
401.734	81
401.958	75
402.182	80
402.406	84
402.63	86
402.854	89
403.078	79
403.302	88
403.526	72
403.75	81
403.974	82
404.198	93
404.422	93
404.645	86
404.869	72
405.093	83
405.317	82
405.541	98
405.765	81
405.988	90
406.212	91
406.436	91
406.66	94
406.883	65
407.107	81
407.331	93
407.555	106
407.778	97
408.002	111
408.226	87
408.449	81
408.673	79
408.896	92
409.12	96
409.344	101
409.567	104
409.791	96
410.014	112
410.238	100
410.461	91
410.685	83
410.908	84
411.132	90
411.355	86
411.578	83
411.802	82
412.025	89
412.249	89
412.472	81
412.695	83
412.919	86
413.142	81
413.365	89
413.589	86
413.812	92
414.035	94
414.258	89
414.482	88
414.705	81
414.928	86
415.151	93
415.374	92
415.597	71
415.821	91
416.044	81
416.267	69
416.49	86
416.713	77
416.936	81
417.159	90
417.382	81
417.605	76
417.828	87
418.051	69
418.274	91
418.497	88
418.72	80
418.943	81
419.166	88
419.389	93
419.611	87
419.834	87
420.057	84
420.28	85
420.503	83
420.726	86
420.948	82
421.171	83
421.394	103
421.617	123
421.839	115
422.062	118
422.285	174
422.507	270
422.73	387
422.953	343
423.175	213
423.398	133
423.621	106
423.843	103
424.066	101
424.288	87
424.511	91
424.733	87
424.956	76
425.178	79
425.401	86
425.623	79
425.846	83
426.068	93
426.291	88
426.513	89
426.735	95
426.958	85
427.18	87
427.402	79
427.625	78
427.847	87
428.069	93
428.292	118
428.514	130
428.736	109
428.958	125
429.181	129
429.403	91
429.625	107
429.847	111
430.069	152
430.292	175
430.514	154
430.736	123
430.958	138
431.18	101
431.402	76
431.624	95
431.846	103
432.068	137
432.29	112
432.512	85
432.734	79
432.956	89
433.178	85
433.4	82
433.622	89
433.844	83
434.066	89
434.287	90
434.509	81
434.731	95
434.953	87
435.175	91
435.397	81
435.618	86
435.84	88
436.062	82
436.284	75
436.505	87
436.727	78
436.949	79
437.17	84
437.392	81
437.614	89
437.835	64
438.057	102
438.278	96
438.5	90
438.721	79
438.943	87
439.165	71
439.386	94
439.608	93
439.829	85
440.05	89
440.272	88
440.493	71
440.715	79
440.936	77
441.158	94
441.379	86
441.6	91
441.822	98
442.043	92
442.264	107
442.486	140
442.707	173
442.928	119
443.149	110
443.371	149
443.592	233
443.813	221
444.034	103
444.255	101
444.476	98
444.698	77
444.919	89
445.14	176
445.361	203
445.582	291
445.803	229
446.024	103
446.245	86
446.466	91
446.687	91
446.908	75
447.129	87
447.35	88
447.571	86
447.792	90
448.013	103
448.234	83
448.455	88
448.675	91
448.896	74
449.117	76
449.338	75
449.559	87
449.779	73
450	105
450.221	79
450.442	86
450.662	71
450.883	79
451.104	70
451.324	76
451.545	74
451.766	90
451.986	84
452.207	67
452.428	75
452.648	95
452.869	99
453.089	93
453.31	95
453.53	89
453.751	82
453.971	86
454.192	85
454.412	72
454.633	77
454.853	79
455.073	84
455.294	92
455.514	72
455.734	76
455.955	81
456.175	89
456.395	75
456.616	77
456.836	84
457.056	83
457.276	91
457.497	89
457.717	107
457.937	122
458.157	110
458.377	127
458.598	113
458.818	130
459.038	87
459.258	83
459.478	93
459.698	88
459.918	81
460.138	76
460.358	87
460.578	81
460.798	109
461.018	111
461.238	68
461.458	75
461.678	74
461.898	86
462.118	83
462.338	86
462.558	95
462.777	79
462.997	85
463.217	90
463.437	85
463.657	84
463.876	87
464.096	71
464.316	81
464.536	85
464.755	82
464.975	84
465.195	75
465.414	87
465.634	85
465.854	85
466.073	78
466.293	89
466.512	73
466.732	85
466.951	83
467.171	77
467.391	84
467.61	75
467.829	82
468.049	75
468.268	89
468.488	86
468.707	79
468.927	87
469.146	78
469.365	79
469.585	74
469.804	85
470.023	73
470.243	88
470.462	69
470.681	70
470.901	95
471.12	80
471.339	78
471.558	93
471.777	87
471.997	70
472.216	80
472.435	85
472.654	80
472.873	82
473.092	87
473.311	82
473.53	76
473.749	90
473.968	79
474.187	99
474.406	86
474.625	79
474.844	84
475.063	71
475.282	80
475.501	96
475.72	94
475.939	84
476.158	83
476.377	72
476.596	83
476.814	83
477.033	78
477.252	82
477.471	103
477.69	102
477.908	93
478.127	75
478.346	86
478.564	79
478.783	84
479.002	82
479.22	79
479.439	79
479.658	87
479.876	73
480.095	100
480.313	86
480.532	71
480.751	93
480.969	98
481.188	90
481.406	91
481.624	85
481.843	94
482.061	86
482.28	90
482.498	85
482.717	90
482.935	80
483.153	92
483.372	98
483.59	85
483.808	84
484.027	87
484.245	87
484.463	82
484.681	104
484.9	94
485.118	102
485.336	78
485.554	89
485.772	88
485.99	95
486.209	81
486.427	71
486.645	63
486.863	78
487.081	86
487.299	90
487.517	83
487.735	92
487.953	181
488.171	163
488.389	116
488.607	82
488.825	88
489.043	81
489.261	93
489.479	86
489.696	89
489.914	82
490.132	93
490.35	93
490.568	102
490.786	81
491.003	81
491.221	81
491.439	99
491.657	81
491.874	99
492.092	88
492.31	79
492.527	90
492.745	83
492.963	102
493.18	87
493.398	103
493.615	82
493.833	87
494.05	80
494.268	85
494.485	83
494.703	93
494.92	92
495.138	84
495.355	90
495.573	84
495.79	89
496.008	80
496.225	80
496.442	84
496.66	91
496.877	86
497.094	93
497.312	87
497.529	76
497.746	87
497.963	90
498.181	74
498.398	89
498.615	71
498.832	105
499.049	91
499.267	86
499.484	93
499.701	102
499.918	89
500.135	94
500.352	81
500.569	81
500.786	67
501.003	88
501.22	72
501.437	73
501.654	82
501.871	85
502.088	96
502.305	90
502.522	89
502.739	97
502.956	86
503.172	83
503.389	81
503.606	90
503.823	90
504.04	112
504.256	133
504.473	141
504.69	95
504.907	81
505.123	61
505.34	91
505.557	92
505.773	101
505.99	83
506.207	81
506.423	94
506.64	94
506.856	90
507.073	90
507.289	84
507.506	88
507.722	87
507.939	96
508.155	86
508.372	67
508.588	97
508.805	91
509.021	89
509.238	87
509.454	93
509.67	95
509.887	87
510.103	98
510.319	74
510.536	73
510.752	80
510.968	94
511.184	90
511.401	77
511.617	84
511.833	93
512.049	81
512.265	78
512.481	76
512.698	76
512.914	96
513.13	96
513.346	95
513.562	91
513.778	88
513.994	94
514.21	85
514.426	96
514.642	83
514.858	90
515.074	95
515.29	102
515.506	102
515.721	87
515.937	78
516.153	76
516.369	98
516.585	100
516.801	95
517.016	88
517.232	95
517.448	97
517.664	85
517.879	88
518.095	91
518.311	98
518.527	100
518.742	106
518.958	177
519.173	201
519.389	106
519.605	89
519.82	94
520.036	97
520.251	89
520.467	89
520.682	79
520.898	87
521.113	85
521.329	89
521.544	91
521.76	93
521.975	75
522.19	90
522.406	89
522.621	83
522.836	89
523.052	95
523.267	96
523.482	85
523.698	79
523.913	91
524.128	87
524.343	91
524.559	88
524.774	86
524.989	86
525.204	110
525.419	99
525.634	95
525.849	101
526.064	116
526.28	224
526.495	336
526.71	334
526.925	218
527.14	278
527.355	261
527.57	106
527.785	95
527.999	108
528.214	99
528.429	93
528.644	85
528.859	84
529.074	91
529.289	93
529.503	87
529.718	92
529.933	88
530.148	93
530.363	82
530.577	81
530.792	97
531.007	85
531.221	97
531.436	91
531.651	87
531.865	93
532.08	89
532.295	96
532.509	99
532.724	84
532.938	104
533.153	103
533.367	87
533.582	102
533.796	102
534.011	80
534.225	85
534.44	97
534.654	111
534.868	121
535.083	175
535.297	154
535.511	110
535.726	99
535.94	106
536.154	103
536.369	103
536.583	96
536.797	102
537.011	103
537.225	96
537.44	88
537.654	93
537.868	83
538.082	104
538.296	96
538.51	105
538.724	94
538.938	101
539.153	103
539.367	98
539.581	90
539.795	91
540.009	109
540.222	113
540.436	100
540.65	105
540.864	106
541.078	98
541.292	115
541.506	98
541.72	93
541.934	97
542.147	78
542.361	91
542.575	100
542.789	109
543.002	109
543.216	98
543.43	105
543.644	102
543.857	102
544.071	102
544.285	111
544.498	111
544.712	107
544.925	106
545.139	115
545.352	118
545.566	109
545.779	106
545.993	105
546.206	109
546.42	106
546.633	127
546.847	141
547.06	137
547.274	142
547.487	177
547.7	199
547.914	167
548.127	183
548.34	179
548.554	191
548.767	203
548.98	202
549.193	191
549.407	166
549.62	215
549.833	216
550.046	227
550.259	237
550.473	256
550.686	233
550.899	278
551.112	289
551.325	316
551.538	309
551.751	302
551.964	272
552.177	260
552.39	275
552.603	261
552.816	278
553.029	239
553.242	277
553.455	257
553.667	257
553.88	275
554.093	285
554.306	275
554.519	279
554.732	280
554.944	281
555.157	265
555.37	267
555.583	239
555.795	217
556.008	229
556.221	210
556.433	212
556.646	195
556.859	177
557.071	185
557.284	161
557.496	172
557.709	172
557.921	164
558.134	175
558.346	204
558.559	205
558.771	199
558.984	302
559.196	390
559.409	217
559.621	307
559.833	241
560.046	275
560.258	257
560.47	258
560.683	153
560.895	126
561.107	111
561.32	118
561.532	117
561.744	115
561.956	118
562.168	89
562.381	115
562.593	95
562.805	97
563.017	96
563.229	92
563.441	106
563.653	116
563.865	93
564.077	98
564.289	103
564.501	91
564.713	95
564.925	103
565.137	83
565.349	103
565.561	112
565.773	110
565.985	112
566.197	106
566.408	106
566.62	99
566.832	110
567.044	111
567.255	91
567.467	96
567.679	90
567.891	99
568.102	115
568.314	98
568.526	96
568.737	90
568.949	102
569.161	100
569.372	89
569.584	91
569.795	106
570.007	103
570.218	100
570.43	97
570.641	99
570.853	74
571.064	109
571.276	98
571.487	97
571.698	113
571.91	84
572.121	97
572.333	104
572.544	108
572.755	99
572.966	96
573.178	105
573.389	114
573.6	98
573.811	100
574.023	95
574.234	91
574.445	85
574.656	97
574.867	90
575.078	93
575.289	97
575.501	103
575.712	97
575.923	101
576.134	100
576.345	95
576.556	100
576.767	87
576.978	93
577.188	95
577.399	95
577.61	97
577.821	120
578.032	99
578.243	94
578.454	91
578.665	89
578.875	88
579.086	95
579.297	91
579.508	92
579.718	101
579.929	100
580.14	94
580.35	105
580.561	81
580.772	82
580.982	80
581.193	88
581.403	94
581.614	110
581.825	96
582.035	96
582.246	97
582.456	90
582.667	93
582.877	85
583.087	89
583.298	99
583.508	105
583.719	84
583.929	92
584.139	89
584.35	91
584.56	107
584.77	100
584.981	105
585.191	112
585.401	86
585.611	128
585.821	177
