Data from CBS_2_HRD10591_00034.txt Node
Date: Mon Jan 19 14:05:03 EST 2026
User: Yrep
Spectrometer: HR+D1059
Trigger mode: 1
Integration Time (sec): 1.000000E-1
Scans to average: 1
Electric dark correction enabled: true
Nonlinearity correction enabled: false
Boxcar width: 0
XAxis mode: Wavelengths
Number of Pixels in Spectrum: 2048
>>>>>Begin Spectral Data<<<<<
223.165	-10.12
223.4	-10.12
223.635	-10.12
223.869	-17.12
224.104	-17.12
224.338	-28.12
224.573	-11.12
224.808	-9.12
225.042	-2.12
225.277	-1.12
225.511	-14.12
225.746	9.88
225.98	-3.12
226.215	6.88
226.449	10.88
226.683	22.88
226.918	35.88
227.152	26.88
227.387	30.88
227.621	38.88
227.856	48.88
228.09	34.88
228.324	45.88
228.559	59.88
228.793	51.88
229.027	53.88
229.262	62.88
229.496	72.88
229.73	64.88
229.964	70.88
230.199	68.88
230.433	67.88
230.667	79.88
230.901	63.88
231.136	62.88
231.37	72.88
231.604	72.88
231.838	66.88
232.072	80.88
232.306	97.88
232.541	76.88
232.775	66.88
233.009	87.88
233.243	63.88
233.477	86.88
233.711	74.88
233.945	74.88
234.179	90.88
234.413	75.88
234.647	69.88
234.881	84.88
235.115	81.88
235.349	82.88
235.583	77.88
235.817	73.88
236.051	79.88
236.285	71.88
236.519	68.88
236.753	64.88
236.987	72.88
237.221	72.88
237.455	62.88
237.689	78.88
237.922	85.88
238.156	73.88
238.39	72.88
238.624	84.88
238.858	63.88
239.091	73.88
239.325	58.88
239.559	67.88
239.793	64.88
240.027	82.88
240.26	83.88
240.494	80.88
240.728	82.88
240.961	86.88
241.195	71.88
241.429	81.88
241.662	70.88
241.896	77.88
242.13	84.88
242.363	80.88
242.597	78.88
242.83	67.88
243.064	69.88
243.298	64.88
243.531	88.88
243.765	70.88
243.998	85.88
244.232	69.88
244.465	71.88
244.699	73.88
244.932	65.88
245.166	73.88
245.399	84.88
245.633	58.88
245.866	86.88
246.099	73.88
246.333	66.88
246.566	63.88
246.8	88.88
247.033	71.88
247.266	75.88
247.5	90.88
247.733	82.88
247.966	73.88
248.2	60.88
248.433	70.88
248.666	84.88
248.899	81.88
249.133	67.88
249.366	82.88
249.599	77.88
249.832	67.88
250.066	82.88
250.299	63.88
250.532	66.88
250.765	72.88
250.998	63.88
251.231	73.88
251.465	75.88
251.698	80.88
251.931	67.88
252.164	72.88
252.397	72.88
252.63	72.88
252.863	85.88
253.096	71.88
253.329	80.88
253.562	84.88
253.795	91.88
254.028	57.88
254.261	68.88
254.494	76.88
254.727	78.88
254.96	79.88
255.193	93.88
255.426	71.88
255.659	72.88
255.892	83.88
256.124	72.88
256.357	74.88
256.59	79.88
256.823	82.88
257.056	87.88
257.289	82.88
257.521	93.88
257.754	76.88
257.987	78.88
258.22	74.88
258.452	78.88
258.685	78.88
258.918	80.88
259.151	71.88
259.383	87.88
259.616	83.88
259.849	75.88
260.081	76.88
260.314	75.88
260.547	80.88
260.779	71.88
261.012	66.88
261.244	65.88
261.477	80.88
261.71	86.88
261.942	69.88
262.175	76.88
262.407	90.88
262.64	70.88
262.872	81.88
263.105	74.88
263.337	85.88
263.57	78.88
263.802	78.88
264.035	79.88
264.267	74.88
264.499	70.88
264.732	82.88
264.964	73.88
265.197	79.88
265.429	77.88
265.661	74.88
265.894	78.88
266.126	77.88
266.358	69.88
266.591	72.88
266.823	81.88
267.055	70.88
267.287	79.88
267.52	82.88
267.752	70.88
267.984	83.88
268.216	87.88
268.448	87.88
268.681	79.88
268.913	72.88
269.145	74.88
269.377	66.88
269.609	78.88
269.841	90.88
270.073	72.88
270.306	72.88
270.538	68.88
270.77	80.88
271.002	92.88
271.234	74.88
271.466	80.88
271.698	80.88
271.93	76.88
272.162	79.88
272.394	72.88
272.626	78.88
272.858	78.88
273.09	86.88
273.322	78.88
273.553	69.88
273.785	73.88
274.017	95.88
274.249	84.88
274.481	78.88
274.713	79.88
274.945	70.88
275.176	72.88
275.408	70.88
275.64	81.88
275.872	77.88
276.104	82.88
276.335	76.88
276.567	78.88
276.799	64.88
277.031	90.88
277.262	79.88
277.494	81.88
277.726	72.88
277.957	86.88
278.189	82.88
278.421	82.88
278.652	78.88
278.884	68.88
279.115	76.88
279.347	82.88
279.579	69.88
279.81	85.88
280.042	92.88
280.273	73.88
280.505	66.88
280.736	90.88
280.968	80.88
281.199	71.88
281.431	94.88
281.662	76.88
281.894	95.88
282.125	79.88
282.356	83.88
282.588	86.88
282.819	75.88
283.051	77.88
283.282	77.88
283.513	79.88
283.745	85.88
283.976	84.88
284.207	77.88
284.439	78.88
284.67	77.88
284.901	74.88
285.132	83.88
285.364	88.88
285.595	76.88
285.826	68.88
286.057	78.88
286.288	75.88
286.52	80.88
286.751	82.88
286.982	74.88
287.213	70.88
287.444	72.88
287.675	79.88
287.906	78.88
288.138	85.88
288.369	80.88
288.6	79.88
288.831	90.88
289.062	94.88
289.293	82.88
289.524	76.88
289.755	70.88
289.986	71.88
290.217	66.88
290.448	78.88
290.679	85.88
290.91	90.88
291.141	86.88
291.371	98.88
291.602	93.88
291.833	72.88
292.064	74.88
292.295	75.88
292.526	94.88
292.757	76.88
292.987	94.88
293.218	70.88
293.449	75.88
293.68	77.88
293.91	79.88
294.141	82.88
294.372	60.88
294.603	79.88
294.833	82.88
295.064	78.88
295.295	68.88
295.525	80.88
295.756	84.88
295.987	76.88
296.217	80.88
296.448	84.88
296.679	87.88
296.909	79.88
297.14	79.88
297.37	77.88
297.601	84.88
297.831	70.88
298.062	73.88
298.292	93.88
298.523	78.88
298.753	78.88
298.984	83.88
299.214	74.88
299.445	92.88
299.675	93.88
299.905	78.88
300.136	70.88
300.366	74.88
300.597	80.88
300.827	91.88
301.057	72.88
301.288	78.88
301.518	77.88
301.748	74.88
301.979	97.88
302.209	92.88
302.439	75.88
302.669	86.88
302.9	86.88
303.13	102.88
303.36	87.88
303.59	84.88
303.82	86.88
304.051	80.88
304.281	75.88
304.511	84.88
304.741	86.88
304.971	80.88
305.201	80.88
305.431	78.88
305.661	97.88
305.891	80.88
306.121	81.88
306.352	78.88
306.582	77.88
306.812	83.88
307.042	85.88
307.272	80.88
307.502	104.88
307.731	77.88
307.961	88.88
308.191	91.88
308.421	94.88
308.651	78.88
308.881	76.88
309.111	71.88
309.341	84.88
309.571	89.88
309.8	78.88
310.03	76.88
310.26	79.88
310.49	81.88
310.72	66.88
310.949	80.88
311.179	78.88
311.409	69.88
311.639	88.88
311.868	85.88
312.098	81.88
312.328	93.88
312.557	81.88
312.787	70.88
313.017	68.88
313.246	76.88
313.476	89.88
313.706	78.88
313.935	80.88
314.165	79.88
314.394	91.88
314.624	66.88
314.853	86.88
315.083	69.88
315.312	64.88
315.542	93.88
315.771	81.88
316.001	77.88
316.23	77.88
316.46	80.88
316.689	85.88
316.919	83.88
317.148	79.88
317.377	71.88
317.607	101.88
317.836	76.88
318.065	85.88
318.295	95.88
318.524	81.88
318.753	71.88
318.983	81.88
319.212	83.88
319.441	80.88
319.67	86.88
319.9	88.88
320.129	84.88
320.358	78.88
320.587	78.88
320.816	75.88
321.046	76.88
321.275	89.88
321.504	85.88
321.733	92.88
321.962	98.88
322.191	88.88
322.42	87.88
322.649	88.88
322.878	94.88
323.108	96.88
323.337	81.88
323.566	78.88
323.795	83.88
324.024	78.88
324.253	79.88
324.482	100.88
324.71	80.88
324.939	80.88
325.168	84.88
325.397	77.88
325.626	79.88
325.855	88.88
326.084	80.88
326.313	80.88
326.542	79.88
326.77	83.88
326.999	89.88
327.228	77.88
327.457	85.88
327.686	79.88
327.914	86.88
328.143	88.88
328.372	70.88
328.6	81.88
328.829	84.88
329.058	83.88
329.287	71.88
329.515	78.88
329.744	86.88
329.972	78.88
330.201	77.88
330.43	77.88
330.658	82.88
330.887	83.88
331.115	80.88
331.344	86.88
331.572	87.88
331.801	84.88
332.03	56.88
332.258	76.88
332.486	67.88
332.715	84.88
332.943	74.88
333.172	94.88
333.4	82.88
333.629	86.88
333.857	80.88
334.085	79.88
334.314	86.88
334.542	78.88
334.771	83.88
334.999	88.88
335.227	81.88
335.455	89.88
335.684	77.88
335.912	84.88
336.14	86.88
336.369	80.88
336.597	78.88
336.825	72.88
337.053	68.88
337.281	88.88
337.51	68.88
337.738	91.88
337.966	73.88
338.194	84.88
338.422	77.88
338.65	80.88
338.878	79.88
339.106	90.88
339.334	81.88
339.562	86.88
339.79	80.88
340.018	85.88
340.246	87.88
340.474	86.88
340.702	70.88
340.93	78.88
341.158	83.88
341.386	80.88
341.614	72.88
341.842	88.88
342.07	72.88
342.298	66.88
342.526	71.88
342.754	85.88
342.981	76.88
343.209	85.88
343.437	89.88
343.665	85.88
343.893	83.88
344.12	85.88
344.348	88.88
344.576	74.88
344.804	72.88
345.031	77.88
345.259	82.88
345.487	77.88
345.714	84.88
345.942	89.88
346.17	81.88
346.397	80.88
346.625	72.88
346.853	72.88
347.08	88.88
347.308	70.88
347.535	82.88
347.763	86.88
347.99	87.88
348.218	87.88
348.445	67.88
348.673	67.88
348.9	90.88
349.128	91.88
349.355	70.88
349.583	84.88
349.81	68.88
350.037	79.88
350.265	64.88
350.492	82.88
350.72	60.88
350.947	79.88
351.174	92.88
351.402	98.88
351.629	78.88
351.856	67.88
352.083	86.88
352.311	85.88
352.538	80.88
352.765	73.88
352.992	97.88
353.22	79.88
353.447	75.88
353.674	82.88
353.901	84.88
354.128	79.88
354.355	75.88
354.583	69.88
354.81	76.88
355.037	85.88
355.264	90.88
355.491	86.88
355.718	66.88
355.945	89.88
356.172	94.88
356.399	83.88
356.626	64.88
356.853	78.88
357.08	90.88
357.307	79.88
357.534	87.88
357.761	81.88
357.988	92.88
358.215	74.88
358.441	85.88
358.668	72.88
358.895	67.88
359.122	78.88
359.349	80.88
359.576	75.88
359.802	78.88
360.029	93.88
360.256	87.88
360.483	79.88
360.709	93.88
360.936	88.88
361.163	89.88
361.39	98.88
361.616	90.88
361.843	79.88
362.07	85.88
362.296	93.88
362.523	85.88
362.749	81.88
362.976	84.88
363.203	106.88
363.429	86.88
363.656	85.88
363.882	79.88
364.109	91.88
364.335	92.88
364.562	87.88
364.788	100.88
365.015	75.88
365.241	75.88
365.468	82.88
365.694	68.88
365.92	75.88
366.147	82.88
366.373	82.88
366.599	87.88
366.826	99.88
367.052	86.88
367.278	75.88
367.505	84.88
367.731	82.88
367.957	86.88
368.184	83.88
368.41	76.88
368.636	71.88
368.862	74.88
369.089	76.88
369.315	85.88
369.541	62.88
369.767	74.88
369.993	88.88
370.219	102.88
370.445	80.88
370.672	86.88
370.898	72.88
371.124	78.88
371.35	92.88
371.576	97.88
371.802	88.88
372.028	82.88
372.254	78.88
372.48	77.88
372.706	86.88
372.932	80.88
373.158	82.88
373.384	80.88
373.61	74.88
373.835	88.88
374.061	86.88
374.287	87.88
374.513	79.88
374.739	89.88
374.965	92.88
375.191	86.88
375.416	84.88
375.642	72.88
375.868	78.88
376.094	86.88
376.319	69.88
376.545	94.88
376.771	92.88
376.997	65.88
377.222	76.88
377.448	85.88
377.674	69.88
377.899	75.88
378.125	66.88
378.35	73.88
378.576	78.88
378.802	80.88
379.027	86.88
379.253	83.88
379.478	80.88
379.704	86.88
379.929	72.88
380.155	80.88
380.38	70.88
380.606	94.88
380.831	92.88
381.057	88.88
381.282	72.88
381.507	79.88
381.733	87.88
381.958	79.88
382.184	73.88
382.409	89.88
382.634	84.88
382.86	85.88
383.085	75.88
383.31	82.88
383.535	96.88
383.761	63.88
383.986	78.88
384.211	81.88
384.436	90.88
384.662	84.88
384.887	73.88
385.112	66.88
385.337	69.88
385.562	84.88
385.787	78.88
386.013	74.88
386.238	76.88
386.463	93.88
386.688	98.88
386.913	72.88
387.138	66.88
387.363	87.88
387.588	90.88
387.813	69.88
388.038	79.88
388.263	79.88
388.488	72.88
388.713	70.88
388.938	89.88
389.163	80.88
389.387	81.88
389.612	88.88
389.837	72.88
390.062	72.88
390.287	85.88
390.512	75.88
390.736	80.88
390.961	73.88
391.186	61.88
391.411	66.88
391.636	80.88
391.86	78.88
392.085	82.88
392.31	95.88
392.534	78.88
392.759	88.88
392.984	106.88
393.208	124.88
393.433	142.88
393.658	131.88
393.882	96.88
394.107	91.88
394.331	74.88
394.556	103.88
394.78	86.88
395.005	86.88
395.229	75.88
395.454	71.88
395.678	82.88
395.903	92.88
396.127	97.88
396.352	86.88
396.576	107.88
396.801	134.88
397.025	144.88
397.249	114.88
397.474	80.88
397.698	83.88
397.922	82.88
398.147	78.88
398.371	76.88
398.595	85.88
398.82	82.88
399.044	66.88
399.268	76.88
399.492	82.88
399.717	72.88
399.941	78.88
400.165	81.88
400.389	86.88
400.613	88.88
400.837	78.88
401.062	79.88
401.286	75.88
401.51	82.88
401.734	91.88
401.958	83.88
402.182	77.88
402.406	71.88
402.63	72.88
402.854	72.88
403.078	87.88
403.302	63.88
403.526	92.88
403.75	72.88
403.974	78.88
404.198	90.88
404.422	89.88
404.645	76.88
404.869	86.88
405.093	79.88
405.317	72.88
405.541	72.88
405.765	79.88
405.988	71.88
406.212	99.88
406.436	69.88
406.66	95.88
406.883	85.88
407.107	82.88
407.331	76.88
407.555	84.88
407.778	76.88
408.002	71.88
408.226	85.88
408.449	79.88
408.673	75.88
408.896	78.88
409.12	90.88
409.344	87.88
409.567	87.88
409.791	91.88
410.014	76.88
410.238	94.88
410.461	73.88
410.685	76.88
410.908	76.88
411.132	69.88
411.355	90.88
411.578	85.88
411.802	66.88
412.025	67.88
412.249	81.88
412.472	74.88
412.695	78.88
412.919	92.88
413.142	86.88
413.365	78.88
413.589	77.88
413.812	83.88
414.035	86.88
414.258	86.88
414.482	65.88
414.705	95.88
414.928	78.88
415.151	80.88
415.374	76.88
415.597	82.88
415.821	88.88
416.044	81.88
416.267	70.88
416.49	73.88
416.713	78.88
416.936	80.88
417.159	75.88
417.382	78.88
417.605	84.88
417.828	106.88
418.051	92.88
418.274	91.88
418.497	72.88
418.72	75.88
418.943	74.88
419.166	89.88
419.389	78.88
419.611	86.88
419.834	80.88
420.057	78.88
420.28	87.88
420.503	83.88
420.726	84.88
420.948	82.88
421.171	82.88
421.394	72.88
421.617	98.88
421.839	88.88
422.062	108.88
422.285	110.88
422.507	145.88
422.73	214.88
422.953	196.88
423.175	132.88
423.398	100.88
423.621	79.88
423.843	86.88
424.066	83.88
424.288	85.88
424.511	88.88
424.733	70.88
424.956	98.88
425.178	80.88
425.401	81.88
425.623	69.88
425.846	81.88
426.068	82.88
426.291	71.88
426.513	83.88
426.735	77.88
426.958	84.88
427.18	93.88
427.402	75.88
427.625	87.88
427.847	75.88
428.069	88.88
428.292	97.88
428.514	107.88
428.736	95.88
428.958	97.88
429.181	94.88
429.403	84.88
429.625	91.88
429.847	88.88
430.069	112.88
430.292	128.88
430.514	114.88
430.736	92.88
430.958	95.88
431.18	82.88
431.402	78.88
431.624	85.88
431.846	107.88
432.068	96.88
432.29	84.88
432.512	78.88
432.734	79.88
432.956	71.88
433.178	85.88
433.4	96.88
433.622	76.88
433.844	87.88
434.066	87.88
434.287	79.88
434.509	78.88
434.731	93.88
434.953	75.88
435.175	83.88
435.397	79.88
435.618	76.88
435.84	79.88
436.062	82.88
436.284	84.88
436.505	85.88
436.727	84.88
436.949	85.88
437.17	71.88
437.392	91.88
437.614	85.88
437.835	74.88
438.057	80.88
438.278	81.88
438.5	86.88
438.721	81.88
438.943	80.88
439.165	87.88
439.386	83.88
439.608	87.88
439.829	71.88
440.05	77.88
440.272	80.88
440.493	77.88
440.715	78.88
440.936	93.88
441.158	79.88
441.379	82.88
441.6	94.88
441.822	78.88
442.043	84.88
442.264	82.88
442.486	93.88
442.707	82.88
442.928	88.88
443.149	87.88
443.371	120.88
443.592	139.88
443.813	123.88
444.034	90.88
444.255	89.88
444.476	78.88
444.698	79.88
444.919	80.88
445.14	144.88
445.361	132.88
445.582	139.88
445.803	128.88
446.024	92.88
446.245	78.88
446.466	84.88
446.687	72.88
446.908	90.88
447.129	79.88
447.35	78.88
447.571	109.88
447.792	81.88
448.013	84.88
448.234	75.88
448.455	87.88
448.675	71.88
448.896	82.88
449.117	77.88
449.338	77.88
449.559	77.88
449.779	85.88
450	83.88
450.221	78.88
450.442	64.88
450.662	72.88
450.883	82.88
451.104	82.88
451.324	69.88
451.545	62.88
451.766	81.88
451.986	84.88
452.207	91.88
452.428	91.88
452.648	98.88
452.869	85.88
453.089	80.88
453.31	75.88
453.53	72.88
453.751	86.88
453.971	86.88
454.192	78.88
454.412	74.88
454.633	77.88
454.853	77.88
455.073	77.88
455.294	82.88
455.514	80.88
455.734	76.88
455.955	78.88
456.175	84.88
456.395	75.88
456.616	86.88
456.836	92.88
457.056	90.88
457.276	80.88
457.497	77.88
457.717	78.88
457.937	93.88
458.157	103.88
458.377	78.88
458.598	90.88
458.818	98.88
459.038	80.88
459.258	76.88
459.478	76.88
459.698	77.88
459.918	82.88
460.138	85.88
460.358	83.88
460.578	85.88
460.798	98.88
461.018	100.88
461.238	95.88
461.458	88.88
461.678	75.88
461.898	90.88
462.118	85.88
462.338	90.88
462.558	78.88
462.777	88.88
462.997	82.88
463.217	76.88
463.437	80.88
463.657	78.88
463.876	82.88
464.096	85.88
464.316	79.88
464.536	82.88
464.755	75.88
464.975	74.88
465.195	86.88
465.414	78.88
465.634	91.88
465.854	75.88
466.073	65.88
466.293	87.88
466.512	82.88
466.732	85.88
466.951	87.88
467.171	72.88
467.391	78.88
467.61	86.88
467.829	91.88
468.049	81.88
468.268	72.88
468.488	76.88
468.707	65.88
468.927	85.88
469.146	78.88
469.365	75.88
469.585	84.88
469.804	75.88
470.023	86.88
470.243	84.88
470.462	76.88
470.681	67.88
470.901	87.88
471.12	71.88
471.339	91.88
471.558	75.88
471.777	73.88
471.997	86.88
472.216	77.88
472.435	78.88
472.654	69.88
472.873	92.88
473.092	68.88
473.311	71.88
473.53	80.88
473.749	86.88
473.968	71.88
474.187	85.88
474.406	58.88
474.625	73.88
474.844	84.88
475.063	71.88
475.282	71.88
475.501	85.88
475.72	93.88
475.939	80.88
476.158	74.88
476.377	78.88
476.596	84.88
476.814	90.88
477.033	83.88
477.252	74.88
477.471	79.88
477.69	74.88
477.908	87.88
478.127	88.88
478.346	81.88
478.564	80.88
478.783	92.88
479.002	78.88
479.22	95.88
479.439	83.88
479.658	69.88
479.876	78.88
480.095	86.88
480.313	78.88
480.532	84.88
480.751	72.88
480.969	94.88
481.188	80.88
481.406	85.88
481.624	86.88
481.843	75.88
482.061	81.88
482.28	95.88
482.498	89.88
482.717	79.88
482.935	85.88
483.153	63.88
483.372	66.88
483.59	80.88
483.808	85.88
484.027	92.88
484.245	69.88
484.463	62.88
484.681	93.88
484.9	87.88
485.118	77.88
485.336	78.88
485.554	79.88
485.772	78.88
485.99	83.88
486.209	90.88
486.427	78.88
486.645	85.88
486.863	83.88
487.081	68.88
487.299	84.88
487.517	90.88
487.735	88.88
487.953	108.88
488.171	104.88
488.389	84.88
488.607	78.88
488.825	88.88
489.043	66.88
489.261	82.88
489.479	88.88
489.696	85.88
489.914	88.88
490.132	85.88
490.35	90.88
490.568	90.88
490.786	78.88
491.003	80.88
491.221	75.88
491.439	77.88
491.657	69.88
491.874	83.88
492.092	69.88
492.31	85.88
492.527	63.88
492.745	75.88
492.963	86.88
493.18	87.88
493.398	82.88
493.615	85.88
493.833	93.88
494.05	88.88
494.268	72.88
494.485	71.88
494.703	68.88
494.92	90.88
495.138	78.88
495.355	84.88
495.573	90.88
495.79	83.88
496.008	82.88
496.225	81.88
496.442	81.88
496.66	83.88
496.877	86.88
497.094	66.88
497.312	80.88
497.529	82.88
497.746	78.88
497.963	66.88
498.181	82.88
498.398	86.88
498.615	78.88
498.832	85.88
499.049	78.88
499.267	92.88
499.484	83.88
499.701	73.88
499.918	83.88
500.135	75.88
500.352	75.88
500.569	89.88
500.786	76.88
501.003	74.88
501.22	92.88
501.437	86.88
501.654	90.88
501.871	88.88
502.088	87.88
502.305	87.88
502.522	89.88
502.739	91.88
502.956	82.88
503.172	74.88
503.389	97.88
503.606	80.88
503.823	87.88
504.04	91.88
504.256	91.88
504.473	91.88
504.69	94.88
504.907	90.88
505.123	91.88
505.34	87.88
505.557	80.88
505.773	71.88
505.99	87.88
506.207	77.88
506.423	78.88
506.64	82.88
506.856	93.88
507.073	80.88
507.289	95.88
507.506	85.88
507.722	79.88
507.939	87.88
508.155	79.88
508.372	94.88
508.588	79.88
508.805	83.88
509.021	79.88
509.238	76.88
509.454	83.88
509.67	83.88
509.887	85.88
510.103	80.88
510.319	83.88
510.536	92.88
510.752	72.88
510.968	70.88
511.184	78.88
511.401	81.88
511.617	92.88
511.833	80.88
512.049	89.88
512.265	80.88
512.481	67.88
512.698	78.88
512.914	80.88
513.13	93.88
513.346	97.88
513.562	98.88
513.778	93.88
513.994	76.88
514.21	73.88
514.426	94.88
514.642	81.88
514.858	80.88
515.074	90.88
515.29	91.88
515.506	79.88
515.721	106.88
515.937	96.88
516.153	81.88
516.369	77.88
516.585	69.88
516.801	81.88
517.016	88.88
517.232	82.88
517.448	70.88
517.664	62.88
517.879	91.88
518.095	85.88
518.311	79.88
518.527	81.88
518.742	88.88
518.958	100.88
519.173	121.88
519.389	84.88
519.605	88.88
