Data from CBS_2_HRD10591_00018.txt Node
Date: Mon Jan 19 14:04:55 EST 2026
User: Yrep
Spectrometer: HR+D1059
Trigger mode: 1
Integration Time (sec): 1.000000E-1
Scans to average: 1
Electric dark correction enabled: true
Nonlinearity correction enabled: false
Boxcar width: 0
XAxis mode: Wavelengths
Number of Pixels in Spectrum: 2048
>>>>>Begin Spectral Data<<<<<
223.165	-28.44
223.4	-28.44
223.635	-28.44
223.869	-27.44
224.104	-26.44
224.338	-9.44
224.573	-10.44
224.808	-1.44
225.042	-9.44
225.277	-8.44
225.511	1.56
225.746	-8.44
225.98	7.56
226.215	21.56
226.449	13.56
226.683	25.56
226.918	31.56
227.152	28.56
227.387	34.56
227.621	36.56
227.856	48.56
228.09	49.56
228.324	52.56
228.559	67.56
228.793	50.56
229.027	69.56
229.262	67.56
229.496	66.56
229.73	67.56
229.964	67.56
230.199	79.56
230.433	74.56
230.667	73.56
230.901	83.56
231.136	69.56
231.37	86.56
231.604	87.56
231.838	79.56
232.072	82.56
232.306	90.56
232.541	70.56
232.775	81.56
233.009	73.56
233.243	81.56
233.477	78.56
233.711	77.56
233.945	83.56
234.179	75.56
234.413	78.56
234.647	76.56
234.881	77.56
235.115	79.56
235.349	73.56
235.583	95.56
235.817	88.56
236.051	73.56
236.285	63.56
236.519	82.56
236.753	71.56
236.987	67.56
237.221	65.56
237.455	65.56
237.689	78.56
237.922	70.56
238.156	73.56
238.39	64.56
238.624	71.56
238.858	75.56
239.091	74.56
239.325	73.56
239.559	77.56
239.793	84.56
240.027	86.56
240.26	69.56
240.494	70.56
240.728	81.56
240.961	63.56
241.195	77.56
241.429	71.56
241.662	77.56
241.896	71.56
242.13	77.56
242.363	69.56
242.597	57.56
242.83	75.56
243.064	68.56
243.298	70.56
243.531	68.56
243.765	78.56
243.998	79.56
244.232	91.56
244.465	91.56
244.699	81.56
244.932	66.56
245.166	81.56
245.399	82.56
245.633	81.56
245.866	67.56
246.099	60.56
246.333	73.56
246.566	77.56
246.8	73.56
247.033	67.56
247.266	67.56
247.5	73.56
247.733	74.56
247.966	71.56
248.2	66.56
248.433	59.56
248.666	81.56
248.899	77.56
249.133	87.56
249.366	76.56
249.599	83.56
249.832	71.56
250.066	76.56
250.299	71.56
250.532	89.56
250.765	73.56
250.998	89.56
251.231	80.56
251.465	77.56
251.698	80.56
251.931	76.56
252.164	93.56
252.397	67.56
252.63	84.56
252.863	90.56
253.096	79.56
253.329	77.56
253.562	67.56
253.795	79.56
254.028	94.56
254.261	71.56
254.494	86.56
254.727	66.56
254.96	87.56
255.193	84.56
255.426	80.56
255.659	65.56
255.892	87.56
256.124	68.56
256.357	71.56
256.59	78.56
256.823	69.56
257.056	63.56
257.289	82.56
257.521	81.56
257.754	61.56
257.987	78.56
258.22	83.56
258.452	81.56
258.685	77.56
258.918	90.56
259.151	84.56
259.383	86.56
259.616	76.56
259.849	79.56
260.081	76.56
260.314	74.56
260.547	64.56
260.779	79.56
261.012	87.56
261.244	80.56
261.477	78.56
261.71	75.56
261.942	65.56
262.175	84.56
262.407	55.56
262.64	87.56
262.872	82.56
263.105	83.56
263.337	94.56
263.57	80.56
263.802	78.56
264.035	85.56
264.267	94.56
264.499	77.56
264.732	79.56
264.964	97.56
265.197	85.56
265.429	70.56
265.661	76.56
265.894	91.56
266.126	81.56
266.358	91.56
266.591	68.56
266.823	75.56
267.055	90.56
267.287	86.56
267.52	90.56
267.752	83.56
267.984	90.56
268.216	85.56
268.448	87.56
268.681	94.56
268.913	87.56
269.145	80.56
269.377	73.56
269.609	78.56
269.841	82.56
270.073	85.56
270.306	74.56
270.538	97.56
270.77	87.56
271.002	70.56
271.234	75.56
271.466	67.56
271.698	94.56
271.93	88.56
272.162	77.56
272.394	88.56
272.626	78.56
272.858	84.56
273.09	86.56
273.322	80.56
273.553	70.56
273.785	91.56
274.017	75.56
274.249	61.56
274.481	75.56
274.713	84.56
274.945	84.56
275.176	84.56
275.408	65.56
275.64	79.56
275.872	72.56
276.104	81.56
276.335	86.56
276.567	76.56
276.799	85.56
277.031	71.56
277.262	83.56
277.494	87.56
277.726	86.56
277.957	91.56
278.189	81.56
278.421	80.56
278.652	94.56
278.884	96.56
279.115	79.56
279.347	83.56
279.579	87.56
279.81	102.56
280.042	86.56
280.273	84.56
280.505	73.56
280.736	79.56
280.968	79.56
281.199	88.56
281.431	91.56
281.662	89.56
281.894	86.56
282.125	85.56
282.356	74.56
282.588	76.56
282.819	86.56
283.051	78.56
283.282	64.56
283.513	83.56
283.745	84.56
283.976	79.56
284.207	81.56
284.439	79.56
284.67	91.56
284.901	78.56
285.132	87.56
285.364	79.56
285.595	75.56
285.826	80.56
286.057	83.56
286.288	79.56
286.52	74.56
286.751	88.56
286.982	92.56
287.213	80.56
287.444	70.56
287.675	83.56
287.906	67.56
288.138	86.56
288.369	99.56
288.6	97.56
288.831	99.56
289.062	88.56
289.293	78.56
289.524	84.56
289.755	81.56
289.986	93.56
290.217	94.56
290.448	95.56
290.679	99.56
290.91	96.56
291.141	104.56
291.371	82.56
291.602	84.56
291.833	71.56
292.064	93.56
292.295	80.56
292.526	84.56
292.757	78.56
292.987	103.56
293.218	85.56
293.449	71.56
293.68	83.56
293.91	85.56
294.141	86.56
294.372	82.56
294.603	92.56
294.833	88.56
295.064	75.56
295.295	80.56
295.525	84.56
295.756	96.56
295.987	82.56
296.217	76.56
296.448	92.56
296.679	81.56
296.909	89.56
297.14	89.56
297.37	90.56
297.601	81.56
297.831	84.56
298.062	98.56
298.292	78.56
298.523	89.56
298.753	74.56
298.984	93.56
299.214	77.56
299.445	94.56
299.675	87.56
299.905	88.56
300.136	74.56
300.366	98.56
300.597	86.56
300.827	91.56
301.057	83.56
301.288	85.56
301.518	84.56
301.748	82.56
301.979	88.56
302.209	93.56
302.439	74.56
302.669	80.56
302.9	82.56
303.13	81.56
303.36	73.56
303.59	78.56
303.82	93.56
304.051	75.56
304.281	71.56
304.511	82.56
304.741	76.56
304.971	84.56
305.201	86.56
305.431	79.56
305.661	93.56
305.891	94.56
306.121	88.56
306.352	96.56
306.582	82.56
306.812	77.56
307.042	101.56
307.272	91.56
307.502	86.56
307.731	82.56
307.961	74.56
308.191	82.56
308.421	82.56
308.651	77.56
308.881	85.56
309.111	96.56
309.341	97.56
309.571	84.56
309.8	83.56
310.03	79.56
310.26	95.56
310.49	81.56
310.72	85.56
310.949	83.56
311.179	91.56
311.409	77.56
311.639	88.56
311.868	68.56
312.098	88.56
312.328	85.56
312.557	79.56
312.787	81.56
313.017	88.56
313.246	85.56
313.476	77.56
313.706	88.56
313.935	95.56
314.165	86.56
314.394	75.56
314.624	96.56
314.853	70.56
315.083	91.56
315.312	77.56
315.542	77.56
315.771	83.56
316.001	101.56
316.23	87.56
316.46	87.56
316.689	83.56
316.919	80.56
317.148	83.56
317.377	93.56
317.607	85.56
317.836	108.56
318.065	93.56
318.295	87.56
318.524	79.56
318.753	87.56
318.983	82.56
319.212	83.56
319.441	83.56
319.67	87.56
319.9	88.56
320.129	87.56
320.358	77.56
320.587	81.56
320.816	77.56
321.046	77.56
321.275	89.56
321.504	100.56
321.733	81.56
321.962	75.56
322.191	96.56
322.42	77.56
322.649	75.56
322.878	76.56
323.108	90.56
323.337	77.56
323.566	97.56
323.795	88.56
324.024	86.56
324.253	81.56
324.482	79.56
324.71	97.56
324.939	83.56
325.168	76.56
325.397	67.56
325.626	77.56
325.855	74.56
326.084	89.56
326.313	83.56
326.542	94.56
326.77	103.56
326.999	78.56
327.228	63.56
327.457	100.56
327.686	79.56
327.914	102.56
328.143	83.56
328.372	88.56
328.6	75.56
328.829	79.56
329.058	77.56
329.287	98.56
329.515	91.56
329.744	91.56
329.972	81.56
330.201	85.56
330.43	86.56
330.658	83.56
330.887	91.56
331.115	83.56
331.344	84.56
331.572	91.56
331.801	78.56
332.03	79.56
332.258	83.56
332.486	85.56
332.715	103.56
332.943	72.56
333.172	95.56
333.4	78.56
333.629	91.56
333.857	87.56
334.085	103.56
334.314	104.56
334.542	96.56
334.771	95.56
334.999	94.56
335.227	87.56
335.455	89.56
335.684	82.56
335.912	89.56
336.14	96.56
336.369	103.56
336.597	83.56
336.825	91.56
337.053	88.56
337.281	85.56
337.51	90.56
337.738	94.56
337.966	84.56
338.194	78.56
338.422	84.56
338.65	79.56
338.878	85.56
339.106	90.56
339.334	88.56
339.562	82.56
339.79	80.56
340.018	79.56
340.246	83.56
340.474	83.56
340.702	84.56
340.93	78.56
341.158	86.56
341.386	81.56
341.614	73.56
341.842	84.56
342.07	85.56
342.298	73.56
342.526	83.56
342.754	93.56
342.981	79.56
343.209	85.56
343.437	99.56
343.665	84.56
343.893	86.56
344.12	89.56
344.348	70.56
344.576	80.56
344.804	86.56
345.031	76.56
345.259	75.56
345.487	81.56
345.714	66.56
345.942	77.56
346.17	80.56
346.397	68.56
346.625	75.56
346.853	92.56
347.08	85.56
347.308	104.56
347.535	79.56
347.763	90.56
347.99	91.56
348.218	88.56
348.445	85.56
348.673	91.56
348.9	94.56
349.128	97.56
349.355	78.56
349.583	84.56
349.81	92.56
350.037	86.56
350.265	71.56
350.492	88.56
350.72	64.56
350.947	83.56
351.174	70.56
351.402	83.56
351.629	79.56
351.856	93.56
352.083	83.56
352.311	80.56
352.538	83.56
352.765	90.56
352.992	103.56
353.22	71.56
353.447	94.56
353.674	94.56
353.901	86.56
354.128	81.56
354.355	68.56
354.583	83.56
354.81	82.56
355.037	89.56
355.264	83.56
355.491	83.56
355.718	73.56
355.945	83.56
356.172	82.56
356.399	76.56
356.626	89.56
356.853	90.56
357.08	86.56
357.307	99.56
357.534	72.56
357.761	76.56
357.988	87.56
358.215	83.56
358.441	86.56
358.668	95.56
358.895	69.56
359.122	78.56
359.349	83.56
359.576	86.56
359.802	91.56
360.029	80.56
360.256	86.56
360.483	77.56
360.709	85.56
360.936	97.56
361.163	106.56
361.39	95.56
361.616	95.56
361.843	88.56
362.07	88.56
362.296	85.56
362.523	107.56
362.749	111.56
362.976	116.56
363.203	127.56
363.429	103.56
363.656	95.56
363.882	95.56
364.109	114.56
364.335	131.56
364.562	127.56
364.788	115.56
365.015	98.56
365.241	96.56
365.468	92.56
365.694	84.56
365.92	91.56
366.147	96.56
366.373	87.56
366.599	77.56
366.826	91.56
367.052	88.56
367.278	111.56
367.505	79.56
367.731	91.56
367.957	87.56
368.184	86.56
368.41	97.56
368.636	87.56
368.862	87.56
369.089	97.56
369.315	97.56
369.541	68.56
369.767	85.56
369.993	75.56
370.219	85.56
370.445	89.56
370.672	93.56
370.898	87.56
371.124	80.56
371.35	81.56
371.576	95.56
371.802	80.56
372.028	91.56
372.254	97.56
372.48	96.56
372.706	86.56
372.932	96.56
373.158	80.56
373.384	84.56
373.61	78.56
373.835	89.56
374.061	86.56
374.287	86.56
374.513	86.56
374.739	85.56
374.965	111.56
375.191	77.56
375.416	87.56
375.642	76.56
375.868	88.56
376.094	102.56
376.319	104.56
376.545	70.56
376.771	83.56
376.997	78.56
377.222	83.56
377.448	85.56
377.674	82.56
377.899	91.56
378.125	85.56
378.35	80.56
378.576	86.56
378.802	87.56
379.027	70.56
379.253	91.56
379.478	80.56
379.704	94.56
379.929	88.56
380.155	71.56
380.38	83.56
380.606	81.56
380.831	91.56
381.057	101.56
381.282	81.56
381.507	81.56
381.733	83.56
381.958	75.56
382.184	73.56
382.409	68.56
382.634	86.56
382.86	87.56
383.085	92.56
383.31	81.56
383.535	84.56
383.761	92.56
383.986	86.56
384.211	83.56
384.436	87.56
384.662	88.56
384.887	69.56
385.112	93.56
385.337	96.56
385.562	94.56
385.787	84.56
386.013	97.56
386.238	98.56
386.463	97.56
386.688	97.56
386.913	85.56
387.138	85.56
387.363	94.56
387.588	95.56
387.813	85.56
388.038	92.56
388.263	86.56
388.488	91.56
388.713	92.56
388.938	93.56
389.163	85.56
389.387	79.56
389.612	90.56
389.837	88.56
390.062	97.56
390.287	99.56
390.512	92.56
390.736	94.56
390.961	83.56
391.186	83.56
391.411	77.56
391.636	89.56
391.86	97.56
392.085	91.56
392.31	90.56
392.534	100.56
392.759	121.56
392.984	143.56
393.208	223.56
393.433	272.56
393.658	255.56
393.882	131.56
394.107	113.56
394.331	113.56
394.556	99.56
394.78	105.56
395.005	95.56
395.229	95.56
395.454	105.56
395.678	113.56
395.903	112.56
396.127	115.56
396.352	133.56
396.576	159.56
396.801	215.56
397.025	237.56
397.249	164.56
397.474	129.56
397.698	103.56
397.922	100.56
398.147	88.56
398.371	96.56
398.595	92.56
398.82	91.56
399.044	74.56
399.268	78.56
399.492	80.56
399.717	89.56
399.941	88.56
400.165	85.56
400.389	85.56
400.613	101.56
400.837	94.56
401.062	94.56
401.286	87.56
401.51	79.56
401.734	80.56
401.958	83.56
402.182	95.56
402.406	82.56
402.63	87.56
402.854	82.56
403.078	88.56
403.302	97.56
403.526	89.56
403.75	90.56
403.974	85.56
404.198	79.56
404.422	89.56
404.645	80.56
404.869	84.56
405.093	93.56
405.317	64.56
405.541	79.56
405.765	76.56
405.988	79.56
406.212	83.56
406.436	76.56
406.66	87.56
406.883	82.56
407.107	86.56
407.331	72.56
407.555	97.56
407.778	93.56
408.002	85.56
408.226	90.56
408.449	79.56
408.673	83.56
408.896	97.56
409.12	94.56
409.344	103.56
409.567	96.56
409.791	95.56
410.014	97.56
410.238	82.56
410.461	93.56
410.685	91.56
410.908	91.56
411.132	104.56
411.355	89.56
411.578	81.56
411.802	99.56
412.025	80.56
412.249	83.56
412.472	85.56
412.695	96.56
412.919	97.56
413.142	96.56
413.365	84.56
413.589	92.56
413.812	85.56
414.035	81.56
414.258	91.56
414.482	83.56
414.705	75.56
414.928	81.56
415.151	71.56
415.374	86.56
415.597	79.56
415.821	89.56
416.044	82.56
416.267	85.56
416.49	85.56
416.713	84.56
416.936	94.56
417.159	78.56
417.382	101.56
417.605	97.56
417.828	89.56
418.051	92.56
418.274	100.56
418.497	89.56
418.72	82.56
418.943	79.56
419.166	79.56
419.389	86.56
419.611	100.56
419.834	88.56
420.057	75.56
420.28	77.56
420.503	89.56
420.726	90.56
420.948	95.56
421.171	100.56
421.394	97.56
421.617	131.56
421.839	118.56
422.062	150.56
422.285	217.56
422.507	309.56
422.73	381.56
422.953	381.56
423.175	231.56
423.398	157.56
423.621	129.56
423.843	116.56
424.066	103.56
424.288	99.56
424.511	102.56
424.733	101.56
424.956	105.56
425.178	100.56
425.401	84.56
425.623	96.56
425.846	77.56
426.068	83.56
426.291	97.56
426.513	76.56
426.735	88.56
426.958	100.56
427.18	91.56
427.402	89.56
427.625	88.56
427.847	90.56
428.069	103.56
428.292	124.56
428.514	133.56
428.736	111.56
428.958	139.56
429.181	142.56
429.403	78.56
429.625	99.56
429.847	131.56
430.069	153.56
430.292	189.56
430.514	177.56
430.736	136.56
430.958	134.56
431.18	102.56
431.402	73.56
431.624	104.56
431.846	114.56
432.068	130.56
432.29	104.56
432.512	87.56
432.734	91.56
432.956	80.56
433.178	92.56
433.4	81.56
433.622	77.56
433.844	77.56
434.066	71.56
434.287	67.56
434.509	96.56
434.731	84.56
434.953	93.56
435.175	86.56
435.397	77.56
435.618	103.56
435.84	83.56
436.062	88.56
436.284	85.56
436.505	104.56
436.727	87.56
436.949	88.56
437.17	81.56
437.392	83.56
437.614	90.56
437.835	87.56
438.057	77.56
438.278	91.56
438.5	88.56
438.721	78.56
438.943	78.56
439.165	83.56
439.386	90.56
439.608	89.56
439.829	88.56
440.05	59.56
440.272	80.56
440.493	85.56
440.715	86.56
440.936	86.56
441.158	78.56
441.379	76.56
441.6	90.56
441.822	90.56
442.043	87.56
442.264	112.56
442.486	134.56
442.707	172.56
442.928	147.56
443.149	104.56
443.371	156.56
443.592	250.56
443.813	224.56
444.034	103.56
444.255	109.56
444.476	79.56
444.698	95.56
444.919	96.56
445.14	165.56
445.361	207.56
445.582	291.56
445.803	274.56
446.024	143.56
446.245	107.56
446.466	93.56
446.687	87.56
446.908	87.56
447.129	83.56
447.35	93.56
447.571	94.56
447.792	71.56
448.013	83.56
448.234	91.56
448.455	84.56
448.675	77.56
448.896	97.56
449.117	76.56
449.338	81.56
449.559	96.56
449.779	89.56
450	92.56
450.221	97.56
450.442	94.56
450.662	87.56
450.883	85.56
451.104	84.56
451.324	79.56
451.545	86.56
451.766	97.56
451.986	79.56
452.207	92.56
452.428	83.56
452.648	102.56
452.869	123.56
453.089	97.56
453.31	93.56
453.53	95.56
453.751	91.56
453.971	93.56
454.192	101.56
454.412	83.56
454.633	85.56
454.853	79.56
455.073	76.56
455.294	80.56
455.514	97.56
455.734	87.56
455.955	94.56
456.175	96.56
456.395	79.56
456.616	90.56
456.836	91.56
457.056	79.56
457.276	83.56
457.497	77.56
457.717	104.56
457.937	105.56
458.157	125.56
458.377	134.56
458.598	126.56
458.818	132.56
459.038	109.56
459.258	92.56
459.478	99.56
459.698	75.56
459.918	79.56
460.138	74.56
460.358	92.56
460.578	95.56
460.798	111.56
461.018	111.56
461.238	83.56
461.458	86.56
461.678	89.56
461.898	86.56
462.118	78.56
462.338	71.56
462.558	75.56
462.777	90.56
462.997	88.56
463.217	79.56
463.437	76.56
463.657	88.56
463.876	89.56
464.096	89.56
464.316	95.56
464.536	85.56
464.755	77.56
464.975	80.56
465.195	87.56
465.414	99.56
465.634	93.56
465.854	83.56
466.073	84.56
466.293	82.56
466.512	100.56
466.732	88.56
466.951	92.56
467.171	87.56
467.391	87.56
467.61	86.56
467.829	84.56
468.049	87.56
468.268	81.56
468.488	92.56
468.707	103.56
468.927	99.56
469.146	88.56
469.365	93.56
469.585	86.56
469.804	88.56
470.023	85.56
470.243	79.56
470.462	87.56
470.681	92.56
470.901	91.56
471.12	80.56
471.339	85.56
471.558	87.56
471.777	81.56
471.997	88.56
472.216	75.56
472.435	76.56
472.654	80.56
472.873	107.56
473.092	87.56
473.311	99.56
473.53	87.56
473.749	87.56
473.968	76.56
474.187	92.56
474.406	88.56
474.625	86.56
474.844	89.56
475.063	96.56
475.282	84.56
475.501	96.56
475.72	77.56
475.939	81.56
476.158	88.56
476.377	87.56
476.596	82.56
476.814	86.56
477.033	83.56
477.252	77.56
477.471	98.56
477.69	77.56
477.908	97.56
478.127	83.56
478.346	89.56
478.564	88.56
478.783	82.56
479.002	101.56
479.22	83.56
479.439	88.56
479.658	98.56
479.876	93.56
480.095	91.56
480.313	82.56
480.532	84.56
480.751	96.56
480.969	88.56
481.188	79.56
481.406	89.56
481.624	86.56
481.843	85.56
482.061	81.56
482.28	99.56
482.498	77.56
482.717	81.56
482.935	80.56
483.153	80.56
483.372	101.56
483.59	89.56
483.808	90.56
484.027	85.56
484.245	85.56
484.463	100.56
484.681	89.56
484.9	93.56
485.118	91.56
485.336	89.56
485.554	93.56
485.772	95.56
485.99	91.56
486.209	98.56
486.427	94.56
486.645	94.56
486.863	95.56
487.081	98.56
487.299	77.56
487.517	105.56
487.735	115.56
487.953	195.56
488.171	158.56
488.389	97.56
488.607	91.56
488.825	84.56
489.043	95.56
489.261	95.56
489.479	89.56
489.696	81.56
489.914	95.56
490.132	89.56
490.35	88.56
490.568	93.56
490.786	101.56
491.003	88.56
491.221	82.56
491.439	94.56
491.657	75.56
491.874	88.56
492.092	91.56
492.31	92.56
492.527	88.56
492.745	81.56
492.963	91.56
493.18	92.56
493.398	87.56
493.615	85.56
493.833	86.56
494.05	89.56
494.268	102.56
494.485	100.56
494.703	89.56
494.92	92.56
495.138	91.56
495.355	100.56
495.573	97.56
495.79	79.56
496.008	88.56
496.225	72.56
496.442	94.56
496.66	98.56
496.877	92.56
497.094	101.56
497.312	88.56
497.529	83.56
497.746	89.56
497.963	84.56
498.181	85.56
498.398	98.56
498.615	91.56
498.832	91.56
499.049	85.56
499.267	101.56
499.484	93.56
499.701	97.56
499.918	92.56
500.135	68.56
500.352	79.56
500.569	85.56
500.786	95.56
501.003	86.56
501.22	84.56
501.437	93.56
501.654	84.56
501.871	88.56
502.088	88.56
502.305	95.56
502.522	93.56
502.739	95.56
502.956	93.56
503.172	95.56
503.389	91.56
503.606	96.56
503.823	93.56
504.04	101.56
504.256	159.56
504.473	148.56
504.69	104.56
504.907	101.56
505.123	88.56
505.34	88.56
505.557	83.56
505.773	87.56
505.99	94.56
506.207	102.56
506.423	88.56
506.64	92.56
506.856	96.56
507.073	109.56
507.289	94.56
507.506	99.56
507.722	80.56
507.939	85.56
508.155	88.56
508.372	86.56
508.588	96.56
508.805	96.56
509.021	74.56
509.238	101.56
509.454	94.56
509.67	103.56
509.887	95.56
510.103	84.56
510.319	92.56
510.536	103.56
510.752	83.56
510.968	100.56
511.184	84.56
511.401	99.56
511.617	111.56
511.833	77.56
512.049	96.56
512.265	94.56
512.481	102.56
512.698	105.56
512.914	85.56
513.13	85.56
513.346	85.56
513.562	99.56
513.778	83.56
513.994	90.56
514.21	80.56
514.426	94.56
514.642	99.56
514.858	85.56
515.074	85.56
515.29	100.56
515.506	95.56
515.721	87.56
515.937	94.56
516.153	76.56
516.369	95.56
516.585	86.56
516.801	88.56
517.016	96.56
517.232	80.56
517.448	95.56
517.664	93.56
517.879	80.56
518.095	86.56
