Data from CBS_2_HRD10591_00042.txt Node
Date: Mon Jan 19 14:05:07 EST 2026
User: Yrep
Spectrometer: HR+D1059
Trigger mode: 1
Integration Time (sec): 1.000000E-1
Scans to average: 1
Electric dark correction enabled: true
Nonlinearity correction enabled: false
Boxcar width: 0
XAxis mode: Wavelengths
Number of Pixels in Spectrum: 2048
>>>>>Begin Spectral Data<<<<<
223.165	-18.75
223.4	-18.75
223.635	-18.75
223.869	-16.75
224.104	-28.75
224.338	-14.75
224.573	-17.75
224.808	-4.75
225.042	-4.75
225.277	-8.75
225.511	-0.75
225.746	5.25
225.98	5.25
226.215	13.25
226.449	19.25
226.683	20.25
226.918	25.25
227.152	27.25
227.387	47.25
227.621	27.25
227.856	40.25
228.09	31.25
228.324	48.25
228.559	42.25
228.793	53.25
229.027	69.25
229.262	59.25
229.496	62.25
229.73	61.25
229.964	64.25
230.199	79.25
230.433	73.25
230.667	76.25
230.901	79.25
231.136	73.25
231.37	65.25
231.604	75.25
231.838	69.25
232.072	71.25
232.306	87.25
232.541	83.25
232.775	70.25
233.009	82.25
233.243	81.25
233.477	87.25
233.711	90.25
233.945	93.25
234.179	82.25
234.413	79.25
234.647	83.25
234.881	73.25
235.115	78.25
235.349	65.25
235.583	69.25
235.817	79.25
236.051	81.25
236.285	76.25
236.519	80.25
236.753	73.25
236.987	58.25
237.221	73.25
237.455	74.25
237.689	69.25
237.922	55.25
238.156	75.25
238.39	65.25
238.624	72.25
238.858	83.25
239.091	59.25
239.325	74.25
239.559	71.25
239.793	57.25
240.027	73.25
240.26	74.25
240.494	78.25
240.728	67.25
240.961	79.25
241.195	80.25
241.429	80.25
241.662	63.25
241.896	69.25
242.13	82.25
242.363	79.25
242.597	82.25
242.83	78.25
243.064	63.25
243.298	63.25
243.531	68.25
243.765	71.25
243.998	86.25
244.232	65.25
244.465	76.25
244.699	73.25
244.932	84.25
245.166	79.25
245.399	79.25
245.633	83.25
245.866	80.25
246.099	70.25
246.333	75.25
246.566	67.25
246.8	64.25
247.033	81.25
247.266	79.25
247.5	76.25
247.733	77.25
247.966	74.25
248.2	67.25
248.433	72.25
248.666	69.25
248.899	85.25
249.133	75.25
249.366	97.25
249.599	71.25
249.832	81.25
250.066	90.25
250.299	88.25
250.532	78.25
250.765	72.25
250.998	85.25
251.231	82.25
251.465	87.25
251.698	71.25
251.931	83.25
252.164	81.25
252.397	74.25
252.63	71.25
252.863	79.25
253.096	83.25
253.329	90.25
253.562	78.25
253.795	75.25
254.028	85.25
254.261	72.25
254.494	71.25
254.727	79.25
254.96	70.25
255.193	77.25
255.426	73.25
255.659	75.25
255.892	81.25
256.124	83.25
256.357	76.25
256.59	73.25
256.823	83.25
257.056	65.25
257.289	68.25
257.521	80.25
257.754	80.25
257.987	80.25
258.22	90.25
258.452	78.25
258.685	74.25
258.918	73.25
259.151	71.25
259.383	78.25
259.616	76.25
259.849	74.25
260.081	87.25
260.314	81.25
260.547	75.25
260.779	95.25
261.012	79.25
261.244	79.25
261.477	70.25
261.71	75.25
261.942	86.25
262.175	80.25
262.407	77.25
262.64	78.25
262.872	72.25
263.105	72.25
263.337	64.25
263.57	77.25
263.802	80.25
264.035	89.25
264.267	84.25
264.499	73.25
264.732	65.25
264.964	64.25
265.197	76.25
265.429	69.25
265.661	79.25
265.894	86.25
266.126	80.25
266.358	72.25
266.591	86.25
266.823	73.25
267.055	76.25
267.287	97.25
267.52	82.25
267.752	86.25
267.984	75.25
268.216	79.25
268.448	86.25
268.681	84.25
268.913	74.25
269.145	75.25
269.377	90.25
269.609	80.25
269.841	93.25
270.073	89.25
270.306	77.25
270.538	79.25
270.77	69.25
271.002	86.25
271.234	81.25
271.466	87.25
271.698	70.25
271.93	83.25
272.162	68.25
272.394	88.25
272.626	83.25
272.858	83.25
273.09	80.25
273.322	77.25
273.553	70.25
273.785	79.25
274.017	87.25
274.249	81.25
274.481	78.25
274.713	78.25
274.945	94.25
275.176	90.25
275.408	69.25
275.64	61.25
275.872	76.25
276.104	90.25
276.335	96.25
276.567	77.25
276.799	85.25
277.031	87.25
277.262	71.25
277.494	88.25
277.726	81.25
277.957	90.25
278.189	82.25
278.421	86.25
278.652	69.25
278.884	88.25
279.115	68.25
279.347	91.25
279.579	82.25
279.81	76.25
280.042	72.25
280.273	71.25
280.505	89.25
280.736	85.25
280.968	75.25
281.199	80.25
281.431	76.25
281.662	86.25
281.894	90.25
282.125	86.25
282.356	86.25
282.588	73.25
282.819	83.25
283.051	89.25
283.282	89.25
283.513	64.25
283.745	81.25
283.976	82.25
284.207	83.25
284.439	86.25
284.67	83.25
284.901	73.25
285.132	85.25
285.364	84.25
285.595	76.25
285.826	92.25
286.057	94.25
286.288	82.25
286.52	95.25
286.751	70.25
286.982	76.25
287.213	74.25
287.444	91.25
287.675	92.25
287.906	71.25
288.138	88.25
288.369	88.25
288.6	82.25
288.831	77.25
289.062	81.25
289.293	85.25
289.524	89.25
289.755	75.25
289.986	93.25
290.217	83.25
290.448	83.25
290.679	81.25
290.91	74.25
291.141	81.25
291.371	73.25
291.602	85.25
291.833	85.25
292.064	85.25
292.295	88.25
292.526	80.25
292.757	86.25
292.987	90.25
293.218	85.25
293.449	89.25
293.68	97.25
293.91	78.25
294.141	97.25
294.372	71.25
294.603	88.25
294.833	89.25
295.064	83.25
295.295	85.25
295.525	77.25
295.756	80.25
295.987	77.25
296.217	92.25
296.448	79.25
296.679	78.25
296.909	84.25
297.14	88.25
297.37	76.25
297.601	66.25
297.831	62.25
298.062	74.25
298.292	77.25
298.523	82.25
298.753	77.25
298.984	75.25
299.214	85.25
299.445	93.25
299.675	87.25
299.905	73.25
300.136	76.25
300.366	79.25
300.597	88.25
300.827	67.25
301.057	73.25
301.288	80.25
301.518	86.25
301.748	83.25
301.979	101.25
302.209	74.25
302.439	75.25
302.669	84.25
302.9	77.25
303.13	94.25
303.36	75.25
303.59	85.25
303.82	73.25
304.051	94.25
304.281	103.25
304.511	86.25
304.741	77.25
304.971	76.25
305.201	80.25
305.431	88.25
305.661	87.25
305.891	80.25
306.121	98.25
306.352	105.25
306.582	83.25
306.812	93.25
307.042	91.25
307.272	72.25
307.502	77.25
307.731	86.25
307.961	76.25
308.191	75.25
308.421	83.25
308.651	82.25
308.881	87.25
309.111	81.25
309.341	90.25
309.571	95.25
309.8	92.25
310.03	94.25
310.26	78.25
310.49	79.25
310.72	94.25
310.949	92.25
311.179	89.25
311.409	79.25
311.639	78.25
311.868	89.25
312.098	69.25
312.328	86.25
312.557	79.25
312.787	82.25
313.017	87.25
313.246	73.25
313.476	86.25
313.706	79.25
313.935	77.25
314.165	99.25
314.394	86.25
314.624	99.25
314.853	80.25
315.083	85.25
315.312	94.25
315.542	90.25
315.771	101.25
316.001	81.25
316.23	82.25
316.46	93.25
316.689	85.25
316.919	84.25
317.148	82.25
317.377	90.25
317.607	94.25
317.836	76.25
318.065	89.25
318.295	83.25
318.524	77.25
318.753	71.25
318.983	77.25
319.212	90.25
319.441	83.25
319.67	81.25
319.9	86.25
320.129	90.25
320.358	85.25
320.587	98.25
320.816	85.25
321.046	78.25
321.275	76.25
321.504	86.25
321.733	91.25
321.962	82.25
322.191	81.25
322.42	75.25
322.649	111.25
322.878	88.25
323.108	70.25
323.337	83.25
323.566	96.25
323.795	86.25
324.024	87.25
324.253	85.25
324.482	70.25
324.71	80.25
324.939	81.25
325.168	81.25
325.397	88.25
325.626	84.25
325.855	81.25
326.084	103.25
326.313	92.25
326.542	95.25
326.77	87.25
326.999	91.25
327.228	86.25
327.457	99.25
327.686	87.25
327.914	86.25
328.143	78.25
328.372	82.25
328.6	80.25
328.829	97.25
329.058	109.25
329.287	100.25
329.515	88.25
329.744	77.25
329.972	82.25
330.201	83.25
330.43	94.25
330.658	67.25
330.887	83.25
331.115	75.25
331.344	90.25
331.572	93.25
331.801	83.25
332.03	86.25
332.258	93.25
332.486	77.25
332.715	88.25
332.943	81.25
333.172	90.25
333.4	94.25
333.629	89.25
333.857	95.25
334.085	84.25
334.314	74.25
334.542	80.25
334.771	72.25
334.999	79.25
335.227	88.25
335.455	95.25
335.684	90.25
335.912	97.25
336.14	84.25
336.369	82.25
336.597	82.25
336.825	76.25
337.053	89.25
337.281	94.25
337.51	76.25
337.738	82.25
337.966	82.25
338.194	88.25
338.422	86.25
338.65	76.25
338.878	57.25
339.106	79.25
339.334	85.25
339.562	90.25
339.79	95.25
340.018	102.25
340.246	86.25
340.474	81.25
340.702	67.25
340.93	87.25
341.158	88.25
341.386	73.25
341.614	77.25
341.842	68.25
342.07	89.25
342.298	75.25
342.526	87.25
342.754	69.25
342.981	72.25
343.209	73.25
343.437	86.25
343.665	93.25
343.893	79.25
344.12	86.25
344.348	79.25
344.576	78.25
344.804	74.25
345.031	83.25
345.259	89.25
345.487	74.25
345.714	79.25
345.942	85.25
346.17	82.25
346.397	76.25
346.625	87.25
346.853	83.25
347.08	69.25
347.308	89.25
347.535	75.25
347.763	85.25
347.99	90.25
348.218	82.25
348.445	86.25
348.673	85.25
348.9	94.25
349.128	85.25
349.355	80.25
349.583	67.25
349.81	83.25
350.037	93.25
350.265	80.25
350.492	81.25
350.72	81.25
350.947	86.25
351.174	81.25
351.402	85.25
351.629	86.25
351.856	82.25
352.083	86.25
352.311	93.25
352.538	71.25
352.765	78.25
352.992	85.25
353.22	82.25
353.447	81.25
353.674	85.25
353.901	72.25
354.128	90.25
354.355	89.25
354.583	76.25
354.81	71.25
355.037	82.25
355.264	76.25
355.491	76.25
355.718	66.25
355.945	80.25
356.172	76.25
356.399	92.25
356.626	96.25
356.853	87.25
357.08	85.25
357.307	85.25
357.534	90.25
357.761	76.25
357.988	75.25
358.215	70.25
358.441	81.25
358.668	91.25
358.895	95.25
359.122	85.25
359.349	89.25
359.576	83.25
359.802	76.25
360.029	89.25
360.256	78.25
360.483	74.25
360.709	76.25
360.936	92.25
361.163	80.25
361.39	78.25
361.616	75.25
361.843	89.25
362.07	89.25
362.296	80.25
362.523	87.25
362.749	80.25
362.976	82.25
363.203	81.25
363.429	86.25
363.656	86.25
363.882	88.25
364.109	93.25
364.335	111.25
364.562	100.25
364.788	91.25
365.015	90.25
365.241	93.25
365.468	78.25
365.694	71.25
365.92	74.25
366.147	83.25
366.373	81.25
366.599	95.25
366.826	88.25
367.052	68.25
367.278	91.25
367.505	75.25
367.731	91.25
367.957	86.25
368.184	86.25
368.41	80.25
368.636	85.25
368.862	90.25
369.089	87.25
369.315	78.25
369.541	86.25
369.767	81.25
369.993	73.25
370.219	83.25
370.445	79.25
370.672	81.25
370.898	85.25
371.124	68.25
371.35	78.25
371.576	83.25
371.802	93.25
372.028	70.25
372.254	77.25
372.48	101.25
372.706	83.25
372.932	80.25
373.158	83.25
373.384	86.25
373.61	83.25
373.835	90.25
374.061	76.25
374.287	87.25
374.513	86.25
374.739	91.25
374.965	83.25
375.191	96.25
375.416	91.25
375.642	67.25
375.868	85.25
376.094	84.25
376.319	86.25
376.545	88.25
376.771	75.25
376.997	79.25
377.222	75.25
377.448	81.25
377.674	79.25
377.899	77.25
378.125	102.25
378.35	81.25
378.576	80.25
378.802	95.25
379.027	79.25
379.253	84.25
379.478	68.25
379.704	80.25
379.929	87.25
380.155	74.25
380.38	74.25
380.606	93.25
380.831	79.25
381.057	95.25
381.282	78.25
381.507	89.25
381.733	75.25
381.958	78.25
382.184	89.25
382.409	75.25
382.634	80.25
382.86	81.25
383.085	88.25
383.31	89.25
383.535	87.25
383.761	87.25
383.986	73.25
384.211	92.25
384.436	89.25
384.662	84.25
384.887	80.25
385.112	87.25
385.337	73.25
385.562	89.25
385.787	88.25
386.013	91.25
386.238	74.25
386.463	73.25
386.688	93.25
386.913	85.25
387.138	82.25
387.363	81.25
387.588	85.25
387.813	74.25
388.038	91.25
388.263	70.25
388.488	87.25
388.713	71.25
388.938	74.25
389.163	74.25
389.387	83.25
389.612	79.25
389.837	84.25
390.062	81.25
390.287	85.25
390.512	85.25
390.736	75.25
390.961	74.25
391.186	76.25
391.411	73.25
391.636	86.25
391.86	93.25
392.085	75.25
392.31	78.25
392.534	71.25
392.759	89.25
392.984	101.25
393.208	115.25
393.433	134.25
393.658	123.25
393.882	90.25
394.107	95.25
394.331	84.25
394.556	81.25
394.78	75.25
395.005	82.25
395.229	81.25
395.454	78.25
395.678	79.25
395.903	89.25
396.127	97.25
396.352	83.25
396.576	96.25
396.801	129.25
397.025	115.25
397.249	97.25
397.474	78.25
397.698	94.25
397.922	93.25
398.147	68.25
398.371	79.25
398.595	83.25
398.82	86.25
399.044	74.25
399.268	78.25
399.492	71.25
399.717	78.25
399.941	74.25
400.165	95.25
400.389	86.25
400.613	93.25
400.837	83.25
401.062	66.25
401.286	81.25
401.51	81.25
401.734	74.25
401.958	78.25
402.182	87.25
402.406	74.25
402.63	79.25
402.854	72.25
403.078	83.25
403.302	75.25
403.526	85.25
403.75	81.25
403.974	89.25
404.198	93.25
404.422	78.25
404.645	89.25
404.869	80.25
405.093	87.25
405.317	70.25
405.541	92.25
405.765	80.25
405.988	87.25
406.212	68.25
406.436	61.25
406.66	84.25
406.883	85.25
407.107	82.25
407.331	96.25
407.555	78.25
407.778	81.25
408.002	89.25
408.226	93.25
408.449	77.25
408.673	69.25
408.896	97.25
409.12	58.25
409.344	71.25
409.567	95.25
409.791	79.25
410.014	90.25
410.238	87.25
410.461	86.25
410.685	76.25
410.908	71.25
411.132	81.25
411.355	80.25
411.578	73.25
411.802	89.25
412.025	86.25
412.249	85.25
412.472	94.25
412.695	96.25
412.919	71.25
413.142	75.25
413.365	89.25
413.589	91.25
413.812	75.25
414.035	100.25
414.258	91.25
414.482	97.25
414.705	85.25
414.928	69.25
415.151	78.25
415.374	89.25
415.597	74.25
415.821	88.25
416.044	87.25
416.267	86.25
416.49	94.25
416.713	71.25
416.936	88.25
417.159	83.25
417.382	80.25
417.605	88.25
417.828	81.25
418.051	90.25
418.274	79.25
418.497	65.25
418.72	80.25
418.943	87.25
419.166	82.25
419.389	80.25
419.611	81.25
419.834	85.25
420.057	87.25
420.28	102.25
420.503	97.25
420.726	82.25
420.948	79.25
421.171	88.25
421.394	72.25
421.617	87.25
421.839	89.25
422.062	87.25
422.285	101.25
422.507	142.25
422.73	167.25
422.953	162.25
423.175	127.25
423.398	97.25
423.621	93.25
423.843	96.25
424.066	94.25
424.288	84.25
424.511	73.25
424.733	81.25
424.956	83.25
425.178	86.25
425.401	73.25
425.623	76.25
425.846	64.25
426.068	79.25
426.291	72.25
426.513	81.25
426.735	85.25
426.958	78.25
427.18	91.25
427.402	91.25
427.625	74.25
427.847	95.25
428.069	93.25
428.292	93.25
428.514	94.25
428.736	95.25
428.958	74.25
429.181	95.25
429.403	81.25
429.625	98.25
429.847	98.25
430.069	100.25
430.292	117.25
430.514	104.25
430.736	101.25
430.958	94.25
431.18	84.25
431.402	85.25
431.624	91.25
431.846	93.25
432.068	102.25
432.29	98.25
432.512	97.25
432.734	88.25
432.956	91.25
433.178	80.25
433.4	83.25
433.622	82.25
433.844	91.25
434.066	75.25
434.287	99.25
434.509	70.25
434.731	77.25
434.953	90.25
435.175	82.25
435.397	92.25
435.618	87.25
435.84	71.25
436.062	87.25
436.284	90.25
436.505	94.25
436.727	98.25
436.949	82.25
437.17	95.25
437.392	86.25
437.614	86.25
437.835	79.25
438.057	76.25
438.278	81.25
438.5	75.25
438.721	81.25
438.943	76.25
439.165	78.25
439.386	69.25
439.608	89.25
439.829	81.25
440.05	91.25
440.272	86.25
440.493	88.25
440.715	80.25
440.936	88.25
441.158	74.25
441.379	62.25
441.6	93.25
441.822	93.25
442.043	77.25
442.264	83.25
442.486	114.25
442.707	109.25
442.928	107.25
443.149	92.25
443.371	86.25
443.592	131.25
443.813	126.25
444.034	84.25
444.255	82.25
444.476	85.25
444.698	99.25
444.919	93.25
445.14	150.25
445.361	142.25
445.582	140.25
445.803	136.25
446.024	105.25
446.245	94.25
446.466	78.25
446.687	90.25
446.908	95.25
447.129	89.25
447.35	85.25
447.571	100.25
447.792	74.25
448.013	76.25
448.234	73.25
448.455	89.25
448.675	79.25
448.896	89.25
449.117	80.25
449.338	85.25
449.559	89.25
449.779	74.25
450	84.25
450.221	85.25
450.442	80.25
450.662	85.25
450.883	78.25
451.104	80.25
451.324	74.25
451.545	73.25
451.766	75.25
451.986	75.25
452.207	88.25
452.428	80.25
452.648	87.25
452.869	89.25
453.089	87.25
453.31	73.25
453.53	81.25
453.751	77.25
453.971	94.25
454.192	99.25
454.412	93.25
454.633	80.25
454.853	79.25
455.073	91.25
455.294	80.25
455.514	84.25
455.734	76.25
455.955	76.25
456.175	77.25
456.395	72.25
456.616	82.25
456.836	76.25
457.056	87.25
457.276	83.25
457.497	96.25
457.717	88.25
457.937	93.25
458.157	101.25
458.377	94.25
458.598	94.25
458.818	100.25
459.038	99.25
459.258	78.25
459.478	81.25
459.698	82.25
459.918	91.25
460.138	79.25
460.358	80.25
460.578	88.25
460.798	88.25
461.018	102.25
461.238	79.25
461.458	92.25
461.678	83.25
461.898	83.25
462.118	73.25
462.338	96.25
462.558	88.25
462.777	80.25
462.997	78.25
463.217	89.25
463.437	82.25
463.657	89.25
463.876	83.25
464.096	78.25
464.316	92.25
464.536	89.25
464.755	81.25
464.975	86.25
465.195	89.25
465.414	84.25
465.634	70.25
465.854	74.25
466.073	83.25
466.293	88.25
466.512	85.25
466.732	74.25
466.951	83.25
467.171	86.25
467.391	89.25
467.61	77.25
467.829	84.25
468.049	91.25
468.268	77.25
468.488	87.25
468.707	83.25
468.927	81.25
469.146	87.25
469.365	86.25
469.585	81.25
469.804	83.25
470.023	70.25
470.243	87.25
470.462	90.25
470.681	90.25
470.901	73.25
471.12	72.25
471.339	90.25
471.558	87.25
471.777	74.25
471.997	98.25
472.216	78.25
472.435	78.25
472.654	80.25
472.873	89.25
473.092	74.25
473.311	67.25
473.53	64.25
473.749	79.25
473.968	90.25
474.187	86.25
474.406	90.25
474.625	92.25
474.844	93.25
475.063	88.25
475.282	62.25
475.501	95.25
475.72	87.25
475.939	71.25
476.158	75.25
476.377	91.25
476.596	89.25
476.814	87.25
477.033	88.25
477.252	83.25
477.471	80.25
477.69	85.25
477.908	80.25
478.127	73.25
478.346	82.25
478.564	89.25
478.783	91.25
479.002	96.25
479.22	89.25
479.439	89.25
479.658	94.25
479.876	75.25
480.095	89.25
480.313	95.25
480.532	92.25
480.751	83.25
480.969	75.25
481.188	81.25
481.406	81.25
481.624	94.25
481.843	79.25
482.061	83.25
482.28	87.25
482.498	83.25
482.717	73.25
482.935	73.25
483.153	78.25
483.372	87.25
483.59	91.25
483.808	91.25
484.027	89.25
484.245	79.25
484.463	78.25
484.681	100.25
484.9	89.25
485.118	78.25
485.336	88.25
485.554	81.25
485.772	84.25
485.99	81.25
486.209	77.25
486.427	67.25
486.645	79.25
486.863	88.25
487.081	79.25
487.299	73.25
487.517	80.25
487.735	91.25
487.953	115.25
488.171	104.25
488.389	82.25
488.607	71.25
488.825	106.25
489.043	87.25
489.261	85.25
489.479	85.25
489.696	75.25
489.914	87.25
490.132	97.25
490.35	86.25
490.568	83.25
490.786	82.25
491.003	93.25
491.221	85.25
491.439	81.25
491.657	80.25
491.874	97.25
492.092	94.25
492.31	75.25
492.527	76.25
492.745	95.25
492.963	93.25
493.18	88.25
493.398	90.25
493.615	92.25
493.833	80.25
494.05	81.25
494.268	107.25
494.485	76.25
494.703	93.25
494.92	77.25
495.138	81.25
495.355	101.25
495.573	90.25
495.79	85.25
496.008	90.25
496.225	77.25
496.442	82.25
496.66	97.25
496.877	86.25
497.094	80.25
497.312	83.25
497.529	68.25
497.746	81.25
497.963	76.25
498.181	91.25
498.398	81.25
498.615	74.25
498.832	74.25
499.049	81.25
499.267	75.25
499.484	85.25
499.701	75.25
499.918	81.25
500.135	81.25
500.352	92.25
500.569	93.25
500.786	89.25
501.003	75.25
501.22	70.25
501.437	93.25
501.654	90.25
501.871	77.25
502.088	86.25
502.305	86.25
502.522	84.25
502.739	73.25
502.956	86.25
503.172	88.25
503.389	71.25
503.606	88.25
503.823	85.25
504.04	82.25
504.256	94.25
504.473	99.25
504.69	82.25
504.907	88.25
505.123	72.25
505.34	78.25
505.557	87.25
505.773	90.25
505.99	85.25
506.207	75.25
506.423	87.25
506.64	82.25
506.856	73.25
507.073	87.25
507.289	80.25
507.506	80.25
507.722	98.25
507.939	91.25
508.155	87.25
508.372	75.25
508.588	97.25
508.805	88.25
509.021	71.25
509.238	77.25
509.454	82.25
509.67	79.25
509.887	83.25
510.103	82.25
510.319	89.25
510.536	89.25
510.752	89.25
510.968	86.25
511.184	74.25
511.401	89.25
511.617	76.25
511.833	75.25
512.049	70.25
512.265	81.25
512.481	92.25
512.698	69.25
512.914	76.25
513.13	96.25
513.346	97.25
513.562	84.25
513.778	87.25
513.994	83.25
514.21	78.25
514.426	91.25
514.642	94.25
514.858	93.25
515.074	92.25
515.29	83.25
515.506	81.25
515.721	94.25
515.937	93.25
516.153	91.25
516.369	89.25
516.585	80.25
516.801	81.25
517.016	92.25
517.232	85.25
517.448	87.25
517.664	94.25
517.879	105.25
518.095	93.25
518.311	81.25
518.527	87.25
518.742	95.25
518.958	96.25
519.173	99.25
519.389	91.25
519.605	92.25
