Data from CBS_2_HRD10591_00021.txt Node
Date: Mon Jan 19 14:04:56 EST 2026
User: Yrep
Spectrometer: HR+D1059
Trigger mode: 1
Integration Time (sec): 1.000000E-1
Scans to average: 1
Electric dark correction enabled: true
Nonlinearity correction enabled: false
Boxcar width: 0
XAxis mode: Wavelengths
Number of Pixels in Spectrum: 2048
>>>>>Begin Spectral Data<<<<<
223.165	-15.38
223.4	-15.38
223.635	-15.38
223.869	-10.38
224.104	-22.38
224.338	-9.38
224.573	-22.38
224.808	1.62
225.042	-8.38
225.277	-12.38
225.511	-0.38
225.746	-16.38
225.98	9.62
226.215	15.62
226.449	10.62
226.683	15.62
226.918	27.62
227.152	36.62
227.387	46.62
227.621	49.62
227.856	52.62
228.09	49.62
228.324	47.62
228.559	66.62
228.793	64.62
229.027	63.62
229.262	61.62
229.496	66.62
229.73	73.62
229.964	77.62
230.199	79.62
230.433	82.62
230.667	83.62
230.901	79.62
231.136	79.62
231.37	63.62
231.604	75.62
231.838	89.62
232.072	97.62
232.306	81.62
232.541	86.62
232.775	70.62
233.009	76.62
233.243	76.62
233.477	90.62
233.711	76.62
233.945	88.62
234.179	71.62
234.413	65.62
234.647	77.62
234.881	86.62
235.115	79.62
235.349	74.62
235.583	77.62
235.817	81.62
236.051	65.62
236.285	73.62
236.519	79.62
236.753	71.62
236.987	72.62
237.221	79.62
237.455	73.62
237.689	69.62
237.922	66.62
238.156	71.62
238.39	68.62
238.624	57.62
238.858	62.62
239.091	73.62
239.325	69.62
239.559	82.62
239.793	81.62
240.027	79.62
240.26	67.62
240.494	63.62
240.728	83.62
240.961	71.62
241.195	76.62
241.429	84.62
241.662	71.62
241.896	78.62
242.13	79.62
242.363	85.62
242.597	57.62
242.83	79.62
243.064	93.62
243.298	86.62
243.531	85.62
243.765	78.62
243.998	83.62
244.232	82.62
244.465	86.62
244.699	79.62
244.932	81.62
245.166	71.62
245.399	73.62
245.633	69.62
245.866	78.62
246.099	84.62
246.333	78.62
246.566	71.62
246.8	77.62
247.033	77.62
247.266	81.62
247.5	73.62
247.733	91.62
247.966	89.62
248.2	85.62
248.433	83.62
248.666	94.62
248.899	74.62
249.133	79.62
249.366	81.62
249.599	80.62
249.832	74.62
250.066	78.62
250.299	71.62
250.532	89.62
250.765	71.62
250.998	73.62
251.231	80.62
251.465	75.62
251.698	70.62
251.931	77.62
252.164	85.62
252.397	73.62
252.63	75.62
252.863	85.62
253.096	75.62
253.329	81.62
253.562	90.62
253.795	76.62
254.028	68.62
254.261	88.62
254.494	79.62
254.727	83.62
254.96	97.62
255.193	85.62
255.426	86.62
255.659	86.62
255.892	86.62
256.124	83.62
256.357	82.62
256.59	82.62
256.823	84.62
257.056	77.62
257.289	76.62
257.521	98.62
257.754	85.62
257.987	79.62
258.22	103.62
258.452	87.62
258.685	77.62
258.918	69.62
259.151	67.62
259.383	84.62
259.616	76.62
259.849	69.62
260.081	75.62
260.314	83.62
260.547	75.62
260.779	74.62
261.012	79.62
261.244	91.62
261.477	102.62
261.71	72.62
261.942	83.62
262.175	83.62
262.407	82.62
262.64	67.62
262.872	67.62
263.105	80.62
263.337	93.62
263.57	77.62
263.802	82.62
264.035	75.62
264.267	81.62
264.499	92.62
264.732	79.62
264.964	75.62
265.197	73.62
265.429	76.62
265.661	81.62
265.894	88.62
266.126	72.62
266.358	92.62
266.591	73.62
266.823	89.62
267.055	80.62
267.287	73.62
267.52	78.62
267.752	77.62
267.984	98.62
268.216	71.62
268.448	94.62
268.681	91.62
268.913	87.62
269.145	73.62
269.377	70.62
269.609	74.62
269.841	82.62
270.073	85.62
270.306	79.62
270.538	87.62
270.77	82.62
271.002	82.62
271.234	82.62
271.466	87.62
271.698	74.62
271.93	80.62
272.162	89.62
272.394	93.62
272.626	67.62
272.858	88.62
273.09	89.62
273.322	98.62
273.553	81.62
273.785	91.62
274.017	90.62
274.249	81.62
274.481	87.62
274.713	78.62
274.945	85.62
275.176	87.62
275.408	90.62
275.64	89.62
275.872	82.62
276.104	77.62
276.335	87.62
276.567	67.62
276.799	77.62
277.031	72.62
277.262	79.62
277.494	85.62
277.726	62.62
277.957	87.62
278.189	86.62
278.421	91.62
278.652	80.62
278.884	73.62
279.115	86.62
279.347	92.62
279.579	75.62
279.81	92.62
280.042	85.62
280.273	71.62
280.505	82.62
280.736	76.62
280.968	78.62
281.199	89.62
281.431	82.62
281.662	89.62
281.894	95.62
282.125	79.62
282.356	96.62
282.588	87.62
282.819	83.62
283.051	92.62
283.282	99.62
283.513	94.62
283.745	80.62
283.976	88.62
284.207	82.62
284.439	82.62
284.67	94.62
284.901	81.62
285.132	98.62
285.364	94.62
285.595	91.62
285.826	74.62
286.057	88.62
286.288	69.62
286.52	90.62
286.751	79.62
286.982	87.62
287.213	73.62
287.444	82.62
287.675	95.62
287.906	103.62
288.138	100.62
288.369	87.62
288.6	79.62
288.831	84.62
289.062	73.62
289.293	82.62
289.524	84.62
289.755	95.62
289.986	86.62
290.217	93.62
290.448	87.62
290.679	91.62
290.91	73.62
291.141	92.62
291.371	84.62
291.602	86.62
291.833	87.62
292.064	88.62
292.295	74.62
292.526	94.62
292.757	102.62
292.987	81.62
293.218	81.62
293.449	88.62
293.68	84.62
293.91	91.62
294.141	81.62
294.372	85.62
294.603	88.62
294.833	80.62
295.064	87.62
295.295	91.62
295.525	85.62
295.756	96.62
295.987	73.62
296.217	78.62
296.448	91.62
296.679	90.62
296.909	98.62
297.14	80.62
297.37	75.62
297.601	100.62
297.831	73.62
298.062	98.62
298.292	85.62
298.523	84.62
298.753	87.62
298.984	97.62
299.214	95.62
299.445	100.62
299.675	99.62
299.905	103.62
300.136	101.62
300.366	86.62
300.597	98.62
300.827	102.62
301.057	103.62
301.288	90.62
301.518	94.62
301.748	85.62
301.979	100.62
302.209	110.62
302.439	91.62
302.669	82.62
302.9	86.62
303.13	78.62
303.36	91.62
303.59	90.62
303.82	94.62
304.051	89.62
304.281	83.62
304.511	85.62
304.741	84.62
304.971	89.62
305.201	93.62
305.431	83.62
305.661	87.62
305.891	99.62
306.121	94.62
306.352	89.62
306.582	101.62
306.812	93.62
307.042	82.62
307.272	96.62
307.502	85.62
307.731	85.62
307.961	79.62
308.191	66.62
308.421	81.62
308.651	104.62
308.881	87.62
309.111	101.62
309.341	99.62
309.571	99.62
309.8	88.62
310.03	97.62
310.26	85.62
310.49	77.62
310.72	82.62
310.949	85.62
311.179	79.62
311.409	93.62
311.639	96.62
311.868	84.62
312.098	84.62
312.328	77.62
312.557	90.62
312.787	86.62
313.017	97.62
313.246	79.62
313.476	81.62
313.706	82.62
313.935	92.62
314.165	95.62
314.394	81.62
314.624	89.62
314.853	106.62
315.083	83.62
315.312	86.62
315.542	96.62
315.771	103.62
316.001	110.62
316.23	85.62
316.46	93.62
316.689	91.62
316.919	81.62
317.148	97.62
317.377	98.62
317.607	97.62
317.836	108.62
318.065	119.62
318.295	100.62
318.524	85.62
318.753	95.62
318.983	94.62
319.212	91.62
319.441	98.62
319.67	72.62
319.9	90.62
320.129	90.62
320.358	88.62
320.587	79.62
320.816	82.62
321.046	94.62
321.275	102.62
321.504	93.62
321.733	100.62
321.962	97.62
322.191	96.62
322.42	91.62
322.649	98.62
322.878	93.62
323.108	95.62
323.337	86.62
323.566	109.62
323.795	98.62
324.024	101.62
324.253	83.62
324.482	71.62
324.71	78.62
324.939	86.62
325.168	99.62
325.397	85.62
325.626	71.62
325.855	82.62
326.084	81.62
326.313	82.62
326.542	89.62
326.77	93.62
326.999	91.62
327.228	90.62
327.457	91.62
327.686	92.62
327.914	89.62
328.143	101.62
328.372	96.62
328.6	85.62
328.829	90.62
329.058	91.62
329.287	98.62
329.515	92.62
329.744	85.62
329.972	84.62
330.201	86.62
330.43	99.62
330.658	103.62
330.887	82.62
331.115	88.62
331.344	87.62
331.572	94.62
331.801	85.62
332.03	89.62
332.258	86.62
332.486	100.62
332.715	90.62
332.943	86.62
333.172	65.62
333.4	90.62
333.629	99.62
333.857	86.62
334.085	84.62
334.314	102.62
334.542	106.62
334.771	116.62
334.999	110.62
335.227	120.62
335.455	114.62
335.684	97.62
335.912	121.62
336.14	118.62
336.369	115.62
336.597	97.62
336.825	94.62
337.053	78.62
337.281	111.62
337.51	87.62
337.738	98.62
337.966	96.62
338.194	88.62
338.422	89.62
338.65	86.62
338.878	89.62
339.106	84.62
339.334	82.62
339.562	81.62
339.79	104.62
340.018	93.62
340.246	65.62
340.474	88.62
340.702	84.62
340.93	88.62
341.158	89.62
341.386	98.62
341.614	93.62
341.842	101.62
342.07	97.62
342.298	81.62
342.526	82.62
342.754	101.62
342.981	83.62
343.209	83.62
343.437	106.62
343.665	84.62
343.893	95.62
344.12	102.62
344.348	92.62
344.576	111.62
344.804	96.62
345.031	66.62
345.259	82.62
345.487	89.62
345.714	85.62
345.942	87.62
346.17	95.62
346.397	74.62
346.625	93.62
346.853	85.62
347.08	90.62
347.308	81.62
347.535	76.62
347.763	83.62
347.99	89.62
348.218	85.62
348.445	93.62
348.673	107.62
348.9	109.62
349.128	96.62
349.355	76.62
349.583	91.62
349.81	83.62
350.037	90.62
350.265	101.62
350.492	81.62
350.72	79.62
350.947	67.62
351.174	101.62
351.402	107.62
351.629	94.62
351.856	90.62
352.083	101.62
352.311	91.62
352.538	89.62
352.765	95.62
352.992	111.62
353.22	94.62
353.447	89.62
353.674	93.62
353.901	81.62
354.128	88.62
354.355	86.62
354.583	95.62
354.81	102.62
355.037	89.62
355.264	99.62
355.491	95.62
355.718	83.62
355.945	93.62
356.172	87.62
356.399	95.62
356.626	93.62
356.853	86.62
357.08	92.62
357.307	84.62
357.534	89.62
357.761	95.62
357.988	93.62
358.215	96.62
358.441	98.62
358.668	89.62
358.895	86.62
359.122	100.62
359.349	94.62
359.576	90.62
359.802	84.62
360.029	81.62
360.256	87.62
360.483	85.62
360.709	90.62
360.936	92.62
361.163	89.62
361.39	95.62
361.616	95.62
361.843	95.62
362.07	106.62
362.296	121.62
362.523	135.62
362.749	149.62
362.976	158.62
363.203	196.62
363.429	150.62
363.656	125.62
363.882	115.62
364.109	158.62
364.335	204.62
364.562	216.62
364.788	156.62
365.015	113.62
365.241	105.62
365.468	106.62
365.694	99.62
365.92	94.62
366.147	79.62
366.373	94.62
366.599	90.62
366.826	100.62
367.052	93.62
367.278	107.62
367.505	92.62
367.731	89.62
367.957	95.62
368.184	97.62
368.41	86.62
368.636	94.62
368.862	110.62
369.089	94.62
369.315	97.62
369.541	93.62
369.767	97.62
369.993	97.62
370.219	94.62
370.445	103.62
370.672	99.62
370.898	96.62
371.124	99.62
371.35	95.62
371.576	105.62
371.802	95.62
372.028	102.62
372.254	110.62
372.48	93.62
372.706	97.62
372.932	107.62
373.158	93.62
373.384	97.62
373.61	124.62
373.835	131.62
374.061	110.62
374.287	103.62
374.513	105.62
374.739	98.62
374.965	89.62
375.191	103.62
375.416	110.62
375.642	94.62
375.868	97.62
376.094	103.62
376.319	86.62
376.545	113.62
376.771	92.62
376.997	103.62
377.222	98.62
377.448	93.62
377.674	91.62
377.899	81.62
378.125	94.62
378.35	113.62
378.576	94.62
378.802	75.62
379.027	104.62
379.253	81.62
379.478	104.62
379.704	109.62
379.929	89.62
380.155	98.62
380.38	112.62
380.606	95.62
380.831	87.62
381.057	96.62
381.282	95.62
381.507	96.62
381.733	115.62
381.958	101.62
382.184	101.62
382.409	104.62
382.634	101.62
382.86	93.62
383.085	106.62
383.31	87.62
383.535	109.62
383.761	115.62
383.986	113.62
384.211	107.62
384.436	106.62
384.662	102.62
384.887	93.62
385.112	105.62
385.337	112.62
385.562	103.62
385.787	116.62
386.013	120.62
386.238	130.62
386.463	98.62
386.688	105.62
386.913	99.62
387.138	118.62
387.363	106.62
387.588	122.62
387.813	120.62
388.038	130.62
388.263	112.62
388.488	128.62
388.713	102.62
388.938	88.62
389.163	113.62
389.387	98.62
389.612	87.62
389.837	104.62
390.062	96.62
390.287	120.62
390.512	97.62
390.736	88.62
390.961	100.62
391.186	109.62
391.411	102.62
391.636	102.62
391.86	103.62
392.085	128.62
392.31	117.62
392.534	143.62
392.759	179.62
392.984	261.62
393.208	418.62
393.433	579.62
393.658	469.62
393.882	226.62
394.107	157.62
394.331	164.62
394.556	146.62
394.78	120.62
395.005	127.62
395.229	113.62
395.454	124.62
395.678	137.62
395.903	166.62
396.127	179.62
396.352	210.62
396.576	270.62
396.801	416.62
397.025	477.62
397.249	283.62
397.474	195.62
397.698	148.62
397.922	117.62
398.147	110.62
398.371	117.62
398.595	112.62
398.82	101.62
399.044	101.62
399.268	110.62
399.492	96.62
399.717	100.62
399.941	94.62
400.165	88.62
400.389	102.62
400.613	107.62
400.837	106.62
401.062	88.62
401.286	106.62
401.51	117.62
401.734	96.62
401.958	93.62
402.182	105.62
402.406	84.62
402.63	94.62
402.854	103.62
403.078	97.62
403.302	103.62
403.526	90.62
403.75	109.62
403.974	99.62
404.198	109.62
404.422	107.62
404.645	106.62
404.869	96.62
405.093	91.62
405.317	98.62
405.541	94.62
405.765	92.62
405.988	94.62
406.212	101.62
406.436	90.62
406.66	107.62
406.883	86.62
407.107	95.62
407.331	97.62
407.555	118.62
407.778	133.62
408.002	129.62
408.226	117.62
408.449	100.62
408.673	93.62
408.896	120.62
409.12	133.62
409.344	126.62
409.567	136.62
409.791	153.62
410.014	154.62
410.238	146.62
410.461	126.62
410.685	112.62
410.908	109.62
411.132	93.62
411.355	102.62
411.578	78.62
411.802	107.62
412.025	104.62
412.249	106.62
412.472	86.62
412.695	103.62
412.919	93.62
413.142	105.62
413.365	83.62
413.589	93.62
413.812	92.62
414.035	103.62
414.258	117.62
414.482	91.62
414.705	96.62
414.928	82.62
415.151	91.62
415.374	89.62
415.597	91.62
415.821	90.62
416.044	100.62
416.267	92.62
416.49	106.62
416.713	113.62
416.936	106.62
417.159	91.62
417.382	94.62
417.605	87.62
417.828	105.62
418.051	103.62
418.274	101.62
418.497	102.62
418.72	86.62
418.943	89.62
419.166	99.62
419.389	97.62
419.611	106.62
419.834	101.62
420.057	106.62
420.28	109.62
420.503	111.62
420.726	116.62
420.948	106.62
421.171	115.62
421.394	144.62
421.617	178.62
421.839	210.62
422.062	211.62
422.285	298.62
422.507	489.62
422.73	660.62
422.953	605.62
423.175	396.62
423.398	247.62
423.621	195.62
423.843	160.62
424.066	143.62
424.288	130.62
424.511	127.62
424.733	117.62
424.956	116.62
425.178	114.62
425.401	103.62
425.623	88.62
425.846	94.62
426.068	97.62
426.291	90.62
426.513	97.62
426.735	90.62
426.958	107.62
427.18	91.62
427.402	98.62
427.625	115.62
427.847	110.62
428.069	118.62
428.292	179.62
428.514	229.62
428.736	155.62
428.958	189.62
429.181	185.62
429.403	112.62
429.625	124.62
429.847	161.62
430.069	253.62
430.292	316.62
430.514	273.62
430.736	207.62
430.958	217.62
431.18	121.62
431.402	111.62
431.624	105.62
431.846	166.62
432.068	201.62
432.29	119.62
432.512	111.62
432.734	90.62
432.956	106.62
433.178	113.62
433.4	98.62
433.622	98.62
433.844	88.62
434.066	87.62
434.287	90.62
434.509	88.62
434.731	94.62
434.953	94.62
435.175	107.62
435.397	74.62
435.618	99.62
435.84	118.62
436.062	121.62
436.284	97.62
436.505	103.62
436.727	89.62
436.949	105.62
437.17	95.62
437.392	83.62
437.614	90.62
437.835	94.62
438.057	85.62
438.278	88.62
438.5	99.62
438.721	90.62
438.943	94.62
439.165	106.62
439.386	93.62
439.608	97.62
439.829	102.62
440.05	103.62
440.272	107.62
440.493	104.62
440.715	104.62
440.936	90.62
441.158	101.62
441.379	93.62
441.6	111.62
441.822	98.62
442.043	109.62
442.264	141.62
442.486	219.62
442.707	311.62
442.928	196.62
443.149	158.62
443.371	265.62
443.592	471.62
443.813	384.62
444.034	167.62
444.255	102.62
444.476	113.62
444.698	115.62
444.919	132.62
445.14	213.62
445.361	327.62
445.582	576.62
445.803	482.62
446.024	200.62
446.245	135.62
446.466	105.62
446.687	95.62
446.908	82.62
447.129	93.62
447.35	99.62
447.571	82.62
447.792	90.62
448.013	90.62
448.234	90.62
448.455	76.62
448.675	82.62
448.896	83.62
449.117	99.62
449.338	91.62
449.559	93.62
449.779	79.62
450	85.62
450.221	78.62
450.442	91.62
450.662	102.62
450.883	109.62
451.104	113.62
451.324	109.62
451.545	87.62
451.766	89.62
451.986	89.62
452.207	102.62
452.428	109.62
452.648	130.62
452.869	141.62
453.089	109.62
453.31	96.62
453.53	101.62
453.751	102.62
453.971	95.62
454.192	96.62
454.412	100.62
454.633	89.62
454.853	81.62
455.073	96.62
455.294	87.62
455.514	88.62
455.734	102.62
455.955	73.62
456.175	93.62
456.395	101.62
456.616	111.62
456.836	89.62
457.056	87.62
457.276	102.62
457.497	93.62
457.717	110.62
457.937	162.62
458.157	227.62
458.377	231.62
458.598	211.62
458.818	240.62
459.038	147.62
459.258	105.62
459.478	99.62
459.698	100.62
459.918	75.62
460.138	88.62
460.358	98.62
460.578	102.62
460.798	143.62
461.018	158.62
461.238	94.62
461.458	86.62
461.678	84.62
461.898	79.62
462.118	85.62
462.338	85.62
462.558	86.62
462.777	97.62
462.997	110.62
463.217	96.62
463.437	91.62
463.657	86.62
463.876	93.62
464.096	98.62
464.316	86.62
464.536	94.62
464.755	98.62
464.975	89.62
465.195	88.62
465.414	94.62
465.634	98.62
465.854	98.62
466.073	101.62
466.293	80.62
466.512	81.62
466.732	98.62
466.951	90.62
467.171	89.62
467.391	79.62
467.61	93.62
467.829	88.62
468.049	90.62
468.268	84.62
468.488	107.62
468.707	109.62
468.927	98.62
469.146	77.62
469.365	89.62
469.585	100.62
469.804	96.62
470.023	90.62
470.243	86.62
470.462	92.62
470.681	95.62
470.901	104.62
471.12	94.62
471.339	102.62
471.558	88.62
471.777	103.62
471.997	91.62
472.216	80.62
472.435	83.62
472.654	100.62
472.873	101.62
473.092	83.62
473.311	87.62
473.53	102.62
473.749	88.62
473.968	86.62
474.187	75.62
474.406	83.62
474.625	88.62
474.844	95.62
475.063	104.62
475.282	117.62
475.501	95.62
475.72	81.62
475.939	83.62
476.158	88.62
476.377	103.62
476.596	103.62
476.814	97.62
477.033	90.62
477.252	82.62
477.471	90.62
477.69	97.62
477.908	103.62
478.127	92.62
478.346	94.62
478.564	90.62
478.783	83.62
479.002	101.62
479.22	93.62
479.439	97.62
479.658	112.62
479.876	75.62
480.095	106.62
480.313	101.62
480.532	91.62
480.751	97.62
480.969	89.62
481.188	116.62
481.406	106.62
481.624	77.62
481.843	103.62
482.061	96.62
482.28	103.62
482.498	111.62
482.717	95.62
482.935	91.62
483.153	106.62
483.372	88.62
483.59	103.62
483.808	98.62
484.027	92.62
484.245	109.62
484.463	96.62
484.681	96.62
484.9	109.62
485.118	111.62
485.336	90.62
485.554	95.62
485.772	89.62
485.99	88.62
486.209	95.62
486.427	99.62
486.645	95.62
486.863	102.62
487.081	93.62
487.299	113.62
487.517	125.62
487.735	186.62
487.953	357.62
488.171	281.62
488.389	134.62
488.607	91.62
488.825	105.62
489.043	102.62
489.261	93.62
489.479	104.62
489.696	97.62
489.914	94.62
490.132	105.62
490.35	82.62
490.568	95.62
490.786	96.62
491.003	87.62
491.221	85.62
491.439	98.62
491.657	99.62
491.874	93.62
492.092	108.62
492.31	111.62
492.527	96.62
492.745	101.62
492.963	119.62
493.18	109.62
493.398	102.62
493.615	107.62
493.833	93.62
494.05	102.62
494.268	91.62
494.485	85.62
494.703	88.62
494.92	83.62
495.138	110.62
495.355	100.62
495.573	92.62
495.79	102.62
496.008	111.62
496.225	112.62
496.442	112.62
496.66	109.62
496.877	99.62
497.094	115.62
497.312	90.62
497.529	104.62
497.746	106.62
497.963	126.62
498.181	89.62
498.398	97.62
498.615	98.62
498.832	101.62
499.049	96.62
499.267	93.62
499.484	103.62
499.701	105.62
499.918	89.62
500.135	88.62
500.352	104.62
500.569	101.62
500.786	94.62
501.003	104.62
501.22	97.62
501.437	98.62
501.654	103.62
501.871	94.62
502.088	101.62
502.305	95.62
502.522	100.62
502.739	96.62
502.956	99.62
503.172	97.62
503.389	97.62
503.606	105.62
503.823	109.62
504.04	134.62
504.256	246.62
504.473	258.62
504.69	143.62
504.907	121.62
505.123	104.62
505.34	97.62
505.557	96.62
505.773	98.62
505.99	101.62
506.207	99.62
506.423	90.62
506.64	119.62
506.856	113.62
507.073	91.62
507.289	85.62
507.506	90.62
507.722	97.62
507.939	98.62
508.155	89.62
508.372	97.62
508.588	99.62
508.805	106.62
509.021	75.62
509.238	104.62
509.454	100.62
509.67	113.62
509.887	96.62
510.103	101.62
510.319	101.62
510.536	95.62
510.752	105.62
510.968	109.62
511.184	87.62
511.401	93.62
511.617	101.62
511.833	105.62
512.049	102.62
512.265	96.62
512.481	93.62
512.698	88.62
512.914	96.62
513.13	102.62
513.346	89.62
513.562	95.62
513.778	98.62
513.994	87.62
514.21	93.62
514.426	103.62
