Data from CBS_2_HRD10591_00002.txt Node
Date: Mon Jan 19 14:04:47 EST 2026
User: Yrep
Spectrometer: HR+D1059
Trigger mode: 1
Integration Time (sec): 1.000000E-1
Scans to average: 1
Electric dark correction enabled: true
Nonlinearity correction enabled: false
Boxcar width: 0
XAxis mode: Wavelengths
Number of Pixels in Spectrum: 2048
>>>>>Begin Spectral Data<<<<<
223.165	-17.69
223.4	-17.69
223.635	-17.69
223.869	-15.69
224.104	-26.69
224.338	-26.69
224.573	-11.69
224.808	-12.69
225.042	-4.69
225.277	-6.69
225.511	0.31
225.746	7.31
225.98	11.31
226.215	4.31
226.449	14.31
226.683	28.31
226.918	32.31
227.152	24.31
227.387	42.31
227.621	37.31
227.856	44.31
228.09	54.31
228.324	58.31
228.559	65.31
228.793	60.31
229.027	72.31
229.262	56.31
229.496	64.31
229.73	68.31
229.964	83.31
230.199	64.31
230.433	65.31
230.667	92.31
230.901	76.31
231.136	85.31
231.37	72.31
231.604	74.31
231.838	88.31
232.072	92.31
232.306	92.31
232.541	87.31
232.775	88.31
233.009	80.31
233.243	86.31
233.477	74.31
233.711	88.31
233.945	76.31
234.179	68.31
234.413	85.31
234.647	78.31
234.881	85.31
235.115	75.31
235.349	66.31
235.583	79.31
235.817	80.31
236.051	70.31
236.285	73.31
236.519	79.31
236.753	68.31
236.987	80.31
237.221	79.31
237.455	69.31
237.689	79.31
237.922	76.31
238.156	78.31
238.39	64.31
238.624	70.31
238.858	66.31
239.091	74.31
239.325	73.31
239.559	81.31
239.793	71.31
240.027	86.31
240.26	81.31
240.494	85.31
240.728	82.31
240.961	82.31
241.195	85.31
241.429	90.31
241.662	83.31
241.896	84.31
242.13	86.31
242.363	65.31
242.597	62.31
242.83	76.31
243.064	86.31
243.298	80.31
243.531	88.31
243.765	80.31
243.998	87.31
244.232	84.31
244.465	87.31
244.699	65.31
244.932	84.31
245.166	66.31
245.399	81.31
245.633	89.31
245.866	80.31
246.099	86.31
246.333	72.31
246.566	74.31
246.8	79.31
247.033	80.31
247.266	84.31
247.5	67.31
247.733	76.31
247.966	82.31
248.2	76.31
248.433	91.31
248.666	87.31
248.899	75.31
249.133	83.31
249.366	81.31
249.599	82.31
249.832	74.31
250.066	89.31
250.299	85.31
250.532	90.31
250.765	79.31
250.998	98.31
251.231	83.31
251.465	89.31
251.698	82.31
251.931	82.31
252.164	86.31
252.397	76.31
252.63	85.31
252.863	86.31
253.096	99.31
253.329	80.31
253.562	67.31
253.795	70.31
254.028	71.31
254.261	84.31
254.494	70.31
254.727	76.31
254.96	74.31
255.193	69.31
255.426	78.31
255.659	74.31
255.892	76.31
256.124	98.31
256.357	90.31
256.59	76.31
256.823	83.31
257.056	83.31
257.289	102.31
257.521	83.31
257.754	84.31
257.987	80.31
258.22	70.31
258.452	66.31
258.685	83.31
258.918	84.31
259.151	90.31
259.383	82.31
259.616	66.31
259.849	75.31
260.081	67.31
260.314	79.31
260.547	85.31
260.779	81.31
261.012	96.31
261.244	88.31
261.477	94.31
261.71	98.31
261.942	81.31
262.175	82.31
262.407	90.31
262.64	85.31
262.872	81.31
263.105	79.31
263.337	82.31
263.57	78.31
263.802	90.31
264.035	84.31
264.267	73.31
264.499	88.31
264.732	92.31
264.964	78.31
265.197	66.31
265.429	87.31
265.661	83.31
265.894	85.31
266.126	73.31
266.358	79.31
266.591	74.31
266.823	80.31
267.055	90.31
267.287	88.31
267.52	76.31
267.752	96.31
267.984	80.31
268.216	81.31
268.448	81.31
268.681	87.31
268.913	84.31
269.145	105.31
269.377	80.31
269.609	83.31
269.841	80.31
270.073	82.31
270.306	83.31
270.538	88.31
270.77	87.31
271.002	87.31
271.234	99.31
271.466	83.31
271.698	74.31
271.93	92.31
272.162	84.31
272.394	79.31
272.626	90.31
272.858	77.31
273.09	62.31
273.322	74.31
273.553	62.31
273.785	76.31
274.017	74.31
274.249	69.31
274.481	94.31
274.713	74.31
274.945	88.31
275.176	77.31
275.408	77.31
275.64	95.31
275.872	71.31
276.104	91.31
276.335	70.31
276.567	86.31
276.799	79.31
277.031	93.31
277.262	76.31
277.494	83.31
277.726	84.31
277.957	91.31
278.189	90.31
278.421	77.31
278.652	82.31
278.884	86.31
279.115	76.31
279.347	84.31
279.579	91.31
279.81	97.31
280.042	104.31
280.273	74.31
280.505	86.31
280.736	91.31
280.968	90.31
281.199	88.31
281.431	86.31
281.662	72.31
281.894	84.31
282.125	98.31
282.356	83.31
282.588	89.31
282.819	94.31
283.051	90.31
283.282	83.31
283.513	103.31
283.745	95.31
283.976	90.31
284.207	81.31
284.439	85.31
284.67	84.31
284.901	92.31
285.132	102.31
285.364	85.31
285.595	89.31
285.826	73.31
286.057	95.31
286.288	86.31
286.52	95.31
286.751	90.31
286.982	77.31
287.213	76.31
287.444	89.31
287.675	91.31
287.906	91.31
288.138	83.31
288.369	95.31
288.6	71.31
288.831	92.31
289.062	82.31
289.293	98.31
289.524	76.31
289.755	84.31
289.986	87.31
290.217	82.31
290.448	88.31
290.679	92.31
290.91	77.31
291.141	87.31
291.371	84.31
291.602	102.31
291.833	82.31
292.064	94.31
292.295	87.31
292.526	94.31
292.757	96.31
292.987	87.31
293.218	92.31
293.449	98.31
293.68	88.31
293.91	86.31
294.141	90.31
294.372	75.31
294.603	91.31
294.833	92.31
295.064	95.31
295.295	83.31
295.525	72.31
295.756	90.31
295.987	94.31
296.217	80.31
296.448	84.31
296.679	89.31
296.909	95.31
297.14	84.31
297.37	92.31
297.601	90.31
297.831	84.31
298.062	92.31
298.292	92.31
298.523	89.31
298.753	83.31
298.984	96.31
299.214	92.31
299.445	84.31
299.675	118.31
299.905	88.31
300.136	102.31
300.366	100.31
300.597	96.31
300.827	85.31
301.057	93.31
301.288	90.31
301.518	85.31
301.748	91.31
301.979	99.31
302.209	94.31
302.439	92.31
302.669	81.31
302.9	82.31
303.13	98.31
303.36	76.31
303.59	105.31
303.82	94.31
304.051	84.31
304.281	92.31
304.511	80.31
304.741	83.31
304.971	96.31
305.201	104.31
305.431	90.31
305.661	95.31
305.891	96.31
306.121	96.31
306.352	94.31
306.582	89.31
306.812	71.31
307.042	83.31
307.272	82.31
307.502	82.31
307.731	84.31
307.961	86.31
308.191	104.31
308.421	98.31
308.651	94.31
308.881	87.31
309.111	84.31
309.341	91.31
309.571	94.31
309.8	81.31
310.03	93.31
310.26	84.31
310.49	95.31
310.72	87.31
310.949	75.31
311.179	101.31
311.409	99.31
311.639	83.31
311.868	88.31
312.098	97.31
312.328	96.31
312.557	81.31
312.787	74.31
313.017	97.31
313.246	90.31
313.476	95.31
313.706	92.31
313.935	94.31
314.165	90.31
314.394	73.31
314.624	87.31
314.853	68.31
315.083	88.31
315.312	98.31
315.542	84.31
315.771	84.31
316.001	98.31
316.23	103.31
316.46	96.31
316.689	96.31
316.919	87.31
317.148	92.31
317.377	92.31
317.607	92.31
317.836	111.31
318.065	108.31
318.295	105.31
318.524	114.31
318.753	91.31
318.983	94.31
319.212	89.31
319.441	99.31
319.67	92.31
319.9	90.31
320.129	105.31
320.358	88.31
320.587	98.31
320.816	87.31
321.046	94.31
321.275	110.31
321.504	101.31
321.733	97.31
321.962	103.31
322.191	95.31
322.42	97.31
322.649	94.31
322.878	90.31
323.108	96.31
323.337	97.31
323.566	98.31
323.795	92.31
324.024	102.31
324.253	96.31
324.482	88.31
324.71	106.31
324.939	84.31
325.168	86.31
325.397	81.31
325.626	89.31
325.855	92.31
326.084	102.31
326.313	98.31
326.542	91.31
326.77	100.31
326.999	77.31
327.228	73.31
327.457	95.31
327.686	105.31
327.914	91.31
328.143	94.31
328.372	89.31
328.6	94.31
328.829	93.31
329.058	97.31
329.287	84.31
329.515	80.31
329.744	87.31
329.972	82.31
330.201	85.31
330.43	90.31
330.658	86.31
330.887	94.31
331.115	90.31
331.344	103.31
331.572	92.31
331.801	87.31
332.03	98.31
332.258	93.31
332.486	66.31
332.715	91.31
332.943	104.31
333.172	92.31
333.4	99.31
333.629	85.31
333.857	112.31
334.085	101.31
334.314	108.31
334.542	104.31
334.771	105.31
334.999	112.31
335.227	110.31
335.455	103.31
335.684	124.31
335.912	117.31
336.14	112.31
336.369	110.31
336.597	110.31
336.825	113.31
337.053	93.31
337.281	85.31
337.51	83.31
337.738	91.31
337.966	105.31
338.194	86.31
338.422	101.31
338.65	102.31
338.878	85.31
339.106	99.31
339.334	99.31
339.562	95.31
339.79	86.31
340.018	88.31
340.246	83.31
340.474	88.31
340.702	92.31
340.93	100.31
341.158	83.31
341.386	95.31
341.614	93.31
341.842	87.31
342.07	85.31
342.298	89.31
342.526	102.31
342.754	91.31
342.981	82.31
343.209	96.31
343.437	95.31
343.665	95.31
343.893	87.31
344.12	91.31
344.348	111.31
344.576	106.31
344.804	94.31
345.031	104.31
345.259	88.31
345.487	86.31
345.714	90.31
345.942	98.31
346.17	90.31
346.397	103.31
346.625	96.31
346.853	88.31
347.08	102.31
347.308	103.31
347.535	101.31
347.763	90.31
347.99	92.31
348.218	91.31
348.445	81.31
348.673	103.31
348.9	104.31
349.128	104.31
349.355	95.31
349.583	92.31
349.81	97.31
350.037	100.31
350.265	87.31
350.492	98.31
350.72	92.31
350.947	103.31
351.174	98.31
351.402	97.31
351.629	87.31
351.856	80.31
352.083	91.31
352.311	84.31
352.538	102.31
352.765	90.31
352.992	103.31
353.22	97.31
353.447	94.31
353.674	98.31
353.901	100.31
354.128	104.31
354.355	87.31
354.583	97.31
354.81	95.31
355.037	92.31
355.264	91.31
355.491	94.31
355.718	98.31
355.945	87.31
356.172	97.31
356.399	91.31
356.626	98.31
356.853	81.31
357.08	99.31
357.307	103.31
357.534	86.31
357.761	99.31
357.988	96.31
358.215	97.31
358.441	84.31
358.668	82.31
358.895	90.31
359.122	102.31
359.349	97.31
359.576	90.31
359.802	90.31
360.029	101.31
360.256	100.31
360.483	102.31
360.709	103.31
360.936	99.31
361.163	98.31
361.39	98.31
361.616	95.31
361.843	105.31
362.07	113.31
362.296	147.31
362.523	155.31
362.749	166.31
362.976	178.31
363.203	182.31
363.429	167.31
363.656	130.31
363.882	137.31
364.109	191.31
364.335	206.31
364.562	197.31
364.788	143.31
365.015	116.31
365.241	103.31
365.468	102.31
365.694	96.31
365.92	93.31
366.147	88.31
366.373	87.31
366.599	95.31
366.826	92.31
367.052	88.31
367.278	99.31
367.505	101.31
367.731	95.31
367.957	95.31
368.184	89.31
368.41	104.31
368.636	95.31
368.862	90.31
369.089	98.31
369.315	94.31
369.541	101.31
369.767	95.31
369.993	91.31
370.219	96.31
370.445	104.31
370.672	98.31
370.898	98.31
371.124	97.31
371.35	88.31
371.576	102.31
371.802	90.31
372.028	102.31
372.254	110.31
372.48	94.31
372.706	89.31
372.932	86.31
373.158	93.31
373.384	114.31
373.61	105.31
373.835	112.31
374.061	101.31
374.287	99.31
374.513	101.31
374.739	94.31
374.965	99.31
375.191	102.31
375.416	106.31
375.642	93.31
375.868	105.31
376.094	94.31
376.319	87.31
376.545	105.31
376.771	98.31
376.997	101.31
377.222	99.31
377.448	89.31
377.674	86.31
377.899	87.31
378.125	98.31
378.35	98.31
378.576	91.31
378.802	94.31
379.027	96.31
379.253	91.31
379.478	83.31
379.704	89.31
379.929	103.31
380.155	96.31
380.38	91.31
380.606	93.31
380.831	94.31
381.057	108.31
381.282	91.31
381.507	94.31
381.733	99.31
381.958	103.31
382.184	103.31
382.409	101.31
382.634	113.31
382.86	99.31
383.085	112.31
383.31	107.31
383.535	104.31
383.761	103.31
383.986	108.31
384.211	102.31
384.436	106.31
384.662	98.31
384.887	108.31
385.112	94.31
385.337	101.31
385.562	99.31
385.787	103.31
386.013	100.31
386.238	113.31
386.463	113.31
386.688	110.31
386.913	96.31
387.138	112.31
387.363	106.31
387.588	119.31
387.813	99.31
388.038	107.31
388.263	107.31
388.488	107.31
388.713	106.31
388.938	91.31
389.163	98.31
389.387	94.31
389.612	96.31
389.837	96.31
390.062	99.31
390.287	96.31
390.512	105.31
390.736	104.31
390.961	111.31
391.186	97.31
391.411	97.31
391.636	108.31
391.86	118.31
392.085	117.31
392.31	119.31
392.534	138.31
392.759	167.31
392.984	215.31
393.208	353.31
393.433	457.31
393.658	370.31
393.882	210.31
394.107	146.31
394.331	150.31
394.556	169.31
394.78	137.31
395.005	121.31
395.229	112.31
395.454	123.31
395.678	144.31
395.903	155.31
396.127	202.31
396.352	209.31
396.576	243.31
396.801	355.31
397.025	382.31
397.249	272.31
397.474	192.31
397.698	154.31
397.922	129.31
398.147	111.31
398.371	110.31
398.595	119.31
398.82	103.31
399.044	95.31
399.268	91.31
399.492	90.31
399.717	103.31
399.941	101.31
400.165	83.31
400.389	97.31
400.613	99.31
400.837	89.31
401.062	114.31
401.286	92.31
401.51	77.31
401.734	96.31
401.958	90.31
402.182	95.31
402.406	102.31
402.63	100.31
402.854	102.31
403.078	103.31
403.302	116.31
403.526	114.31
403.75	116.31
403.974	117.31
404.198	128.31
404.422	170.31
404.645	201.31
404.869	160.31
405.093	121.31
405.317	115.31
405.541	103.31
405.765	110.31
405.988	105.31
406.212	94.31
406.436	96.31
406.66	105.31
406.883	102.31
407.107	89.31
407.331	110.31
407.555	102.31
407.778	126.31
408.002	140.31
408.226	113.31
408.449	99.31
408.673	105.31
408.896	96.31
409.12	103.31
409.344	116.31
409.567	140.31
409.791	139.31
410.014	120.31
410.238	134.31
410.461	128.31
410.685	107.31
410.908	113.31
411.132	118.31
411.355	91.31
411.578	102.31
411.802	102.31
412.025	104.31
412.249	99.31
412.472	99.31
412.695	95.31
412.919	96.31
413.142	112.31
413.365	92.31
413.589	94.31
413.812	102.31
414.035	99.31
414.258	104.31
414.482	98.31
414.705	78.31
414.928	86.31
415.151	98.31
415.374	107.31
415.597	84.31
415.821	94.31
416.044	107.31
416.267	91.31
416.49	112.31
416.713	100.31
416.936	98.31
417.159	105.31
417.382	90.31
417.605	82.31
417.828	95.31
418.051	100.31
418.274	91.31
418.497	86.31
418.72	89.31
418.943	92.31
419.166	108.31
419.389	95.31
419.611	104.31
419.834	98.31
420.057	111.31
420.28	116.31
420.503	101.31
420.726	124.31
420.948	126.31
421.171	166.31
421.394	166.31
421.617	193.31
421.839	240.31
422.062	264.31
422.285	387.31
422.507	510.31
422.73	596.31
422.953	555.31
423.175	486.31
423.398	342.31
423.621	246.31
423.843	188.31
424.066	164.31
424.288	144.31
424.511	137.31
424.733	126.31
424.956	120.31
425.178	134.31
425.401	111.31
425.623	106.31
425.846	110.31
426.068	96.31
426.291	103.31
426.513	99.31
426.735	110.31
426.958	102.31
427.18	105.31
427.402	121.31
427.625	98.31
427.847	114.31
428.069	151.31
428.292	217.31
428.514	230.31
428.736	158.31
428.958	208.31
429.181	229.31
429.403	145.31
429.625	135.31
429.847	204.31
430.069	291.31
430.292	347.31
430.514	302.31
430.736	240.31
430.958	274.31
431.18	154.31
431.402	120.31
431.624	148.31
431.846	206.31
432.068	226.31
432.29	136.31
432.512	105.31
432.734	94.31
432.956	103.31
433.178	95.31
433.4	91.31
433.622	90.31
433.844	97.31
434.066	108.31
434.287	98.31
434.509	89.31
434.731	87.31
434.953	90.31
435.175	95.31
435.397	98.31
435.618	120.31
435.84	115.31
436.062	114.31
436.284	112.31
436.505	103.31
436.727	88.31
436.949	88.31
437.17	108.31
437.392	91.31
437.614	98.31
437.835	86.31
438.057	92.31
438.278	112.31
438.5	94.31
438.721	100.31
438.943	105.31
439.165	86.31
439.386	90.31
439.608	92.31
439.829	86.31
440.05	81.31
440.272	98.31
440.493	95.31
440.715	97.31
440.936	87.31
441.158	98.31
441.379	83.31
441.6	103.31
441.822	118.31
442.043	111.31
442.264	155.31
442.486	263.31
442.707	356.31
442.928	253.31
443.149	220.31
443.371	308.31
443.592	504.31
443.813	418.31
444.034	193.31
444.255	130.31
444.476	114.31
444.698	144.31
444.919	144.31
445.14	278.31
445.361	383.31
445.582	552.31
445.803	469.31
446.024	230.31
446.245	150.31
446.466	120.31
446.687	115.31
446.908	104.31
447.129	105.31
447.35	90.31
447.571	96.31
447.792	90.31
448.013	97.31
448.234	96.31
448.455	83.31
448.675	89.31
448.896	96.31
449.117	86.31
449.338	83.31
449.559	75.31
449.779	96.31
450	98.31
450.221	86.31
450.442	87.31
450.662	88.31
450.883	84.31
451.104	104.31
451.324	97.31
451.545	94.31
451.766	95.31
451.986	102.31
452.207	104.31
452.428	92.31
452.648	104.31
452.869	122.31
453.089	123.31
453.31	117.31
453.53	110.31
453.751	104.31
453.971	91.31
454.192	101.31
454.412	88.31
454.633	100.31
454.853	92.31
455.073	88.31
455.294	89.31
455.514	97.31
455.734	85.31
455.955	86.31
456.175	92.31
456.395	76.31
456.616	103.31
456.836	91.31
457.056	91.31
457.276	107.31
457.497	104.31
457.717	113.31
457.937	162.31
458.157	228.31
458.377	252.31
458.598	229.31
458.818	256.31
459.038	175.31
459.258	106.31
459.478	104.31
459.698	97.31
459.918	105.31
460.138	100.31
460.358	96.31
460.578	119.31
460.798	160.31
461.018	143.31
461.238	104.31
461.458	97.31
461.678	74.31
461.898	97.31
462.118	101.31
462.338	95.31
462.558	92.31
462.777	98.31
462.997	105.31
463.217	72.31
463.437	94.31
463.657	82.31
463.876	77.31
464.096	98.31
464.316	77.31
464.536	96.31
464.755	76.31
464.975	95.31
465.195	92.31
465.414	102.31
465.634	87.31
465.854	94.31
466.073	91.31
466.293	76.31
466.512	102.31
466.732	94.31
466.951	98.31
467.171	96.31
467.391	103.31
467.61	96.31
467.829	97.31
468.049	110.31
468.268	100.31
468.488	90.31
468.707	97.31
468.927	90.31
469.146	78.31
469.365	92.31
469.585	92.31
469.804	86.31
470.023	102.31
470.243	106.31
470.462	96.31
470.681	86.31
470.901	90.31
471.12	90.31
471.339	96.31
471.558	90.31
471.777	90.31
471.997	112.31
472.216	94.31
472.435	100.31
472.654	93.31
472.873	98.31
473.092	92.31
473.311	96.31
473.53	95.31
473.749	98.31
473.968	96.31
474.187	97.31
474.406	90.31
474.625	91.31
474.844	97.31
475.063	98.31
475.282	88.31
475.501	82.31
475.72	94.31
475.939	95.31
476.158	94.31
476.377	93.31
476.596	95.31
476.814	85.31
477.033	96.31
477.252	90.31
477.471	102.31
477.69	95.31
477.908	111.31
478.127	112.31
478.346	98.31
478.564	100.31
478.783	100.31
479.002	100.31
479.22	93.31
479.439	84.31
479.658	96.31
479.876	93.31
480.095	86.31
480.313	103.31
480.532	97.31
480.751	84.31
480.969	101.31
481.188	103.31
481.406	100.31
481.624	100.31
481.843	90.31
482.061	92.31
482.28	102.31
482.498	97.31
482.717	89.31
482.935	114.31
483.153	100.31
483.372	112.31
483.59	107.31
483.808	99.31
484.027	114.31
484.245	107.31
484.463	85.31
484.681	105.31
484.9	106.31
485.118	111.31
485.336	107.31
485.554	94.31
485.772	106.31
485.99	105.31
486.209	104.31
486.427	90.31
486.645	100.31
486.863	105.31
487.081	84.31
487.299	106.31
487.517	135.31
487.735	184.31
487.953	351.31
488.171	359.31
488.389	172.31
488.607	141.31
488.825	110.31
489.043	101.31
489.261	106.31
489.479	103.31
489.696	95.31
489.914	115.31
490.132	94.31
490.35	85.31
490.568	111.31
490.786	92.31
491.003	99.31
491.221	86.31
491.439	99.31
491.657	75.31
491.874	112.31
492.092	88.31
492.31	99.31
492.527	92.31
492.745	92.31
492.963	102.31
493.18	93.31
493.398	103.31
493.615	89.31
493.833	85.31
494.05	85.31
494.268	86.31
494.485	104.31
494.703	107.31
494.92	118.31
495.138	108.31
495.355	100.31
495.573	110.31
495.79	104.31
496.008	112.31
496.225	99.31
496.442	102.31
496.66	102.31
496.877	99.31
497.094	118.31
497.312	107.31
497.529	90.31
497.746	104.31
497.963	105.31
498.181	96.31
498.398	98.31
498.615	84.31
498.832	104.31
499.049	107.31
499.267	115.31
499.484	104.31
499.701	86.31
499.918	90.31
500.135	95.31
500.352	91.31
500.569	101.31
500.786	103.31
501.003	102.31
501.22	100.31
501.437	105.31
501.654	112.31
501.871	112.31
502.088	103.31
502.305	99.31
502.522	121.31
502.739	102.31
502.956	97.31
503.172	95.31
503.389	107.31
503.606	117.31
503.823	128.31
504.04	163.31
504.256	251.31
504.473	270.31
504.69	150.31
504.907	137.31
505.123	112.31
505.34	100.31
505.557	120.31
505.773	115.31
505.99	97.31
506.207	105.31
506.423	91.31
506.64	87.31
506.856	102.31
507.073	97.31
507.289	101.31
507.506	115.31
507.722	110.31
507.939	81.31
508.155	98.31
508.372	101.31
508.588	99.31
508.805	103.31
509.021	91.31
509.238	101.31
509.454	107.31
509.67	94.31
509.887	100.31
510.103	113.31
510.319	98.31
510.536	94.31
510.752	90.31
510.968	114.31
511.184	104.31
511.401	110.31
511.617	104.31
511.833	96.31
512.049	113.31
512.265	90.31
512.481	88.31
512.698	87.31
512.914	99.31
513.13	99.31
513.346	102.31
513.562	103.31
513.778	96.31
