Data from CBS_2_HRD10591_00017.txt Node
Date: Mon Jan 19 14:04:54 EST 2026
User: Yrep
Spectrometer: HR+D1059
Trigger mode: 1
Integration Time (sec): 1.000000E-1
Scans to average: 1
Electric dark correction enabled: true
Nonlinearity correction enabled: false
Boxcar width: 0
XAxis mode: Wavelengths
Number of Pixels in Spectrum: 2048
>>>>>Begin Spectral Data<<<<<
223.165	-12.25
223.4	-12.25
223.635	-12.25
223.869	-18.25
224.104	-25.25
224.338	-16.25
224.573	1.75
224.808	-2.25
225.042	-20.25
225.277	13.75
225.511	3.75
225.746	-9.25
225.98	-5.25
226.215	2.75
226.449	18.75
226.683	19.75
226.918	24.75
227.152	23.75
227.387	31.75
227.621	47.75
227.856	48.75
228.09	55.75
228.324	42.75
228.559	54.75
228.793	55.75
229.027	65.75
229.262	59.75
229.496	59.75
229.73	72.75
229.964	77.75
230.199	77.75
230.433	65.75
230.667	79.75
230.901	79.75
231.136	79.75
231.37	72.75
231.604	85.75
231.838	79.75
232.072	87.75
232.306	88.75
232.541	86.75
232.775	68.75
233.009	84.75
233.243	73.75
233.477	90.75
233.711	82.75
233.945	89.75
234.179	88.75
234.413	89.75
234.647	82.75
234.881	71.75
235.115	75.75
235.349	87.75
235.583	76.75
235.817	63.75
236.051	69.75
236.285	73.75
236.519	86.75
236.753	85.75
236.987	64.75
237.221	79.75
237.455	75.75
237.689	73.75
237.922	77.75
238.156	63.75
238.39	71.75
238.624	68.75
238.858	79.75
239.091	64.75
239.325	72.75
239.559	76.75
239.793	68.75
240.027	95.75
240.26	73.75
240.494	70.75
240.728	69.75
240.961	73.75
241.195	69.75
241.429	86.75
241.662	71.75
241.896	59.75
242.13	75.75
242.363	67.75
242.597	65.75
242.83	69.75
243.064	81.75
243.298	80.75
243.531	81.75
243.765	83.75
243.998	74.75
244.232	86.75
244.465	82.75
244.699	75.75
244.932	73.75
245.166	77.75
245.399	73.75
245.633	81.75
245.866	75.75
246.099	80.75
246.333	68.75
246.566	72.75
246.8	73.75
247.033	81.75
247.266	77.75
247.5	69.75
247.733	77.75
247.966	77.75
248.2	74.75
248.433	87.75
248.666	70.75
248.899	75.75
249.133	70.75
249.366	77.75
249.599	57.75
249.832	77.75
250.066	78.75
250.299	87.75
250.532	69.75
250.765	69.75
250.998	81.75
251.231	64.75
251.465	71.75
251.698	72.75
251.931	77.75
252.164	64.75
252.397	73.75
252.63	77.75
252.863	74.75
253.096	78.75
253.329	85.75
253.562	67.75
253.795	73.75
254.028	88.75
254.261	73.75
254.494	65.75
254.727	97.75
254.96	76.75
255.193	74.75
255.426	73.75
255.659	69.75
255.892	81.75
256.124	75.75
256.357	74.75
256.59	83.75
256.823	75.75
257.056	70.75
257.289	86.75
257.521	92.75
257.754	97.75
257.987	86.75
258.22	94.75
258.452	79.75
258.685	82.75
258.918	75.75
259.151	70.75
259.383	75.75
259.616	89.75
259.849	77.75
260.081	92.75
260.314	85.75
260.547	84.75
260.779	78.75
261.012	84.75
261.244	75.75
261.477	67.75
261.71	69.75
261.942	71.75
262.175	78.75
262.407	81.75
262.64	82.75
262.872	80.75
263.105	75.75
263.337	69.75
263.57	90.75
263.802	75.75
264.035	82.75
264.267	81.75
264.499	84.75
264.732	79.75
264.964	78.75
265.197	81.75
265.429	83.75
265.661	88.75
265.894	94.75
266.126	87.75
266.358	83.75
266.591	87.75
266.823	79.75
267.055	83.75
267.287	97.75
267.52	83.75
267.752	88.75
267.984	73.75
268.216	76.75
268.448	82.75
268.681	90.75
268.913	89.75
269.145	66.75
269.377	85.75
269.609	86.75
269.841	76.75
270.073	82.75
270.306	69.75
270.538	83.75
270.77	94.75
271.002	81.75
271.234	87.75
271.466	81.75
271.698	69.75
271.93	69.75
272.162	83.75
272.394	77.75
272.626	75.75
272.858	93.75
273.09	74.75
273.322	75.75
273.553	89.75
273.785	91.75
274.017	80.75
274.249	79.75
274.481	79.75
274.713	88.75
274.945	79.75
275.176	98.75
275.408	76.75
275.64	86.75
275.872	74.75
276.104	73.75
276.335	68.75
276.567	95.75
276.799	86.75
277.031	73.75
277.262	89.75
277.494	85.75
277.726	87.75
277.957	87.75
278.189	86.75
278.421	90.75
278.652	80.75
278.884	82.75
279.115	96.75
279.347	84.75
279.579	79.75
279.81	79.75
280.042	69.75
280.273	75.75
280.505	79.75
280.736	88.75
280.968	92.75
281.199	78.75
281.431	81.75
281.662	75.75
281.894	81.75
282.125	89.75
282.356	80.75
282.588	82.75
282.819	84.75
283.051	85.75
283.282	86.75
283.513	73.75
283.745	78.75
283.976	77.75
284.207	81.75
284.439	85.75
284.67	96.75
284.901	93.75
285.132	100.75
285.364	81.75
285.595	93.75
285.826	92.75
286.057	102.75
286.288	80.75
286.52	88.75
286.751	74.75
286.982	82.75
287.213	88.75
287.444	92.75
287.675	79.75
287.906	93.75
288.138	93.75
288.369	92.75
288.6	86.75
288.831	85.75
289.062	86.75
289.293	89.75
289.524	80.75
289.755	90.75
289.986	85.75
290.217	89.75
290.448	83.75
290.679	79.75
290.91	73.75
291.141	82.75
291.371	91.75
291.602	88.75
291.833	81.75
292.064	85.75
292.295	70.75
292.526	84.75
292.757	96.75
292.987	81.75
293.218	76.75
293.449	86.75
293.68	81.75
293.91	95.75
294.141	72.75
294.372	83.75
294.603	68.75
294.833	87.75
295.064	81.75
295.295	85.75
295.525	74.75
295.756	83.75
295.987	94.75
296.217	74.75
296.448	92.75
296.679	87.75
296.909	93.75
297.14	94.75
297.37	90.75
297.601	78.75
297.831	97.75
298.062	73.75
298.292	87.75
298.523	83.75
298.753	82.75
298.984	89.75
299.214	78.75
299.445	69.75
299.675	79.75
299.905	100.75
300.136	105.75
300.366	77.75
300.597	89.75
300.827	86.75
301.057	96.75
301.288	86.75
301.518	88.75
301.748	97.75
301.979	100.75
302.209	90.75
302.439	85.75
302.669	85.75
302.9	94.75
303.13	85.75
303.36	86.75
303.59	74.75
303.82	92.75
304.051	82.75
304.281	94.75
304.511	95.75
304.741	83.75
304.971	91.75
305.201	95.75
305.431	95.75
305.661	88.75
305.891	93.75
306.121	86.75
306.352	84.75
306.582	101.75
306.812	93.75
307.042	86.75
307.272	98.75
307.502	90.75
307.731	77.75
307.961	95.75
308.191	89.75
308.421	94.75
308.651	95.75
308.881	81.75
309.111	90.75
309.341	89.75
309.571	97.75
309.8	95.75
310.03	99.75
310.26	77.75
310.49	99.75
310.72	98.75
310.949	90.75
311.179	79.75
311.409	87.75
311.639	83.75
311.868	97.75
312.098	95.75
312.328	102.75
312.557	93.75
312.787	77.75
313.017	93.75
313.246	82.75
313.476	83.75
313.706	79.75
313.935	86.75
314.165	90.75
314.394	82.75
314.624	95.75
314.853	88.75
315.083	75.75
315.312	84.75
315.542	109.75
315.771	87.75
316.001	81.75
316.23	89.75
316.46	94.75
316.689	82.75
316.919	105.75
317.148	87.75
317.377	93.75
317.607	93.75
317.836	97.75
318.065	105.75
318.295	99.75
318.524	82.75
318.753	97.75
318.983	83.75
319.212	90.75
319.441	93.75
319.67	95.75
319.9	93.75
320.129	106.75
320.358	81.75
320.587	87.75
320.816	89.75
321.046	89.75
321.275	91.75
321.504	91.75
321.733	95.75
321.962	90.75
322.191	90.75
322.42	100.75
322.649	94.75
322.878	96.75
323.108	90.75
323.337	98.75
323.566	90.75
323.795	96.75
324.024	98.75
324.253	86.75
324.482	91.75
324.71	89.75
324.939	77.75
325.168	85.75
325.397	95.75
325.626	82.75
325.855	93.75
326.084	89.75
326.313	85.75
326.542	87.75
326.77	94.75
326.999	83.75
327.228	95.75
327.457	105.75
327.686	96.75
327.914	73.75
328.143	77.75
328.372	75.75
328.6	85.75
328.829	85.75
329.058	82.75
329.287	83.75
329.515	83.75
329.744	86.75
329.972	102.75
330.201	88.75
330.43	93.75
330.658	87.75
330.887	79.75
331.115	91.75
331.344	78.75
331.572	103.75
331.801	89.75
332.03	98.75
332.258	93.75
332.486	97.75
332.715	85.75
332.943	86.75
333.172	93.75
333.4	87.75
333.629	89.75
333.857	83.75
334.085	97.75
334.314	107.75
334.542	96.75
334.771	100.75
334.999	110.75
335.227	107.75
335.455	100.75
335.684	110.75
335.912	98.75
336.14	107.75
336.369	96.75
336.597	94.75
336.825	84.75
337.053	85.75
337.281	89.75
337.51	88.75
337.738	100.75
337.966	86.75
338.194	85.75
338.422	94.75
338.65	78.75
338.878	93.75
339.106	90.75
339.334	97.75
339.562	83.75
339.79	89.75
340.018	81.75
340.246	71.75
340.474	83.75
340.702	83.75
340.93	89.75
341.158	93.75
341.386	79.75
341.614	106.75
341.842	96.75
342.07	87.75
342.298	87.75
342.526	99.75
342.754	82.75
342.981	88.75
343.209	73.75
343.437	100.75
343.665	87.75
343.893	94.75
344.12	93.75
344.348	93.75
344.576	89.75
344.804	91.75
345.031	90.75
345.259	83.75
345.487	78.75
345.714	78.75
345.942	99.75
346.17	93.75
346.397	94.75
346.625	90.75
346.853	95.75
347.08	68.75
347.308	93.75
347.535	99.75
347.763	83.75
347.99	91.75
348.218	94.75
348.445	95.75
348.673	111.75
348.9	91.75
349.128	77.75
349.355	81.75
349.583	79.75
349.81	102.75
350.037	95.75
350.265	89.75
350.492	88.75
350.72	80.75
350.947	89.75
351.174	75.75
351.402	74.75
351.629	87.75
351.856	84.75
352.083	93.75
352.311	95.75
352.538	83.75
352.765	99.75
352.992	82.75
353.22	80.75
353.447	83.75
353.674	85.75
353.901	84.75
354.128	88.75
354.355	93.75
354.583	85.75
354.81	88.75
355.037	86.75
355.264	86.75
355.491	100.75
355.718	86.75
355.945	90.75
356.172	84.75
356.399	100.75
356.626	84.75
356.853	93.75
357.08	86.75
357.307	100.75
357.534	94.75
357.761	94.75
357.988	101.75
358.215	100.75
358.441	91.75
358.668	103.75
358.895	91.75
359.122	93.75
359.349	101.75
359.576	90.75
359.802	85.75
360.029	91.75
360.256	91.75
360.483	68.75
360.709	89.75
360.936	83.75
361.163	96.75
361.39	90.75
361.616	97.75
361.843	104.75
362.07	114.75
362.296	119.75
362.523	135.75
362.749	130.75
362.976	153.75
363.203	165.75
363.429	129.75
363.656	117.75
363.882	124.75
364.109	143.75
364.335	192.75
364.562	204.75
364.788	136.75
365.015	114.75
365.241	99.75
365.468	95.75
365.694	99.75
365.92	105.75
366.147	97.75
366.373	93.75
366.599	97.75
366.826	95.75
367.052	97.75
367.278	89.75
367.505	92.75
367.731	103.75
367.957	87.75
368.184	81.75
368.41	79.75
368.636	101.75
368.862	101.75
369.089	96.75
369.315	95.75
369.541	88.75
369.767	93.75
369.993	81.75
370.219	88.75
370.445	76.75
370.672	97.75
370.898	93.75
371.124	91.75
371.35	81.75
371.576	94.75
371.802	83.75
372.028	95.75
372.254	103.75
372.48	97.75
372.706	86.75
372.932	97.75
373.158	83.75
373.384	104.75
373.61	105.75
373.835	98.75
374.061	87.75
374.287	97.75
374.513	101.75
374.739	97.75
374.965	87.75
375.191	98.75
375.416	93.75
375.642	111.75
375.868	101.75
376.094	91.75
376.319	98.75
376.545	108.75
376.771	85.75
376.997	102.75
377.222	77.75
377.448	86.75
377.674	94.75
377.899	85.75
378.125	85.75
378.35	88.75
378.576	82.75
378.802	98.75
379.027	100.75
379.253	107.75
379.478	87.75
379.704	90.75
379.929	101.75
380.155	101.75
380.38	97.75
380.606	82.75
380.831	98.75
381.057	104.75
381.282	93.75
381.507	85.75
381.733	109.75
381.958	109.75
382.184	96.75
382.409	87.75
382.634	95.75
382.86	89.75
383.085	96.75
383.31	101.75
383.535	97.75
383.761	97.75
383.986	100.75
384.211	85.75
384.436	103.75
384.662	91.75
384.887	93.75
385.112	88.75
385.337	89.75
385.562	95.75
385.787	90.75
386.013	77.75
386.238	97.75
386.463	98.75
386.688	109.75
386.913	105.75
387.138	97.75
387.363	98.75
387.588	112.75
387.813	111.75
388.038	101.75
388.263	93.75
388.488	104.75
388.713	113.75
388.938	101.75
389.163	87.75
389.387	98.75
389.612	96.75
389.837	108.75
390.062	101.75
390.287	116.75
390.512	96.75
390.736	90.75
390.961	111.75
391.186	97.75
391.411	102.75
391.636	99.75
391.86	120.75
392.085	85.75
392.31	122.75
392.534	132.75
392.759	149.75
392.984	215.75
393.208	346.75
393.433	496.75
393.658	350.75
393.882	177.75
394.107	137.75
394.331	144.75
394.556	153.75
394.78	129.75
395.005	129.75
395.229	117.75
395.454	110.75
395.678	135.75
395.903	149.75
396.127	173.75
396.352	198.75
396.576	225.75
396.801	331.75
397.025	385.75
397.249	234.75
397.474	183.75
397.698	144.75
397.922	119.75
398.147	93.75
398.371	100.75
398.595	80.75
398.82	89.75
399.044	101.75
399.268	89.75
399.492	93.75
399.717	99.75
399.941	98.75
400.165	103.75
400.389	99.75
400.613	95.75
400.837	100.75
401.062	87.75
401.286	105.75
401.51	101.75
401.734	96.75
401.958	99.75
402.182	90.75
402.406	94.75
402.63	98.75
402.854	113.75
403.078	94.75
403.302	101.75
403.526	103.75
403.75	97.75
403.974	101.75
404.198	106.75
404.422	117.75
404.645	132.75
404.869	115.75
405.093	98.75
405.317	83.75
405.541	86.75
405.765	111.75
405.988	92.75
406.212	85.75
406.436	78.75
406.66	91.75
406.883	94.75
407.107	88.75
407.331	90.75
407.555	91.75
407.778	127.75
408.002	115.75
408.226	105.75
408.449	105.75
408.673	99.75
408.896	97.75
409.12	110.75
409.344	111.75
409.567	136.75
409.791	137.75
410.014	147.75
410.238	123.75
410.461	114.75
410.685	98.75
410.908	109.75
411.132	107.75
411.355	91.75
411.578	101.75
411.802	89.75
412.025	101.75
412.249	103.75
412.472	104.75
412.695	99.75
412.919	94.75
413.142	99.75
413.365	94.75
413.589	109.75
413.812	98.75
414.035	91.75
414.258	106.75
414.482	100.75
414.705	106.75
414.928	102.75
415.151	98.75
415.374	103.75
415.597	85.75
415.821	95.75
416.044	109.75
416.267	100.75
416.49	92.75
416.713	91.75
416.936	100.75
417.159	104.75
417.382	80.75
417.605	95.75
417.828	95.75
418.051	101.75
418.274	87.75
418.497	93.75
418.72	99.75
418.943	102.75
419.166	103.75
419.389	99.75
419.611	100.75
419.834	103.75
420.057	97.75
420.28	122.75
420.503	99.75
420.726	111.75
420.948	123.75
421.171	126.75
421.394	146.75
421.617	168.75
421.839	188.75
422.062	234.75
422.285	338.75
422.507	504.75
422.73	703.75
422.953	654.75
423.175	431.75
423.398	274.75
423.621	195.75
423.843	165.75
424.066	147.75
424.288	133.75
424.511	135.75
424.733	107.75
424.956	104.75
425.178	115.75
425.401	93.75
425.623	102.75
425.846	103.75
426.068	97.75
426.291	102.75
426.513	110.75
426.735	103.75
426.958	95.75
427.18	101.75
427.402	107.75
427.625	96.75
427.847	95.75
428.069	117.75
428.292	190.75
428.514	207.75
428.736	157.75
428.958	177.75
429.181	201.75
429.403	118.75
429.625	116.75
429.847	184.75
430.069	260.75
430.292	305.75
430.514	279.75
430.736	209.75
430.958	214.75
431.18	141.75
431.402	101.75
431.624	117.75
431.846	166.75
432.068	205.75
432.29	131.75
432.512	105.75
432.734	83.75
432.956	96.75
433.178	89.75
433.4	89.75
433.622	95.75
433.844	92.75
434.066	90.75
434.287	67.75
434.509	95.75
434.731	89.75
434.953	89.75
435.175	99.75
435.397	103.75
435.618	107.75
435.84	104.75
436.062	113.75
436.284	95.75
436.505	109.75
436.727	89.75
436.949	84.75
437.17	106.75
437.392	79.75
437.614	86.75
437.835	101.75
438.057	85.75
438.278	103.75
438.5	86.75
438.721	81.75
438.943	104.75
439.165	91.75
439.386	81.75
439.608	94.75
439.829	91.75
440.05	97.75
440.272	98.75
440.493	105.75
440.715	85.75
440.936	100.75
441.158	91.75
441.379	99.75
441.6	104.75
441.822	100.75
442.043	97.75
442.264	132.75
442.486	207.75
442.707	304.75
442.928	187.75
443.149	161.75
443.371	239.75
443.592	453.75
443.813	390.75
444.034	168.75
444.255	111.75
444.476	97.75
444.698	112.75
444.919	126.75
445.14	222.75
445.361	312.75
445.582	529.75
445.803	459.75
446.024	198.75
446.245	127.75
446.466	112.75
446.687	97.75
446.908	98.75
447.129	91.75
447.35	82.75
447.571	89.75
447.792	84.75
448.013	81.75
448.234	85.75
448.455	101.75
448.675	89.75
448.896	82.75
449.117	99.75
449.338	97.75
449.559	77.75
449.779	91.75
450	71.75
450.221	83.75
450.442	90.75
450.662	90.75
450.883	96.75
451.104	97.75
451.324	95.75
451.545	101.75
451.766	94.75
451.986	118.75
452.207	101.75
452.428	89.75
452.648	99.75
452.869	130.75
453.089	115.75
453.31	119.75
453.53	93.75
453.751	101.75
453.971	86.75
454.192	79.75
454.412	82.75
454.633	93.75
454.853	99.75
455.073	93.75
455.294	100.75
455.514	99.75
455.734	100.75
455.955	101.75
456.175	89.75
456.395	89.75
456.616	92.75
456.836	82.75
457.056	89.75
457.276	90.75
457.497	98.75
457.717	98.75
457.937	153.75
458.157	202.75
458.377	207.75
458.598	202.75
458.818	231.75
459.038	146.75
459.258	98.75
459.478	89.75
459.698	97.75
459.918	86.75
460.138	101.75
460.358	95.75
460.578	122.75
460.798	153.75
461.018	157.75
461.238	95.75
461.458	88.75
461.678	81.75
461.898	94.75
462.118	84.75
462.338	84.75
462.558	86.75
462.777	84.75
462.997	91.75
463.217	98.75
463.437	98.75
463.657	85.75
463.876	87.75
464.096	92.75
464.316	85.75
464.536	87.75
464.755	98.75
464.975	87.75
465.195	89.75
465.414	106.75
465.634	81.75
465.854	67.75
466.073	74.75
466.293	74.75
466.512	91.75
466.732	96.75
466.951	95.75
467.171	81.75
467.391	98.75
467.61	90.75
467.829	93.75
468.049	83.75
468.268	99.75
468.488	114.75
468.707	115.75
468.927	111.75
469.146	83.75
469.365	95.75
469.585	98.75
469.804	91.75
470.023	91.75
470.243	87.75
470.462	81.75
470.681	93.75
470.901	91.75
471.12	88.75
471.339	95.75
471.558	79.75
471.777	78.75
471.997	81.75
472.216	79.75
472.435	90.75
472.654	83.75
472.873	90.75
473.092	87.75
473.311	79.75
473.53	72.75
473.749	91.75
473.968	87.75
474.187	88.75
474.406	114.75
474.625	106.75
474.844	89.75
475.063	89.75
475.282	104.75
475.501	83.75
475.72	103.75
475.939	97.75
476.158	84.75
476.377	90.75
476.596	82.75
476.814	93.75
477.033	87.75
477.252	89.75
477.471	80.75
477.69	83.75
477.908	103.75
478.127	93.75
478.346	96.75
478.564	107.75
478.783	91.75
479.002	86.75
479.22	93.75
479.439	98.75
479.658	95.75
479.876	104.75
480.095	98.75
480.313	100.75
480.532	99.75
480.751	88.75
480.969	100.75
481.188	95.75
481.406	98.75
481.624	85.75
481.843	93.75
482.061	99.75
482.28	97.75
482.498	103.75
482.717	95.75
482.935	98.75
483.153	104.75
483.372	92.75
483.59	101.75
483.808	90.75
484.027	100.75
484.245	101.75
484.463	99.75
484.681	115.75
484.9	89.75
485.118	95.75
485.336	82.75
485.554	94.75
485.772	101.75
485.99	83.75
486.209	93.75
486.427	83.75
486.645	86.75
486.863	97.75
487.081	99.75
487.299	112.75
487.517	129.75
487.735	165.75
487.953	333.75
488.171	259.75
488.389	130.75
488.607	115.75
488.825	99.75
489.043	95.75
489.261	97.75
489.479	92.75
489.696	84.75
489.914	94.75
490.132	94.75
490.35	86.75
490.568	96.75
490.786	101.75
491.003	101.75
491.221	89.75
491.439	80.75
491.657	81.75
491.874	97.75
492.092	92.75
492.31	103.75
492.527	84.75
492.745	89.75
492.963	102.75
493.18	98.75
493.398	93.75
493.615	85.75
493.833	94.75
494.05	93.75
494.268	90.75
494.485	88.75
494.703	90.75
494.92	110.75
495.138	88.75
495.355	95.75
495.573	94.75
495.79	94.75
496.008	105.75
496.225	96.75
496.442	98.75
496.66	96.75
496.877	86.75
497.094	91.75
497.312	94.75
497.529	89.75
497.746	80.75
497.963	91.75
498.181	84.75
498.398	107.75
498.615	104.75
498.832	92.75
499.049	95.75
499.267	100.75
499.484	93.75
499.701	101.75
499.918	86.75
500.135	105.75
500.352	98.75
500.569	107.75
500.786	99.75
501.003	100.75
501.22	98.75
501.437	94.75
501.654	97.75
501.871	98.75
502.088	89.75
502.305	104.75
502.522	100.75
502.739	99.75
502.956	97.75
503.172	92.75
503.389	94.75
503.606	96.75
503.823	120.75
504.04	139.75
504.256	226.75
504.473	231.75
504.69	134.75
504.907	91.75
505.123	95.75
505.34	88.75
505.557	95.75
505.773	98.75
505.99	100.75
506.207	101.75
506.423	103.75
506.64	91.75
506.856	91.75
507.073	94.75
507.289	88.75
507.506	94.75
507.722	91.75
507.939	96.75
508.155	89.75
508.372	83.75
508.588	88.75
508.805	86.75
509.021	91.75
509.238	88.75
509.454	85.75
509.67	95.75
509.887	110.75
510.103	88.75
510.319	93.75
510.536	93.75
510.752	103.75
510.968	105.75
511.184	86.75
511.401	77.75
511.617	90.75
511.833	85.75
512.049	100.75
512.265	95.75
512.481	93.75
512.698	91.75
512.914	83.75
513.13	89.75
513.346	97.75
513.562	96.75
513.778	99.75
513.994	98.75
514.21	95.75
514.426	90.75
514.642	99.75
514.858	96.75
515.074	88.75
515.29	95.75
515.506	95.75
515.721	86.75
