Data from CBS_2_HRD10591_00030.txt Node
Date: Mon Jan 19 14:05:01 EST 2026
User: Yrep
Spectrometer: HR+D1059
Trigger mode: 1
Integration Time (sec): 1.000000E-1
Scans to average: 1
Electric dark correction enabled: true
Nonlinearity correction enabled: false
Boxcar width: 0
XAxis mode: Wavelengths
Number of Pixels in Spectrum: 2048
>>>>>Begin Spectral Data<<<<<
223.165	-37.06
223.4	-37.06
223.635	-37.06
223.869	-15.06
224.104	-10.06
224.338	-15.06
224.573	-16.06
224.808	-12.06
225.042	-13.06
225.277	-9.06
225.511	-7.06
225.746	-5.06
225.98	6.94
226.215	14.94
226.449	22.94
226.683	16.94
226.918	40.94
227.152	36.94
227.387	35.94
227.621	52.94
227.856	43.94
228.09	43.94
228.324	38.94
228.559	50.94
228.793	62.94
229.027	53.94
229.262	62.94
229.496	57.94
229.73	62.94
229.964	65.94
230.199	58.94
230.433	69.94
230.667	83.94
230.901	79.94
231.136	76.94
231.37	80.94
231.604	78.94
231.838	90.94
232.072	78.94
232.306	76.94
232.541	75.94
232.775	70.94
233.009	81.94
233.243	79.94
233.477	80.94
233.711	72.94
233.945	84.94
234.179	89.94
234.413	78.94
234.647	70.94
234.881	89.94
235.115	79.94
235.349	67.94
235.583	73.94
235.817	71.94
236.051	81.94
236.285	70.94
236.519	74.94
236.753	82.94
236.987	70.94
237.221	96.94
237.455	70.94
237.689	72.94
237.922	48.94
238.156	68.94
238.39	73.94
238.624	79.94
238.858	69.94
239.091	66.94
239.325	75.94
239.559	70.94
239.793	74.94
240.027	66.94
240.26	64.94
240.494	66.94
240.728	72.94
240.961	77.94
241.195	81.94
241.429	73.94
241.662	68.94
241.896	67.94
242.13	81.94
242.363	65.94
242.597	67.94
242.83	67.94
243.064	73.94
243.298	81.94
243.531	63.94
243.765	78.94
243.998	80.94
244.232	85.94
244.465	88.94
244.699	79.94
244.932	78.94
245.166	61.94
245.399	83.94
245.633	81.94
245.866	64.94
246.099	84.94
246.333	67.94
246.566	76.94
246.8	74.94
247.033	70.94
247.266	68.94
247.5	70.94
247.733	67.94
247.966	72.94
248.2	74.94
248.433	90.94
248.666	79.94
248.899	92.94
249.133	70.94
249.366	83.94
249.599	79.94
249.832	80.94
250.066	72.94
250.299	75.94
250.532	86.94
250.765	76.94
250.998	91.94
251.231	79.94
251.465	67.94
251.698	81.94
251.931	78.94
252.164	84.94
252.397	78.94
252.63	78.94
252.863	62.94
253.096	82.94
253.329	64.94
253.562	81.94
253.795	84.94
254.028	91.94
254.261	91.94
254.494	77.94
254.727	78.94
254.96	91.94
255.193	79.94
255.426	68.94
255.659	81.94
255.892	92.94
256.124	84.94
256.357	78.94
256.59	71.94
256.823	74.94
257.056	85.94
257.289	86.94
257.521	82.94
257.754	84.94
257.987	86.94
258.22	84.94
258.452	66.94
258.685	63.94
258.918	78.94
259.151	70.94
259.383	82.94
259.616	87.94
259.849	89.94
260.081	74.94
260.314	82.94
260.547	81.94
260.779	79.94
261.012	85.94
261.244	70.94
261.477	78.94
261.71	70.94
261.942	76.94
262.175	88.94
262.407	76.94
262.64	80.94
262.872	86.94
263.105	85.94
263.337	70.94
263.57	65.94
263.802	81.94
264.035	76.94
264.267	71.94
264.499	79.94
264.732	86.94
264.964	76.94
265.197	82.94
265.429	90.94
265.661	72.94
265.894	92.94
266.126	81.94
266.358	76.94
266.591	72.94
266.823	94.94
267.055	91.94
267.287	79.94
267.52	99.94
267.752	85.94
267.984	72.94
268.216	80.94
268.448	86.94
268.681	76.94
268.913	80.94
269.145	81.94
269.377	82.94
269.609	80.94
269.841	80.94
270.073	88.94
270.306	81.94
270.538	84.94
270.77	75.94
271.002	78.94
271.234	83.94
271.466	86.94
271.698	87.94
271.93	80.94
272.162	72.94
272.394	78.94
272.626	94.94
272.858	89.94
273.09	86.94
273.322	82.94
273.553	66.94
273.785	77.94
274.017	71.94
274.249	89.94
274.481	91.94
274.713	85.94
274.945	69.94
275.176	90.94
275.408	68.94
275.64	96.94
275.872	88.94
276.104	97.94
276.335	83.94
276.567	69.94
276.799	72.94
277.031	91.94
277.262	86.94
277.494	102.94
277.726	78.94
277.957	73.94
278.189	84.94
278.421	78.94
278.652	78.94
278.884	69.94
279.115	87.94
279.347	77.94
279.579	90.94
279.81	86.94
280.042	83.94
280.273	86.94
280.505	73.94
280.736	78.94
280.968	78.94
281.199	81.94
281.431	112.94
281.662	86.94
281.894	83.94
282.125	78.94
282.356	89.94
282.588	78.94
282.819	80.94
283.051	78.94
283.282	78.94
283.513	82.94
283.745	71.94
283.976	96.94
284.207	78.94
284.439	91.94
284.67	81.94
284.901	76.94
285.132	92.94
285.364	95.94
285.595	102.94
285.826	88.94
286.057	78.94
286.288	73.94
286.52	70.94
286.751	81.94
286.982	75.94
287.213	80.94
287.444	84.94
287.675	70.94
287.906	84.94
288.138	85.94
288.369	82.94
288.6	84.94
288.831	84.94
289.062	90.94
289.293	99.94
289.524	71.94
289.755	79.94
289.986	85.94
290.217	91.94
290.448	90.94
290.679	78.94
290.91	83.94
291.141	78.94
291.371	79.94
291.602	80.94
291.833	90.94
292.064	92.94
292.295	85.94
292.526	96.94
292.757	92.94
292.987	86.94
293.218	80.94
293.449	78.94
293.68	88.94
293.91	83.94
294.141	79.94
294.372	90.94
294.603	90.94
294.833	79.94
295.064	77.94
295.295	76.94
295.525	92.94
295.756	78.94
295.987	103.94
296.217	82.94
296.448	86.94
296.679	105.94
296.909	94.94
297.14	85.94
297.37	95.94
297.601	80.94
297.831	97.94
298.062	91.94
298.292	95.94
298.523	89.94
298.753	80.94
298.984	80.94
299.214	93.94
299.445	91.94
299.675	104.94
299.905	95.94
300.136	80.94
300.366	84.94
300.597	91.94
300.827	78.94
301.057	95.94
301.288	87.94
301.518	67.94
301.748	100.94
301.979	82.94
302.209	82.94
302.439	86.94
302.669	81.94
302.9	72.94
303.13	88.94
303.36	82.94
303.59	86.94
303.82	85.94
304.051	76.94
304.281	87.94
304.511	103.94
304.741	88.94
304.971	81.94
305.201	80.94
305.431	96.94
305.661	95.94
305.891	98.94
306.121	90.94
306.352	83.94
306.582	91.94
306.812	85.94
307.042	78.94
307.272	86.94
307.502	70.94
307.731	85.94
307.961	90.94
308.191	90.94
308.421	99.94
308.651	96.94
308.881	95.94
309.111	93.94
309.341	106.94
309.571	104.94
309.8	87.94
310.03	85.94
310.26	87.94
310.49	83.94
310.72	84.94
310.949	78.94
311.179	79.94
311.409	89.94
311.639	83.94
311.868	86.94
312.098	90.94
312.328	72.94
312.557	100.94
312.787	73.94
313.017	81.94
313.246	83.94
313.476	96.94
313.706	90.94
313.935	98.94
314.165	96.94
314.394	73.94
314.624	98.94
314.853	82.94
315.083	88.94
315.312	80.94
315.542	79.94
315.771	97.94
316.001	103.94
316.23	90.94
316.46	90.94
316.689	92.94
316.919	87.94
317.148	95.94
317.377	86.94
317.607	95.94
317.836	103.94
318.065	110.94
318.295	102.94
318.524	95.94
318.753	97.94
318.983	85.94
319.212	86.94
319.441	90.94
319.67	90.94
319.9	94.94
320.129	93.94
320.358	89.94
320.587	111.94
320.816	82.94
321.046	93.94
321.275	106.94
321.504	92.94
321.733	96.94
321.962	97.94
322.191	98.94
322.42	101.94
322.649	81.94
322.878	91.94
323.108	96.94
323.337	86.94
323.566	91.94
323.795	78.94
324.024	85.94
324.253	85.94
324.482	81.94
324.71	79.94
324.939	102.94
325.168	86.94
325.397	90.94
325.626	92.94
325.855	81.94
326.084	97.94
326.313	84.94
326.542	89.94
326.77	82.94
326.999	86.94
327.228	95.94
327.457	83.94
327.686	98.94
327.914	98.94
328.143	83.94
328.372	90.94
328.6	73.94
328.829	83.94
329.058	86.94
329.287	82.94
329.515	87.94
329.744	101.94
329.972	100.94
330.201	90.94
330.43	88.94
330.658	96.94
330.887	82.94
331.115	80.94
331.344	71.94
331.572	106.94
331.801	91.94
332.03	84.94
332.258	94.94
332.486	87.94
332.715	88.94
332.943	73.94
333.172	95.94
333.4	87.94
333.629	89.94
333.857	84.94
334.085	97.94
334.314	96.94
334.542	109.94
334.771	97.94
334.999	115.94
335.227	102.94
335.455	93.94
335.684	101.94
335.912	119.94
336.14	126.94
336.369	122.94
336.597	97.94
336.825	85.94
337.053	75.94
337.281	79.94
337.51	97.94
337.738	78.94
337.966	90.94
338.194	100.94
338.422	86.94
338.65	82.94
338.878	99.94
339.106	91.94
339.334	88.94
339.562	93.94
339.79	85.94
340.018	82.94
340.246	89.94
340.474	88.94
340.702	97.94
340.93	78.94
341.158	57.94
341.386	79.94
341.614	95.94
341.842	78.94
342.07	92.94
342.298	91.94
342.526	91.94
342.754	81.94
342.981	77.94
343.209	86.94
343.437	100.94
343.665	78.94
343.893	86.94
344.12	104.94
344.348	97.94
344.576	78.94
344.804	97.94
345.031	83.94
345.259	83.94
345.487	93.94
345.714	93.94
345.942	85.94
346.17	86.94
346.397	107.94
346.625	76.94
346.853	94.94
347.08	92.94
347.308	88.94
347.535	89.94
347.763	87.94
347.99	86.94
348.218	111.94
348.445	103.94
348.673	94.94
348.9	96.94
349.128	79.94
349.355	90.94
349.583	91.94
349.81	83.94
350.037	93.94
350.265	87.94
350.492	93.94
350.72	84.94
350.947	92.94
351.174	89.94
351.402	94.94
351.629	80.94
351.856	86.94
352.083	71.94
352.311	70.94
352.538	68.94
352.765	82.94
352.992	103.94
353.22	95.94
353.447	84.94
353.674	90.94
353.901	90.94
354.128	93.94
354.355	102.94
354.583	78.94
354.81	96.94
355.037	98.94
355.264	96.94
355.491	86.94
355.718	89.94
355.945	78.94
356.172	87.94
356.399	90.94
356.626	90.94
356.853	94.94
357.08	85.94
357.307	78.94
357.534	100.94
357.761	99.94
357.988	101.94
358.215	103.94
358.441	91.94
358.668	90.94
358.895	75.94
359.122	101.94
359.349	87.94
359.576	80.94
359.802	97.94
360.029	102.94
360.256	88.94
360.483	86.94
360.709	96.94
360.936	94.94
361.163	98.94
361.39	103.94
361.616	92.94
361.843	111.94
362.07	98.94
362.296	125.94
362.523	148.94
362.749	127.94
362.976	162.94
363.203	182.94
363.429	135.94
363.656	112.94
363.882	114.94
364.109	142.94
364.335	198.94
364.562	207.94
364.788	140.94
365.015	102.94
365.241	87.94
365.468	94.94
365.694	91.94
365.92	80.94
366.147	89.94
366.373	83.94
366.599	87.94
366.826	91.94
367.052	86.94
367.278	84.94
367.505	88.94
367.731	113.94
367.957	90.94
368.184	92.94
368.41	95.94
368.636	95.94
368.862	84.94
369.089	90.94
369.315	93.94
369.541	87.94
369.767	100.94
369.993	84.94
370.219	91.94
370.445	92.94
370.672	111.94
370.898	92.94
371.124	93.94
371.35	86.94
371.576	98.94
371.802	95.94
372.028	105.94
372.254	108.94
372.48	91.94
372.706	95.94
372.932	118.94
373.158	106.94
373.384	118.94
373.61	120.94
373.835	127.94
374.061	108.94
374.287	102.94
374.513	101.94
374.739	108.94
374.965	87.94
375.191	106.94
375.416	111.94
375.642	103.94
375.868	103.94
376.094	107.94
376.319	97.94
376.545	92.94
376.771	81.94
376.997	90.94
377.222	94.94
377.448	91.94
377.674	79.94
377.899	86.94
378.125	74.94
378.35	86.94
378.576	84.94
378.802	87.94
379.027	99.94
379.253	90.94
379.478	82.94
379.704	80.94
379.929	93.94
380.155	106.94
380.38	94.94
380.606	97.94
380.831	71.94
381.057	94.94
381.282	100.94
381.507	91.94
381.733	85.94
381.958	103.94
382.184	100.94
382.409	103.94
382.634	105.94
382.86	84.94
383.085	90.94
383.31	106.94
383.535	106.94
383.761	99.94
383.986	97.94
384.211	96.94
384.436	95.94
384.662	101.94
384.887	91.94
385.112	97.94
385.337	101.94
385.562	115.94
385.787	95.94
386.013	97.94
386.238	113.94
386.463	101.94
386.688	103.94
386.913	95.94
387.138	120.94
387.363	117.94
387.588	123.94
387.813	100.94
388.038	121.94
388.263	94.94
388.488	106.94
388.713	98.94
388.938	95.94
389.163	102.94
389.387	107.94
389.612	95.94
389.837	99.94
390.062	108.94
390.287	91.94
390.512	108.94
390.736	90.94
390.961	103.94
391.186	95.94
391.411	96.94
391.636	108.94
391.86	110.94
392.085	114.94
392.31	123.94
392.534	131.94
392.759	163.94
392.984	253.94
393.208	473.94
393.433	725.94
393.658	552.94
393.882	208.94
394.107	150.94
394.331	149.94
394.556	161.94
394.78	132.94
395.005	98.94
395.229	127.94
395.454	122.94
395.678	138.94
395.903	160.94
396.127	190.94
396.352	216.94
396.576	262.94
396.801	469.94
397.025	554.94
397.249	290.94
397.474	198.94
397.698	123.94
397.922	92.94
398.147	108.94
398.371	95.94
398.595	98.94
398.82	111.94
399.044	98.94
399.268	78.94
399.492	80.94
399.717	102.94
399.941	91.94
400.165	86.94
400.389	90.94
400.613	87.94
400.837	96.94
401.062	95.94
401.286	97.94
401.51	97.94
401.734	83.94
401.958	80.94
402.182	96.94
402.406	100.94
402.63	86.94
402.854	102.94
403.078	81.94
403.302	103.94
403.526	95.94
403.75	93.94
403.974	115.94
404.198	96.94
404.422	118.94
404.645	114.94
404.869	99.94
405.093	106.94
405.317	89.94
405.541	91.94
405.765	94.94
405.988	90.94
406.212	90.94
406.436	97.94
406.66	88.94
406.883	75.94
407.107	78.94
407.331	98.94
407.555	108.94
407.778	137.94
408.002	135.94
408.226	94.94
408.449	78.94
408.673	89.94
408.896	109.94
409.12	115.94
409.344	111.94
409.567	135.94
409.791	142.94
410.014	144.94
410.238	132.94
410.461	111.94
410.685	91.94
410.908	95.94
411.132	89.94
411.355	92.94
411.578	97.94
411.802	98.94
412.025	93.94
412.249	94.94
412.472	92.94
412.695	84.94
412.919	88.94
413.142	84.94
413.365	93.94
413.589	94.94
413.812	98.94
414.035	94.94
414.258	90.94
414.482	92.94
414.705	94.94
414.928	97.94
415.151	106.94
415.374	84.94
415.597	84.94
415.821	79.94
416.044	86.94
416.267	88.94
416.49	98.94
416.713	94.94
416.936	83.94
417.159	78.94
417.382	96.94
417.605	94.94
417.828	94.94
418.051	94.94
418.274	103.94
418.497	97.94
418.72	101.94
418.943	78.94
419.166	92.94
419.389	97.94
419.611	106.94
419.834	100.94
420.057	88.94
420.28	103.94
420.503	102.94
420.726	112.94
420.948	115.94
421.171	122.94
421.394	136.94
421.617	159.94
421.839	176.94
422.062	220.94
422.285	323.94
422.507	542.94
422.73	840.94
422.953	739.94
423.175	412.94
423.398	244.94
423.621	177.94
423.843	145.94
424.066	139.94
424.288	126.94
424.511	130.94
424.733	108.94
424.956	123.94
425.178	96.94
425.401	114.94
425.623	102.94
425.846	95.94
426.068	87.94
426.291	111.94
426.513	106.94
426.735	93.94
426.958	83.94
427.18	96.94
427.402	110.94
427.625	83.94
427.847	92.94
428.069	134.94
428.292	209.94
428.514	213.94
428.736	151.94
428.958	196.94
429.181	210.94
429.403	124.94
429.625	116.94
429.847	171.94
430.069	286.94
430.292	332.94
430.514	310.94
430.736	212.94
430.958	216.94
431.18	136.94
431.402	112.94
431.624	120.94
431.846	191.94
432.068	222.94
432.29	124.94
432.512	98.94
432.734	98.94
432.956	101.94
433.178	100.94
433.4	91.94
433.622	81.94
433.844	79.94
434.066	88.94
434.287	88.94
434.509	87.94
434.731	89.94
434.953	102.94
435.175	94.94
435.397	111.94
435.618	99.94
435.84	98.94
436.062	87.94
436.284	97.94
436.505	104.94
436.727	87.94
436.949	91.94
437.17	103.94
437.392	90.94
437.614	73.94
437.835	78.94
438.057	84.94
438.278	86.94
438.5	94.94
438.721	77.94
438.943	82.94
439.165	74.94
439.386	85.94
439.608	86.94
439.829	87.94
440.05	96.94
440.272	97.94
440.493	100.94
440.715	93.94
440.936	111.94
441.158	97.94
441.379	101.94
441.6	88.94
441.822	106.94
442.043	104.94
442.264	140.94
442.486	211.94
442.707	300.94
442.928	184.94
443.149	172.94
443.371	250.94
443.592	487.94
443.813	413.94
444.034	155.94
444.255	101.94
444.476	114.94
444.698	103.94
444.919	118.94
445.14	212.94
445.361	330.94
445.582	562.94
445.803	506.94
446.024	200.94
446.245	122.94
446.466	104.94
446.687	87.94
446.908	92.94
447.129	88.94
447.35	90.94
447.571	78.94
447.792	82.94
448.013	83.94
448.234	67.94
448.455	86.94
448.675	82.94
448.896	92.94
449.117	94.94
449.338	92.94
449.559	72.94
449.779	80.94
450	87.94
450.221	86.94
450.442	86.94
450.662	98.94
450.883	94.94
451.104	86.94
451.324	79.94
451.545	97.94
451.766	92.94
451.986	90.94
452.207	91.94
452.428	86.94
452.648	117.94
452.869	127.94
453.089	97.94
453.31	75.94
453.53	88.94
453.751	90.94
453.971	86.94
454.192	82.94
454.412	73.94
454.633	85.94
454.853	87.94
455.073	90.94
455.294	88.94
455.514	88.94
455.734	85.94
455.955	84.94
456.175	78.94
456.395	91.94
456.616	92.94
456.836	94.94
457.056	103.94
457.276	99.94
457.497	94.94
457.717	109.94
457.937	170.94
458.157	216.94
458.377	213.94
458.598	210.94
458.818	230.94
459.038	123.94
459.258	100.94
459.478	86.94
459.698	86.94
459.918	97.94
460.138	64.94
460.358	86.94
460.578	111.94
460.798	150.94
461.018	145.94
461.238	82.94
461.458	78.94
461.678	90.94
461.898	79.94
462.118	94.94
462.338	91.94
462.558	82.94
462.777	83.94
462.997	83.94
463.217	85.94
463.437	85.94
463.657	82.94
463.876	76.94
464.096	72.94
464.316	84.94
464.536	92.94
464.755	88.94
464.975	89.94
465.195	81.94
465.414	73.94
465.634	87.94
465.854	92.94
466.073	76.94
466.293	77.94
466.512	101.94
466.732	89.94
466.951	71.94
467.171	103.94
467.391	77.94
467.61	86.94
467.829	82.94
468.049	102.94
468.268	93.94
468.488	94.94
468.707	103.94
468.927	94.94
469.146	88.94
469.365	80.94
469.585	101.94
469.804	92.94
470.023	76.94
470.243	76.94
470.462	90.94
470.681	98.94
470.901	79.94
471.12	76.94
471.339	82.94
471.558	70.94
471.777	78.94
471.997	78.94
472.216	79.94
472.435	87.94
472.654	79.94
472.873	88.94
473.092	81.94
473.311	97.94
473.53	99.94
473.749	91.94
473.968	118.94
474.187	93.94
474.406	88.94
474.625	94.94
474.844	91.94
475.063	92.94
475.282	101.94
475.501	90.94
475.72	68.94
475.939	90.94
476.158	93.94
476.377	81.94
476.596	81.94
476.814	86.94
477.033	90.94
477.252	95.94
477.471	85.94
477.69	89.94
477.908	94.94
478.127	92.94
478.346	82.94
478.564	83.94
478.783	89.94
479.002	100.94
479.22	91.94
479.439	92.94
479.658	84.94
479.876	81.94
480.095	108.94
480.313	94.94
480.532	84.94
480.751	87.94
480.969	98.94
481.188	108.94
481.406	79.94
481.624	96.94
481.843	90.94
482.061	84.94
482.28	86.94
482.498	106.94
482.717	100.94
482.935	103.94
483.153	88.94
483.372	109.94
483.59	86.94
483.808	94.94
484.027	95.94
484.245	77.94
484.463	98.94
484.681	90.94
484.9	94.94
485.118	102.94
485.336	95.94
485.554	85.94
485.772	96.94
485.99	90.94
486.209	115.94
486.427	95.94
486.645	93.94
486.863	99.94
487.081	87.94
487.299	108.94
487.517	104.94
487.735	173.94
487.953	353.94
488.171	261.94
488.389	116.94
488.607	102.94
488.825	83.94
489.043	105.94
489.261	92.94
489.479	95.94
489.696	83.94
489.914	94.94
490.132	94.94
490.35	99.94
490.568	99.94
490.786	102.94
491.003	104.94
491.221	94.94
491.439	88.94
491.657	88.94
491.874	82.94
492.092	115.94
492.31	98.94
492.527	90.94
492.745	78.94
492.963	92.94
493.18	90.94
493.398	87.94
493.615	97.94
493.833	70.94
494.05	94.94
494.268	81.94
494.485	76.94
494.703	90.94
494.92	102.94
495.138	85.94
495.355	69.94
495.573	85.94
495.79	102.94
496.008	107.94
496.225	98.94
496.442	103.94
496.66	96.94
496.877	87.94
497.094	105.94
497.312	76.94
497.529	100.94
497.746	105.94
497.963	93.94
498.181	97.94
498.398	100.94
498.615	89.94
498.832	99.94
499.049	92.94
499.267	96.94
499.484	96.94
499.701	98.94
499.918	84.94
500.135	95.94
500.352	82.94
500.569	80.94
500.786	89.94
501.003	100.94
501.22	95.94
501.437	85.94
501.654	97.94
501.871	85.94
502.088	78.94
502.305	94.94
502.522	86.94
502.739	95.94
502.956	90.94
503.172	96.94
503.389	86.94
503.606	101.94
503.823	99.94
504.04	134.94
504.256	242.94
504.473	246.94
504.69	125.94
504.907	100.94
505.123	95.94
505.34	87.94
505.557	75.94
505.773	87.94
505.99	97.94
506.207	78.94
506.423	98.94
506.64	92.94
506.856	72.94
507.073	95.94
507.289	93.94
507.506	82.94
507.722	97.94
507.939	82.94
508.155	94.94
508.372	95.94
508.588	83.94
508.805	86.94
509.021	88.94
509.238	87.94
509.454	75.94
509.67	85.94
509.887	76.94
510.103	98.94
510.319	82.94
510.536	93.94
510.752	94.94
510.968	88.94
511.184	94.94
511.401	95.94
511.617	93.94
511.833	98.94
512.049	87.94
512.265	110.94
512.481	106.94
512.698	97.94
512.914	85.94
513.13	91.94
513.346	84.94
513.562	82.94
513.778	95.94
513.994	86.94
514.21	80.94
514.426	86.94
514.642	80.94
514.858	96.94
515.074	98.94
515.29	95.94
515.506	93.94
515.721	84.94
515.937	96.94
516.153	106.94
