Data from CBS_2_HRD10591_00024.txt Node
Date: Mon Jan 19 14:04:58 EST 2026
User: Yrep
Spectrometer: HR+D1059
Trigger mode: 1
Integration Time (sec): 1.000000E-1
Scans to average: 1
Electric dark correction enabled: true
Nonlinearity correction enabled: false
Boxcar width: 0
XAxis mode: Wavelengths
Number of Pixels in Spectrum: 2048
>>>>>Begin Spectral Data<<<<<
223.165	-21.06
223.4	-21.06
223.635	-21.06
223.869	-9.06
224.104	-11.06
224.338	-13.06
224.573	-21.06
224.808	-38.06
225.042	-7.06
225.277	-9.06
225.511	3.94
225.746	-4.06
225.98	10.94
226.215	16.94
226.449	25.94
226.683	15.94
226.918	39.94
227.152	19.94
227.387	30.94
227.621	42.94
227.856	52.94
228.09	47.94
228.324	55.94
228.559	64.94
228.793	49.94
229.027	64.94
229.262	77.94
229.496	55.94
229.73	63.94
229.964	72.94
230.199	60.94
230.433	62.94
230.667	90.94
230.901	89.94
231.136	83.94
231.37	75.94
231.604	76.94
231.838	73.94
232.072	74.94
232.306	90.94
232.541	79.94
232.775	87.94
233.009	75.94
233.243	76.94
233.477	71.94
233.711	79.94
233.945	76.94
234.179	84.94
234.413	68.94
234.647	89.94
234.881	85.94
235.115	83.94
235.349	76.94
235.583	78.94
235.817	72.94
236.051	76.94
236.285	88.94
236.519	68.94
236.753	69.94
236.987	73.94
237.221	79.94
237.455	92.94
237.689	88.94
237.922	71.94
238.156	66.94
238.39	84.94
238.624	78.94
238.858	87.94
239.091	86.94
239.325	91.94
239.559	70.94
239.793	77.94
240.027	75.94
240.26	76.94
240.494	67.94
240.728	64.94
240.961	93.94
241.195	77.94
241.429	73.94
241.662	80.94
241.896	75.94
242.13	74.94
242.363	65.94
242.597	77.94
242.83	78.94
243.064	73.94
243.298	73.94
243.531	73.94
243.765	86.94
243.998	71.94
244.232	66.94
244.465	73.94
244.699	73.94
244.932	83.94
245.166	79.94
245.399	79.94
245.633	79.94
245.866	90.94
246.099	84.94
246.333	72.94
246.566	74.94
246.8	79.94
247.033	86.94
247.266	80.94
247.5	72.94
247.733	89.94
247.966	89.94
248.2	87.94
248.433	66.94
248.666	70.94
248.899	84.94
249.133	80.94
249.366	82.94
249.599	81.94
249.832	85.94
250.066	87.94
250.299	79.94
250.532	82.94
250.765	72.94
250.998	82.94
251.231	71.94
251.465	82.94
251.698	74.94
251.931	75.94
252.164	68.94
252.397	87.94
252.63	88.94
252.863	74.94
253.096	83.94
253.329	80.94
253.562	78.94
253.795	84.94
254.028	84.94
254.261	93.94
254.494	95.94
254.727	79.94
254.96	81.94
255.193	84.94
255.426	75.94
255.659	85.94
255.892	82.94
256.124	91.94
256.357	75.94
256.59	75.94
256.823	73.94
257.056	77.94
257.289	73.94
257.521	78.94
257.754	76.94
257.987	64.94
258.22	79.94
258.452	75.94
258.685	82.94
258.918	88.94
259.151	84.94
259.383	70.94
259.616	79.94
259.849	88.94
260.081	81.94
260.314	74.94
260.547	80.94
260.779	98.94
261.012	63.94
261.244	76.94
261.477	84.94
261.71	84.94
261.942	77.94
262.175	79.94
262.407	77.94
262.64	78.94
262.872	87.94
263.105	89.94
263.337	88.94
263.57	84.94
263.802	92.94
264.035	79.94
264.267	82.94
264.499	95.94
264.732	100.94
264.964	94.94
265.197	79.94
265.429	83.94
265.661	79.94
265.894	78.94
266.126	87.94
266.358	79.94
266.591	79.94
266.823	72.94
267.055	86.94
267.287	89.94
267.52	74.94
267.752	84.94
267.984	74.94
268.216	81.94
268.448	91.94
268.681	93.94
268.913	98.94
269.145	91.94
269.377	84.94
269.609	83.94
269.841	66.94
270.073	70.94
270.306	75.94
270.538	79.94
270.77	76.94
271.002	75.94
271.234	88.94
271.466	92.94
271.698	89.94
271.93	99.94
272.162	84.94
272.394	81.94
272.626	73.94
272.858	85.94
273.09	96.94
273.322	77.94
273.553	67.94
273.785	80.94
274.017	82.94
274.249	72.94
274.481	88.94
274.713	87.94
274.945	84.94
275.176	77.94
275.408	78.94
275.64	103.94
275.872	85.94
276.104	70.94
276.335	110.94
276.567	82.94
276.799	95.94
277.031	84.94
277.262	85.94
277.494	85.94
277.726	76.94
277.957	76.94
278.189	86.94
278.421	83.94
278.652	80.94
278.884	74.94
279.115	77.94
279.347	86.94
279.579	82.94
279.81	68.94
280.042	79.94
280.273	75.94
280.505	88.94
280.736	78.94
280.968	82.94
281.199	72.94
281.431	76.94
281.662	87.94
281.894	77.94
282.125	99.94
282.356	89.94
282.588	86.94
282.819	86.94
283.051	82.94
283.282	86.94
283.513	83.94
283.745	94.94
283.976	88.94
284.207	88.94
284.439	52.94
284.67	104.94
284.901	90.94
285.132	96.94
285.364	113.94
285.595	94.94
285.826	96.94
286.057	86.94
286.288	74.94
286.52	79.94
286.751	91.94
286.982	100.94
287.213	90.94
287.444	102.94
287.675	86.94
287.906	88.94
288.138	97.94
288.369	96.94
288.6	84.94
288.831	77.94
289.062	86.94
289.293	86.94
289.524	90.94
289.755	97.94
289.986	92.94
290.217	87.94
290.448	90.94
290.679	83.94
290.91	90.94
291.141	71.94
291.371	86.94
291.602	110.94
291.833	74.94
292.064	82.94
292.295	81.94
292.526	86.94
292.757	82.94
292.987	98.94
293.218	78.94
293.449	98.94
293.68	96.94
293.91	95.94
294.141	101.94
294.372	92.94
294.603	76.94
294.833	94.94
295.064	87.94
295.295	68.94
295.525	94.94
295.756	91.94
295.987	97.94
296.217	83.94
296.448	94.94
296.679	90.94
296.909	73.94
297.14	88.94
297.37	82.94
297.601	86.94
297.831	69.94
298.062	89.94
298.292	76.94
298.523	90.94
298.753	82.94
298.984	90.94
299.214	93.94
299.445	100.94
299.675	92.94
299.905	103.94
300.136	110.94
300.366	104.94
300.597	96.94
300.827	97.94
301.057	106.94
301.288	86.94
301.518	89.94
301.748	100.94
301.979	98.94
302.209	91.94
302.439	87.94
302.669	85.94
302.9	94.94
303.13	91.94
303.36	92.94
303.59	74.94
303.82	100.94
304.051	81.94
304.281	89.94
304.511	97.94
304.741	94.94
304.971	83.94
305.201	94.94
305.431	88.94
305.661	75.94
305.891	85.94
306.121	86.94
306.352	80.94
306.582	84.94
306.812	94.94
307.042	105.94
307.272	86.94
307.502	99.94
307.731	97.94
307.961	86.94
308.191	90.94
308.421	112.94
308.651	93.94
308.881	96.94
309.111	102.94
309.341	102.94
309.571	120.94
309.8	108.94
310.03	68.94
310.26	92.94
310.49	81.94
310.72	87.94
310.949	83.94
311.179	95.94
311.409	86.94
311.639	88.94
311.868	74.94
312.098	88.94
312.328	77.94
312.557	81.94
312.787	84.94
313.017	96.94
313.246	86.94
313.476	105.94
313.706	90.94
313.935	92.94
314.165	102.94
314.394	95.94
314.624	84.94
314.853	95.94
315.083	97.94
315.312	104.94
315.542	100.94
315.771	88.94
316.001	102.94
316.23	100.94
316.46	92.94
316.689	94.94
316.919	94.94
317.148	90.94
317.377	99.94
317.607	95.94
317.836	122.94
318.065	133.94
318.295	120.94
318.524	104.94
318.753	91.94
318.983	85.94
319.212	100.94
319.441	98.94
319.67	88.94
319.9	75.94
320.129	86.94
320.358	96.94
320.587	86.94
320.816	96.94
321.046	101.94
321.275	106.94
321.504	103.94
321.733	98.94
321.962	103.94
322.191	106.94
322.42	112.94
322.649	104.94
322.878	103.94
323.108	112.94
323.337	110.94
323.566	96.94
323.795	90.94
324.024	103.94
324.253	84.94
324.482	98.94
324.71	93.94
324.939	86.94
325.168	81.94
325.397	103.94
325.626	92.94
325.855	95.94
326.084	91.94
326.313	89.94
326.542	98.94
326.77	87.94
326.999	82.94
327.228	91.94
327.457	91.94
327.686	98.94
327.914	78.94
328.143	94.94
328.372	91.94
328.6	86.94
328.829	84.94
329.058	103.94
329.287	94.94
329.515	79.94
329.744	90.94
329.972	100.94
330.201	107.94
330.43	96.94
330.658	87.94
330.887	97.94
331.115	84.94
331.344	108.94
331.572	99.94
331.801	87.94
332.03	93.94
332.258	90.94
332.486	89.94
332.715	82.94
332.943	83.94
333.172	97.94
333.4	99.94
333.629	84.94
333.857	99.94
334.085	112.94
334.314	114.94
334.542	117.94
334.771	112.94
334.999	132.94
335.227	108.94
335.455	111.94
335.684	126.94
335.912	124.94
336.14	128.94
336.369	106.94
336.597	118.94
336.825	92.94
337.053	96.94
337.281	103.94
337.51	94.94
337.738	103.94
337.966	93.94
338.194	98.94
338.422	86.94
338.65	104.94
338.878	100.94
339.106	97.94
339.334	83.94
339.562	96.94
339.79	94.94
340.018	95.94
340.246	89.94
340.474	108.94
340.702	99.94
340.93	87.94
341.158	90.94
341.386	80.94
341.614	100.94
341.842	85.94
342.07	86.94
342.298	89.94
342.526	104.94
342.754	89.94
342.981	82.94
343.209	86.94
343.437	100.94
343.665	88.94
343.893	90.94
344.12	99.94
344.348	92.94
344.576	102.94
344.804	94.94
345.031	85.94
345.259	98.94
345.487	78.94
345.714	95.94
345.942	97.94
346.17	81.94
346.397	101.94
346.625	92.94
346.853	98.94
347.08	90.94
347.308	87.94
347.535	110.94
347.763	98.94
347.99	95.94
348.218	99.94
348.445	103.94
348.673	97.94
348.9	113.94
349.128	105.94
349.355	88.94
349.583	97.94
349.81	102.94
350.037	92.94
350.265	88.94
350.492	96.94
350.72	88.94
350.947	101.94
351.174	102.94
351.402	90.94
351.629	92.94
351.856	87.94
352.083	86.94
352.311	85.94
352.538	84.94
352.765	103.94
352.992	90.94
353.22	83.94
353.447	93.94
353.674	90.94
353.901	105.94
354.128	85.94
354.355	90.94
354.583	98.94
354.81	94.94
355.037	89.94
355.264	82.94
355.491	85.94
355.718	86.94
355.945	87.94
356.172	88.94
356.399	96.94
356.626	105.94
356.853	98.94
357.08	96.94
357.307	98.94
357.534	82.94
357.761	94.94
357.988	100.94
358.215	101.94
358.441	89.94
358.668	89.94
358.895	95.94
359.122	82.94
359.349	96.94
359.576	94.94
359.802	95.94
360.029	103.94
360.256	92.94
360.483	108.94
360.709	103.94
360.936	100.94
361.163	97.94
361.39	110.94
361.616	107.94
361.843	114.94
362.07	121.94
362.296	144.94
362.523	172.94
362.749	189.94
362.976	212.94
363.203	245.94
363.429	157.94
363.656	123.94
363.882	153.94
364.109	202.94
364.335	259.94
364.562	272.94
364.788	190.94
365.015	130.94
365.241	102.94
365.468	122.94
365.694	98.94
365.92	91.94
366.147	97.94
366.373	96.94
366.599	102.94
366.826	113.94
367.052	101.94
367.278	99.94
367.505	97.94
367.731	91.94
367.957	96.94
368.184	99.94
368.41	101.94
368.636	88.94
368.862	112.94
369.089	111.94
369.315	96.94
369.541	110.94
369.767	101.94
369.993	106.94
370.219	110.94
370.445	92.94
370.672	121.94
370.898	113.94
371.124	84.94
371.35	89.94
371.576	104.94
371.802	108.94
372.028	100.94
372.254	99.94
372.48	106.94
372.706	96.94
372.932	106.94
373.158	111.94
373.384	116.94
373.61	132.94
373.835	128.94
374.061	110.94
374.287	120.94
374.513	110.94
374.739	106.94
374.965	106.94
375.191	115.94
375.416	109.94
375.642	105.94
375.868	103.94
376.094	116.94
376.319	118.94
376.545	99.94
376.771	92.94
376.997	94.94
377.222	95.94
377.448	90.94
377.674	103.94
377.899	90.94
378.125	102.94
378.35	101.94
378.576	107.94
378.802	96.94
379.027	83.94
379.253	83.94
379.478	106.94
379.704	95.94
379.929	95.94
380.155	91.94
380.38	94.94
380.606	99.94
380.831	100.94
381.057	105.94
381.282	111.94
381.507	94.94
381.733	100.94
381.958	116.94
382.184	127.94
382.409	109.94
382.634	94.94
382.86	103.94
383.085	120.94
383.31	97.94
383.535	115.94
383.761	120.94
383.986	119.94
384.211	110.94
384.436	104.94
384.662	115.94
384.887	116.94
385.112	94.94
385.337	105.94
385.562	115.94
385.787	112.94
386.013	123.94
386.238	110.94
386.463	100.94
386.688	112.94
386.913	128.94
387.138	115.94
387.363	121.94
387.588	123.94
387.813	113.94
388.038	134.94
388.263	114.94
388.488	123.94
388.713	125.94
388.938	108.94
389.163	105.94
389.387	108.94
389.612	120.94
389.837	88.94
390.062	103.94
390.287	110.94
390.512	96.94
390.736	94.94
390.961	104.94
391.186	102.94
391.411	107.94
391.636	131.94
391.86	116.94
392.085	137.94
392.31	139.94
392.534	151.94
392.759	194.94
392.984	285.94
393.208	498.94
393.433	688.94
393.658	552.94
393.882	275.94
394.107	178.94
394.331	172.94
394.556	181.94
394.78	148.94
395.005	139.94
395.229	136.94
395.454	136.94
395.678	165.94
395.903	195.94
396.127	223.94
396.352	242.94
396.576	316.94
396.801	519.94
397.025	593.94
397.249	324.94
397.474	238.94
397.698	186.94
397.922	127.94
398.147	122.94
398.371	105.94
398.595	105.94
398.82	99.94
399.044	96.94
399.268	106.94
399.492	106.94
399.717	96.94
399.941	89.94
400.165	114.94
400.389	123.94
400.613	94.94
400.837	95.94
401.062	94.94
401.286	99.94
401.51	110.94
401.734	111.94
401.958	98.94
402.182	110.94
402.406	99.94
402.63	122.94
402.854	117.94
403.078	112.94
403.302	111.94
403.526	116.94
403.75	108.94
403.974	113.94
404.198	107.94
404.422	140.94
404.645	161.94
404.869	142.94
405.093	121.94
405.317	95.94
405.541	110.94
405.765	96.94
405.988	113.94
406.212	110.94
406.436	91.94
406.66	104.94
406.883	88.94
407.107	100.94
407.331	96.94
407.555	118.94
407.778	144.94
408.002	147.94
408.226	115.94
408.449	95.94
408.673	106.94
408.896	98.94
409.12	134.94
409.344	143.94
409.567	159.94
409.791	175.94
410.014	165.94
410.238	150.94
410.461	136.94
410.685	120.94
410.908	123.94
411.132	103.94
411.355	113.94
411.578	103.94
411.802	105.94
412.025	99.94
412.249	106.94
412.472	98.94
412.695	112.94
412.919	94.94
413.142	110.94
413.365	107.94
413.589	100.94
413.812	103.94
414.035	93.94
414.258	107.94
414.482	110.94
414.705	99.94
414.928	100.94
415.151	87.94
415.374	90.94
415.597	99.94
415.821	110.94
416.044	88.94
416.267	117.94
416.49	108.94
416.713	86.94
416.936	121.94
417.159	88.94
417.382	89.94
417.605	90.94
417.828	97.94
418.051	89.94
418.274	116.94
418.497	94.94
418.72	101.94
418.943	105.94
419.166	112.94
419.389	114.94
419.611	109.94
419.834	111.94
420.057	108.94
420.28	105.94
420.503	131.94
420.726	122.94
420.948	138.94
421.171	136.94
421.394	174.94
421.617	212.94
421.839	256.94
422.062	316.94
422.285	464.94
422.507	735.94
422.73	933.94
422.953	873.94
423.175	602.94
423.398	354.94
423.621	257.94
423.843	207.94
424.066	176.94
424.288	164.94
424.511	134.94
424.733	134.94
424.956	130.94
425.178	112.94
425.401	102.94
425.623	116.94
425.846	124.94
426.068	116.94
426.291	123.94
426.513	105.94
426.735	121.94
426.958	103.94
427.18	123.94
427.402	112.94
427.625	103.94
427.847	121.94
428.069	152.94
428.292	244.94
428.514	280.94
428.736	197.94
428.958	258.94
429.181	253.94
429.403	129.94
429.625	154.94
429.847	228.94
430.069	337.94
430.292	411.94
430.514	360.94
430.736	266.94
430.958	275.94
431.18	160.94
431.402	127.94
431.624	130.94
431.846	220.94
432.068	285.94
432.29	153.94
432.512	116.94
432.734	106.94
432.956	93.94
433.178	96.94
433.4	99.94
433.622	95.94
433.844	89.94
434.066	103.94
434.287	96.94
434.509	105.94
434.731	107.94
434.953	102.94
435.175	100.94
435.397	108.94
435.618	128.94
435.84	119.94
436.062	122.94
436.284	116.94
436.505	107.94
436.727	112.94
436.949	97.94
437.17	96.94
437.392	83.94
437.614	112.94
437.835	111.94
438.057	99.94
438.278	104.94
438.5	102.94
438.721	103.94
438.943	103.94
439.165	85.94
439.386	107.94
439.608	97.94
439.829	94.94
440.05	106.94
440.272	102.94
440.493	102.94
440.715	93.94
440.936	100.94
441.158	111.94
441.379	92.94
441.6	114.94
441.822	119.94
442.043	142.94
442.264	163.94
442.486	263.94
442.707	415.94
442.928	261.94
443.149	207.94
443.371	354.94
443.592	617.94
443.813	554.94
444.034	233.94
444.255	133.94
444.476	128.94
444.698	130.94
444.919	153.94
445.14	264.94
445.361	430.94
445.582	784.94
445.803	666.94
446.024	278.94
446.245	139.94
446.466	114.94
446.687	101.94
446.908	107.94
447.129	108.94
447.35	80.94
447.571	77.94
447.792	87.94
448.013	81.94
448.234	84.94
448.455	80.94
448.675	92.94
448.896	89.94
449.117	97.94
449.338	99.94
449.559	77.94
449.779	98.94
450	90.94
450.221	99.94
450.442	92.94
450.662	109.94
450.883	99.94
451.104	91.94
451.324	103.94
451.545	89.94
451.766	87.94
451.986	112.94
452.207	97.94
452.428	114.94
452.648	138.94
452.869	155.94
453.089	142.94
453.31	105.94
453.53	118.94
453.751	100.94
453.971	97.94
454.192	101.94
454.412	106.94
454.633	100.94
454.853	103.94
455.073	106.94
455.294	95.94
455.514	97.94
455.734	94.94
455.955	90.94
456.175	84.94
456.395	96.94
456.616	104.94
456.836	104.94
457.056	94.94
457.276	83.94
457.497	105.94
457.717	135.94
457.937	208.94
458.157	274.94
458.377	290.94
458.598	271.94
458.818	308.94
459.038	185.94
459.258	122.94
459.478	99.94
459.698	100.94
459.918	98.94
460.138	96.94
460.358	111.94
460.578	133.94
460.798	190.94
461.018	173.94
461.238	126.94
461.458	92.94
461.678	88.94
461.898	92.94
462.118	90.94
462.338	98.94
462.558	99.94
462.777	111.94
462.997	100.94
463.217	107.94
463.437	94.94
463.657	95.94
463.876	99.94
464.096	84.94
464.316	113.94
464.536	96.94
464.755	99.94
464.975	88.94
465.195	90.94
465.414	92.94
465.634	78.94
465.854	96.94
466.073	92.94
466.293	91.94
466.512	96.94
466.732	96.94
466.951	105.94
467.171	104.94
467.391	87.94
467.61	96.94
467.829	94.94
468.049	99.94
468.268	103.94
468.488	101.94
468.707	106.94
468.927	103.94
469.146	99.94
469.365	92.94
469.585	94.94
469.804	102.94
470.023	94.94
470.243	98.94
470.462	91.94
470.681	98.94
470.901	86.94
471.12	85.94
471.339	90.94
471.558	90.94
471.777	100.94
471.997	94.94
472.216	88.94
472.435	90.94
472.654	91.94
472.873	101.94
473.092	107.94
473.311	90.94
473.53	99.94
473.749	97.94
473.968	91.94
474.187	89.94
474.406	82.94
474.625	96.94
474.844	93.94
475.063	99.94
475.282	83.94
475.501	110.94
475.72	90.94
475.939	80.94
476.158	82.94
476.377	102.94
476.596	87.94
476.814	103.94
477.033	96.94
477.252	91.94
477.471	104.94
477.69	106.94
477.908	82.94
478.127	99.94
478.346	92.94
478.564	100.94
478.783	100.94
479.002	94.94
479.22	90.94
479.439	90.94
479.658	103.94
479.876	95.94
480.095	99.94
480.313	82.94
480.532	84.94
480.751	94.94
480.969	105.94
481.188	104.94
481.406	126.94
481.624	99.94
481.843	87.94
482.061	98.94
482.28	96.94
482.498	119.94
482.717	96.94
482.935	92.94
483.153	97.94
483.372	110.94
483.59	112.94
483.808	96.94
484.027	104.94
484.245	91.94
484.463	107.94
484.681	115.94
484.9	112.94
485.118	104.94
485.336	97.94
485.554	112.94
485.772	98.94
485.99	87.94
486.209	104.94
486.427	112.94
486.645	104.94
486.863	103.94
487.081	110.94
487.299	121.94
487.517	152.94
487.735	225.94
487.953	465.94
488.171	380.94
488.389	183.94
488.607	127.94
488.825	110.94
489.043	103.94
489.261	98.94
489.479	96.94
489.696	96.94
489.914	83.94
490.132	109.94
490.35	94.94
490.568	107.94
490.786	110.94
491.003	101.94
491.221	107.94
491.439	90.94
491.657	112.94
491.874	98.94
492.092	100.94
492.31	111.94
492.527	89.94
492.745	96.94
492.963	110.94
493.18	94.94
493.398	86.94
493.615	93.94
493.833	85.94
494.05	97.94
494.268	96.94
494.485	98.94
494.703	98.94
494.92	99.94
495.138	121.94
495.355	97.94
495.573	102.94
495.79	107.94
496.008	110.94
496.225	123.94
496.442	128.94
496.66	107.94
496.877	102.94
497.094	99.94
497.312	98.94
497.529	110.94
497.746	95.94
497.963	94.94
498.181	115.94
498.398	118.94
498.615	107.94
498.832	97.94
499.049	98.94
499.267	99.94
499.484	108.94
499.701	104.94
499.918	92.94
500.135	103.94
500.352	108.94
500.569	94.94
500.786	102.94
501.003	117.94
501.22	75.94
501.437	95.94
501.654	114.94
501.871	113.94
502.088	112.94
502.305	95.94
502.522	90.94
502.739	106.94
502.956	111.94
503.172	106.94
503.389	98.94
503.606	107.94
503.823	122.94
504.04	172.94
504.256	304.94
504.473	331.94
504.69	171.94
504.907	112.94
505.123	97.94
505.34	106.94
505.557	111.94
505.773	106.94
505.99	102.94
506.207	112.94
506.423	111.94
506.64	103.94
506.856	107.94
507.073	91.94
507.289	108.94
507.506	93.94
507.722	112.94
507.939	98.94
508.155	103.94
508.372	104.94
508.588	98.94
508.805	105.94
509.021	104.94
509.238	96.94
509.454	118.94
509.67	107.94
509.887	102.94
510.103	99.94
510.319	86.94
510.536	96.94
510.752	117.94
510.968	94.94
511.184	101.94
511.401	95.94
511.617	103.94
511.833	94.94
512.049	113.94
512.265	98.94
512.481	96.94
512.698	102.94
