Data from CBS_2_HRD10591_00027.txt Node
Date: Mon Jan 19 14:04:59 EST 2026
User: Yrep
Spectrometer: HR+D1059
Trigger mode: 1
Integration Time (sec): 1.000000E-1
Scans to average: 1
Electric dark correction enabled: true
Nonlinearity correction enabled: false
Boxcar width: 0
XAxis mode: Wavelengths
Number of Pixels in Spectrum: 2048
>>>>>Begin Spectral Data<<<<<
223.165	-8.56
223.4	-8.56
223.635	-8.56
223.869	-4.56
224.104	-29.56
224.338	-7.56
224.573	-15.56
224.808	-24.56
225.042	-11.56
225.277	3.44
225.511	2.44
225.746	16.44
225.98	3.44
226.215	-9.56
226.449	-1.56
226.683	24.44
226.918	23.44
227.152	39.44
227.387	28.44
227.621	40.44
227.856	45.44
228.09	48.44
228.324	61.44
228.559	57.44
228.793	64.44
229.027	52.44
229.262	65.44
229.496	62.44
229.73	69.44
229.964	71.44
230.199	74.44
230.433	64.44
230.667	71.44
230.901	72.44
231.136	86.44
231.37	94.44
231.604	82.44
231.838	85.44
232.072	65.44
232.306	77.44
232.541	90.44
232.775	93.44
233.009	81.44
233.243	78.44
233.477	80.44
233.711	74.44
233.945	75.44
234.179	73.44
234.413	91.44
234.647	71.44
234.881	84.44
235.115	84.44
235.349	79.44
235.583	77.44
235.817	73.44
236.051	75.44
236.285	73.44
236.519	84.44
236.753	79.44
236.987	81.44
237.221	63.44
237.455	68.44
237.689	80.44
237.922	76.44
238.156	67.44
238.39	87.44
238.624	75.44
238.858	74.44
239.091	71.44
239.325	58.44
239.559	72.44
239.793	75.44
240.027	54.44
240.26	72.44
240.494	90.44
240.728	73.44
240.961	62.44
241.195	74.44
241.429	71.44
241.662	76.44
241.896	74.44
242.13	79.44
242.363	73.44
242.597	69.44
242.83	73.44
243.064	70.44
243.298	79.44
243.531	87.44
243.765	70.44
243.998	82.44
244.232	68.44
244.465	76.44
244.699	78.44
244.932	71.44
245.166	82.44
245.399	74.44
245.633	73.44
245.866	63.44
246.099	80.44
246.333	76.44
246.566	90.44
246.8	94.44
247.033	81.44
247.266	83.44
247.5	74.44
247.733	86.44
247.966	81.44
248.2	80.44
248.433	78.44
248.666	86.44
248.899	65.44
249.133	75.44
249.366	81.44
249.599	78.44
249.832	69.44
250.066	71.44
250.299	70.44
250.532	69.44
250.765	90.44
250.998	77.44
251.231	74.44
251.465	88.44
251.698	82.44
251.931	83.44
252.164	74.44
252.397	70.44
252.63	70.44
252.863	78.44
253.096	70.44
253.329	76.44
253.562	74.44
253.795	87.44
254.028	75.44
254.261	88.44
254.494	87.44
254.727	86.44
254.96	82.44
255.193	69.44
255.426	72.44
255.659	75.44
255.892	85.44
256.124	88.44
256.357	69.44
256.59	85.44
256.823	74.44
257.056	91.44
257.289	72.44
257.521	70.44
257.754	80.44
257.987	87.44
258.22	84.44
258.452	71.44
258.685	82.44
258.918	88.44
259.151	82.44
259.383	84.44
259.616	82.44
259.849	74.44
260.081	77.44
260.314	83.44
260.547	70.44
260.779	84.44
261.012	83.44
261.244	70.44
261.477	85.44
261.71	70.44
261.942	90.44
262.175	89.44
262.407	79.44
262.64	83.44
262.872	106.44
263.105	97.44
263.337	76.44
263.57	82.44
263.802	82.44
264.035	83.44
264.267	83.44
264.499	76.44
264.732	88.44
264.964	86.44
265.197	94.44
265.429	81.44
265.661	85.44
265.894	97.44
266.126	85.44
266.358	74.44
266.591	82.44
266.823	72.44
267.055	73.44
267.287	79.44
267.52	89.44
267.752	88.44
267.984	80.44
268.216	86.44
268.448	80.44
268.681	89.44
268.913	98.44
269.145	74.44
269.377	71.44
269.609	74.44
269.841	74.44
270.073	92.44
270.306	87.44
270.538	77.44
270.77	83.44
271.002	82.44
271.234	96.44
271.466	89.44
271.698	78.44
271.93	81.44
272.162	94.44
272.394	102.44
272.626	78.44
272.858	73.44
273.09	87.44
273.322	89.44
273.553	92.44
273.785	80.44
274.017	72.44
274.249	90.44
274.481	86.44
274.713	86.44
274.945	68.44
275.176	84.44
275.408	88.44
275.64	82.44
275.872	82.44
276.104	88.44
276.335	73.44
276.567	82.44
276.799	84.44
277.031	90.44
277.262	81.44
277.494	93.44
277.726	76.44
277.957	72.44
278.189	88.44
278.421	84.44
278.652	84.44
278.884	81.44
279.115	90.44
279.347	84.44
279.579	82.44
279.81	81.44
280.042	87.44
280.273	82.44
280.505	88.44
280.736	93.44
280.968	96.44
281.199	85.44
281.431	89.44
281.662	87.44
281.894	87.44
282.125	83.44
282.356	98.44
282.588	71.44
282.819	83.44
283.051	84.44
283.282	90.44
283.513	86.44
283.745	82.44
283.976	82.44
284.207	86.44
284.439	82.44
284.67	89.44
284.901	93.44
285.132	88.44
285.364	99.44
285.595	96.44
285.826	74.44
286.057	79.44
286.288	94.44
286.52	80.44
286.751	75.44
286.982	90.44
287.213	90.44
287.444	79.44
287.675	81.44
287.906	78.44
288.138	88.44
288.369	84.44
288.6	88.44
288.831	81.44
289.062	81.44
289.293	80.44
289.524	74.44
289.755	87.44
289.986	87.44
290.217	79.44
290.448	84.44
290.679	75.44
290.91	88.44
291.141	82.44
291.371	90.44
291.602	91.44
291.833	94.44
292.064	89.44
292.295	71.44
292.526	86.44
292.757	83.44
292.987	75.44
293.218	88.44
293.449	93.44
293.68	85.44
293.91	88.44
294.141	88.44
294.372	92.44
294.603	85.44
294.833	83.44
295.064	79.44
295.295	95.44
295.525	98.44
295.756	77.44
295.987	83.44
296.217	94.44
296.448	83.44
296.679	80.44
296.909	92.44
297.14	73.44
297.37	91.44
297.601	73.44
297.831	84.44
298.062	90.44
298.292	87.44
298.523	84.44
298.753	74.44
298.984	89.44
299.214	80.44
299.445	91.44
299.675	85.44
299.905	98.44
300.136	98.44
300.366	95.44
300.597	82.44
300.827	95.44
301.057	75.44
301.288	80.44
301.518	71.44
301.748	80.44
301.979	106.44
302.209	86.44
302.439	70.44
302.669	80.44
302.9	95.44
303.13	81.44
303.36	69.44
303.59	68.44
303.82	70.44
304.051	76.44
304.281	92.44
304.511	89.44
304.741	98.44
304.971	86.44
305.201	81.44
305.431	94.44
305.661	88.44
305.891	80.44
306.121	89.44
306.352	82.44
306.582	87.44
306.812	73.44
307.042	72.44
307.272	89.44
307.502	103.44
307.731	99.44
307.961	83.44
308.191	99.44
308.421	79.44
308.651	95.44
308.881	82.44
309.111	76.44
309.341	91.44
309.571	80.44
309.8	85.44
310.03	79.44
310.26	70.44
310.49	90.44
310.72	91.44
310.949	88.44
311.179	72.44
311.409	97.44
311.639	102.44
311.868	102.44
312.098	94.44
312.328	87.44
312.557	88.44
312.787	96.44
313.017	78.44
313.246	88.44
313.476	75.44
313.706	84.44
313.935	82.44
314.165	92.44
314.394	81.44
314.624	89.44
314.853	95.44
315.083	99.44
315.312	83.44
315.542	86.44
315.771	85.44
316.001	92.44
316.23	84.44
316.46	83.44
316.689	78.44
316.919	96.44
317.148	86.44
317.377	85.44
317.607	79.44
317.836	87.44
318.065	105.44
318.295	99.44
318.524	87.44
318.753	102.44
318.983	70.44
319.212	84.44
319.441	88.44
319.67	74.44
319.9	75.44
320.129	88.44
320.358	88.44
320.587	84.44
320.816	80.44
321.046	89.44
321.275	105.44
321.504	98.44
321.733	89.44
321.962	87.44
322.191	82.44
322.42	94.44
322.649	87.44
322.878	92.44
323.108	94.44
323.337	97.44
323.566	89.44
323.795	87.44
324.024	90.44
324.253	86.44
324.482	84.44
324.71	92.44
324.939	89.44
325.168	89.44
325.397	96.44
325.626	105.44
325.855	88.44
326.084	94.44
326.313	81.44
326.542	82.44
326.77	98.44
326.999	82.44
327.228	80.44
327.457	88.44
327.686	99.44
327.914	94.44
328.143	88.44
328.372	81.44
328.6	89.44
328.829	83.44
329.058	89.44
329.287	108.44
329.515	97.44
329.744	90.44
329.972	96.44
330.201	81.44
330.43	94.44
330.658	84.44
330.887	81.44
331.115	96.44
331.344	97.44
331.572	99.44
331.801	91.44
332.03	80.44
332.258	98.44
332.486	68.44
332.715	84.44
332.943	96.44
333.172	97.44
333.4	92.44
333.629	94.44
333.857	83.44
334.085	90.44
334.314	97.44
334.542	96.44
334.771	108.44
334.999	111.44
335.227	91.44
335.455	83.44
335.684	88.44
335.912	91.44
336.14	114.44
336.369	106.44
336.597	83.44
336.825	97.44
337.053	87.44
337.281	86.44
337.51	75.44
337.738	93.44
337.966	87.44
338.194	75.44
338.422	88.44
338.65	112.44
338.878	96.44
339.106	82.44
339.334	94.44
339.562	82.44
339.79	90.44
340.018	96.44
340.246	85.44
340.474	84.44
340.702	89.44
340.93	89.44
341.158	76.44
341.386	89.44
341.614	80.44
341.842	88.44
342.07	84.44
342.298	98.44
342.526	91.44
342.754	100.44
342.981	89.44
343.209	98.44
343.437	89.44
343.665	98.44
343.893	86.44
344.12	88.44
344.348	86.44
344.576	77.44
344.804	91.44
345.031	82.44
345.259	80.44
345.487	76.44
345.714	90.44
345.942	86.44
346.17	93.44
346.397	97.44
346.625	85.44
346.853	92.44
347.08	87.44
347.308	93.44
347.535	78.44
347.763	100.44
347.99	109.44
348.218	96.44
348.445	86.44
348.673	96.44
348.9	90.44
349.128	86.44
349.355	84.44
349.583	82.44
349.81	101.44
350.037	86.44
350.265	85.44
350.492	106.44
350.72	88.44
350.947	86.44
351.174	92.44
351.402	104.44
351.629	85.44
351.856	74.44
352.083	70.44
352.311	93.44
352.538	89.44
352.765	86.44
352.992	89.44
353.22	87.44
353.447	82.44
353.674	72.44
353.901	98.44
354.128	86.44
354.355	90.44
354.583	91.44
354.81	92.44
355.037	82.44
355.264	83.44
355.491	78.44
355.718	83.44
355.945	96.44
356.172	93.44
356.399	95.44
356.626	98.44
356.853	94.44
357.08	86.44
357.307	79.44
357.534	91.44
357.761	78.44
357.988	98.44
358.215	86.44
358.441	76.44
358.668	82.44
358.895	98.44
359.122	82.44
359.349	85.44
359.576	87.44
359.802	89.44
360.029	74.44
360.256	79.44
360.483	89.44
360.709	79.44
360.936	98.44
361.163	89.44
361.39	95.44
361.616	99.44
361.843	91.44
362.07	102.44
362.296	113.44
362.523	105.44
362.749	110.44
362.976	126.44
363.203	137.44
363.429	115.44
363.656	99.44
363.882	99.44
364.109	126.44
364.335	165.44
364.562	158.44
364.788	137.44
365.015	113.44
365.241	89.44
365.468	87.44
365.694	83.44
365.92	88.44
366.147	98.44
366.373	99.44
366.599	88.44
366.826	102.44
367.052	81.44
367.278	80.44
367.505	89.44
367.731	85.44
367.957	97.44
368.184	91.44
368.41	92.44
368.636	86.44
368.862	83.44
369.089	77.44
369.315	99.44
369.541	92.44
369.767	99.44
369.993	88.44
370.219	93.44
370.445	91.44
370.672	111.44
370.898	77.44
371.124	76.44
371.35	88.44
371.576	76.44
371.802	94.44
372.028	91.44
372.254	97.44
372.48	89.44
372.706	89.44
372.932	85.44
373.158	89.44
373.384	103.44
373.61	102.44
373.835	104.44
374.061	95.44
374.287	94.44
374.513	103.44
374.739	93.44
374.965	88.44
375.191	89.44
375.416	92.44
375.642	89.44
375.868	86.44
376.094	93.44
376.319	87.44
376.545	108.44
376.771	84.44
376.997	95.44
377.222	84.44
377.448	96.44
377.674	100.44
377.899	85.44
378.125	83.44
378.35	93.44
378.576	94.44
378.802	92.44
379.027	86.44
379.253	94.44
379.478	95.44
379.704	92.44
379.929	76.44
380.155	92.44
380.38	86.44
380.606	89.44
380.831	91.44
381.057	96.44
381.282	84.44
381.507	87.44
381.733	94.44
381.958	79.44
382.184	90.44
382.409	84.44
382.634	85.44
382.86	108.44
383.085	88.44
383.31	91.44
383.535	89.44
383.761	97.44
383.986	108.44
384.211	86.44
384.436	83.44
384.662	82.44
384.887	87.44
385.112	102.44
385.337	84.44
385.562	97.44
385.787	84.44
386.013	96.44
386.238	101.44
386.463	84.44
386.688	91.44
386.913	89.44
387.138	77.44
387.363	96.44
387.588	110.44
387.813	106.44
388.038	96.44
388.263	107.44
388.488	106.44
388.713	96.44
388.938	85.44
389.163	94.44
389.387	86.44
389.612	113.44
389.837	94.44
390.062	91.44
390.287	92.44
390.512	93.44
390.736	86.44
390.961	100.44
391.186	92.44
391.411	98.44
391.636	100.44
391.86	100.44
392.085	110.44
392.31	103.44
392.534	105.44
392.759	141.44
392.984	177.44
393.208	272.44
393.433	391.44
393.658	289.44
393.882	164.44
394.107	128.44
394.331	111.44
394.556	129.44
394.78	114.44
395.005	107.44
395.229	103.44
395.454	99.44
395.678	103.44
395.903	140.44
396.127	133.44
396.352	154.44
396.576	176.44
396.801	285.44
397.025	320.44
397.249	198.44
397.474	148.44
397.698	134.44
397.922	107.44
398.147	103.44
398.371	97.44
398.595	85.44
398.82	96.44
399.044	89.44
399.268	84.44
399.492	86.44
399.717	101.44
399.941	91.44
400.165	80.44
400.389	82.44
400.613	86.44
400.837	95.44
401.062	90.44
401.286	85.44
401.51	90.44
401.734	82.44
401.958	76.44
402.182	82.44
402.406	84.44
402.63	74.44
402.854	100.44
403.078	90.44
403.302	88.44
403.526	94.44
403.75	88.44
403.974	94.44
404.198	81.44
404.422	83.44
404.645	100.44
404.869	92.44
405.093	90.44
405.317	83.44
405.541	90.44
405.765	94.44
405.988	98.44
406.212	83.44
406.436	81.44
406.66	80.44
406.883	87.44
407.107	88.44
407.331	90.44
407.555	88.44
407.778	117.44
408.002	114.44
408.226	104.44
408.449	94.44
408.673	101.44
408.896	86.44
409.12	92.44
409.344	98.44
409.567	111.44
409.791	109.44
410.014	115.44
410.238	109.44
410.461	94.44
410.685	86.44
410.908	98.44
411.132	84.44
411.355	95.44
411.578	84.44
411.802	83.44
412.025	72.44
412.249	101.44
412.472	84.44
412.695	76.44
412.919	95.44
413.142	90.44
413.365	90.44
413.589	94.44
413.812	86.44
414.035	95.44
414.258	84.44
414.482	95.44
414.705	88.44
414.928	87.44
415.151	104.44
415.374	82.44
415.597	84.44
415.821	87.44
416.044	84.44
416.267	104.44
416.49	95.44
416.713	73.44
416.936	83.44
417.159	94.44
417.382	96.44
417.605	104.44
417.828	104.44
418.051	102.44
418.274	87.44
418.497	81.44
418.72	77.44
418.943	106.44
419.166	95.44
419.389	91.44
419.611	98.44
419.834	80.44
420.057	97.44
420.28	108.44
420.503	106.44
420.726	96.44
420.948	97.44
421.171	92.44
421.394	119.44
421.617	135.44
421.839	140.44
422.062	171.44
422.285	236.44
422.507	371.44
422.73	488.44
422.953	479.44
423.175	288.44
423.398	196.44
423.621	135.44
423.843	104.44
424.066	115.44
424.288	96.44
424.511	105.44
424.733	107.44
424.956	104.44
425.178	98.44
425.401	86.44
425.623	103.44
425.846	94.44
426.068	101.44
426.291	96.44
426.513	81.44
426.735	93.44
426.958	95.44
427.18	90.44
427.402	100.44
427.625	93.44
427.847	95.44
428.069	104.44
428.292	138.44
428.514	171.44
428.736	136.44
428.958	146.44
429.181	146.44
429.403	110.44
429.625	111.44
429.847	137.44
430.069	185.44
430.292	218.44
430.514	196.44
430.736	163.44
430.958	164.44
431.18	102.44
431.402	94.44
431.624	102.44
431.846	146.44
432.068	160.44
432.29	110.44
432.512	98.44
432.734	86.44
432.956	81.44
433.178	82.44
433.4	84.44
433.622	83.44
433.844	83.44
434.066	79.44
434.287	94.44
434.509	95.44
434.731	82.44
434.953	76.44
435.175	91.44
435.397	95.44
435.618	116.44
435.84	90.44
436.062	102.44
436.284	72.44
436.505	89.44
436.727	83.44
436.949	87.44
437.17	80.44
437.392	92.44
437.614	75.44
437.835	85.44
438.057	87.44
438.278	90.44
438.5	94.44
438.721	91.44
438.943	89.44
439.165	88.44
439.386	96.44
439.608	92.44
439.829	83.44
440.05	88.44
440.272	88.44
440.493	84.44
440.715	93.44
440.936	88.44
441.158	77.44
441.379	91.44
441.6	81.44
441.822	87.44
442.043	114.44
442.264	121.44
442.486	151.44
442.707	220.44
442.928	152.44
443.149	133.44
443.371	194.44
443.592	315.44
443.813	290.44
444.034	134.44
444.255	105.44
444.476	94.44
444.698	111.44
444.919	96.44
445.14	185.44
445.361	240.44
445.582	371.44
445.803	320.44
446.024	154.44
446.245	98.44
446.466	83.44
446.687	86.44
446.908	88.44
447.129	86.44
447.35	92.44
447.571	94.44
447.792	78.44
448.013	96.44
448.234	88.44
448.455	83.44
448.675	94.44
448.896	105.44
449.117	81.44
449.338	87.44
449.559	83.44
449.779	87.44
450	91.44
450.221	94.44
450.442	94.44
450.662	94.44
450.883	85.44
451.104	86.44
451.324	88.44
451.545	79.44
451.766	82.44
451.986	84.44
452.207	90.44
452.428	98.44
452.648	97.44
452.869	111.44
453.089	91.44
453.31	86.44
453.53	86.44
453.751	86.44
453.971	88.44
454.192	87.44
454.412	86.44
454.633	96.44
454.853	85.44
455.073	77.44
455.294	75.44
455.514	85.44
455.734	96.44
455.955	89.44
456.175	92.44
456.395	81.44
456.616	91.44
456.836	87.44
457.056	77.44
457.276	87.44
457.497	96.44
457.717	126.44
457.937	132.44
458.157	154.44
458.377	166.44
458.598	170.44
458.818	149.44
459.038	107.44
459.258	102.44
459.478	90.44
459.698	89.44
459.918	80.44
460.138	94.44
460.358	83.44
460.578	112.44
460.798	122.44
461.018	114.44
461.238	87.44
461.458	85.44
461.678	82.44
461.898	97.44
462.118	90.44
462.338	86.44
462.558	97.44
462.777	100.44
462.997	95.44
463.217	79.44
463.437	84.44
463.657	88.44
463.876	95.44
464.096	88.44
464.316	69.44
464.536	102.44
464.755	92.44
464.975	92.44
465.195	94.44
465.414	88.44
465.634	82.44
465.854	74.44
466.073	74.44
466.293	85.44
466.512	83.44
466.732	83.44
466.951	87.44
467.171	92.44
467.391	85.44
467.61	85.44
467.829	83.44
468.049	90.44
468.268	97.44
468.488	100.44
468.707	87.44
468.927	82.44
469.146	82.44
469.365	101.44
469.585	100.44
469.804	95.44
470.023	89.44
470.243	91.44
470.462	91.44
470.681	85.44
470.901	83.44
471.12	88.44
471.339	84.44
471.558	84.44
471.777	83.44
471.997	91.44
472.216	91.44
472.435	103.44
472.654	83.44
472.873	92.44
473.092	88.44
473.311	86.44
473.53	90.44
473.749	97.44
473.968	87.44
474.187	105.44
474.406	97.44
474.625	80.44
474.844	90.44
475.063	92.44
475.282	88.44
475.501	80.44
475.72	85.44
475.939	88.44
476.158	80.44
476.377	82.44
476.596	85.44
476.814	92.44
477.033	95.44
477.252	86.44
477.471	92.44
477.69	81.44
477.908	83.44
478.127	100.44
478.346	83.44
478.564	98.44
478.783	89.44
479.002	79.44
479.22	84.44
479.439	83.44
479.658	92.44
479.876	95.44
480.095	112.44
480.313	94.44
480.532	79.44
480.751	88.44
480.969	98.44
481.188	93.44
481.406	120.44
481.624	96.44
481.843	81.44
482.061	84.44
482.28	103.44
482.498	89.44
482.717	85.44
482.935	84.44
483.153	101.44
483.372	90.44
483.59	90.44
483.808	96.44
484.027	91.44
484.245	84.44
484.463	88.44
484.681	110.44
484.9	93.44
485.118	99.44
485.336	93.44
485.554	97.44
485.772	86.44
485.99	85.44
486.209	89.44
486.427	80.44
486.645	97.44
486.863	108.44
487.081	88.44
487.299	99.44
487.517	107.44
487.735	136.44
487.953	258.44
488.171	203.44
488.389	102.44
488.607	102.44
488.825	108.44
489.043	90.44
489.261	103.44
489.479	99.44
489.696	98.44
489.914	96.44
490.132	100.44
490.35	105.44
490.568	106.44
490.786	93.44
491.003	96.44
491.221	85.44
491.439	90.44
491.657	98.44
491.874	104.44
492.092	95.44
492.31	92.44
492.527	91.44
492.745	88.44
492.963	96.44
493.18	87.44
493.398	87.44
493.615	87.44
493.833	86.44
494.05	96.44
494.268	93.44
494.485	89.44
494.703	85.44
494.92	87.44
495.138	85.44
495.355	87.44
495.573	84.44
495.79	91.44
496.008	97.44
496.225	89.44
496.442	92.44
496.66	104.44
496.877	90.44
497.094	104.44
497.312	79.44
497.529	80.44
497.746	78.44
497.963	93.44
498.181	96.44
498.398	99.44
498.615	94.44
498.832	94.44
499.049	93.44
499.267	83.44
499.484	98.44
499.701	90.44
499.918	101.44
500.135	90.44
500.352	92.44
500.569	90.44
500.786	103.44
501.003	94.44
501.22	75.44
501.437	90.44
501.654	86.44
501.871	87.44
502.088	97.44
502.305	98.44
502.522	91.44
502.739	103.44
502.956	97.44
503.172	86.44
503.389	87.44
503.606	87.44
503.823	83.44
504.04	101.44
504.256	155.44
504.473	165.44
504.69	104.44
504.907	114.44
505.123	78.44
505.34	92.44
505.557	86.44
505.773	101.44
505.99	88.44
506.207	102.44
506.423	76.44
506.64	95.44
506.856	96.44
507.073	97.44
507.289	89.44
507.506	91.44
507.722	86.44
507.939	99.44
508.155	103.44
508.372	97.44
508.588	86.44
508.805	74.44
509.021	107.44
509.238	96.44
509.454	90.44
509.67	91.44
509.887	75.44
510.103	88.44
510.319	79.44
510.536	100.44
510.752	82.44
510.968	75.44
511.184	94.44
511.401	88.44
511.617	90.44
511.833	93.44
512.049	94.44
512.265	92.44
512.481	97.44
512.698	90.44
512.914	88.44
513.13	99.44
513.346	87.44
513.562	97.44
513.778	120.44
513.994	102.44
514.21	76.44
514.426	94.44
514.642	100.44
514.858	92.44
515.074	110.44
515.29	83.44
515.506	85.44
515.721	77.44
515.937	101.44
516.153	83.44
516.369	101.44
516.585	87.44
516.801	92.44
517.016	87.44
517.232	96.44
