Data from CBS_2_HRD10591_00011.txt Node
Date: Mon Jan 19 14:04:51 EST 2026
User: Yrep
Spectrometer: HR+D1059
Trigger mode: 1
Integration Time (sec): 1.000000E-1
Scans to average: 1
Electric dark correction enabled: true
Nonlinearity correction enabled: false
Boxcar width: 0
XAxis mode: Wavelengths
Number of Pixels in Spectrum: 2048
>>>>>Begin Spectral Data<<<<<
223.165	-8.75
223.4	-8.75
223.635	-8.75
223.869	-13.75
224.104	-21.75
224.338	-14.75
224.573	-29.75
224.808	-8.75
225.042	-2.75
225.277	-11.75
225.511	-9.75
225.746	11.25
225.98	-5.75
226.215	10.25
226.449	16.25
226.683	13.25
226.918	38.25
227.152	38.25
227.387	31.25
227.621	28.25
227.856	53.25
228.09	55.25
228.324	57.25
228.559	62.25
228.793	57.25
229.027	57.25
229.262	60.25
229.496	73.25
229.73	68.25
229.964	74.25
230.199	84.25
230.433	61.25
230.667	87.25
230.901	91.25
231.136	78.25
231.37	84.25
231.604	84.25
231.838	73.25
232.072	92.25
232.306	95.25
232.541	87.25
232.775	74.25
233.009	80.25
233.243	71.25
233.477	86.25
233.711	75.25
233.945	85.25
234.179	82.25
234.413	84.25
234.647	81.25
234.881	66.25
235.115	83.25
235.349	81.25
235.583	75.25
235.817	82.25
236.051	78.25
236.285	59.25
236.519	58.25
236.753	76.25
236.987	74.25
237.221	85.25
237.455	61.25
237.689	70.25
237.922	69.25
238.156	70.25
238.39	66.25
238.624	62.25
238.858	72.25
239.091	74.25
239.325	81.25
239.559	67.25
239.793	74.25
240.027	79.25
240.26	71.25
240.494	69.25
240.728	74.25
240.961	79.25
241.195	72.25
241.429	85.25
241.662	60.25
241.896	74.25
242.13	75.25
242.363	62.25
242.597	77.25
242.83	73.25
243.064	78.25
243.298	69.25
243.531	84.25
243.765	66.25
243.998	73.25
244.232	73.25
244.465	85.25
244.699	82.25
244.932	71.25
245.166	82.25
245.399	75.25
245.633	81.25
245.866	87.25
246.099	71.25
246.333	69.25
246.566	81.25
246.8	81.25
247.033	96.25
247.266	67.25
247.5	78.25
247.733	78.25
247.966	58.25
248.2	81.25
248.433	81.25
248.666	80.25
248.899	87.25
249.133	65.25
249.366	95.25
249.599	88.25
249.832	80.25
250.066	80.25
250.299	74.25
250.532	86.25
250.765	77.25
250.998	76.25
251.231	75.25
251.465	82.25
251.698	85.25
251.931	88.25
252.164	74.25
252.397	74.25
252.63	68.25
252.863	72.25
253.096	63.25
253.329	90.25
253.562	63.25
253.795	89.25
254.028	81.25
254.261	73.25
254.494	86.25
254.727	79.25
254.96	70.25
255.193	93.25
255.426	95.25
255.659	88.25
255.892	75.25
256.124	75.25
256.357	84.25
256.59	83.25
256.823	78.25
257.056	84.25
257.289	85.25
257.521	83.25
257.754	69.25
257.987	81.25
258.22	79.25
258.452	84.25
258.685	80.25
258.918	66.25
259.151	68.25
259.383	76.25
259.616	69.25
259.849	77.25
260.081	80.25
260.314	82.25
260.547	88.25
260.779	85.25
261.012	63.25
261.244	82.25
261.477	81.25
261.71	80.25
261.942	87.25
262.175	79.25
262.407	73.25
262.64	73.25
262.872	86.25
263.105	85.25
263.337	96.25
263.57	89.25
263.802	85.25
264.035	90.25
264.267	90.25
264.499	80.25
264.732	81.25
264.964	70.25
265.197	72.25
265.429	89.25
265.661	69.25
265.894	73.25
266.126	83.25
266.358	88.25
266.591	89.25
266.823	91.25
267.055	103.25
267.287	78.25
267.52	87.25
267.752	97.25
267.984	90.25
268.216	90.25
268.448	76.25
268.681	82.25
268.913	76.25
269.145	82.25
269.377	67.25
269.609	65.25
269.841	80.25
270.073	79.25
270.306	75.25
270.538	77.25
270.77	93.25
271.002	82.25
271.234	93.25
271.466	81.25
271.698	80.25
271.93	74.25
272.162	82.25
272.394	88.25
272.626	78.25
272.858	81.25
273.09	79.25
273.322	79.25
273.553	82.25
273.785	86.25
274.017	93.25
274.249	85.25
274.481	74.25
274.713	92.25
274.945	92.25
275.176	89.25
275.408	77.25
275.64	59.25
275.872	75.25
276.104	89.25
276.335	73.25
276.567	89.25
276.799	81.25
277.031	81.25
277.262	72.25
277.494	81.25
277.726	95.25
277.957	100.25
278.189	72.25
278.421	75.25
278.652	88.25
278.884	88.25
279.115	82.25
279.347	93.25
279.579	90.25
279.81	86.25
280.042	97.25
280.273	84.25
280.505	83.25
280.736	97.25
280.968	95.25
281.199	82.25
281.431	86.25
281.662	94.25
281.894	75.25
282.125	86.25
282.356	86.25
282.588	85.25
282.819	82.25
283.051	79.25
283.282	91.25
283.513	87.25
283.745	98.25
283.976	67.25
284.207	75.25
284.439	75.25
284.67	94.25
284.901	98.25
285.132	74.25
285.364	85.25
285.595	83.25
285.826	83.25
286.057	83.25
286.288	66.25
286.52	85.25
286.751	83.25
286.982	86.25
287.213	96.25
287.444	99.25
287.675	85.25
287.906	85.25
288.138	88.25
288.369	78.25
288.6	88.25
288.831	81.25
289.062	71.25
289.293	87.25
289.524	79.25
289.755	81.25
289.986	78.25
290.217	73.25
290.448	95.25
290.679	93.25
290.91	81.25
291.141	75.25
291.371	87.25
291.602	88.25
291.833	93.25
292.064	81.25
292.295	82.25
292.526	96.25
292.757	90.25
292.987	90.25
293.218	93.25
293.449	85.25
293.68	80.25
293.91	97.25
294.141	86.25
294.372	89.25
294.603	76.25
294.833	79.25
295.064	93.25
295.295	86.25
295.525	79.25
295.756	98.25
295.987	101.25
296.217	97.25
296.448	87.25
296.679	82.25
296.909	86.25
297.14	84.25
297.37	85.25
297.601	73.25
297.831	85.25
298.062	85.25
298.292	79.25
298.523	76.25
298.753	90.25
298.984	82.25
299.214	71.25
299.445	81.25
299.675	86.25
299.905	105.25
300.136	95.25
300.366	93.25
300.597	91.25
300.827	104.25
301.057	99.25
301.288	83.25
301.518	95.25
301.748	95.25
301.979	104.25
302.209	103.25
302.439	89.25
302.669	91.25
302.9	93.25
303.13	79.25
303.36	80.25
303.59	79.25
303.82	94.25
304.051	83.25
304.281	87.25
304.511	94.25
304.741	87.25
304.971	83.25
305.201	99.25
305.431	76.25
305.661	86.25
305.891	79.25
306.121	78.25
306.352	87.25
306.582	82.25
306.812	81.25
307.042	85.25
307.272	75.25
307.502	91.25
307.731	94.25
307.961	99.25
308.191	102.25
308.421	106.25
308.651	105.25
308.881	85.25
309.111	102.25
309.341	90.25
309.571	105.25
309.8	84.25
310.03	98.25
310.26	90.25
310.49	94.25
310.72	112.25
310.949	89.25
311.179	83.25
311.409	80.25
311.639	83.25
311.868	99.25
312.098	99.25
312.328	96.25
312.557	90.25
312.787	80.25
313.017	98.25
313.246	84.25
313.476	98.25
313.706	89.25
313.935	87.25
314.165	99.25
314.394	87.25
314.624	85.25
314.853	91.25
315.083	93.25
315.312	97.25
315.542	89.25
315.771	100.25
316.001	94.25
316.23	85.25
316.46	93.25
316.689	92.25
316.919	95.25
317.148	95.25
317.377	87.25
317.607	107.25
317.836	94.25
318.065	111.25
318.295	105.25
318.524	107.25
318.753	98.25
318.983	90.25
319.212	97.25
319.441	90.25
319.67	77.25
319.9	87.25
320.129	81.25
320.358	83.25
320.587	96.25
320.816	84.25
321.046	94.25
321.275	93.25
321.504	94.25
321.733	91.25
321.962	104.25
322.191	87.25
322.42	85.25
322.649	96.25
322.878	95.25
323.108	90.25
323.337	85.25
323.566	85.25
323.795	95.25
324.024	104.25
324.253	81.25
324.482	101.25
324.71	89.25
324.939	86.25
325.168	95.25
325.397	90.25
325.626	93.25
325.855	79.25
326.084	93.25
326.313	85.25
326.542	87.25
326.77	86.25
326.999	95.25
327.228	73.25
327.457	103.25
327.686	100.25
327.914	80.25
328.143	99.25
328.372	93.25
328.6	104.25
328.829	87.25
329.058	78.25
329.287	93.25
329.515	97.25
329.744	74.25
329.972	92.25
330.201	82.25
330.43	87.25
330.658	88.25
330.887	92.25
331.115	83.25
331.344	86.25
331.572	87.25
331.801	81.25
332.03	91.25
332.258	92.25
332.486	82.25
332.715	97.25
332.943	90.25
333.172	85.25
333.4	89.25
333.629	86.25
333.857	89.25
334.085	104.25
334.314	111.25
334.542	101.25
334.771	114.25
334.999	108.25
335.227	95.25
335.455	106.25
335.684	109.25
335.912	113.25
336.14	112.25
336.369	116.25
336.597	104.25
336.825	95.25
337.053	93.25
337.281	81.25
337.51	82.25
337.738	84.25
337.966	75.25
338.194	87.25
338.422	84.25
338.65	102.25
338.878	104.25
339.106	91.25
339.334	91.25
339.562	100.25
339.79	87.25
340.018	95.25
340.246	98.25
340.474	89.25
340.702	74.25
340.93	87.25
341.158	87.25
341.386	94.25
341.614	93.25
341.842	91.25
342.07	84.25
342.298	84.25
342.526	89.25
342.754	90.25
342.981	90.25
343.209	93.25
343.437	85.25
343.665	88.25
343.893	102.25
344.12	90.25
344.348	89.25
344.576	100.25
344.804	89.25
345.031	87.25
345.259	93.25
345.487	93.25
345.714	97.25
345.942	91.25
346.17	96.25
346.397	85.25
346.625	99.25
346.853	75.25
347.08	93.25
347.308	76.25
347.535	105.25
347.763	93.25
347.99	89.25
348.218	78.25
348.445	92.25
348.673	102.25
348.9	99.25
349.128	102.25
349.355	83.25
349.583	83.25
349.81	90.25
350.037	91.25
350.265	89.25
350.492	97.25
350.72	74.25
350.947	85.25
351.174	91.25
351.402	78.25
351.629	96.25
351.856	81.25
352.083	89.25
352.311	102.25
352.538	91.25
352.765	90.25
352.992	101.25
353.22	99.25
353.447	93.25
353.674	93.25
353.901	88.25
354.128	92.25
354.355	84.25
354.583	88.25
354.81	92.25
355.037	82.25
355.264	94.25
355.491	101.25
355.718	87.25
355.945	98.25
356.172	89.25
356.399	95.25
356.626	81.25
356.853	98.25
357.08	89.25
357.307	95.25
357.534	113.25
357.761	73.25
357.988	95.25
358.215	111.25
358.441	92.25
358.668	95.25
358.895	82.25
359.122	85.25
359.349	88.25
359.576	98.25
359.802	110.25
360.029	106.25
360.256	99.25
360.483	77.25
360.709	109.25
360.936	93.25
361.163	96.25
361.39	92.25
361.616	98.25
361.843	99.25
362.07	102.25
362.296	123.25
362.523	139.25
362.749	136.25
362.976	168.25
363.203	182.25
363.429	130.25
363.656	112.25
363.882	123.25
364.109	146.25
364.335	209.25
364.562	212.25
364.788	167.25
365.015	117.25
365.241	90.25
365.468	99.25
365.694	82.25
365.92	92.25
366.147	104.25
366.373	87.25
366.599	84.25
366.826	89.25
367.052	92.25
367.278	87.25
367.505	110.25
367.731	102.25
367.957	97.25
368.184	96.25
368.41	93.25
368.636	96.25
368.862	98.25
369.089	85.25
369.315	87.25
369.541	102.25
369.767	94.25
369.993	89.25
370.219	106.25
370.445	93.25
370.672	92.25
370.898	98.25
371.124	87.25
371.35	83.25
371.576	87.25
371.802	109.25
372.028	96.25
372.254	100.25
372.48	93.25
372.706	106.25
372.932	98.25
373.158	101.25
373.384	117.25
373.61	128.25
373.835	106.25
374.061	88.25
374.287	108.25
374.513	98.25
374.739	113.25
374.965	105.25
375.191	107.25
375.416	102.25
375.642	86.25
375.868	91.25
376.094	85.25
376.319	89.25
376.545	95.25
376.771	81.25
376.997	95.25
377.222	77.25
377.448	101.25
377.674	87.25
377.899	86.25
378.125	91.25
378.35	95.25
378.576	94.25
378.802	103.25
379.027	92.25
379.253	92.25
379.478	97.25
379.704	78.25
379.929	112.25
380.155	95.25
380.38	85.25
380.606	85.25
380.831	90.25
381.057	77.25
381.282	85.25
381.507	99.25
381.733	95.25
381.958	78.25
382.184	99.25
382.409	102.25
382.634	97.25
382.86	99.25
383.085	100.25
383.31	115.25
383.535	106.25
383.761	91.25
383.986	120.25
384.211	105.25
384.436	105.25
384.662	95.25
384.887	115.25
385.112	101.25
385.337	94.25
385.562	116.25
385.787	79.25
386.013	97.25
386.238	100.25
386.463	97.25
386.688	106.25
386.913	113.25
387.138	90.25
387.363	102.25
387.588	129.25
387.813	117.25
388.038	112.25
388.263	117.25
388.488	101.25
388.713	109.25
388.938	113.25
389.163	92.25
389.387	103.25
389.612	96.25
389.837	100.25
390.062	101.25
390.287	104.25
390.512	95.25
390.736	103.25
390.961	99.25
391.186	95.25
391.411	94.25
391.636	118.25
391.86	94.25
392.085	116.25
392.31	105.25
392.534	126.25
392.759	154.25
392.984	242.25
393.208	400.25
393.433	561.25
393.658	442.25
393.882	213.25
394.107	159.25
394.331	130.25
394.556	153.25
394.78	133.25
395.005	138.25
395.229	120.25
395.454	118.25
395.678	142.25
395.903	162.25
396.127	187.25
396.352	225.25
396.576	256.25
396.801	380.25
397.025	463.25
397.249	282.25
397.474	187.25
397.698	148.25
397.922	109.25
398.147	110.25
398.371	100.25
398.595	88.25
398.82	95.25
399.044	83.25
399.268	108.25
399.492	97.25
399.717	112.25
399.941	92.25
400.165	94.25
400.389	79.25
400.613	97.25
400.837	98.25
401.062	101.25
401.286	90.25
401.51	97.25
401.734	87.25
401.958	102.25
402.182	89.25
402.406	90.25
402.63	86.25
402.854	102.25
403.078	106.25
403.302	109.25
403.526	93.25
403.75	80.25
403.974	78.25
404.198	81.25
404.422	103.25
404.645	105.25
404.869	104.25
405.093	91.25
405.317	97.25
405.541	99.25
405.765	96.25
405.988	87.25
406.212	89.25
406.436	94.25
406.66	85.25
406.883	90.25
407.107	96.25
407.331	100.25
407.555	111.25
407.778	127.25
408.002	129.25
408.226	120.25
408.449	106.25
408.673	87.25
408.896	98.25
409.12	103.25
409.344	122.25
409.567	134.25
409.791	157.25
410.014	141.25
410.238	132.25
410.461	111.25
410.685	111.25
410.908	111.25
411.132	101.25
411.355	97.25
411.578	125.25
411.802	97.25
412.025	94.25
412.249	100.25
412.472	98.25
412.695	100.25
412.919	79.25
413.142	96.25
413.365	101.25
413.589	100.25
413.812	101.25
414.035	102.25
414.258	84.25
414.482	78.25
414.705	80.25
414.928	88.25
415.151	93.25
415.374	84.25
415.597	100.25
415.821	95.25
416.044	98.25
416.267	110.25
416.49	100.25
416.713	74.25
416.936	94.25
417.159	95.25
417.382	85.25
417.605	90.25
417.828	111.25
418.051	85.25
418.274	103.25
418.497	103.25
418.72	80.25
418.943	96.25
419.166	92.25
419.389	110.25
419.611	97.25
419.834	96.25
420.057	107.25
420.28	123.25
420.503	122.25
420.726	103.25
420.948	96.25
421.171	116.25
421.394	137.25
421.617	178.25
421.839	213.25
422.062	224.25
422.285	330.25
422.507	569.25
422.73	737.25
422.953	669.25
423.175	424.25
423.398	256.25
423.621	193.25
423.843	171.25
424.066	157.25
424.288	134.25
424.511	114.25
424.733	113.25
424.956	111.25
425.178	100.25
425.401	107.25
425.623	110.25
425.846	114.25
426.068	101.25
426.291	111.25
426.513	103.25
426.735	109.25
426.958	109.25
427.18	97.25
427.402	95.25
427.625	103.25
427.847	113.25
428.069	136.25
428.292	194.25
428.514	225.25
428.736	167.25
428.958	200.25
429.181	187.25
429.403	127.25
429.625	123.25
429.847	173.25
430.069	265.25
430.292	309.25
430.514	288.25
430.736	216.25
430.958	230.25
431.18	147.25
431.402	95.25
431.624	133.25
431.846	168.25
432.068	198.25
432.29	119.25
432.512	89.25
432.734	96.25
432.956	95.25
433.178	87.25
433.4	91.25
433.622	83.25
433.844	88.25
434.066	101.25
434.287	100.25
434.509	92.25
434.731	98.25
434.953	101.25
435.175	86.25
435.397	104.25
435.618	114.25
435.84	129.25
436.062	111.25
436.284	104.25
436.505	93.25
436.727	94.25
436.949	94.25
437.17	88.25
437.392	106.25
437.614	93.25
437.835	112.25
438.057	93.25
438.278	101.25
438.5	90.25
438.721	84.25
438.943	86.25
439.165	93.25
439.386	89.25
439.608	95.25
439.829	107.25
440.05	94.25
440.272	96.25
440.493	96.25
440.715	92.25
440.936	94.25
441.158	99.25
441.379	86.25
441.6	97.25
441.822	90.25
442.043	103.25
442.264	134.25
442.486	224.25
442.707	302.25
442.928	183.25
443.149	140.25
443.371	271.25
443.592	465.25
443.813	412.25
444.034	173.25
444.255	117.25
444.476	98.25
444.698	113.25
444.919	131.25
445.14	221.25
445.361	327.25
445.582	585.25
445.803	502.25
446.024	206.25
446.245	119.25
446.466	100.25
446.687	93.25
446.908	86.25
447.129	81.25
447.35	89.25
447.571	93.25
447.792	100.25
448.013	89.25
448.234	94.25
448.455	86.25
448.675	95.25
448.896	91.25
449.117	73.25
449.338	93.25
449.559	107.25
449.779	92.25
450	90.25
450.221	81.25
450.442	87.25
450.662	91.25
450.883	90.25
451.104	113.25
451.324	97.25
451.545	101.25
451.766	101.25
451.986	115.25
452.207	96.25
452.428	100.25
452.648	118.25
452.869	142.25
453.089	123.25
453.31	99.25
453.53	111.25
453.751	103.25
453.971	86.25
454.192	97.25
454.412	75.25
454.633	86.25
454.853	89.25
455.073	89.25
455.294	87.25
455.514	97.25
455.734	98.25
455.955	93.25
456.175	94.25
456.395	90.25
456.616	90.25
456.836	90.25
457.056	96.25
457.276	85.25
457.497	104.25
457.717	121.25
457.937	152.25
458.157	209.25
458.377	229.25
458.598	206.25
458.818	231.25
459.038	137.25
459.258	108.25
459.478	88.25
459.698	92.25
459.918	101.25
460.138	94.25
460.358	77.25
460.578	122.25
460.798	142.25
461.018	144.25
461.238	96.25
461.458	83.25
461.678	102.25
461.898	98.25
462.118	101.25
462.338	93.25
462.558	96.25
462.777	87.25
462.997	81.25
463.217	95.25
463.437	86.25
463.657	80.25
463.876	93.25
464.096	88.25
464.316	86.25
464.536	80.25
464.755	86.25
464.975	90.25
465.195	97.25
465.414	89.25
465.634	93.25
465.854	98.25
466.073	96.25
466.293	90.25
466.512	86.25
466.732	87.25
466.951	87.25
467.171	98.25
467.391	80.25
467.61	101.25
467.829	88.25
468.049	91.25
468.268	95.25
468.488	105.25
468.707	109.25
468.927	95.25
469.146	91.25
469.365	101.25
469.585	82.25
469.804	96.25
470.023	93.25
470.243	90.25
470.462	85.25
470.681	101.25
470.901	86.25
471.12	81.25
471.339	104.25
471.558	94.25
471.777	94.25
471.997	101.25
472.216	94.25
472.435	91.25
472.654	99.25
472.873	92.25
473.092	93.25
473.311	89.25
473.53	101.25
473.749	86.25
473.968	89.25
474.187	97.25
474.406	93.25
474.625	94.25
474.844	105.25
475.063	93.25
475.282	102.25
475.501	106.25
475.72	110.25
475.939	90.25
476.158	106.25
476.377	78.25
476.596	95.25
476.814	89.25
477.033	86.25
477.252	93.25
477.471	78.25
477.69	85.25
477.908	86.25
478.127	94.25
478.346	107.25
478.564	93.25
478.783	87.25
479.002	93.25
479.22	87.25
479.439	101.25
479.658	91.25
479.876	107.25
480.095	88.25
480.313	88.25
480.532	92.25
480.751	84.25
480.969	94.25
481.188	99.25
481.406	106.25
481.624	97.25
481.843	114.25
482.061	93.25
482.28	99.25
482.498	94.25
482.717	108.25
482.935	107.25
483.153	100.25
483.372	104.25
483.59	93.25
483.808	90.25
484.027	91.25
484.245	90.25
484.463	95.25
484.681	105.25
484.9	103.25
485.118	91.25
485.336	109.25
485.554	96.25
485.772	108.25
485.99	97.25
486.209	97.25
486.427	85.25
486.645	92.25
486.863	104.25
487.081	110.25
487.299	114.25
487.517	126.25
487.735	183.25
487.953	361.25
488.171	291.25
488.389	137.25
488.607	103.25
488.825	112.25
489.043	83.25
489.261	95.25
489.479	106.25
489.696	95.25
489.914	95.25
490.132	96.25
490.35	89.25
490.568	93.25
490.786	110.25
491.003	99.25
491.221	90.25
491.439	96.25
491.657	101.25
491.874	95.25
492.092	79.25
492.31	98.25
492.527	100.25
492.745	102.25
492.963	92.25
493.18	100.25
493.398	99.25
493.615	92.25
493.833	90.25
494.05	95.25
494.268	83.25
494.485	105.25
494.703	91.25
494.92	97.25
495.138	103.25
495.355	103.25
495.573	111.25
495.79	101.25
496.008	105.25
496.225	86.25
496.442	111.25
496.66	105.25
496.877	95.25
497.094	99.25
497.312	101.25
497.529	105.25
497.746	96.25
497.963	105.25
498.181	109.25
498.398	94.25
498.615	97.25
498.832	99.25
499.049	99.25
499.267	96.25
499.484	98.25
499.701	90.25
499.918	105.25
500.135	95.25
500.352	100.25
500.569	101.25
500.786	97.25
501.003	109.25
501.22	103.25
501.437	103.25
501.654	108.25
501.871	97.25
502.088	101.25
502.305	106.25
502.522	101.25
502.739	107.25
502.956	104.25
503.172	98.25
503.389	100.25
503.606	104.25
503.823	121.25
504.04	141.25
504.256	251.25
504.473	255.25
504.69	129.25
504.907	121.25
505.123	90.25
505.34	98.25
505.557	88.25
505.773	99.25
505.99	99.25
506.207	99.25
506.423	101.25
506.64	93.25
506.856	98.25
507.073	97.25
507.289	93.25
507.506	81.25
507.722	101.25
507.939	94.25
508.155	97.25
508.372	101.25
508.588	93.25
508.805	93.25
509.021	90.25
509.238	110.25
509.454	102.25
509.67	97.25
509.887	97.25
510.103	93.25
510.319	107.25
510.536	113.25
510.752	89.25
510.968	100.25
511.184	111.25
511.401	99.25
511.617	101.25
511.833	95.25
512.049	94.25
512.265	80.25
512.481	108.25
512.698	96.25
512.914	95.25
513.13	95.25
513.346	101.25
513.562	94.25
513.778	97.25
513.994	101.25
514.21	102.25
514.426	99.25
514.642	106.25
514.858	87.25
