Data from CBS_2_HRD10591_00050.txt Node
Date: Mon Jan 19 14:05:11 EST 2026
User: Yrep
Spectrometer: HR+D1059
Trigger mode: 1
Integration Time (sec): 1.000000E-1
Scans to average: 1
Electric dark correction enabled: true
Nonlinearity correction enabled: false
Boxcar width: 0
XAxis mode: Wavelengths
Number of Pixels in Spectrum: 2048
>>>>>Begin Spectral Data<<<<<
223.165	-15.19
223.4	-15.19
223.635	-15.19
223.869	-18.19
224.104	-22.19
224.338	-17.19
224.573	-15.19
224.808	-2.19
225.042	-18.19
225.277	-12.19
225.511	-3.19
225.746	7.81
225.98	9.81
226.215	25.81
226.449	12.81
226.683	20.81
226.918	16.81
227.152	29.81
227.387	33.81
227.621	36.81
227.856	33.81
228.09	41.81
228.324	33.81
228.559	45.81
228.793	47.81
229.027	63.81
229.262	75.81
229.496	55.81
229.73	51.81
229.964	62.81
230.199	64.81
230.433	82.81
230.667	72.81
230.901	73.81
231.136	68.81
231.37	76.81
231.604	63.81
231.838	65.81
232.072	82.81
232.306	75.81
232.541	69.81
232.775	84.81
233.009	77.81
233.243	77.81
233.477	81.81
233.711	67.81
233.945	62.81
234.179	65.81
234.413	74.81
234.647	65.81
234.881	69.81
235.115	63.81
235.349	65.81
235.583	74.81
235.817	76.81
236.051	63.81
236.285	61.81
236.519	59.81
236.753	64.81
236.987	69.81
237.221	76.81
237.455	57.81
237.689	67.81
237.922	74.81
238.156	81.81
238.39	62.81
238.624	67.81
238.858	73.81
239.091	75.81
239.325	69.81
239.559	82.81
239.793	66.81
240.027	75.81
240.26	74.81
240.494	74.81
240.728	68.81
240.961	65.81
241.195	68.81
241.429	87.81
241.662	62.81
241.896	80.81
242.13	59.81
242.363	82.81
242.597	72.81
242.83	78.81
243.064	69.81
243.298	65.81
243.531	61.81
243.765	68.81
243.998	77.81
244.232	71.81
244.465	67.81
244.699	73.81
244.932	79.81
245.166	69.81
245.399	84.81
245.633	67.81
245.866	75.81
246.099	75.81
246.333	65.81
246.566	75.81
246.8	65.81
247.033	63.81
247.266	70.81
247.5	71.81
247.733	78.81
247.966	64.81
248.2	68.81
248.433	62.81
248.666	85.81
248.899	67.81
249.133	69.81
249.366	82.81
249.599	71.81
249.832	68.81
250.066	68.81
250.299	64.81
250.532	76.81
250.765	64.81
250.998	52.81
251.231	70.81
251.465	73.81
251.698	79.81
251.931	74.81
252.164	68.81
252.397	71.81
252.63	77.81
252.863	67.81
253.096	65.81
253.329	70.81
253.562	65.81
253.795	61.81
254.028	74.81
254.261	65.81
254.494	69.81
254.727	79.81
254.96	80.81
255.193	61.81
255.426	72.81
255.659	68.81
255.892	67.81
256.124	63.81
256.357	74.81
256.59	87.81
256.823	73.81
257.056	72.81
257.289	69.81
257.521	65.81
257.754	72.81
257.987	67.81
258.22	81.81
258.452	75.81
258.685	82.81
258.918	80.81
259.151	74.81
259.383	77.81
259.616	74.81
259.849	65.81
260.081	70.81
260.314	73.81
260.547	65.81
260.779	75.81
261.012	77.81
261.244	68.81
261.477	78.81
261.71	73.81
261.942	71.81
262.175	71.81
262.407	81.81
262.64	77.81
262.872	61.81
263.105	69.81
263.337	77.81
263.57	77.81
263.802	76.81
264.035	71.81
264.267	81.81
264.499	68.81
264.732	71.81
264.964	78.81
265.197	67.81
265.429	78.81
265.661	84.81
265.894	76.81
266.126	79.81
266.358	66.81
266.591	79.81
266.823	63.81
267.055	85.81
267.287	75.81
267.52	71.81
267.752	83.81
267.984	76.81
268.216	79.81
268.448	77.81
268.681	80.81
268.913	89.81
269.145	76.81
269.377	70.81
269.609	72.81
269.841	69.81
270.073	68.81
270.306	58.81
270.538	77.81
270.77	77.81
271.002	60.81
271.234	70.81
271.466	65.81
271.698	71.81
271.93	63.81
272.162	85.81
272.394	82.81
272.626	63.81
272.858	88.81
273.09	74.81
273.322	77.81
273.553	75.81
273.785	66.81
274.017	65.81
274.249	74.81
274.481	62.81
274.713	85.81
274.945	78.81
275.176	79.81
275.408	75.81
275.64	71.81
275.872	69.81
276.104	77.81
276.335	79.81
276.567	77.81
276.799	65.81
277.031	91.81
277.262	82.81
277.494	77.81
277.726	88.81
277.957	57.81
278.189	75.81
278.421	79.81
278.652	74.81
278.884	75.81
279.115	73.81
279.347	70.81
279.579	72.81
279.81	84.81
280.042	78.81
280.273	88.81
280.505	81.81
280.736	84.81
280.968	74.81
281.199	81.81
281.431	73.81
281.662	87.81
281.894	76.81
282.125	78.81
282.356	66.81
282.588	68.81
282.819	93.81
283.051	71.81
283.282	66.81
283.513	75.81
283.745	81.81
283.976	83.81
284.207	71.81
284.439	68.81
284.67	68.81
284.901	79.81
285.132	73.81
285.364	88.81
285.595	94.81
285.826	94.81
286.057	85.81
286.288	86.81
286.52	73.81
286.751	73.81
286.982	73.81
287.213	83.81
287.444	76.81
287.675	85.81
287.906	82.81
288.138	80.81
288.369	88.81
288.6	84.81
288.831	74.81
289.062	81.81
289.293	84.81
289.524	88.81
289.755	78.81
289.986	77.81
290.217	80.81
290.448	75.81
290.679	79.81
290.91	79.81
291.141	73.81
291.371	74.81
291.602	85.81
291.833	75.81
292.064	64.81
292.295	72.81
292.526	74.81
292.757	81.81
292.987	83.81
293.218	88.81
293.449	79.81
293.68	90.81
293.91	99.81
294.141	79.81
294.372	77.81
294.603	68.81
294.833	86.81
295.064	89.81
295.295	62.81
295.525	75.81
295.756	77.81
295.987	73.81
296.217	84.81
296.448	87.81
296.679	77.81
296.909	66.81
297.14	67.81
297.37	75.81
297.601	75.81
297.831	61.81
298.062	87.81
298.292	68.81
298.523	71.81
298.753	68.81
298.984	75.81
299.214	71.81
299.445	78.81
299.675	79.81
299.905	84.81
300.136	76.81
300.366	71.81
300.597	75.81
300.827	68.81
301.057	77.81
301.288	81.81
301.518	59.81
301.748	68.81
301.979	79.81
302.209	69.81
302.439	70.81
302.669	79.81
302.9	60.81
303.13	87.81
303.36	78.81
303.59	67.81
303.82	65.81
304.051	69.81
304.281	83.81
304.511	67.81
304.741	85.81
304.971	92.81
305.201	71.81
305.431	77.81
305.661	72.81
305.891	89.81
306.121	69.81
306.352	78.81
306.582	74.81
306.812	79.81
307.042	75.81
307.272	88.81
307.502	63.81
307.731	71.81
307.961	70.81
308.191	80.81
308.421	86.81
308.651	93.81
308.881	64.81
309.111	72.81
309.341	77.81
309.571	88.81
309.8	84.81
310.03	98.81
310.26	79.81
310.49	75.81
310.72	83.81
310.949	83.81
311.179	84.81
311.409	73.81
311.639	80.81
311.868	69.81
312.098	73.81
312.328	67.81
312.557	77.81
312.787	87.81
313.017	77.81
313.246	85.81
313.476	85.81
313.706	83.81
313.935	69.81
314.165	78.81
314.394	73.81
314.624	72.81
314.853	84.81
315.083	69.81
315.312	81.81
315.542	71.81
315.771	81.81
316.001	82.81
316.23	91.81
316.46	77.81
316.689	69.81
316.919	83.81
317.148	77.81
317.377	89.81
317.607	84.81
317.836	90.81
318.065	87.81
318.295	74.81
318.524	98.81
318.753	76.81
318.983	87.81
319.212	76.81
319.441	91.81
319.67	91.81
319.9	82.81
320.129	81.81
320.358	83.81
320.587	85.81
320.816	84.81
321.046	84.81
321.275	75.81
321.504	88.81
321.733	73.81
321.962	79.81
322.191	66.81
322.42	67.81
322.649	79.81
322.878	75.81
323.108	84.81
323.337	77.81
323.566	73.81
323.795	76.81
324.024	87.81
324.253	77.81
324.482	78.81
324.71	75.81
324.939	90.81
325.168	82.81
325.397	70.81
325.626	88.81
325.855	79.81
326.084	81.81
326.313	85.81
326.542	63.81
326.77	82.81
326.999	73.81
327.228	75.81
327.457	70.81
327.686	69.81
327.914	80.81
328.143	80.81
328.372	78.81
328.6	77.81
328.829	82.81
329.058	85.81
329.287	77.81
329.515	90.81
329.744	76.81
329.972	84.81
330.201	68.81
330.43	82.81
330.658	81.81
330.887	80.81
331.115	91.81
331.344	85.81
331.572	61.81
331.801	79.81
332.03	70.81
332.258	78.81
332.486	80.81
332.715	74.81
332.943	56.81
333.172	74.81
333.4	78.81
333.629	67.81
333.857	73.81
334.085	73.81
334.314	81.81
334.542	83.81
334.771	77.81
334.999	92.81
335.227	89.81
335.455	83.81
335.684	94.81
335.912	69.81
336.14	91.81
336.369	87.81
336.597	74.81
336.825	81.81
337.053	57.81
337.281	92.81
337.51	75.81
337.738	64.81
337.966	76.81
338.194	64.81
338.422	83.81
338.65	81.81
338.878	93.81
339.106	93.81
339.334	76.81
339.562	64.81
339.79	82.81
340.018	87.81
340.246	68.81
340.474	82.81
340.702	75.81
340.93	69.81
341.158	65.81
341.386	74.81
341.614	88.81
341.842	72.81
342.07	66.81
342.298	89.81
342.526	86.81
342.754	72.81
342.981	67.81
343.209	79.81
343.437	95.81
343.665	78.81
343.893	86.81
344.12	89.81
344.348	80.81
344.576	84.81
344.804	74.81
345.031	81.81
345.259	67.81
345.487	82.81
345.714	77.81
345.942	71.81
346.17	88.81
346.397	78.81
346.625	71.81
346.853	74.81
347.08	79.81
347.308	80.81
347.535	87.81
347.763	68.81
347.99	72.81
348.218	92.81
348.445	90.81
348.673	70.81
348.9	75.81
349.128	77.81
349.355	78.81
349.583	73.81
349.81	73.81
350.037	76.81
350.265	85.81
350.492	75.81
350.72	74.81
350.947	78.81
351.174	74.81
351.402	68.81
351.629	87.81
351.856	79.81
352.083	67.81
352.311	75.81
352.538	82.81
352.765	84.81
352.992	81.81
353.22	74.81
353.447	68.81
353.674	72.81
353.901	82.81
354.128	76.81
354.355	91.81
354.583	81.81
354.81	66.81
355.037	71.81
355.264	68.81
355.491	75.81
355.718	57.81
355.945	82.81
356.172	80.81
356.399	76.81
356.626	80.81
356.853	65.81
357.08	73.81
357.307	91.81
357.534	87.81
357.761	63.81
357.988	84.81
358.215	80.81
358.441	63.81
358.668	66.81
358.895	70.81
359.122	81.81
359.349	72.81
359.576	79.81
359.802	76.81
360.029	69.81
360.256	67.81
360.483	74.81
360.709	64.81
360.936	76.81
361.163	83.81
361.39	87.81
361.616	73.81
361.843	73.81
362.07	91.81
362.296	70.81
362.523	85.81
362.749	93.81
362.976	82.81
363.203	99.81
363.429	90.81
363.656	87.81
363.882	93.81
364.109	91.81
364.335	101.81
364.562	119.81
364.788	86.81
365.015	87.81
365.241	73.81
365.468	66.81
365.694	69.81
365.92	71.81
366.147	79.81
366.373	63.81
366.599	67.81
366.826	79.81
367.052	71.81
367.278	84.81
367.505	77.81
367.731	84.81
367.957	90.81
368.184	81.81
368.41	69.81
368.636	64.81
368.862	85.81
369.089	88.81
369.315	72.81
369.541	58.81
369.767	95.81
369.993	75.81
370.219	66.81
370.445	68.81
370.672	72.81
370.898	81.81
371.124	87.81
371.35	79.81
371.576	79.81
371.802	63.81
372.028	78.81
372.254	78.81
372.48	79.81
372.706	74.81
372.932	76.81
373.158	86.81
373.384	75.81
373.61	77.81
373.835	85.81
374.061	86.81
374.287	81.81
374.513	91.81
374.739	78.81
374.965	74.81
375.191	92.81
375.416	87.81
375.642	83.81
375.868	79.81
376.094	71.81
376.319	79.81
376.545	91.81
376.771	76.81
376.997	71.81
377.222	78.81
377.448	79.81
377.674	64.81
377.899	81.81
378.125	76.81
378.35	74.81
378.576	79.81
378.802	85.81
379.027	73.81
379.253	86.81
379.478	83.81
379.704	86.81
379.929	76.81
380.155	92.81
380.38	74.81
380.606	74.81
380.831	75.81
381.057	79.81
381.282	83.81
381.507	94.81
381.733	84.81
381.958	82.81
382.184	72.81
382.409	70.81
382.634	66.81
382.86	59.81
383.085	86.81
383.31	78.81
383.535	86.81
383.761	79.81
383.986	76.81
384.211	78.81
384.436	91.81
384.662	61.81
384.887	72.81
385.112	95.81
385.337	76.81
385.562	82.81
385.787	89.81
386.013	73.81
386.238	72.81
386.463	75.81
386.688	80.81
386.913	70.81
387.138	80.81
387.363	79.81
387.588	76.81
387.813	76.81
388.038	80.81
388.263	81.81
388.488	78.81
388.713	79.81
388.938	71.81
389.163	79.81
389.387	76.81
389.612	91.81
389.837	78.81
390.062	77.81
390.287	73.81
390.512	68.81
390.736	99.81
390.961	89.81
391.186	85.81
391.411	79.81
391.636	75.81
391.86	77.81
392.085	80.81
392.31	89.81
392.534	64.81
392.759	90.81
392.984	111.81
393.208	159.81
393.433	202.81
393.658	161.81
393.882	98.81
394.107	85.81
394.331	92.81
394.556	85.81
394.78	80.81
395.005	83.81
395.229	76.81
395.454	85.81
395.678	82.81
395.903	91.81
396.127	100.81
396.352	106.81
396.576	112.81
396.801	154.81
397.025	164.81
397.249	125.81
397.474	91.81
397.698	78.81
397.922	73.81
398.147	80.81
398.371	79.81
398.595	77.81
398.82	65.81
399.044	76.81
399.268	73.81
399.492	71.81
399.717	73.81
399.941	77.81
400.165	86.81
400.389	66.81
400.613	72.81
400.837	89.81
401.062	79.81
401.286	85.81
401.51	74.81
401.734	80.81
401.958	77.81
402.182	92.81
402.406	60.81
402.63	70.81
402.854	75.81
403.078	79.81
403.302	74.81
403.526	81.81
403.75	77.81
403.974	77.81
404.198	70.81
404.422	87.81
404.645	87.81
404.869	78.81
405.093	79.81
405.317	83.81
405.541	81.81
405.765	66.81
405.988	71.81
406.212	79.81
406.436	72.81
406.66	79.81
406.883	69.81
407.107	61.81
407.331	70.81
407.555	67.81
407.778	85.81
408.002	91.81
408.226	84.81
408.449	95.81
408.673	77.81
408.896	81.81
409.12	78.81
409.344	79.81
409.567	82.81
409.791	88.81
410.014	88.81
410.238	80.81
410.461	92.81
410.685	85.81
410.908	77.81
411.132	67.81
411.355	75.81
411.578	70.81
411.802	79.81
412.025	72.81
412.249	83.81
412.472	79.81
412.695	79.81
412.919	81.81
413.142	73.81
413.365	75.81
413.589	81.81
413.812	80.81
414.035	85.81
414.258	58.81
414.482	67.81
414.705	79.81
414.928	78.81
415.151	67.81
415.374	78.81
415.597	84.81
415.821	73.81
416.044	72.81
416.267	74.81
416.49	56.81
416.713	76.81
416.936	81.81
417.159	90.81
417.382	75.81
417.605	69.81
417.828	62.81
418.051	81.81
418.274	71.81
418.497	75.81
418.72	67.81
418.943	74.81
419.166	74.81
419.389	72.81
419.611	64.81
419.834	87.81
420.057	75.81
420.28	70.81
420.503	59.81
420.726	85.81
420.948	83.81
421.171	90.81
421.394	94.81
421.617	94.81
421.839	91.81
422.062	99.81
422.285	131.81
422.507	204.81
422.73	283.81
422.953	242.81
423.175	156.81
423.398	91.81
423.621	89.81
423.843	83.81
424.066	75.81
424.288	91.81
424.511	64.81
424.733	71.81
424.956	71.81
425.178	78.81
425.401	84.81
425.623	69.81
425.846	63.81
426.068	67.81
426.291	69.81
426.513	90.81
426.735	83.81
426.958	65.81
427.18	87.81
427.402	76.81
427.625	71.81
427.847	77.81
428.069	83.81
428.292	108.81
428.514	116.81
428.736	89.81
428.958	105.81
429.181	113.81
429.403	85.81
429.625	84.81
429.847	96.81
430.069	119.81
430.292	141.81
430.514	127.81
430.736	110.81
430.958	104.81
431.18	82.81
431.402	75.81
431.624	88.81
431.846	99.81
432.068	114.81
432.29	82.81
432.512	78.81
432.734	76.81
432.956	67.81
433.178	75.81
433.4	75.81
433.622	67.81
433.844	74.81
434.066	68.81
434.287	80.81
434.509	85.81
434.731	78.81
434.953	78.81
435.175	87.81
435.397	81.81
435.618	80.81
435.84	70.81
436.062	96.81
436.284	72.81
436.505	69.81
436.727	79.81
436.949	72.81
437.17	66.81
437.392	70.81
437.614	64.81
437.835	79.81
438.057	92.81
438.278	75.81
438.5	75.81
438.721	66.81
438.943	78.81
439.165	77.81
439.386	69.81
439.608	75.81
439.829	72.81
440.05	65.81
440.272	75.81
440.493	77.81
440.715	55.81
440.936	79.81
441.158	77.81
441.379	85.81
441.6	88.81
441.822	75.81
442.043	56.81
442.264	84.81
442.486	92.81
442.707	124.81
442.928	108.81
443.149	98.81
443.371	115.81
443.592	169.81
443.813	160.81
444.034	93.81
444.255	71.81
444.476	81.81
444.698	75.81
444.919	81.81
445.14	167.81
445.361	159.81
445.582	199.81
445.803	160.81
446.024	88.81
446.245	93.81
446.466	77.81
446.687	74.81
446.908	84.81
447.129	78.81
447.35	75.81
447.571	70.81
447.792	73.81
448.013	77.81
448.234	82.81
448.455	86.81
448.675	66.81
448.896	89.81
449.117	83.81
449.338	78.81
449.559	60.81
449.779	71.81
450	78.81
450.221	61.81
450.442	67.81
450.662	49.81
450.883	84.81
451.104	72.81
451.324	81.81
451.545	78.81
451.766	74.81
451.986	68.81
452.207	86.81
452.428	73.81
452.648	75.81
452.869	87.81
453.089	76.81
453.31	73.81
453.53	82.81
453.751	81.81
453.971	69.81
454.192	71.81
454.412	65.81
454.633	67.81
454.853	79.81
455.073	91.81
455.294	80.81
455.514	80.81
455.734	68.81
455.955	77.81
456.175	67.81
456.395	83.81
456.616	70.81
456.836	73.81
457.056	74.81
457.276	68.81
457.497	95.81
457.717	75.81
457.937	85.81
458.157	99.81
458.377	108.81
458.598	92.81
458.818	108.81
459.038	83.81
459.258	80.81
459.478	84.81
459.698	80.81
459.918	71.81
460.138	81.81
460.358	68.81
460.578	96.81
460.798	93.81
461.018	80.81
461.238	60.81
461.458	62.81
461.678	67.81
461.898	73.81
462.118	65.81
462.338	66.81
462.558	73.81
462.777	77.81
462.997	76.81
463.217	80.81
463.437	82.81
463.657	74.81
463.876	64.81
464.096	70.81
464.316	80.81
464.536	76.81
464.755	74.81
464.975	66.81
465.195	79.81
465.414	73.81
465.634	75.81
465.854	64.81
466.073	82.81
466.293	63.81
466.512	73.81
466.732	69.81
466.951	80.81
467.171	91.81
467.391	81.81
467.61	74.81
467.829	77.81
468.049	62.81
468.268	85.81
468.488	75.81
468.707	77.81
468.927	73.81
469.146	74.81
469.365	75.81
469.585	77.81
469.804	67.81
470.023	61.81
470.243	69.81
470.462	77.81
470.681	60.81
470.901	85.81
471.12	87.81
471.339	62.81
471.558	73.81
471.777	68.81
471.997	79.81
472.216	70.81
472.435	81.81
472.654	77.81
472.873	74.81
473.092	75.81
473.311	74.81
473.53	73.81
473.749	79.81
473.968	89.81
474.187	93.81
474.406	85.81
474.625	84.81
474.844	79.81
475.063	75.81
475.282	76.81
475.501	74.81
475.72	85.81
475.939	78.81
476.158	81.81
476.377	66.81
476.596	80.81
476.814	74.81
477.033	71.81
477.252	77.81
477.471	76.81
477.69	88.81
477.908	83.81
478.127	71.81
478.346	68.81
478.564	79.81
478.783	90.81
479.002	70.81
479.22	75.81
479.439	72.81
479.658	64.81
479.876	71.81
480.095	64.81
480.313	78.81
480.532	74.81
480.751	83.81
480.969	81.81
481.188	89.81
481.406	79.81
481.624	62.81
481.843	79.81
482.061	77.81
482.28	82.81
482.498	64.81
482.717	75.81
482.935	92.81
483.153	93.81
483.372	90.81
483.59	77.81
483.808	75.81
484.027	93.81
484.245	81.81
484.463	81.81
484.681	81.81
484.9	75.81
485.118	93.81
485.336	75.81
485.554	91.81
485.772	70.81
485.99	73.81
486.209	83.81
486.427	97.81
486.645	73.81
486.863	91.81
487.081	89.81
487.299	77.81
487.517	97.81
487.735	104.81
487.953	135.81
488.171	110.81
488.389	79.81
488.607	74.81
488.825	68.81
489.043	70.81
489.261	83.81
489.479	69.81
489.696	81.81
489.914	70.81
490.132	73.81
490.35	77.81
490.568	69.81
490.786	77.81
491.003	87.81
491.221	89.81
491.439	88.81
491.657	75.81
491.874	81.81
492.092	68.81
492.31	69.81
492.527	67.81
492.745	79.81
492.963	82.81
493.18	68.81
493.398	75.81
493.615	81.81
493.833	86.81
494.05	70.81
494.268	74.81
494.485	78.81
494.703	76.81
494.92	93.81
495.138	87.81
495.355	74.81
495.573	88.81
495.79	68.81
496.008	75.81
496.225	73.81
496.442	87.81
496.66	93.81
496.877	63.81
497.094	80.81
497.312	90.81
497.529	90.81
497.746	85.81
497.963	83.81
498.181	77.81
498.398	84.81
498.615	74.81
498.832	76.81
499.049	75.81
499.267	84.81
499.484	80.81
499.701	79.81
499.918	76.81
500.135	72.81
500.352	78.81
500.569	68.81
500.786	74.81
501.003	87.81
501.22	73.81
501.437	91.81
501.654	71.81
501.871	81.81
502.088	79.81
502.305	82.81
502.522	82.81
502.739	79.81
502.956	83.81
503.172	75.81
503.389	83.81
503.606	77.81
503.823	66.81
504.04	95.81
504.256	115.81
504.473	96.81
504.69	89.81
504.907	77.81
505.123	80.81
505.34	73.81
505.557	70.81
505.773	73.81
505.99	92.81
506.207	92.81
506.423	90.81
506.64	74.81
506.856	98.81
507.073	95.81
507.289	81.81
507.506	75.81
507.722	84.81
507.939	81.81
508.155	77.81
508.372	87.81
508.588	89.81
508.805	93.81
509.021	75.81
509.238	85.81
509.454	59.81
509.67	79.81
509.887	76.81
510.103	77.81
510.319	71.81
510.536	75.81
510.752	90.81
510.968	77.81
511.184	71.81
511.401	85.81
511.617	80.81
511.833	77.81
512.049	76.81
512.265	87.81
512.481	80.81
512.698	83.81
512.914	80.81
513.13	77.81
513.346	81.81
513.562	82.81
513.778	80.81
513.994	87.81
514.21	82.81
514.426	80.81
514.642	69.81
514.858	82.81
515.074	83.81
515.29	80.81
515.506	77.81
515.721	73.81
515.937	85.81
516.153	83.81
516.369	96.81
516.585	86.81
516.801	79.81
517.016	81.81
517.232	71.81
517.448	80.81
517.664	88.81
517.879	68.81
518.095	78.81
518.311	78.81
518.527	70.81
518.742	82.81
518.958	100.81
519.173	120.81
519.389	88.81
519.605	81.81
