Data from CBS_2_HRD10591_00045.txt Node
Date: Mon Jan 19 14:05:08 EST 2026
User: Yrep
Spectrometer: HR+D1059
Trigger mode: 1
Integration Time (sec): 1.000000E-1
Scans to average: 1
Electric dark correction enabled: true
Nonlinearity correction enabled: false
Boxcar width: 0
XAxis mode: Wavelengths
Number of Pixels in Spectrum: 2048
>>>>>Begin Spectral Data<<<<<
223.165	-24.25
223.4	-24.25
223.635	-24.25
223.869	-22.25
224.104	-14.25
224.338	-15.25
224.573	-2.25
224.808	-13.25
225.042	-3.25
225.277	-1.25
225.511	-5.25
225.746	2.75
225.98	-3.25
226.215	2.75
226.449	5.75
226.683	23.75
226.918	30.75
227.152	38.75
227.387	30.75
227.621	32.75
227.856	39.75
228.09	30.75
228.324	57.75
228.559	65.75
228.793	54.75
229.027	56.75
229.262	57.75
229.496	74.75
229.73	67.75
229.964	79.75
230.199	77.75
230.433	82.75
230.667	69.75
230.901	77.75
231.136	75.75
231.37	83.75
231.604	80.75
231.838	77.75
232.072	82.75
232.306	75.75
232.541	71.75
232.775	55.75
233.009	80.75
233.243	77.75
233.477	72.75
233.711	91.75
233.945	71.75
234.179	86.75
234.413	77.75
234.647	80.75
234.881	71.75
235.115	84.75
235.349	85.75
235.583	83.75
235.817	73.75
236.051	77.75
236.285	73.75
236.519	71.75
236.753	69.75
236.987	71.75
237.221	73.75
237.455	59.75
237.689	84.75
237.922	79.75
238.156	66.75
238.39	74.75
238.624	71.75
238.858	71.75
239.091	82.75
239.325	67.75
239.559	63.75
239.793	69.75
240.027	81.75
240.26	53.75
240.494	53.75
240.728	79.75
240.961	65.75
241.195	68.75
241.429	77.75
241.662	72.75
241.896	61.75
242.13	67.75
242.363	69.75
242.597	72.75
242.83	84.75
243.064	68.75
243.298	82.75
243.531	69.75
243.765	78.75
243.998	74.75
244.232	84.75
244.465	64.75
244.699	69.75
244.932	76.75
245.166	70.75
245.399	72.75
245.633	63.75
245.866	75.75
246.099	90.75
246.333	82.75
246.566	76.75
246.8	69.75
247.033	57.75
247.266	72.75
247.5	82.75
247.733	70.75
247.966	79.75
248.2	67.75
248.433	79.75
248.666	65.75
248.899	83.75
249.133	73.75
249.366	70.75
249.599	65.75
249.832	72.75
250.066	73.75
250.299	56.75
250.532	75.75
250.765	81.75
250.998	76.75
251.231	78.75
251.465	69.75
251.698	73.75
251.931	77.75
252.164	83.75
252.397	84.75
252.63	96.75
252.863	61.75
253.096	73.75
253.329	68.75
253.562	71.75
253.795	81.75
254.028	85.75
254.261	77.75
254.494	85.75
254.727	67.75
254.96	61.75
255.193	71.75
255.426	77.75
255.659	59.75
255.892	80.75
256.124	72.75
256.357	92.75
256.59	77.75
256.823	79.75
257.056	65.75
257.289	69.75
257.521	85.75
257.754	79.75
257.987	86.75
258.22	83.75
258.452	83.75
258.685	82.75
258.918	84.75
259.151	81.75
259.383	87.75
259.616	64.75
259.849	82.75
260.081	85.75
260.314	71.75
260.547	62.75
260.779	77.75
261.012	75.75
261.244	66.75
261.477	88.75
261.71	74.75
261.942	82.75
262.175	75.75
262.407	87.75
262.64	72.75
262.872	73.75
263.105	81.75
263.337	79.75
263.57	81.75
263.802	71.75
264.035	72.75
264.267	79.75
264.499	77.75
264.732	81.75
264.964	82.75
265.197	77.75
265.429	79.75
265.661	85.75
265.894	84.75
266.126	79.75
266.358	86.75
266.591	79.75
266.823	81.75
267.055	79.75
267.287	81.75
267.52	87.75
267.752	68.75
267.984	53.75
268.216	82.75
268.448	75.75
268.681	67.75
268.913	82.75
269.145	92.75
269.377	98.75
269.609	77.75
269.841	82.75
270.073	79.75
270.306	79.75
270.538	84.75
270.77	74.75
271.002	86.75
271.234	87.75
271.466	87.75
271.698	77.75
271.93	70.75
272.162	65.75
272.394	79.75
272.626	83.75
272.858	90.75
273.09	85.75
273.322	77.75
273.553	77.75
273.785	83.75
274.017	97.75
274.249	80.75
274.481	85.75
274.713	83.75
274.945	87.75
275.176	77.75
275.408	84.75
275.64	93.75
275.872	88.75
276.104	98.75
276.335	84.75
276.567	83.75
276.799	85.75
277.031	76.75
277.262	79.75
277.494	68.75
277.726	83.75
277.957	82.75
278.189	81.75
278.421	73.75
278.652	78.75
278.884	85.75
279.115	79.75
279.347	77.75
279.579	79.75
279.81	70.75
280.042	62.75
280.273	81.75
280.505	91.75
280.736	86.75
280.968	93.75
281.199	79.75
281.431	81.75
281.662	84.75
281.894	73.75
282.125	87.75
282.356	92.75
282.588	79.75
282.819	78.75
283.051	79.75
283.282	80.75
283.513	86.75
283.745	94.75
283.976	88.75
284.207	70.75
284.439	86.75
284.67	68.75
284.901	96.75
285.132	81.75
285.364	65.75
285.595	79.75
285.826	76.75
286.057	93.75
286.288	87.75
286.52	71.75
286.751	79.75
286.982	84.75
287.213	77.75
287.444	103.75
287.675	83.75
287.906	88.75
288.138	88.75
288.369	96.75
288.6	85.75
288.831	79.75
289.062	73.75
289.293	79.75
289.524	78.75
289.755	88.75
289.986	95.75
290.217	83.75
290.448	79.75
290.679	82.75
290.91	81.75
291.141	77.75
291.371	77.75
291.602	86.75
291.833	71.75
292.064	67.75
292.295	85.75
292.526	87.75
292.757	89.75
292.987	78.75
293.218	93.75
293.449	77.75
293.68	64.75
293.91	73.75
294.141	90.75
294.372	78.75
294.603	84.75
294.833	94.75
295.064	87.75
295.295	70.75
295.525	83.75
295.756	89.75
295.987	89.75
296.217	88.75
296.448	83.75
296.679	81.75
296.909	83.75
297.14	79.75
297.37	77.75
297.601	92.75
297.831	96.75
298.062	95.75
298.292	98.75
298.523	76.75
298.753	83.75
298.984	74.75
299.214	77.75
299.445	75.75
299.675	98.75
299.905	84.75
300.136	85.75
300.366	83.75
300.597	86.75
300.827	92.75
301.057	92.75
301.288	84.75
301.518	84.75
301.748	77.75
301.979	104.75
302.209	84.75
302.439	80.75
302.669	95.75
302.9	88.75
303.13	80.75
303.36	85.75
303.59	72.75
303.82	79.75
304.051	77.75
304.281	80.75
304.511	85.75
304.741	76.75
304.971	61.75
305.201	82.75
305.431	79.75
305.661	96.75
305.891	72.75
306.121	79.75
306.352	72.75
306.582	81.75
306.812	75.75
307.042	92.75
307.272	93.75
307.502	69.75
307.731	70.75
307.961	71.75
308.191	75.75
308.421	98.75
308.651	85.75
308.881	97.75
309.111	79.75
309.341	79.75
309.571	80.75
309.8	73.75
310.03	65.75
310.26	92.75
310.49	81.75
310.72	80.75
310.949	95.75
311.179	89.75
311.409	91.75
311.639	81.75
311.868	90.75
312.098	87.75
312.328	72.75
312.557	83.75
312.787	91.75
313.017	87.75
313.246	94.75
313.476	88.75
313.706	88.75
313.935	80.75
314.165	85.75
314.394	79.75
314.624	73.75
314.853	69.75
315.083	99.75
315.312	78.75
315.542	84.75
315.771	84.75
316.001	83.75
316.23	93.75
316.46	85.75
316.689	82.75
316.919	79.75
317.148	81.75
317.377	100.75
317.607	88.75
317.836	78.75
318.065	95.75
318.295	86.75
318.524	82.75
318.753	82.75
318.983	97.75
319.212	85.75
319.441	97.75
319.67	97.75
319.9	71.75
320.129	77.75
320.358	69.75
320.587	76.75
320.816	87.75
321.046	81.75
321.275	83.75
321.504	99.75
321.733	83.75
321.962	77.75
322.191	80.75
322.42	79.75
322.649	100.75
322.878	82.75
323.108	80.75
323.337	80.75
323.566	88.75
323.795	98.75
324.024	68.75
324.253	87.75
324.482	69.75
324.71	69.75
324.939	95.75
325.168	80.75
325.397	84.75
325.626	83.75
325.855	63.75
326.084	77.75
326.313	76.75
326.542	79.75
326.77	75.75
326.999	81.75
327.228	86.75
327.457	77.75
327.686	95.75
327.914	85.75
328.143	77.75
328.372	89.75
328.6	71.75
328.829	87.75
329.058	82.75
329.287	87.75
329.515	79.75
329.744	96.75
329.972	88.75
330.201	87.75
330.43	77.75
330.658	77.75
330.887	80.75
331.115	83.75
331.344	85.75
331.572	89.75
331.801	96.75
332.03	89.75
332.258	78.75
332.486	88.75
332.715	75.75
332.943	87.75
333.172	71.75
333.4	78.75
333.629	83.75
333.857	95.75
334.085	78.75
334.314	105.75
334.542	89.75
334.771	75.75
334.999	91.75
335.227	84.75
335.455	87.75
335.684	91.75
335.912	82.75
336.14	105.75
336.369	104.75
336.597	82.75
336.825	94.75
337.053	75.75
337.281	101.75
337.51	70.75
337.738	81.75
337.966	87.75
338.194	76.75
338.422	92.75
338.65	91.75
338.878	73.75
339.106	88.75
339.334	87.75
339.562	87.75
339.79	92.75
340.018	94.75
340.246	87.75
340.474	77.75
340.702	86.75
340.93	69.75
341.158	87.75
341.386	100.75
341.614	94.75
341.842	73.75
342.07	68.75
342.298	73.75
342.526	79.75
342.754	84.75
342.981	83.75
343.209	89.75
343.437	86.75
343.665	92.75
343.893	87.75
344.12	77.75
344.348	86.75
344.576	87.75
344.804	86.75
345.031	74.75
345.259	80.75
345.487	88.75
345.714	79.75
345.942	91.75
346.17	83.75
346.397	77.75
346.625	95.75
346.853	75.75
347.08	80.75
347.308	79.75
347.535	80.75
347.763	81.75
347.99	94.75
348.218	102.75
348.445	81.75
348.673	75.75
348.9	70.75
349.128	82.75
349.355	69.75
349.583	81.75
349.81	87.75
350.037	92.75
350.265	78.75
350.492	70.75
350.72	80.75
350.947	98.75
351.174	93.75
351.402	94.75
351.629	84.75
351.856	94.75
352.083	77.75
352.311	84.75
352.538	100.75
352.765	94.75
352.992	83.75
353.22	93.75
353.447	81.75
353.674	85.75
353.901	92.75
354.128	90.75
354.355	68.75
354.583	85.75
354.81	94.75
355.037	73.75
355.264	88.75
355.491	87.75
355.718	83.75
355.945	82.75
356.172	85.75
356.399	90.75
356.626	79.75
356.853	87.75
357.08	85.75
357.307	81.75
357.534	78.75
357.761	88.75
357.988	91.75
358.215	96.75
358.441	76.75
358.668	77.75
358.895	80.75
359.122	69.75
359.349	84.75
359.576	78.75
359.802	87.75
360.029	94.75
360.256	73.75
360.483	82.75
360.709	79.75
360.936	82.75
361.163	75.75
361.39	88.75
361.616	84.75
361.843	89.75
362.07	82.75
362.296	87.75
362.523	86.75
362.749	87.75
362.976	81.75
363.203	90.75
363.429	77.75
363.656	77.75
363.882	79.75
364.109	76.75
364.335	104.75
364.562	101.75
364.788	92.75
365.015	89.75
365.241	88.75
365.468	79.75
365.694	76.75
365.92	81.75
366.147	89.75
366.373	91.75
366.599	74.75
366.826	97.75
367.052	73.75
367.278	91.75
367.505	80.75
367.731	92.75
367.957	79.75
368.184	80.75
368.41	81.75
368.636	84.75
368.862	77.75
369.089	88.75
369.315	78.75
369.541	75.75
369.767	87.75
369.993	80.75
370.219	69.75
370.445	98.75
370.672	76.75
370.898	81.75
371.124	86.75
371.35	72.75
371.576	79.75
371.802	83.75
372.028	81.75
372.254	79.75
372.48	74.75
372.706	81.75
372.932	79.75
373.158	81.75
373.384	78.75
373.61	84.75
373.835	96.75
374.061	76.75
374.287	78.75
374.513	88.75
374.739	86.75
374.965	83.75
375.191	81.75
375.416	78.75
375.642	70.75
375.868	92.75
376.094	77.75
376.319	72.75
376.545	78.75
376.771	67.75
376.997	85.75
377.222	72.75
377.448	81.75
377.674	88.75
377.899	68.75
378.125	80.75
378.35	78.75
378.576	77.75
378.802	75.75
379.027	73.75
379.253	92.75
379.478	84.75
379.704	82.75
379.929	69.75
380.155	81.75
380.38	90.75
380.606	91.75
380.831	79.75
381.057	82.75
381.282	85.75
381.507	70.75
381.733	79.75
381.958	85.75
382.184	83.75
382.409	78.75
382.634	83.75
382.86	84.75
383.085	80.75
383.31	88.75
383.535	86.75
383.761	95.75
383.986	77.75
384.211	91.75
384.436	92.75
384.662	83.75
384.887	87.75
385.112	87.75
385.337	88.75
385.562	72.75
385.787	89.75
386.013	91.75
386.238	86.75
386.463	79.75
386.688	99.75
386.913	76.75
387.138	73.75
387.363	86.75
387.588	85.75
387.813	97.75
388.038	73.75
388.263	90.75
388.488	82.75
388.713	77.75
388.938	79.75
389.163	65.75
389.387	84.75
389.612	79.75
389.837	83.75
390.062	83.75
390.287	80.75
390.512	77.75
390.736	77.75
390.961	76.75
391.186	73.75
391.411	76.75
391.636	99.75
391.86	89.75
392.085	85.75
392.31	70.75
392.534	71.75
392.759	85.75
392.984	105.75
393.208	128.75
393.433	162.75
393.658	138.75
393.882	93.75
394.107	81.75
394.331	73.75
394.556	87.75
394.78	80.75
395.005	75.75
395.229	71.75
395.454	92.75
395.678	86.75
395.903	87.75
396.127	104.75
396.352	101.75
396.576	105.75
396.801	139.75
397.025	147.75
397.249	111.75
397.474	93.75
397.698	94.75
397.922	79.75
398.147	84.75
398.371	71.75
398.595	85.75
398.82	85.75
399.044	65.75
399.268	88.75
399.492	83.75
399.717	85.75
399.941	89.75
400.165	79.75
400.389	87.75
400.613	83.75
400.837	70.75
401.062	61.75
401.286	77.75
401.51	89.75
401.734	81.75
401.958	94.75
402.182	82.75
402.406	78.75
402.63	72.75
402.854	72.75
403.078	84.75
403.302	73.75
403.526	77.75
403.75	72.75
403.974	87.75
404.198	80.75
404.422	84.75
404.645	81.75
404.869	87.75
405.093	93.75
405.317	80.75
405.541	77.75
405.765	83.75
405.988	86.75
406.212	78.75
406.436	75.75
406.66	87.75
406.883	82.75
407.107	77.75
407.331	69.75
407.555	100.75
407.778	90.75
408.002	95.75
408.226	84.75
408.449	91.75
408.673	72.75
408.896	73.75
409.12	70.75
409.344	77.75
409.567	73.75
409.791	88.75
410.014	84.75
410.238	85.75
410.461	84.75
410.685	81.75
410.908	87.75
411.132	88.75
411.355	87.75
411.578	79.75
411.802	79.75
412.025	73.75
412.249	78.75
412.472	86.75
412.695	79.75
412.919	83.75
413.142	79.75
413.365	73.75
413.589	83.75
413.812	83.75
414.035	79.75
414.258	79.75
414.482	73.75
414.705	93.75
414.928	85.75
415.151	81.75
415.374	83.75
415.597	81.75
415.821	84.75
416.044	78.75
416.267	80.75
416.49	79.75
416.713	78.75
416.936	78.75
417.159	86.75
417.382	82.75
417.605	82.75
417.828	67.75
418.051	73.75
418.274	74.75
418.497	79.75
418.72	86.75
418.943	86.75
419.166	73.75
419.389	79.75
419.611	97.75
419.834	82.75
420.057	90.75
420.28	79.75
420.503	74.75
420.726	86.75
420.948	83.75
421.171	101.75
421.394	76.75
421.617	83.75
421.839	94.75
422.062	94.75
422.285	123.75
422.507	153.75
422.73	205.75
422.953	187.75
423.175	138.75
423.398	110.75
423.621	77.75
423.843	73.75
424.066	75.75
424.288	75.75
424.511	95.75
424.733	80.75
424.956	84.75
425.178	73.75
425.401	83.75
425.623	86.75
425.846	88.75
426.068	69.75
426.291	86.75
426.513	82.75
426.735	88.75
426.958	74.75
427.18	74.75
427.402	88.75
427.625	78.75
427.847	84.75
428.069	80.75
428.292	99.75
428.514	107.75
428.736	87.75
428.958	89.75
429.181	107.75
429.403	72.75
429.625	82.75
429.847	93.75
430.069	99.75
430.292	109.75
430.514	100.75
430.736	93.75
430.958	91.75
431.18	63.75
431.402	83.75
431.624	96.75
431.846	79.75
432.068	102.75
432.29	80.75
432.512	80.75
432.734	72.75
432.956	79.75
433.178	79.75
433.4	76.75
433.622	91.75
433.844	80.75
434.066	80.75
434.287	77.75
434.509	86.75
434.731	79.75
434.953	78.75
435.175	78.75
435.397	87.75
435.618	76.75
435.84	89.75
436.062	77.75
436.284	79.75
436.505	83.75
436.727	82.75
436.949	87.75
437.17	81.75
437.392	76.75
437.614	76.75
437.835	90.75
438.057	85.75
438.278	79.75
438.5	88.75
438.721	79.75
438.943	87.75
439.165	70.75
439.386	65.75
439.608	75.75
439.829	101.75
440.05	78.75
440.272	79.75
440.493	68.75
440.715	81.75
440.936	92.75
441.158	99.75
441.379	87.75
441.6	79.75
441.822	83.75
442.043	83.75
442.264	86.75
442.486	100.75
442.707	107.75
442.928	106.75
443.149	102.75
443.371	113.75
443.592	147.75
443.813	136.75
444.034	102.75
444.255	93.75
444.476	91.75
444.698	80.75
444.919	79.75
445.14	143.75
445.361	132.75
445.582	141.75
445.803	135.75
446.024	97.75
446.245	88.75
446.466	92.75
446.687	73.75
446.908	87.75
447.129	84.75
447.35	69.75
447.571	83.75
447.792	82.75
448.013	73.75
448.234	75.75
448.455	84.75
448.675	81.75
448.896	86.75
449.117	68.75
449.338	57.75
449.559	92.75
449.779	93.75
450	72.75
450.221	77.75
450.442	74.75
450.662	72.75
450.883	65.75
451.104	79.75
451.324	79.75
451.545	89.75
451.766	78.75
451.986	79.75
452.207	87.75
452.428	81.75
452.648	83.75
452.869	84.75
453.089	84.75
453.31	89.75
453.53	79.75
453.751	86.75
453.971	73.75
454.192	85.75
454.412	70.75
454.633	77.75
454.853	81.75
455.073	81.75
455.294	93.75
455.514	88.75
455.734	75.75
455.955	71.75
456.175	75.75
456.395	72.75
456.616	79.75
456.836	80.75
457.056	72.75
457.276	77.75
457.497	75.75
457.717	70.75
457.937	87.75
458.157	91.75
458.377	86.75
458.598	93.75
458.818	91.75
459.038	80.75
459.258	87.75
459.478	78.75
459.698	72.75
459.918	88.75
460.138	77.75
460.358	83.75
460.578	79.75
460.798	91.75
461.018	94.75
461.238	79.75
461.458	73.75
461.678	83.75
461.898	84.75
462.118	90.75
462.338	76.75
462.558	84.75
462.777	78.75
462.997	82.75
463.217	88.75
463.437	107.75
463.657	71.75
463.876	94.75
464.096	75.75
464.316	59.75
464.536	90.75
464.755	75.75
464.975	88.75
465.195	86.75
465.414	84.75
465.634	76.75
465.854	72.75
466.073	87.75
466.293	86.75
466.512	88.75
466.732	91.75
466.951	87.75
467.171	92.75
467.391	93.75
467.61	78.75
467.829	86.75
468.049	84.75
468.268	76.75
468.488	78.75
468.707	79.75
468.927	84.75
469.146	87.75
469.365	81.75
469.585	87.75
469.804	77.75
470.023	79.75
470.243	89.75
470.462	94.75
470.681	81.75
470.901	79.75
471.12	83.75
471.339	81.75
471.558	82.75
471.777	68.75
471.997	77.75
472.216	90.75
472.435	87.75
472.654	97.75
472.873	83.75
473.092	81.75
473.311	87.75
473.53	80.75
473.749	79.75
473.968	78.75
474.187	76.75
474.406	92.75
474.625	87.75
474.844	81.75
475.063	74.75
475.282	83.75
475.501	71.75
475.72	87.75
475.939	80.75
476.158	79.75
476.377	88.75
476.596	79.75
476.814	71.75
477.033	78.75
477.252	91.75
477.471	88.75
477.69	89.75
477.908	83.75
478.127	73.75
478.346	71.75
478.564	79.75
478.783	85.75
479.002	71.75
479.22	101.75
479.439	73.75
479.658	82.75
479.876	79.75
480.095	91.75
480.313	74.75
480.532	82.75
480.751	71.75
480.969	92.75
481.188	67.75
481.406	93.75
481.624	68.75
481.843	74.75
482.061	79.75
482.28	92.75
482.498	89.75
482.717	83.75
482.935	85.75
483.153	93.75
483.372	84.75
483.59	87.75
483.808	86.75
484.027	81.75
484.245	81.75
484.463	76.75
484.681	95.75
484.9	84.75
485.118	73.75
485.336	71.75
485.554	67.75
485.772	88.75
485.99	83.75
486.209	75.75
486.427	88.75
486.645	96.75
486.863	72.75
487.081	93.75
487.299	75.75
487.517	86.75
487.735	71.75
487.953	110.75
488.171	123.75
488.389	84.75
488.607	84.75
488.825	82.75
489.043	77.75
489.261	86.75
489.479	79.75
489.696	88.75
489.914	83.75
490.132	77.75
490.35	104.75
490.568	82.75
490.786	78.75
491.003	82.75
491.221	73.75
491.439	84.75
491.657	81.75
491.874	81.75
492.092	81.75
492.31	85.75
492.527	81.75
492.745	86.75
492.963	88.75
493.18	74.75
493.398	79.75
493.615	87.75
493.833	79.75
494.05	72.75
494.268	89.75
494.485	79.75
494.703	91.75
494.92	81.75
495.138	87.75
495.355	79.75
495.573	100.75
495.79	84.75
496.008	78.75
496.225	72.75
496.442	81.75
496.66	105.75
496.877	78.75
497.094	92.75
497.312	66.75
497.529	85.75
497.746	83.75
497.963	81.75
498.181	80.75
498.398	76.75
498.615	80.75
498.832	85.75
499.049	89.75
499.267	89.75
499.484	86.75
499.701	88.75
499.918	82.75
500.135	74.75
500.352	88.75
500.569	94.75
500.786	92.75
501.003	72.75
501.22	84.75
501.437	73.75
501.654	81.75
501.871	81.75
502.088	87.75
502.305	86.75
502.522	68.75
502.739	77.75
502.956	92.75
503.172	94.75
503.389	83.75
503.606	77.75
503.823	85.75
504.04	85.75
504.256	104.75
504.473	99.75
504.69	79.75
504.907	83.75
505.123	88.75
505.34	67.75
505.557	71.75
505.773	83.75
505.99	87.75
506.207	86.75
506.423	86.75
506.64	83.75
506.856	82.75
507.073	94.75
507.289	89.75
507.506	79.75
507.722	69.75
507.939	87.75
508.155	93.75
508.372	81.75
508.588	87.75
508.805	91.75
509.021	81.75
509.238	78.75
509.454	83.75
509.67	76.75
509.887	90.75
510.103	81.75
510.319	83.75
510.536	88.75
510.752	90.75
510.968	89.75
511.184	72.75
511.401	83.75
511.617	85.75
511.833	79.75
512.049	83.75
512.265	80.75
512.481	85.75
512.698	91.75
512.914	82.75
513.13	89.75
513.346	80.75
513.562	85.75
513.778	88.75
513.994	76.75
514.21	68.75
514.426	77.75
514.642	89.75
514.858	69.75
515.074	77.75
515.29	97.75
515.506	71.75
515.721	87.75
515.937	87.75
516.153	77.75
516.369	85.75
516.585	100.75
516.801	82.75
517.016	89.75
517.232	92.75
517.448	95.75
517.664	79.75
517.879	80.75
518.095	97.75
518.311	88.75
518.527	88.75
518.742	109.75
518.958	111.75
519.173	116.75
519.389	97.75
