Data from CBS_2_HRD10591_00005.txt Node
Date: Mon Jan 19 14:04:48 EST 2026
User: Yrep
Spectrometer: HR+D1059
Trigger mode: 1
Integration Time (sec): 1.000000E-1
Scans to average: 1
Electric dark correction enabled: true
Nonlinearity correction enabled: false
Boxcar width: 0
XAxis mode: Wavelengths
Number of Pixels in Spectrum: 2048
>>>>>Begin Spectral Data<<<<<
223.165	-26.44
223.4	-26.44
223.635	-26.44
223.869	-17.44
224.104	-21.44
224.338	-8.44
224.573	-8.44
224.808	-20.44
225.042	-10.44
225.277	0.56
225.511	-13.44
225.746	7.56
225.98	4.56
226.215	10.56
226.449	21.56
226.683	24.56
226.918	30.56
227.152	26.56
227.387	42.56
227.621	49.56
227.856	39.56
228.09	55.56
228.324	44.56
228.559	53.56
228.793	55.56
229.027	56.56
229.262	63.56
229.496	71.56
229.73	80.56
229.964	80.56
230.199	79.56
230.433	67.56
230.667	68.56
230.901	79.56
231.136	83.56
231.37	82.56
231.604	89.56
231.838	76.56
232.072	74.56
232.306	90.56
232.541	94.56
232.775	76.56
233.009	86.56
233.243	72.56
233.477	84.56
233.711	92.56
233.945	79.56
234.179	79.56
234.413	76.56
234.647	90.56
234.881	87.56
235.115	80.56
235.349	77.56
235.583	80.56
235.817	74.56
236.051	74.56
236.285	87.56
236.519	86.56
236.753	69.56
236.987	85.56
237.221	66.56
237.455	72.56
237.689	90.56
237.922	74.56
238.156	68.56
238.39	76.56
238.624	63.56
238.858	76.56
239.091	89.56
239.325	80.56
239.559	75.56
239.793	80.56
240.027	85.56
240.26	80.56
240.494	68.56
240.728	77.56
240.961	83.56
241.195	79.56
241.429	68.56
241.662	85.56
241.896	77.56
242.13	87.56
242.363	79.56
242.597	77.56
242.83	67.56
243.064	71.56
243.298	82.56
243.531	62.56
243.765	63.56
243.998	80.56
244.232	84.56
244.465	79.56
244.699	80.56
244.932	81.56
245.166	59.56
245.399	73.56
245.633	81.56
245.866	82.56
246.099	71.56
246.333	86.56
246.566	87.56
246.8	72.56
247.033	85.56
247.266	69.56
247.5	88.56
247.733	85.56
247.966	74.56
248.2	84.56
248.433	73.56
248.666	85.56
248.899	75.56
249.133	80.56
249.366	64.56
249.599	80.56
249.832	64.56
250.066	72.56
250.299	86.56
250.532	88.56
250.765	83.56
250.998	80.56
251.231	80.56
251.465	79.56
251.698	85.56
251.931	81.56
252.164	76.56
252.397	87.56
252.63	84.56
252.863	82.56
253.096	76.56
253.329	94.56
253.562	95.56
253.795	76.56
254.028	73.56
254.261	84.56
254.494	78.56
254.727	70.56
254.96	87.56
255.193	79.56
255.426	78.56
255.659	73.56
255.892	77.56
256.124	88.56
256.357	71.56
256.59	79.56
256.823	77.56
257.056	77.56
257.289	76.56
257.521	80.56
257.754	79.56
257.987	78.56
258.22	86.56
258.452	81.56
258.685	74.56
258.918	89.56
259.151	86.56
259.383	92.56
259.616	83.56
259.849	72.56
260.081	91.56
260.314	86.56
260.547	71.56
260.779	89.56
261.012	69.56
261.244	86.56
261.477	78.56
261.71	83.56
261.942	77.56
262.175	83.56
262.407	74.56
262.64	78.56
262.872	76.56
263.105	80.56
263.337	74.56
263.57	76.56
263.802	82.56
264.035	86.56
264.267	73.56
264.499	80.56
264.732	93.56
264.964	68.56
265.197	79.56
265.429	90.56
265.661	103.56
265.894	97.56
266.126	91.56
266.358	76.56
266.591	49.56
266.823	92.56
267.055	88.56
267.287	85.56
267.52	75.56
267.752	75.56
267.984	74.56
268.216	71.56
268.448	79.56
268.681	85.56
268.913	96.56
269.145	92.56
269.377	89.56
269.609	94.56
269.841	76.56
270.073	96.56
270.306	82.56
270.538	87.56
270.77	82.56
271.002	86.56
271.234	81.56
271.466	82.56
271.698	80.56
271.93	79.56
272.162	94.56
272.394	89.56
272.626	87.56
272.858	79.56
273.09	81.56
273.322	76.56
273.553	76.56
273.785	86.56
274.017	90.56
274.249	79.56
274.481	81.56
274.713	71.56
274.945	82.56
275.176	88.56
275.408	83.56
275.64	83.56
275.872	95.56
276.104	105.56
276.335	84.56
276.567	85.56
276.799	73.56
277.031	77.56
277.262	79.56
277.494	72.56
277.726	81.56
277.957	81.56
278.189	99.56
278.421	86.56
278.652	82.56
278.884	79.56
279.115	85.56
279.347	91.56
279.579	85.56
279.81	77.56
280.042	82.56
280.273	74.56
280.505	74.56
280.736	85.56
280.968	78.56
281.199	61.56
281.431	88.56
281.662	80.56
281.894	90.56
282.125	82.56
282.356	79.56
282.588	90.56
282.819	96.56
283.051	82.56
283.282	80.56
283.513	92.56
283.745	89.56
283.976	82.56
284.207	80.56
284.439	82.56
284.67	79.56
284.901	69.56
285.132	86.56
285.364	73.56
285.595	88.56
285.826	86.56
286.057	93.56
286.288	72.56
286.52	79.56
286.751	89.56
286.982	71.56
287.213	80.56
287.444	90.56
287.675	84.56
287.906	76.56
288.138	92.56
288.369	90.56
288.6	96.56
288.831	84.56
289.062	80.56
289.293	76.56
289.524	77.56
289.755	77.56
289.986	81.56
290.217	80.56
290.448	79.56
290.679	97.56
290.91	82.56
291.141	98.56
291.371	91.56
291.602	72.56
291.833	94.56
292.064	81.56
292.295	91.56
292.526	82.56
292.757	82.56
292.987	98.56
293.218	86.56
293.449	88.56
293.68	83.56
293.91	77.56
294.141	78.56
294.372	87.56
294.603	83.56
294.833	72.56
295.064	95.56
295.295	90.56
295.525	81.56
295.756	84.56
295.987	79.56
296.217	82.56
296.448	90.56
296.679	83.56
296.909	90.56
297.14	101.56
297.37	97.56
297.601	88.56
297.831	88.56
298.062	79.56
298.292	82.56
298.523	88.56
298.753	87.56
298.984	75.56
299.214	81.56
299.445	90.56
299.675	97.56
299.905	99.56
300.136	93.56
300.366	88.56
300.597	88.56
300.827	106.56
301.057	78.56
301.288	82.56
301.518	95.56
301.748	95.56
301.979	104.56
302.209	77.56
302.439	91.56
302.669	83.56
302.9	84.56
303.13	93.56
303.36	79.56
303.59	81.56
303.82	87.56
304.051	84.56
304.281	88.56
304.511	79.56
304.741	82.56
304.971	77.56
305.201	92.56
305.431	90.56
305.661	86.56
305.891	79.56
306.121	85.56
306.352	84.56
306.582	80.56
306.812	86.56
307.042	96.56
307.272	94.56
307.502	81.56
307.731	90.56
307.961	107.56
308.191	102.56
308.421	82.56
308.651	80.56
308.881	80.56
309.111	91.56
309.341	95.56
309.571	90.56
309.8	83.56
310.03	77.56
310.26	94.56
310.49	72.56
310.72	87.56
310.949	96.56
311.179	94.56
311.409	87.56
311.639	80.56
311.868	87.56
312.098	96.56
312.328	82.56
312.557	87.56
312.787	87.56
313.017	87.56
313.246	86.56
313.476	76.56
313.706	76.56
313.935	88.56
314.165	79.56
314.394	89.56
314.624	98.56
314.853	87.56
315.083	82.56
315.312	81.56
315.542	74.56
315.771	91.56
316.001	87.56
316.23	92.56
316.46	89.56
316.689	86.56
316.919	91.56
317.148	69.56
317.377	87.56
317.607	90.56
317.836	104.56
318.065	117.56
318.295	102.56
318.524	107.56
318.753	85.56
318.983	75.56
319.212	78.56
319.441	91.56
319.67	87.56
319.9	76.56
320.129	79.56
320.358	87.56
320.587	94.56
320.816	95.56
321.046	94.56
321.275	80.56
321.504	89.56
321.733	75.56
321.962	103.56
322.191	93.56
322.42	87.56
322.649	81.56
322.878	100.56
323.108	102.56
323.337	92.56
323.566	107.56
323.795	85.56
324.024	87.56
324.253	83.56
324.482	83.56
324.71	87.56
324.939	97.56
325.168	83.56
325.397	90.56
325.626	83.56
325.855	78.56
326.084	82.56
326.313	87.56
326.542	72.56
326.77	82.56
326.999	92.56
327.228	86.56
327.457	98.56
327.686	89.56
327.914	100.56
328.143	86.56
328.372	86.56
328.6	99.56
328.829	88.56
329.058	86.56
329.287	66.56
329.515	89.56
329.744	83.56
329.972	68.56
330.201	91.56
330.43	87.56
330.658	86.56
330.887	79.56
331.115	92.56
331.344	88.56
331.572	85.56
331.801	85.56
332.03	69.56
332.258	78.56
332.486	95.56
332.715	83.56
332.943	97.56
333.172	82.56
333.4	72.56
333.629	101.56
333.857	96.56
334.085	97.56
334.314	94.56
334.542	107.56
334.771	86.56
334.999	106.56
335.227	110.56
335.455	98.56
335.684	114.56
335.912	106.56
336.14	111.56
336.369	121.56
336.597	107.56
336.825	118.56
337.053	94.56
337.281	80.56
337.51	92.56
337.738	88.56
337.966	94.56
338.194	85.56
338.422	84.56
338.65	95.56
338.878	78.56
339.106	88.56
339.334	97.56
339.562	90.56
339.79	88.56
340.018	93.56
340.246	88.56
340.474	97.56
340.702	87.56
340.93	83.56
341.158	83.56
341.386	89.56
341.614	80.56
341.842	98.56
342.07	95.56
342.298	94.56
342.526	93.56
342.754	99.56
342.981	80.56
343.209	91.56
343.437	98.56
343.665	99.56
343.893	96.56
344.12	96.56
344.348	96.56
344.576	75.56
344.804	87.56
345.031	83.56
345.259	84.56
345.487	84.56
345.714	90.56
345.942	106.56
346.17	91.56
346.397	86.56
346.625	81.56
346.853	93.56
347.08	91.56
347.308	103.56
347.535	90.56
347.763	92.56
347.99	88.56
348.218	79.56
348.445	93.56
348.673	92.56
348.9	99.56
349.128	92.56
349.355	83.56
349.583	86.56
349.81	99.56
350.037	104.56
350.265	92.56
350.492	94.56
350.72	87.56
350.947	101.56
351.174	76.56
351.402	92.56
351.629	92.56
351.856	95.56
352.083	76.56
352.311	85.56
352.538	96.56
352.765	90.56
352.992	96.56
353.22	104.56
353.447	90.56
353.674	92.56
353.901	89.56
354.128	90.56
354.355	88.56
354.583	92.56
354.81	103.56
355.037	93.56
355.264	88.56
355.491	86.56
355.718	86.56
355.945	84.56
356.172	73.56
356.399	82.56
356.626	91.56
356.853	102.56
357.08	98.56
357.307	95.56
357.534	79.56
357.761	91.56
357.988	86.56
358.215	114.56
358.441	86.56
358.668	84.56
358.895	84.56
359.122	90.56
359.349	93.56
359.576	97.56
359.802	105.56
360.029	83.56
360.256	85.56
360.483	78.56
360.709	88.56
360.936	90.56
361.163	103.56
361.39	106.56
361.616	95.56
361.843	112.56
362.07	104.56
362.296	119.56
362.523	136.56
362.749	135.56
362.976	164.56
363.203	171.56
363.429	135.56
363.656	120.56
363.882	120.56
364.109	139.56
364.335	201.56
364.562	188.56
364.788	134.56
365.015	102.56
365.241	103.56
365.468	90.56
365.694	94.56
365.92	90.56
366.147	100.56
366.373	87.56
366.599	86.56
366.826	106.56
367.052	91.56
367.278	107.56
367.505	83.56
367.731	94.56
367.957	80.56
368.184	96.56
368.41	82.56
368.636	86.56
368.862	88.56
369.089	92.56
369.315	95.56
369.541	99.56
369.767	80.56
369.993	85.56
370.219	88.56
370.445	101.56
370.672	111.56
370.898	98.56
371.124	96.56
371.35	83.56
371.576	102.56
371.802	96.56
372.028	90.56
372.254	108.56
372.48	100.56
372.706	96.56
372.932	96.56
373.158	98.56
373.384	116.56
373.61	118.56
373.835	119.56
374.061	107.56
374.287	94.56
374.513	116.56
374.739	109.56
374.965	120.56
375.191	97.56
375.416	94.56
375.642	79.56
375.868	100.56
376.094	89.56
376.319	79.56
376.545	90.56
376.771	102.56
376.997	90.56
377.222	91.56
377.448	87.56
377.674	92.56
377.899	99.56
378.125	77.56
378.35	95.56
378.576	90.56
378.802	95.56
379.027	100.56
379.253	108.56
379.478	79.56
379.704	89.56
379.929	83.56
380.155	101.56
380.38	85.56
380.606	101.56
380.831	100.56
381.057	110.56
381.282	96.56
381.507	94.56
381.733	105.56
381.958	84.56
382.184	83.56
382.409	97.56
382.634	107.56
382.86	110.56
383.085	106.56
383.31	96.56
383.535	112.56
383.761	108.56
383.986	100.56
384.211	101.56
384.436	105.56
384.662	96.56
384.887	82.56
385.112	99.56
385.337	91.56
385.562	92.56
385.787	109.56
386.013	110.56
386.238	100.56
386.463	101.56
386.688	125.56
386.913	102.56
387.138	105.56
387.363	126.56
387.588	92.56
387.813	119.56
388.038	107.56
388.263	114.56
388.488	110.56
388.713	87.56
388.938	95.56
389.163	90.56
389.387	96.56
389.612	97.56
389.837	101.56
390.062	101.56
390.287	86.56
390.512	100.56
390.736	114.56
390.961	96.56
391.186	100.56
391.411	101.56
391.636	97.56
391.86	99.56
392.085	117.56
392.31	107.56
392.534	130.56
392.759	156.56
392.984	225.56
393.208	368.56
393.433	482.56
393.658	373.56
393.882	210.56
394.107	161.56
394.331	139.56
394.556	154.56
394.78	120.56
395.005	118.56
395.229	106.56
395.454	94.56
395.678	129.56
395.903	152.56
396.127	168.56
396.352	204.56
396.576	244.56
396.801	362.56
397.025	387.56
397.249	275.56
397.474	201.56
397.698	139.56
397.922	114.56
398.147	101.56
398.371	109.56
398.595	112.56
398.82	110.56
399.044	99.56
399.268	95.56
399.492	100.56
399.717	92.56
399.941	94.56
400.165	89.56
400.389	95.56
400.613	94.56
400.837	92.56
401.062	91.56
401.286	92.56
401.51	95.56
401.734	99.56
401.958	100.56
402.182	84.56
402.406	88.56
402.63	82.56
402.854	101.56
403.078	108.56
403.302	116.56
403.526	114.56
403.75	97.56
403.974	96.56
404.198	95.56
404.422	113.56
404.645	97.56
404.869	102.56
405.093	96.56
405.317	94.56
405.541	96.56
405.765	89.56
405.988	94.56
406.212	107.56
406.436	92.56
406.66	96.56
406.883	92.56
407.107	94.56
407.331	100.56
407.555	114.56
407.778	123.56
408.002	134.56
408.226	92.56
408.449	101.56
408.673	106.56
408.896	101.56
409.12	94.56
409.344	134.56
409.567	136.56
409.791	152.56
410.014	129.56
410.238	134.56
410.461	120.56
410.685	99.56
410.908	108.56
411.132	108.56
411.355	86.56
411.578	101.56
411.802	98.56
412.025	86.56
412.249	93.56
412.472	101.56
412.695	93.56
412.919	90.56
413.142	99.56
413.365	94.56
413.589	91.56
413.812	94.56
414.035	103.56
414.258	89.56
414.482	102.56
414.705	101.56
414.928	91.56
415.151	98.56
415.374	91.56
415.597	96.56
415.821	96.56
416.044	83.56
416.267	90.56
416.49	95.56
416.713	83.56
416.936	99.56
417.159	82.56
417.382	87.56
417.605	96.56
417.828	100.56
418.051	93.56
418.274	106.56
418.497	89.56
418.72	95.56
418.943	104.56
419.166	108.56
419.389	110.56
419.611	92.56
419.834	95.56
420.057	101.56
420.28	102.56
420.503	103.56
420.726	116.56
420.948	112.56
421.171	108.56
421.394	135.56
421.617	145.56
421.839	176.56
422.062	209.56
422.285	272.56
422.507	391.56
422.73	438.56
422.953	419.56
423.175	322.56
423.398	233.56
423.621	179.56
423.843	152.56
424.066	136.56
424.288	119.56
424.511	120.56
424.733	113.56
424.956	105.56
425.178	103.56
425.401	87.56
425.623	95.56
425.846	100.56
426.068	86.56
426.291	96.56
426.513	88.56
426.735	97.56
426.958	92.56
427.18	110.56
427.402	106.56
427.625	108.56
427.847	108.56
428.069	121.56
428.292	161.56
428.514	177.56
428.736	131.56
428.958	175.56
429.181	173.56
429.403	123.56
429.625	123.56
429.847	167.56
430.069	218.56
430.292	264.56
430.514	238.56
430.736	191.56
430.958	203.56
431.18	124.56
431.402	102.56
431.624	118.56
431.846	152.56
432.068	186.56
432.29	113.56
432.512	106.56
432.734	86.56
432.956	105.56
433.178	86.56
433.4	104.56
433.622	99.56
433.844	106.56
434.066	94.56
434.287	80.56
434.509	100.56
434.731	102.56
434.953	94.56
435.175	89.56
435.397	107.56
435.618	99.56
435.84	115.56
436.062	111.56
436.284	102.56
436.505	86.56
436.727	79.56
436.949	79.56
437.17	86.56
437.392	94.56
437.614	83.56
437.835	97.56
438.057	74.56
438.278	81.56
438.5	99.56
438.721	97.56
438.943	90.56
439.165	93.56
439.386	82.56
439.608	85.56
439.829	92.56
440.05	87.56
440.272	106.56
440.493	102.56
440.715	92.56
440.936	89.56
441.158	92.56
441.379	75.56
441.6	83.56
441.822	90.56
442.043	97.56
442.264	123.56
442.486	187.56
442.707	268.56
442.928	178.56
443.149	161.56
443.371	220.56
443.592	393.56
443.813	344.56
444.034	157.56
444.255	112.56
444.476	112.56
444.698	124.56
444.919	114.56
445.14	223.56
445.361	287.56
445.582	462.56
445.803	406.56
446.024	192.56
446.245	112.56
446.466	112.56
446.687	101.56
446.908	91.56
447.129	106.56
447.35	100.56
447.571	92.56
447.792	98.56
448.013	97.56
448.234	95.56
448.455	103.56
448.675	89.56
448.896	81.56
449.117	106.56
449.338	89.56
449.559	110.56
449.779	105.56
450	90.56
450.221	91.56
450.442	100.56
450.662	90.56
450.883	93.56
451.104	97.56
451.324	94.56
451.545	107.56
451.766	82.56
451.986	80.56
452.207	90.56
452.428	105.56
452.648	117.56
452.869	133.56
453.089	128.56
453.31	91.56
453.53	103.56
453.751	94.56
453.971	80.56
454.192	94.56
454.412	99.56
454.633	102.56
454.853	94.56
455.073	78.56
455.294	79.56
455.514	91.56
455.734	96.56
455.955	85.56
456.175	94.56
456.395	88.56
456.616	81.56
456.836	88.56
457.056	96.56
457.276	90.56
457.497	87.56
457.717	102.56
457.937	155.56
458.157	194.56
458.377	216.56
458.598	197.56
458.818	213.56
459.038	134.56
459.258	92.56
459.478	102.56
459.698	94.56
459.918	94.56
460.138	87.56
460.358	81.56
460.578	96.56
460.798	123.56
461.018	138.56
461.238	116.56
461.458	88.56
461.678	75.56
461.898	81.56
462.118	98.56
462.338	93.56
462.558	92.56
462.777	95.56
462.997	83.56
463.217	78.56
463.437	90.56
463.657	88.56
463.876	91.56
464.096	96.56
464.316	88.56
464.536	86.56
464.755	88.56
464.975	91.56
465.195	90.56
465.414	77.56
465.634	102.56
465.854	90.56
466.073	92.56
466.293	85.56
466.512	80.56
466.732	99.56
466.951	103.56
467.171	91.56
467.391	95.56
467.61	85.56
467.829	94.56
468.049	93.56
468.268	85.56
468.488	102.56
468.707	97.56
468.927	86.56
469.146	82.56
469.365	77.56
469.585	99.56
469.804	95.56
470.023	85.56
470.243	86.56
470.462	87.56
470.681	98.56
470.901	85.56
471.12	90.56
471.339	87.56
471.558	83.56
471.777	99.56
471.997	94.56
472.216	97.56
472.435	94.56
472.654	88.56
472.873	83.56
473.092	97.56
473.311	88.56
473.53	97.56
473.749	80.56
473.968	86.56
474.187	80.56
474.406	89.56
474.625	87.56
474.844	92.56
475.063	94.56
475.282	97.56
475.501	93.56
475.72	102.56
475.939	86.56
476.158	86.56
476.377	92.56
476.596	83.56
476.814	91.56
477.033	83.56
477.252	96.56
477.471	77.56
477.69	104.56
477.908	97.56
478.127	93.56
478.346	90.56
478.564	94.56
478.783	90.56
479.002	100.56
479.22	85.56
479.439	95.56
479.658	99.56
479.876	88.56
480.095	76.56
480.313	96.56
480.532	107.56
480.751	100.56
480.969	92.56
481.188	97.56
481.406	108.56
481.624	115.56
481.843	112.56
482.061	88.56
482.28	97.56
482.498	98.56
482.717	99.56
482.935	91.56
483.153	106.56
483.372	97.56
483.59	98.56
483.808	98.56
484.027	99.56
484.245	106.56
484.463	94.56
484.681	108.56
484.9	88.56
485.118	95.56
485.336	99.56
485.554	107.56
485.772	88.56
485.99	104.56
486.209	119.56
486.427	89.56
486.645	98.56
486.863	83.56
487.081	111.56
487.299	114.56
487.517	114.56
487.735	171.56
487.953	347.56
488.171	267.56
488.389	127.56
488.607	111.56
488.825	103.56
489.043	90.56
489.261	98.56
489.479	84.56
489.696	95.56
489.914	99.56
490.132	100.56
490.35	95.56
490.568	105.56
490.786	100.56
491.003	98.56
491.221	101.56
491.439	87.56
491.657	85.56
491.874	99.56
492.092	107.56
492.31	93.56
492.527	94.56
492.745	93.56
492.963	99.56
493.18	110.56
493.398	102.56
493.615	80.56
493.833	86.56
494.05	93.56
494.268	77.56
494.485	90.56
494.703	99.56
494.92	78.56
495.138	93.56
495.355	97.56
495.573	100.56
495.79	98.56
496.008	100.56
496.225	103.56
496.442	104.56
496.66	107.56
496.877	92.56
497.094	92.56
497.312	95.56
497.529	92.56
497.746	97.56
497.963	94.56
498.181	96.56
498.398	110.56
498.615	99.56
498.832	92.56
499.049	106.56
499.267	111.56
499.484	101.56
499.701	89.56
499.918	91.56
500.135	97.56
500.352	102.56
500.569	104.56
500.786	100.56
501.003	90.56
501.22	98.56
501.437	88.56
501.654	98.56
501.871	98.56
502.088	95.56
502.305	97.56
502.522	99.56
502.739	101.56
502.956	106.56
503.172	112.56
503.389	96.56
503.606	88.56
503.823	108.56
504.04	128.56
504.256	234.56
504.473	238.56
504.69	134.56
504.907	116.56
505.123	113.56
505.34	90.56
505.557	103.56
505.773	94.56
505.99	97.56
506.207	99.56
506.423	90.56
506.64	88.56
506.856	91.56
507.073	96.56
507.289	94.56
507.506	113.56
507.722	90.56
507.939	83.56
508.155	92.56
508.372	107.56
508.588	85.56
508.805	99.56
509.021	81.56
509.238	102.56
509.454	94.56
509.67	98.56
509.887	94.56
510.103	103.56
510.319	100.56
510.536	101.56
510.752	89.56
510.968	100.56
511.184	82.56
511.401	93.56
511.617	99.56
511.833	91.56
512.049	81.56
512.265	94.56
512.481	86.56
512.698	106.56
512.914	100.56
513.13	111.56
513.346	91.56
513.562	93.56
513.778	98.56
513.994	94.56
514.21	107.56
514.426	91.56
514.642	88.56
514.858	95.56
515.074	94.56
515.29	105.56
515.506	97.56
