Data from CBS_2_HRD10591_00032.txt Node
Date: Mon Jan 19 14:05:02 EST 2026
User: Yrep
Spectrometer: HR+D1059
Trigger mode: 1
Integration Time (sec): 1.000000E-1
Scans to average: 1
Electric dark correction enabled: true
Nonlinearity correction enabled: false
Boxcar width: 0
XAxis mode: Wavelengths
Number of Pixels in Spectrum: 2048
>>>>>Begin Spectral Data<<<<<
223.165	-28.69
223.4	-28.69
223.635	-28.69
223.869	-31.69
224.104	-18.69
224.338	-22.69
224.573	-26.69
224.808	-15.69
225.042	-3.69
225.277	1.31
225.511	13.31
225.746	1.31
225.98	10.31
226.215	-2.69
226.449	39.31
226.683	18.31
226.918	33.31
227.152	33.31
227.387	37.31
227.621	34.31
227.856	49.31
228.09	56.31
228.324	54.31
228.559	64.31
228.793	55.31
229.027	63.31
229.262	64.31
229.496	63.31
229.73	60.31
229.964	79.31
230.199	77.31
230.433	64.31
230.667	63.31
230.901	72.31
231.136	79.31
231.37	75.31
231.604	81.31
231.838	73.31
232.072	77.31
232.306	84.31
232.541	74.31
232.775	81.31
233.009	73.31
233.243	84.31
233.477	81.31
233.711	82.31
233.945	81.31
234.179	71.31
234.413	94.31
234.647	70.31
234.881	66.31
235.115	82.31
235.349	78.31
235.583	69.31
235.817	82.31
236.051	57.31
236.285	73.31
236.519	85.31
236.753	70.31
236.987	68.31
237.221	72.31
237.455	69.31
237.689	81.31
237.922	77.31
238.156	74.31
238.39	73.31
238.624	89.31
238.858	65.31
239.091	72.31
239.325	82.31
239.559	79.31
239.793	66.31
240.027	80.31
240.26	61.31
240.494	90.31
240.728	62.31
240.961	75.31
241.195	78.31
241.429	85.31
241.662	70.31
241.896	76.31
242.13	81.31
242.363	72.31
242.597	90.31
242.83	67.31
243.064	71.31
243.298	85.31
243.531	79.31
243.765	83.31
243.998	75.31
244.232	86.31
244.465	82.31
244.699	85.31
244.932	84.31
245.166	79.31
245.399	79.31
245.633	70.31
245.866	78.31
246.099	63.31
246.333	59.31
246.566	78.31
246.8	81.31
247.033	69.31
247.266	84.31
247.5	103.31
247.733	82.31
247.966	86.31
248.2	78.31
248.433	82.31
248.666	66.31
248.899	65.31
249.133	65.31
249.366	81.31
249.599	76.31
249.832	84.31
250.066	77.31
250.299	75.31
250.532	73.31
250.765	74.31
250.998	69.31
251.231	82.31
251.465	76.31
251.698	73.31
251.931	91.31
252.164	82.31
252.397	98.31
252.63	81.31
252.863	69.31
253.096	76.31
253.329	85.31
253.562	80.31
253.795	77.31
254.028	79.31
254.261	83.31
254.494	70.31
254.727	84.31
254.96	80.31
255.193	82.31
255.426	90.31
255.659	70.31
255.892	74.31
256.124	74.31
256.357	74.31
256.59	92.31
256.823	80.31
257.056	83.31
257.289	75.31
257.521	71.31
257.754	91.31
257.987	89.31
258.22	81.31
258.452	80.31
258.685	76.31
258.918	78.31
259.151	84.31
259.383	82.31
259.616	83.31
259.849	95.31
260.081	79.31
260.314	83.31
260.547	86.31
260.779	85.31
261.012	75.31
261.244	74.31
261.477	87.31
261.71	89.31
261.942	71.31
262.175	95.31
262.407	79.31
262.64	75.31
262.872	89.31
263.105	87.31
263.337	66.31
263.57	83.31
263.802	81.31
264.035	71.31
264.267	86.31
264.499	93.31
264.732	89.31
264.964	83.31
265.197	82.31
265.429	70.31
265.661	81.31
265.894	85.31
266.126	76.31
266.358	77.31
266.591	90.31
266.823	84.31
267.055	74.31
267.287	83.31
267.52	73.31
267.752	78.31
267.984	75.31
268.216	94.31
268.448	63.31
268.681	84.31
268.913	78.31
269.145	79.31
269.377	88.31
269.609	89.31
269.841	89.31
270.073	65.31
270.306	75.31
270.538	74.31
270.77	92.31
271.002	86.31
271.234	89.31
271.466	83.31
271.698	78.31
271.93	84.31
272.162	81.31
272.394	91.31
272.626	98.31
272.858	84.31
273.09	87.31
273.322	86.31
273.553	71.31
273.785	74.31
274.017	90.31
274.249	95.31
274.481	86.31
274.713	86.31
274.945	81.31
275.176	77.31
275.408	71.31
275.64	87.31
275.872	88.31
276.104	84.31
276.335	72.31
276.567	79.31
276.799	89.31
277.031	85.31
277.262	85.31
277.494	93.31
277.726	68.31
277.957	82.31
278.189	101.31
278.421	88.31
278.652	75.31
278.884	85.31
279.115	82.31
279.347	71.31
279.579	79.31
279.81	65.31
280.042	90.31
280.273	80.31
280.505	81.31
280.736	66.31
280.968	70.31
281.199	72.31
281.431	81.31
281.662	82.31
281.894	81.31
282.125	84.31
282.356	89.31
282.588	89.31
282.819	80.31
283.051	69.31
283.282	88.31
283.513	95.31
283.745	91.31
283.976	87.31
284.207	93.31
284.439	81.31
284.67	90.31
284.901	92.31
285.132	88.31
285.364	73.31
285.595	93.31
285.826	84.31
286.057	85.31
286.288	100.31
286.52	86.31
286.751	90.31
286.982	88.31
287.213	78.31
287.444	78.31
287.675	81.31
287.906	83.31
288.138	83.31
288.369	87.31
288.6	98.31
288.831	80.31
289.062	93.31
289.293	84.31
289.524	96.31
289.755	85.31
289.986	79.31
290.217	85.31
290.448	88.31
290.679	86.31
290.91	82.31
291.141	78.31
291.371	92.31
291.602	85.31
291.833	84.31
292.064	86.31
292.295	81.31
292.526	85.31
292.757	97.31
292.987	75.31
293.218	76.31
293.449	95.31
293.68	88.31
293.91	94.31
294.141	93.31
294.372	80.31
294.603	87.31
294.833	83.31
295.064	78.31
295.295	78.31
295.525	95.31
295.756	72.31
295.987	83.31
296.217	73.31
296.448	73.31
296.679	84.31
296.909	79.31
297.14	75.31
297.37	90.31
297.601	89.31
297.831	74.31
298.062	86.31
298.292	91.31
298.523	84.31
298.753	88.31
298.984	80.31
299.214	84.31
299.445	86.31
299.675	80.31
299.905	93.31
300.136	98.31
300.366	80.31
300.597	82.31
300.827	92.31
301.057	94.31
301.288	99.31
301.518	75.31
301.748	96.31
301.979	101.31
302.209	86.31
302.439	80.31
302.669	91.31
302.9	93.31
303.13	96.31
303.36	95.31
303.59	83.31
303.82	77.31
304.051	89.31
304.281	79.31
304.511	108.31
304.741	81.31
304.971	88.31
305.201	88.31
305.431	86.31
305.661	93.31
305.891	93.31
306.121	89.31
306.352	72.31
306.582	70.31
306.812	85.31
307.042	80.31
307.272	91.31
307.502	81.31
307.731	79.31
307.961	75.31
308.191	88.31
308.421	89.31
308.651	83.31
308.881	80.31
309.111	81.31
309.341	97.31
309.571	90.31
309.8	80.31
310.03	90.31
310.26	87.31
310.49	81.31
310.72	74.31
310.949	80.31
311.179	84.31
311.409	75.31
311.639	97.31
311.868	83.31
312.098	74.31
312.328	91.31
312.557	79.31
312.787	81.31
313.017	89.31
313.246	81.31
313.476	67.31
313.706	86.31
313.935	83.31
314.165	82.31
314.394	89.31
314.624	87.31
314.853	83.31
315.083	96.31
315.312	88.31
315.542	104.31
315.771	88.31
316.001	85.31
316.23	87.31
316.46	93.31
316.689	75.31
316.919	105.31
317.148	100.31
317.377	89.31
317.607	81.31
317.836	87.31
318.065	98.31
318.295	77.31
318.524	85.31
318.753	82.31
318.983	77.31
319.212	93.31
319.441	87.31
319.67	91.31
319.9	81.31
320.129	88.31
320.358	78.31
320.587	76.31
320.816	78.31
321.046	83.31
321.275	73.31
321.504	90.31
321.733	89.31
321.962	79.31
322.191	71.31
322.42	83.31
322.649	95.31
322.878	83.31
323.108	73.31
323.337	90.31
323.566	90.31
323.795	96.31
324.024	94.31
324.253	85.31
324.482	92.31
324.71	88.31
324.939	88.31
325.168	90.31
325.397	69.31
325.626	93.31
325.855	78.31
326.084	75.31
326.313	85.31
326.542	80.31
326.77	86.31
326.999	79.31
327.228	87.31
327.457	93.31
327.686	98.31
327.914	90.31
328.143	99.31
328.372	96.31
328.6	94.31
328.829	87.31
329.058	78.31
329.287	100.31
329.515	76.31
329.744	87.31
329.972	84.31
330.201	75.31
330.43	81.31
330.658	85.31
330.887	93.31
331.115	80.31
331.344	75.31
331.572	71.31
331.801	70.31
332.03	87.31
332.258	84.31
332.486	92.31
332.715	94.31
332.943	84.31
333.172	96.31
333.4	75.31
333.629	91.31
333.857	81.31
334.085	88.31
334.314	97.31
334.542	95.31
334.771	81.31
334.999	86.31
335.227	99.31
335.455	94.31
335.684	102.31
335.912	94.31
336.14	85.31
336.369	103.31
336.597	77.31
336.825	75.31
337.053	95.31
337.281	93.31
337.51	88.31
337.738	81.31
337.966	81.31
338.194	94.31
338.422	89.31
338.65	93.31
338.878	83.31
339.106	81.31
339.334	61.31
339.562	83.31
339.79	92.31
340.018	96.31
340.246	74.31
340.474	73.31
340.702	79.31
340.93	89.31
341.158	89.31
341.386	84.31
341.614	83.31
341.842	78.31
342.07	79.31
342.298	82.31
342.526	78.31
342.754	78.31
342.981	75.31
343.209	88.31
343.437	74.31
343.665	83.31
343.893	75.31
344.12	82.31
344.348	90.31
344.576	86.31
344.804	75.31
345.031	94.31
345.259	79.31
345.487	84.31
345.714	90.31
345.942	85.31
346.17	91.31
346.397	85.31
346.625	89.31
346.853	84.31
347.08	90.31
347.308	94.31
347.535	80.31
347.763	82.31
347.99	87.31
348.218	91.31
348.445	79.31
348.673	74.31
348.9	85.31
349.128	77.31
349.355	86.31
349.583	87.31
349.81	82.31
350.037	74.31
350.265	81.31
350.492	87.31
350.72	81.31
350.947	81.31
351.174	104.31
351.402	90.31
351.629	82.31
351.856	83.31
352.083	78.31
352.311	82.31
352.538	79.31
352.765	81.31
352.992	91.31
353.22	74.31
353.447	81.31
353.674	81.31
353.901	89.31
354.128	90.31
354.355	76.31
354.583	84.31
354.81	82.31
355.037	67.31
355.264	94.31
355.491	88.31
355.718	70.31
355.945	82.31
356.172	81.31
356.399	81.31
356.626	94.31
356.853	93.31
357.08	93.31
357.307	89.31
357.534	82.31
357.761	94.31
357.988	78.31
358.215	80.31
358.441	73.31
358.668	82.31
358.895	67.31
359.122	83.31
359.349	86.31
359.576	72.31
359.802	79.31
360.029	86.31
360.256	95.31
360.483	81.31
360.709	78.31
360.936	106.31
361.163	92.31
361.39	82.31
361.616	79.31
361.843	86.31
362.07	91.31
362.296	99.31
362.523	87.31
362.749	106.31
362.976	104.31
363.203	109.31
363.429	96.31
363.656	90.31
363.882	89.31
364.109	99.31
364.335	128.31
364.562	122.31
364.788	103.31
365.015	85.31
365.241	88.31
365.468	80.31
365.694	87.31
365.92	93.31
366.147	67.31
366.373	88.31
366.599	90.31
366.826	88.31
367.052	89.31
367.278	85.31
367.505	89.31
367.731	77.31
367.957	77.31
368.184	79.31
368.41	82.31
368.636	79.31
368.862	79.31
369.089	87.31
369.315	96.31
369.541	89.31
369.767	83.31
369.993	93.31
370.219	76.31
370.445	81.31
370.672	91.31
370.898	83.31
371.124	83.31
371.35	86.31
371.576	90.31
371.802	70.31
372.028	84.31
372.254	91.31
372.48	81.31
372.706	89.31
372.932	89.31
373.158	83.31
373.384	95.31
373.61	106.31
373.835	99.31
374.061	101.31
374.287	84.31
374.513	101.31
374.739	81.31
374.965	101.31
375.191	93.31
375.416	84.31
375.642	93.31
375.868	81.31
376.094	96.31
376.319	91.31
376.545	81.31
376.771	84.31
376.997	74.31
377.222	81.31
377.448	76.31
377.674	99.31
377.899	92.31
378.125	87.31
378.35	91.31
378.576	74.31
378.802	90.31
379.027	86.31
379.253	99.31
379.478	83.31
379.704	89.31
379.929	82.31
380.155	105.31
380.38	89.31
380.606	66.31
380.831	102.31
381.057	93.31
381.282	76.31
381.507	83.31
381.733	91.31
381.958	86.31
382.184	91.31
382.409	79.31
382.634	78.31
382.86	69.31
383.085	88.31
383.31	88.31
383.535	74.31
383.761	88.31
383.986	96.31
384.211	90.31
384.436	88.31
384.662	81.31
384.887	88.31
385.112	74.31
385.337	75.31
385.562	86.31
385.787	99.31
386.013	89.31
386.238	94.31
386.463	77.31
386.688	94.31
386.913	77.31
387.138	86.31
387.363	90.31
387.588	95.31
387.813	89.31
388.038	81.31
388.263	87.31
388.488	100.31
388.713	97.31
388.938	67.31
389.163	85.31
389.387	90.31
389.612	97.31
389.837	76.31
390.062	80.31
390.287	82.31
390.512	90.31
390.736	82.31
390.961	78.31
391.186	87.31
391.411	75.31
391.636	93.31
391.86	90.31
392.085	95.31
392.31	98.31
392.534	98.31
392.759	102.31
392.984	136.31
393.208	209.31
393.433	310.31
393.658	223.31
393.882	139.31
394.107	96.31
394.331	104.31
394.556	90.31
394.78	86.31
395.005	83.31
395.229	82.31
395.454	93.31
395.678	106.31
395.903	106.31
396.127	125.31
396.352	123.31
396.576	146.31
396.801	213.31
397.025	230.31
397.249	144.31
397.474	113.31
397.698	113.31
397.922	104.31
398.147	90.31
398.371	87.31
398.595	88.31
398.82	72.31
399.044	87.31
399.268	76.31
399.492	80.31
399.717	98.31
399.941	89.31
400.165	71.31
400.389	82.31
400.613	89.31
400.837	97.31
401.062	96.31
401.286	73.31
401.51	83.31
401.734	90.31
401.958	79.31
402.182	86.31
402.406	84.31
402.63	92.31
402.854	99.31
403.078	106.31
403.302	91.31
403.526	79.31
403.75	87.31
403.974	96.31
404.198	74.31
404.422	93.31
404.645	87.31
404.869	83.31
405.093	79.31
405.317	78.31
405.541	64.31
405.765	89.31
405.988	93.31
406.212	84.31
406.436	85.31
406.66	93.31
406.883	90.31
407.107	84.31
407.331	87.31
407.555	93.31
407.778	100.31
408.002	95.31
408.226	78.31
408.449	86.31
408.673	74.31
408.896	93.31
409.12	86.31
409.344	88.31
409.567	91.31
409.791	99.31
410.014	105.31
410.238	106.31
410.461	98.31
410.685	89.31
410.908	93.31
411.132	81.31
411.355	92.31
411.578	78.31
411.802	89.31
412.025	92.31
412.249	87.31
412.472	72.31
412.695	106.31
412.919	80.31
413.142	70.31
413.365	65.31
413.589	104.31
413.812	85.31
414.035	97.31
414.258	81.31
414.482	85.31
414.705	72.31
414.928	97.31
415.151	81.31
415.374	89.31
415.597	83.31
415.821	92.31
416.044	72.31
416.267	103.31
416.49	87.31
416.713	94.31
416.936	98.31
417.159	77.31
417.382	98.31
417.605	90.31
417.828	84.31
418.051	88.31
418.274	96.31
418.497	95.31
418.72	77.31
418.943	79.31
419.166	91.31
419.389	87.31
419.611	85.31
419.834	99.31
420.057	71.31
420.28	90.31
420.503	97.31
420.726	86.31
420.948	81.31
421.171	97.31
421.394	117.31
421.617	120.31
421.839	123.31
422.062	122.31
422.285	181.31
422.507	230.31
422.73	335.31
422.953	315.31
423.175	202.31
423.398	141.31
423.621	113.31
423.843	99.31
424.066	89.31
424.288	105.31
424.511	90.31
424.733	89.31
424.956	91.31
425.178	80.31
425.401	79.31
425.623	84.31
425.846	84.31
426.068	99.31
426.291	84.31
426.513	82.31
426.735	81.31
426.958	93.31
427.18	104.31
427.402	93.31
427.625	89.31
427.847	87.31
428.069	103.31
428.292	129.31
428.514	146.31
428.736	113.31
428.958	120.31
429.181	133.31
429.403	91.31
429.625	94.31
429.847	112.31
430.069	148.31
430.292	162.31
430.514	147.31
430.736	115.31
430.958	121.31
431.18	112.31
431.402	109.31
431.624	101.31
431.846	113.31
432.068	130.31
432.29	89.31
432.512	100.31
432.734	78.31
432.956	95.31
433.178	88.31
433.4	82.31
433.622	88.31
433.844	83.31
434.066	87.31
434.287	76.31
434.509	84.31
434.731	94.31
434.953	93.31
435.175	98.31
435.397	105.31
435.618	80.31
435.84	81.31
436.062	82.31
436.284	72.31
436.505	82.31
436.727	88.31
436.949	87.31
437.17	76.31
437.392	73.31
437.614	96.31
437.835	85.31
438.057	83.31
438.278	90.31
438.5	86.31
438.721	81.31
438.943	88.31
439.165	66.31
439.386	82.31
439.608	78.31
439.829	86.31
440.05	86.31
440.272	82.31
440.493	80.31
440.715	95.31
440.936	87.31
441.158	89.31
441.379	73.31
441.6	88.31
441.822	87.31
442.043	91.31
442.264	90.31
442.486	133.31
442.707	162.31
442.928	133.31
443.149	107.31
443.371	143.31
443.592	225.31
443.813	207.31
444.034	103.31
444.255	86.31
444.476	95.31
444.698	86.31
444.919	96.31
445.14	154.31
445.361	187.31
445.582	283.31
445.803	251.31
446.024	119.31
446.245	83.31
446.466	69.31
446.687	66.31
446.908	77.31
447.129	71.31
447.35	97.31
447.571	89.31
447.792	63.31
448.013	71.31
448.234	78.31
448.455	85.31
448.675	76.31
448.896	87.31
449.117	81.31
449.338	91.31
449.559	89.31
449.779	83.31
450	74.31
450.221	82.31
450.442	86.31
450.662	91.31
450.883	90.31
451.104	95.31
451.324	74.31
451.545	94.31
451.766	72.31
451.986	83.31
452.207	85.31
452.428	88.31
452.648	98.31
452.869	94.31
453.089	103.31
453.31	81.31
453.53	89.31
453.751	87.31
453.971	97.31
454.192	99.31
454.412	82.31
454.633	93.31
454.853	79.31
455.073	84.31
455.294	74.31
455.514	103.31
455.734	74.31
455.955	87.31
456.175	87.31
456.395	84.31
456.616	76.31
456.836	80.31
457.056	81.31
457.276	86.31
457.497	115.31
457.717	91.31
457.937	104.31
458.157	125.31
458.377	132.31
458.598	131.31
458.818	136.31
459.038	96.31
459.258	86.31
459.478	89.31
459.698	85.31
459.918	94.31
460.138	79.31
460.358	79.31
460.578	97.31
460.798	118.31
461.018	117.31
461.238	92.31
461.458	83.31
461.678	89.31
461.898	95.31
462.118	90.31
462.338	84.31
462.558	84.31
462.777	75.31
462.997	100.31
463.217	86.31
463.437	89.31
463.657	57.31
463.876	80.31
464.096	75.31
464.316	79.31
464.536	83.31
464.755	72.31
464.975	77.31
465.195	87.31
465.414	79.31
465.634	75.31
465.854	82.31
466.073	79.31
466.293	77.31
466.512	87.31
466.732	72.31
466.951	85.31
467.171	89.31
467.391	82.31
467.61	76.31
467.829	74.31
468.049	74.31
468.268	91.31
468.488	87.31
468.707	93.31
468.927	89.31
469.146	81.31
469.365	91.31
469.585	90.31
469.804	101.31
470.023	81.31
470.243	87.31
470.462	80.31
470.681	75.31
470.901	80.31
471.12	91.31
471.339	85.31
471.558	90.31
471.777	83.31
471.997	91.31
472.216	97.31
472.435	96.31
472.654	78.31
472.873	81.31
473.092	86.31
473.311	96.31
473.53	91.31
473.749	90.31
473.968	89.31
474.187	80.31
474.406	79.31
474.625	87.31
474.844	94.31
475.063	95.31
475.282	92.31
475.501	87.31
475.72	95.31
475.939	81.31
476.158	76.31
476.377	89.31
476.596	88.31
476.814	89.31
477.033	89.31
477.252	86.31
477.471	77.31
477.69	95.31
477.908	87.31
478.127	89.31
478.346	87.31
478.564	90.31
478.783	87.31
479.002	89.31
479.22	74.31
479.439	88.31
479.658	86.31
479.876	73.31
480.095	90.31
480.313	86.31
480.532	89.31
480.751	85.31
480.969	81.31
481.188	81.31
481.406	80.31
481.624	81.31
481.843	65.31
482.061	79.31
482.28	99.31
482.498	96.31
482.717	89.31
482.935	79.31
483.153	83.31
483.372	70.31
483.59	90.31
483.808	102.31
484.027	95.31
484.245	87.31
484.463	84.31
484.681	101.31
484.9	71.31
485.118	78.31
485.336	100.31
485.554	87.31
485.772	91.31
485.99	75.31
486.209	98.31
486.427	83.31
486.645	75.31
486.863	84.31
487.081	83.31
487.299	92.31
487.517	82.31
487.735	106.31
487.953	193.31
488.171	135.31
488.389	106.31
488.607	86.31
488.825	89.31
489.043	81.31
489.261	101.31
489.479	89.31
489.696	87.31
489.914	82.31
490.132	89.31
490.35	88.31
490.568	83.31
490.786	83.31
491.003	90.31
491.221	79.31
491.439	93.31
491.657	94.31
491.874	89.31
492.092	96.31
492.31	92.31
492.527	101.31
492.745	93.31
492.963	86.31
493.18	81.31
493.398	85.31
493.615	97.31
493.833	86.31
494.05	97.31
494.268	80.31
494.485	87.31
494.703	79.31
494.92	85.31
495.138	90.31
495.355	73.31
495.573	89.31
495.79	89.31
496.008	89.31
496.225	91.31
496.442	93.31
496.66	90.31
496.877	82.31
497.094	87.31
497.312	75.31
497.529	88.31
497.746	97.31
497.963	75.31
498.181	91.31
498.398	89.31
498.615	71.31
498.832	78.31
499.049	81.31
499.267	82.31
499.484	88.31
499.701	86.31
499.918	94.31
500.135	88.31
500.352	89.31
500.569	83.31
500.786	89.31
501.003	91.31
501.22	88.31
501.437	88.31
501.654	79.31
501.871	103.31
502.088	96.31
502.305	77.31
502.522	88.31
502.739	96.31
502.956	84.31
503.172	85.31
503.389	90.31
503.606	81.31
503.823	93.31
504.04	93.31
504.256	136.31
504.473	126.31
504.69	113.31
504.907	96.31
505.123	87.31
505.34	93.31
505.557	91.31
505.773	84.31
505.99	93.31
506.207	92.31
506.423	85.31
506.64	80.31
506.856	84.31
507.073	99.31
507.289	87.31
507.506	95.31
507.722	86.31
507.939	77.31
508.155	94.31
508.372	110.31
508.588	79.31
508.805	95.31
509.021	71.31
509.238	93.31
509.454	89.31
509.67	79.31
509.887	82.31
510.103	93.31
510.319	89.31
510.536	82.31
510.752	90.31
510.968	95.31
511.184	80.31
511.401	91.31
511.617	81.31
511.833	79.31
512.049	88.31
512.265	87.31
512.481	81.31
512.698	74.31
512.914	87.31
513.13	89.31
513.346	88.31
513.562	81.31
513.778	85.31
513.994	88.31
514.21	94.31
514.426	92.31
514.642	94.31
514.858	71.31
515.074	85.31
515.29	98.31
515.506	73.31
515.721	94.31
515.937	84.31
516.153	73.31
516.369	87.31
516.585	72.31
516.801	97.31
517.016	98.31
517.232	89.31
517.448	89.31
517.664	88.31
517.879	98.31
518.095	79.31
518.311	88.31
518.527	109.31
