Data from CBS_2_HRD10591_00023.txt Node
Date: Mon Jan 19 14:04:57 EST 2026
User: Yrep
Spectrometer: HR+D1059
Trigger mode: 1
Integration Time (sec): 1.000000E-1
Scans to average: 1
Electric dark correction enabled: true
Nonlinearity correction enabled: false
Boxcar width: 0
XAxis mode: Wavelengths
Number of Pixels in Spectrum: 2048
>>>>>Begin Spectral Data<<<<<
223.165	-18.31
223.4	-18.31
223.635	-18.31
223.869	-21.31
224.104	-22.31
224.338	-19.31
224.573	-15.31
224.808	-6.31
225.042	-7.31
225.277	-24.31
225.511	0.69
225.746	6.69
225.98	10.69
226.215	17.69
226.449	16.69
226.683	24.69
226.918	23.69
227.152	33.69
227.387	28.69
227.621	35.69
227.856	52.69
228.09	42.69
228.324	49.69
228.559	57.69
228.793	56.69
229.027	47.69
229.262	30.69
229.496	61.69
229.73	50.69
229.964	62.69
230.199	76.69
230.433	71.69
230.667	71.69
230.901	67.69
231.136	79.69
231.37	89.69
231.604	78.69
231.838	79.69
232.072	81.69
232.306	78.69
232.541	74.69
232.775	83.69
233.009	85.69
233.243	79.69
233.477	75.69
233.711	74.69
233.945	73.69
234.179	77.69
234.413	78.69
234.647	80.69
234.881	66.69
235.115	86.69
235.349	70.69
235.583	78.69
235.817	71.69
236.051	71.69
236.285	74.69
236.519	70.69
236.753	64.69
236.987	79.69
237.221	79.69
237.455	72.69
237.689	79.69
237.922	71.69
238.156	76.69
238.39	67.69
238.624	78.69
238.858	67.69
239.091	69.69
239.325	65.69
239.559	80.69
239.793	78.69
240.027	63.69
240.26	85.69
240.494	87.69
240.728	69.69
240.961	74.69
241.195	79.69
241.429	68.69
241.662	68.69
241.896	76.69
242.13	77.69
242.363	72.69
242.597	75.69
242.83	72.69
243.064	71.69
243.298	87.69
243.531	80.69
243.765	65.69
243.998	86.69
244.232	81.69
244.465	73.69
244.699	76.69
244.932	70.69
245.166	89.69
245.399	67.69
245.633	81.69
245.866	66.69
246.099	75.69
246.333	72.69
246.566	71.69
246.8	70.69
247.033	92.69
247.266	79.69
247.5	81.69
247.733	65.69
247.966	79.69
248.2	71.69
248.433	86.69
248.666	74.69
248.899	73.69
249.133	72.69
249.366	83.69
249.599	84.69
249.832	70.69
250.066	83.69
250.299	73.69
250.532	73.69
250.765	70.69
250.998	62.69
251.231	74.69
251.465	80.69
251.698	80.69
251.931	82.69
252.164	92.69
252.397	72.69
252.63	79.69
252.863	75.69
253.096	66.69
253.329	75.69
253.562	84.69
253.795	69.69
254.028	69.69
254.261	79.69
254.494	77.69
254.727	84.69
254.96	80.69
255.193	77.69
255.426	80.69
255.659	71.69
255.892	82.69
256.124	82.69
256.357	73.69
256.59	57.69
256.823	67.69
257.056	70.69
257.289	75.69
257.521	63.69
257.754	71.69
257.987	68.69
258.22	72.69
258.452	71.69
258.685	77.69
258.918	77.69
259.151	72.69
259.383	77.69
259.616	73.69
259.849	67.69
260.081	92.69
260.314	81.69
260.547	85.69
260.779	78.69
261.012	76.69
261.244	55.69
261.477	79.69
261.71	84.69
261.942	82.69
262.175	74.69
262.407	74.69
262.64	81.69
262.872	81.69
263.105	87.69
263.337	73.69
263.57	66.69
263.802	83.69
264.035	77.69
264.267	68.69
264.499	77.69
264.732	85.69
264.964	84.69
265.197	69.69
265.429	75.69
265.661	73.69
265.894	67.69
266.126	68.69
266.358	79.69
266.591	66.69
266.823	75.69
267.055	71.69
267.287	86.69
267.52	71.69
267.752	77.69
267.984	82.69
268.216	85.69
268.448	95.69
268.681	81.69
268.913	77.69
269.145	85.69
269.377	76.69
269.609	66.69
269.841	79.69
270.073	81.69
270.306	93.69
270.538	72.69
270.77	93.69
271.002	91.69
271.234	84.69
271.466	87.69
271.698	92.69
271.93	91.69
272.162	76.69
272.394	79.69
272.626	77.69
272.858	85.69
273.09	86.69
273.322	84.69
273.553	85.69
273.785	68.69
274.017	80.69
274.249	83.69
274.481	81.69
274.713	69.69
274.945	70.69
275.176	64.69
275.408	80.69
275.64	80.69
275.872	84.69
276.104	77.69
276.335	85.69
276.567	90.69
276.799	92.69
277.031	82.69
277.262	90.69
277.494	77.69
277.726	88.69
277.957	91.69
278.189	82.69
278.421	66.69
278.652	86.69
278.884	77.69
279.115	80.69
279.347	91.69
279.579	81.69
279.81	83.69
280.042	81.69
280.273	73.69
280.505	83.69
280.736	88.69
280.968	75.69
281.199	73.69
281.431	63.69
281.662	78.69
281.894	83.69
282.125	80.69
282.356	77.69
282.588	85.69
282.819	105.69
283.051	80.69
283.282	91.69
283.513	90.69
283.745	89.69
283.976	85.69
284.207	74.69
284.439	93.69
284.67	67.69
284.901	73.69
285.132	82.69
285.364	83.69
285.595	86.69
285.826	89.69
286.057	82.69
286.288	73.69
286.52	77.69
286.751	71.69
286.982	84.69
287.213	83.69
287.444	86.69
287.675	91.69
287.906	90.69
288.138	91.69
288.369	79.69
288.6	75.69
288.831	81.69
289.062	75.69
289.293	91.69
289.524	77.69
289.755	86.69
289.986	93.69
290.217	83.69
290.448	76.69
290.679	91.69
290.91	84.69
291.141	90.69
291.371	86.69
291.602	91.69
291.833	82.69
292.064	79.69
292.295	79.69
292.526	89.69
292.757	73.69
292.987	71.69
293.218	88.69
293.449	71.69
293.68	82.69
293.91	88.69
294.141	82.69
294.372	85.69
294.603	80.69
294.833	80.69
295.064	81.69
295.295	90.69
295.525	100.69
295.756	75.69
295.987	86.69
296.217	81.69
296.448	83.69
296.679	93.69
296.909	87.69
297.14	82.69
297.37	79.69
297.601	92.69
297.831	84.69
298.062	86.69
298.292	81.69
298.523	67.69
298.753	85.69
298.984	72.69
299.214	70.69
299.445	83.69
299.675	102.69
299.905	81.69
300.136	100.69
300.366	92.69
300.597	76.69
300.827	91.69
301.057	80.69
301.288	93.69
301.518	83.69
301.748	73.69
301.979	95.69
302.209	84.69
302.439	85.69
302.669	80.69
302.9	81.69
303.13	91.69
303.36	89.69
303.59	81.69
303.82	85.69
304.051	86.69
304.281	93.69
304.511	98.69
304.741	98.69
304.971	93.69
305.201	82.69
305.431	84.69
305.661	96.69
305.891	81.69
306.121	86.69
306.352	81.69
306.582	93.69
306.812	84.69
307.042	79.69
307.272	88.69
307.502	79.69
307.731	81.69
307.961	85.69
308.191	89.69
308.421	86.69
308.651	88.69
308.881	73.69
309.111	91.69
309.341	90.69
309.571	96.69
309.8	86.69
310.03	87.69
310.26	91.69
310.49	90.69
310.72	82.69
310.949	80.69
311.179	92.69
311.409	82.69
311.639	84.69
311.868	68.69
312.098	91.69
312.328	81.69
312.557	83.69
312.787	89.69
313.017	93.69
313.246	93.69
313.476	81.69
313.706	89.69
313.935	80.69
314.165	82.69
314.394	91.69
314.624	89.69
314.853	87.69
315.083	88.69
315.312	82.69
315.542	86.69
315.771	93.69
316.001	81.69
316.23	72.69
316.46	88.69
316.689	95.69
316.919	96.69
317.148	76.69
317.377	78.69
317.607	92.69
317.836	89.69
318.065	102.69
318.295	91.69
318.524	86.69
318.753	85.69
318.983	77.69
319.212	83.69
319.441	88.69
319.67	88.69
319.9	80.69
320.129	84.69
320.358	73.69
320.587	71.69
320.816	74.69
321.046	80.69
321.275	79.69
321.504	89.69
321.733	75.69
321.962	81.69
322.191	79.69
322.42	93.69
322.649	81.69
322.878	91.69
323.108	85.69
323.337	71.69
323.566	73.69
323.795	88.69
324.024	83.69
324.253	83.69
324.482	80.69
324.71	87.69
324.939	83.69
325.168	72.69
325.397	89.69
325.626	73.69
325.855	74.69
326.084	79.69
326.313	79.69
326.542	70.69
326.77	87.69
326.999	94.69
327.228	82.69
327.457	84.69
327.686	95.69
327.914	80.69
328.143	85.69
328.372	95.69
328.6	65.69
328.829	90.69
329.058	87.69
329.287	81.69
329.515	92.69
329.744	74.69
329.972	86.69
330.201	77.69
330.43	107.69
330.658	98.69
330.887	84.69
331.115	80.69
331.344	86.69
331.572	97.69
331.801	94.69
332.03	87.69
332.258	84.69
332.486	87.69
332.715	83.69
332.943	82.69
333.172	85.69
333.4	82.69
333.629	88.69
333.857	101.69
334.085	75.69
334.314	85.69
334.542	87.69
334.771	82.69
334.999	98.69
335.227	84.69
335.455	91.69
335.684	100.69
335.912	97.69
336.14	108.69
336.369	113.69
336.597	83.69
336.825	79.69
337.053	84.69
337.281	82.69
337.51	88.69
337.738	99.69
337.966	95.69
338.194	71.69
338.422	83.69
338.65	91.69
338.878	90.69
339.106	79.69
339.334	88.69
339.562	72.69
339.79	91.69
340.018	87.69
340.246	82.69
340.474	79.69
340.702	83.69
340.93	69.69
341.158	89.69
341.386	85.69
341.614	79.69
341.842	89.69
342.07	94.69
342.298	92.69
342.526	70.69
342.754	79.69
342.981	83.69
343.209	92.69
343.437	93.69
343.665	87.69
343.893	110.69
344.12	92.69
344.348	84.69
344.576	85.69
344.804	84.69
345.031	83.69
345.259	79.69
345.487	79.69
345.714	77.69
345.942	91.69
346.17	76.69
346.397	80.69
346.625	73.69
346.853	84.69
347.08	91.69
347.308	92.69
347.535	67.69
347.763	80.69
347.99	86.69
348.218	99.69
348.445	86.69
348.673	82.69
348.9	97.69
349.128	77.69
349.355	92.69
349.583	87.69
349.81	79.69
350.037	89.69
350.265	88.69
350.492	96.69
350.72	88.69
350.947	78.69
351.174	80.69
351.402	78.69
351.629	86.69
351.856	84.69
352.083	76.69
352.311	87.69
352.538	75.69
352.765	88.69
352.992	94.69
353.22	103.69
353.447	74.69
353.674	71.69
353.901	99.69
354.128	105.69
354.355	82.69
354.583	92.69
354.81	82.69
355.037	91.69
355.264	86.69
355.491	92.69
355.718	77.69
355.945	86.69
356.172	91.69
356.399	91.69
356.626	89.69
356.853	79.69
357.08	91.69
357.307	93.69
357.534	89.69
357.761	87.69
357.988	76.69
358.215	92.69
358.441	85.69
358.668	85.69
358.895	82.69
359.122	72.69
359.349	86.69
359.576	82.69
359.802	76.69
360.029	89.69
360.256	86.69
360.483	75.69
360.709	88.69
360.936	98.69
361.163	87.69
361.39	91.69
361.616	99.69
361.843	74.69
362.07	98.69
362.296	110.69
362.523	101.69
362.749	113.69
362.976	123.69
363.203	115.69
363.429	102.69
363.656	93.69
363.882	75.69
364.109	124.69
364.335	125.69
364.562	134.69
364.788	105.69
365.015	86.69
365.241	91.69
365.468	100.69
365.694	85.69
365.92	79.69
366.147	90.69
366.373	84.69
366.599	86.69
366.826	89.69
367.052	85.69
367.278	82.69
367.505	91.69
367.731	99.69
367.957	84.69
368.184	98.69
368.41	95.69
368.636	89.69
368.862	101.69
369.089	73.69
369.315	73.69
369.541	81.69
369.767	77.69
369.993	98.69
370.219	80.69
370.445	98.69
370.672	99.69
370.898	108.69
371.124	91.69
371.35	82.69
371.576	89.69
371.802	95.69
372.028	80.69
372.254	95.69
372.48	82.69
372.706	75.69
372.932	98.69
373.158	91.69
373.384	88.69
373.61	121.69
373.835	85.69
374.061	87.69
374.287	82.69
374.513	84.69
374.739	84.69
374.965	92.69
375.191	95.69
375.416	81.69
375.642	85.69
375.868	97.69
376.094	81.69
376.319	82.69
376.545	95.69
376.771	86.69
376.997	94.69
377.222	83.69
377.448	72.69
377.674	83.69
377.899	85.69
378.125	69.69
378.35	88.69
378.576	84.69
378.802	87.69
379.027	81.69
379.253	93.69
379.478	83.69
379.704	83.69
379.929	78.69
380.155	89.69
380.38	79.69
380.606	85.69
380.831	87.69
381.057	94.69
381.282	95.69
381.507	82.69
381.733	95.69
381.958	94.69
382.184	86.69
382.409	102.69
382.634	83.69
382.86	70.69
383.085	84.69
383.31	67.69
383.535	85.69
383.761	85.69
383.986	90.69
384.211	93.69
384.436	85.69
384.662	69.69
384.887	75.69
385.112	67.69
385.337	88.69
385.562	81.69
385.787	72.69
386.013	92.69
386.238	96.69
386.463	95.69
386.688	99.69
386.913	81.69
387.138	90.69
387.363	83.69
387.588	87.69
387.813	93.69
388.038	86.69
388.263	94.69
388.488	95.69
388.713	89.69
388.938	91.69
389.163	89.69
389.387	71.69
389.612	96.69
389.837	88.69
390.062	92.69
390.287	89.69
390.512	91.69
390.736	85.69
390.961	95.69
391.186	108.69
391.411	83.69
391.636	88.69
391.86	92.69
392.085	94.69
392.31	95.69
392.534	100.69
392.759	109.69
392.984	115.69
393.208	192.69
393.433	276.69
393.658	213.69
393.882	120.69
394.107	100.69
394.331	95.69
394.556	96.69
394.78	107.69
395.005	94.69
395.229	93.69
395.454	93.69
395.678	114.69
395.903	120.69
396.127	120.69
396.352	120.69
396.576	140.69
396.801	189.69
397.025	240.69
397.249	154.69
397.474	132.69
397.698	92.69
397.922	100.69
398.147	101.69
398.371	80.69
398.595	90.69
398.82	69.69
399.044	91.69
399.268	85.69
399.492	87.69
399.717	102.69
399.941	89.69
400.165	80.69
400.389	97.69
400.613	84.69
400.837	86.69
401.062	95.69
401.286	100.69
401.51	83.69
401.734	88.69
401.958	79.69
402.182	77.69
402.406	79.69
402.63	91.69
402.854	81.69
403.078	86.69
403.302	99.69
403.526	91.69
403.75	82.69
403.974	92.69
404.198	99.69
404.422	112.69
404.645	111.69
404.869	99.69
405.093	93.69
405.317	80.69
405.541	79.69
405.765	64.69
405.988	87.69
406.212	95.69
406.436	89.69
406.66	92.69
406.883	98.69
407.107	84.69
407.331	80.69
407.555	76.69
407.778	90.69
408.002	100.69
408.226	85.69
408.449	92.69
408.673	82.69
408.896	89.69
409.12	95.69
409.344	82.69
409.567	98.69
409.791	115.69
410.014	108.69
410.238	98.69
410.461	86.69
410.685	80.69
410.908	92.69
411.132	102.69
411.355	80.69
411.578	95.69
411.802	85.69
412.025	85.69
412.249	76.69
412.472	83.69
412.695	79.69
412.919	82.69
413.142	75.69
413.365	98.69
413.589	91.69
413.812	88.69
414.035	94.69
414.258	82.69
414.482	89.69
414.705	93.69
414.928	92.69
415.151	88.69
415.374	85.69
415.597	94.69
415.821	91.69
416.044	83.69
416.267	94.69
416.49	85.69
416.713	96.69
416.936	79.69
417.159	93.69
417.382	78.69
417.605	84.69
417.828	80.69
418.051	87.69
418.274	95.69
418.497	86.69
418.72	79.69
418.943	95.69
419.166	103.69
419.389	81.69
419.611	97.69
419.834	88.69
420.057	98.69
420.28	84.69
420.503	89.69
420.726	97.69
420.948	108.69
421.171	121.69
421.394	109.69
421.617	128.69
421.839	118.69
422.062	146.69
422.285	195.69
422.507	263.69
422.73	320.69
422.953	305.69
423.175	228.69
423.398	152.69
423.621	128.69
423.843	124.69
424.066	104.69
424.288	90.69
424.511	99.69
424.733	100.69
424.956	88.69
425.178	97.69
425.401	85.69
425.623	89.69
425.846	89.69
426.068	101.69
426.291	100.69
426.513	103.69
426.735	95.69
426.958	82.69
427.18	90.69
427.402	88.69
427.625	98.69
427.847	91.69
428.069	103.69
428.292	122.69
428.514	149.69
428.736	103.69
428.958	123.69
429.181	128.69
429.403	96.69
429.625	107.69
429.847	94.69
430.069	141.69
430.292	169.69
430.514	173.69
430.736	139.69
430.958	121.69
431.18	108.69
431.402	87.69
431.624	91.69
431.846	106.69
432.068	126.69
432.29	106.69
432.512	98.69
432.734	96.69
432.956	89.69
433.178	93.69
433.4	83.69
433.622	91.69
433.844	89.69
434.066	87.69
434.287	79.69
434.509	87.69
434.731	93.69
434.953	93.69
435.175	94.69
435.397	91.69
435.618	104.69
435.84	104.69
436.062	104.69
436.284	87.69
436.505	91.69
436.727	94.69
436.949	90.69
437.17	101.69
437.392	72.69
437.614	87.69
437.835	81.69
438.057	86.69
438.278	92.69
438.5	95.69
438.721	86.69
438.943	91.69
439.165	98.69
439.386	70.69
439.608	91.69
439.829	91.69
440.05	80.69
440.272	91.69
440.493	87.69
440.715	86.69
440.936	72.69
441.158	101.69
441.379	89.69
441.6	93.69
441.822	70.69
442.043	88.69
442.264	99.69
442.486	130.69
442.707	166.69
442.928	121.69
443.149	112.69
443.371	145.69
443.592	231.69
443.813	188.69
444.034	99.69
444.255	99.69
444.476	87.69
444.698	95.69
444.919	107.69
445.14	184.69
445.361	195.69
445.582	265.69
445.803	231.69
446.024	119.69
446.245	105.69
446.466	89.69
446.687	70.69
446.908	92.69
447.129	92.69
447.35	80.69
447.571	80.69
447.792	96.69
448.013	100.69
448.234	80.69
448.455	72.69
448.675	89.69
448.896	91.69
449.117	75.69
449.338	84.69
449.559	82.69
449.779	78.69
450	80.69
450.221	82.69
450.442	77.69
450.662	87.69
450.883	88.69
451.104	104.69
451.324	84.69
451.545	84.69
451.766	76.69
451.986	84.69
452.207	82.69
452.428	87.69
452.648	96.69
452.869	111.69
453.089	95.69
453.31	81.69
453.53	84.69
453.751	79.69
453.971	84.69
454.192	78.69
454.412	59.69
454.633	83.69
454.853	89.69
455.073	87.69
455.294	90.69
455.514	89.69
455.734	73.69
455.955	82.69
456.175	82.69
456.395	84.69
456.616	90.69
456.836	96.69
457.056	79.69
457.276	84.69
457.497	83.69
457.717	81.69
457.937	101.69
458.157	123.69
458.377	124.69
458.598	111.69
458.818	135.69
459.038	96.69
459.258	77.69
459.478	77.69
459.698	86.69
459.918	95.69
460.138	83.69
460.358	93.69
460.578	110.69
460.798	127.69
461.018	113.69
461.238	89.69
461.458	85.69
461.678	87.69
461.898	80.69
462.118	87.69
462.338	73.69
462.558	83.69
462.777	89.69
462.997	91.69
463.217	91.69
463.437	83.69
463.657	78.69
463.876	88.69
464.096	90.69
464.316	73.69
464.536	93.69
464.755	93.69
464.975	76.69
465.195	92.69
465.414	85.69
465.634	73.69
465.854	83.69
466.073	71.69
466.293	85.69
466.512	88.69
466.732	70.69
466.951	82.69
467.171	84.69
467.391	87.69
467.61	75.69
467.829	88.69
468.049	92.69
468.268	87.69
468.488	96.69
468.707	85.69
468.927	87.69
469.146	86.69
469.365	84.69
469.585	91.69
469.804	93.69
470.023	78.69
470.243	88.69
470.462	87.69
470.681	91.69
470.901	91.69
471.12	84.69
471.339	80.69
471.558	64.69
471.777	87.69
471.997	80.69
472.216	100.69
472.435	94.69
472.654	84.69
472.873	82.69
473.092	84.69
473.311	84.69
473.53	78.69
473.749	82.69
473.968	85.69
474.187	95.69
474.406	80.69
474.625	77.69
474.844	86.69
475.063	80.69
475.282	87.69
475.501	90.69
475.72	108.69
475.939	86.69
476.158	80.69
476.377	88.69
476.596	94.69
476.814	79.69
477.033	78.69
477.252	84.69
477.471	81.69
477.69	83.69
477.908	88.69
478.127	85.69
478.346	95.69
478.564	86.69
478.783	71.69
479.002	87.69
479.22	88.69
479.439	89.69
479.658	87.69
479.876	92.69
480.095	89.69
480.313	86.69
480.532	93.69
480.751	79.69
480.969	89.69
481.188	88.69
481.406	120.69
481.624	85.69
481.843	73.69
482.061	73.69
482.28	84.69
482.498	95.69
482.717	91.69
482.935	87.69
483.153	94.69
483.372	95.69
483.59	98.69
483.808	98.69
484.027	91.69
484.245	91.69
484.463	78.69
484.681	105.69
484.9	87.69
485.118	96.69
485.336	83.69
485.554	85.69
485.772	105.69
485.99	92.69
486.209	86.69
486.427	90.69
486.645	79.69
486.863	86.69
487.081	83.69
487.299	87.69
487.517	99.69
487.735	129.69
487.953	171.69
488.171	171.69
488.389	92.69
488.607	77.69
488.825	90.69
489.043	89.69
489.261	97.69
489.479	86.69
489.696	89.69
489.914	85.69
490.132	86.69
490.35	106.69
490.568	96.69
490.786	67.69
491.003	83.69
491.221	96.69
491.439	92.69
491.657	100.69
491.874	97.69
492.092	73.69
492.31	88.69
492.527	99.69
492.745	91.69
492.963	90.69
493.18	99.69
493.398	80.69
493.615	89.69
493.833	77.69
494.05	78.69
494.268	81.69
494.485	89.69
494.703	100.69
494.92	91.69
495.138	80.69
495.355	95.69
495.573	77.69
495.79	86.69
496.008	97.69
496.225	89.69
496.442	91.69
496.66	86.69
496.877	94.69
497.094	84.69
497.312	88.69
497.529	90.69
497.746	101.69
497.963	79.69
498.181	91.69
498.398	96.69
498.615	97.69
498.832	78.69
499.049	90.69
499.267	107.69
499.484	91.69
499.701	92.69
499.918	93.69
500.135	76.69
500.352	80.69
500.569	81.69
500.786	94.69
501.003	68.69
501.22	88.69
501.437	93.69
501.654	84.69
501.871	99.69
502.088	93.69
502.305	74.69
502.522	91.69
502.739	84.69
502.956	83.69
503.172	95.69
503.389	89.69
503.606	101.69
503.823	92.69
504.04	103.69
504.256	129.69
504.473	142.69
504.69	101.69
504.907	96.69
505.123	96.69
505.34	109.69
505.557	83.69
505.773	100.69
505.99	95.69
506.207	87.69
506.423	79.69
506.64	99.69
506.856	96.69
507.073	103.69
507.289	94.69
507.506	80.69
507.722	85.69
507.939	85.69
508.155	94.69
508.372	91.69
508.588	80.69
508.805	84.69
509.021	74.69
509.238	90.69
509.454	85.69
509.67	93.69
509.887	78.69
510.103	78.69
510.319	92.69
510.536	85.69
510.752	98.69
510.968	85.69
511.184	84.69
511.401	91.69
511.617	95.69
511.833	99.69
512.049	85.69
512.265	88.69
512.481	95.69
512.698	88.69
512.914	97.69
513.13	87.69
513.346	76.69
513.562	86.69
513.778	100.69
513.994	88.69
514.21	94.69
514.426	88.69
514.642	73.69
514.858	82.69
515.074	87.69
515.29	88.69
515.506	92.69
515.721	80.69
515.937	87.69
516.153	87.69
516.369	96.69
516.585	99.69
516.801	101.69
517.016	103.69
517.232	84.69
517.448	95.69
517.664	93.69
517.879	108.69
518.095	97.69
