Data from CBS_2_HRD10591_00013.txt Node
Date: Mon Jan 19 14:04:52 EST 2026
User: Yrep
Spectrometer: HR+D1059
Trigger mode: 1
Integration Time (sec): 1.000000E-1
Scans to average: 1
Electric dark correction enabled: true
Nonlinearity correction enabled: false
Boxcar width: 0
XAxis mode: Wavelengths
Number of Pixels in Spectrum: 2048
>>>>>Begin Spectral Data<<<<<
223.165	-25.31
223.4	-25.31
223.635	-25.31
223.869	-21.31
224.104	-29.31
224.338	-12.31
224.573	-0.31
224.808	-18.31
225.042	-12.31
225.277	-8.31
225.511	4.69
225.746	3.69
225.98	3.69
226.215	17.69
226.449	23.69
226.683	22.69
226.918	15.69
227.152	35.69
227.387	41.69
227.621	33.69
227.856	50.69
228.09	45.69
228.324	33.69
228.559	43.69
228.793	51.69
229.027	64.69
229.262	56.69
229.496	61.69
229.73	67.69
229.964	65.69
230.199	80.69
230.433	81.69
230.667	78.69
230.901	81.69
231.136	83.69
231.37	78.69
231.604	77.69
231.838	73.69
232.072	77.69
232.306	81.69
232.541	80.69
232.775	70.69
233.009	86.69
233.243	73.69
233.477	74.69
233.711	83.69
233.945	69.69
234.179	88.69
234.413	72.69
234.647	79.69
234.881	86.69
235.115	80.69
235.349	84.69
235.583	78.69
235.817	66.69
236.051	77.69
236.285	75.69
236.519	83.69
236.753	72.69
236.987	80.69
237.221	79.69
237.455	67.69
237.689	65.69
237.922	82.69
238.156	80.69
238.39	69.69
238.624	79.69
238.858	73.69
239.091	76.69
239.325	73.69
239.559	75.69
239.793	70.69
240.027	68.69
240.26	68.69
240.494	80.69
240.728	70.69
240.961	72.69
241.195	71.69
241.429	89.69
241.662	68.69
241.896	73.69
242.13	68.69
242.363	86.69
242.597	73.69
242.83	75.69
243.064	74.69
243.298	79.69
243.531	69.69
243.765	69.69
243.998	73.69
244.232	85.69
244.465	83.69
244.699	78.69
244.932	89.69
245.166	72.69
245.399	80.69
245.633	71.69
245.866	83.69
246.099	79.69
246.333	78.69
246.566	80.69
246.8	65.69
247.033	87.69
247.266	72.69
247.5	67.69
247.733	71.69
247.966	78.69
248.2	77.69
248.433	66.69
248.666	79.69
248.899	80.69
249.133	77.69
249.366	76.69
249.599	83.69
249.832	73.69
250.066	79.69
250.299	74.69
250.532	84.69
250.765	85.69
250.998	83.69
251.231	71.69
251.465	63.69
251.698	65.69
251.931	75.69
252.164	73.69
252.397	85.69
252.63	80.69
252.863	93.69
253.096	94.69
253.329	81.69
253.562	78.69
253.795	69.69
254.028	85.69
254.261	68.69
254.494	80.69
254.727	77.69
254.96	72.69
255.193	92.69
255.426	91.69
255.659	73.69
255.892	84.69
256.124	91.69
256.357	86.69
256.59	86.69
256.823	71.69
257.056	71.69
257.289	82.69
257.521	69.69
257.754	79.69
257.987	77.69
258.22	81.69
258.452	78.69
258.685	73.69
258.918	69.69
259.151	83.69
259.383	87.69
259.616	85.69
259.849	83.69
260.081	77.69
260.314	67.69
260.547	82.69
260.779	71.69
261.012	65.69
261.244	77.69
261.477	88.69
261.71	88.69
261.942	78.69
262.175	81.69
262.407	78.69
262.64	83.69
262.872	75.69
263.105	87.69
263.337	81.69
263.57	76.69
263.802	72.69
264.035	77.69
264.267	71.69
264.499	70.69
264.732	69.69
264.964	60.69
265.197	84.69
265.429	75.69
265.661	88.69
265.894	99.69
266.126	75.69
266.358	84.69
266.591	80.69
266.823	76.69
267.055	83.69
267.287	92.69
267.52	85.69
267.752	93.69
267.984	79.69
268.216	90.69
268.448	86.69
268.681	83.69
268.913	75.69
269.145	74.69
269.377	89.69
269.609	77.69
269.841	87.69
270.073	70.69
270.306	69.69
270.538	74.69
270.77	68.69
271.002	79.69
271.234	87.69
271.466	82.69
271.698	94.69
271.93	85.69
272.162	87.69
272.394	97.69
272.626	76.69
272.858	79.69
273.09	77.69
273.322	87.69
273.553	98.69
273.785	87.69
274.017	81.69
274.249	93.69
274.481	88.69
274.713	77.69
274.945	79.69
275.176	81.69
275.408	93.69
275.64	73.69
275.872	81.69
276.104	91.69
276.335	88.69
276.567	86.69
276.799	87.69
277.031	53.69
277.262	69.69
277.494	81.69
277.726	80.69
277.957	102.69
278.189	77.69
278.421	83.69
278.652	77.69
278.884	75.69
279.115	83.69
279.347	78.69
279.579	83.69
279.81	76.69
280.042	79.69
280.273	79.69
280.505	69.69
280.736	75.69
280.968	72.69
281.199	86.69
281.431	77.69
281.662	95.69
281.894	91.69
282.125	83.69
282.356	94.69
282.588	93.69
282.819	85.69
283.051	85.69
283.282	72.69
283.513	84.69
283.745	73.69
283.976	96.69
284.207	81.69
284.439	85.69
284.67	81.69
284.901	78.69
285.132	77.69
285.364	87.69
285.595	93.69
285.826	90.69
286.057	96.69
286.288	89.69
286.52	85.69
286.751	85.69
286.982	85.69
287.213	82.69
287.444	95.69
287.675	79.69
287.906	84.69
288.138	102.69
288.369	86.69
288.6	97.69
288.831	81.69
289.062	75.69
289.293	85.69
289.524	83.69
289.755	81.69
289.986	73.69
290.217	71.69
290.448	91.69
290.679	95.69
290.91	79.69
291.141	97.69
291.371	77.69
291.602	83.69
291.833	79.69
292.064	80.69
292.295	73.69
292.526	86.69
292.757	78.69
292.987	89.69
293.218	88.69
293.449	74.69
293.68	81.69
293.91	71.69
294.141	96.69
294.372	83.69
294.603	83.69
294.833	92.69
295.064	79.69
295.295	94.69
295.525	85.69
295.756	80.69
295.987	89.69
296.217	80.69
296.448	83.69
296.679	77.69
296.909	84.69
297.14	86.69
297.37	78.69
297.601	85.69
297.831	89.69
298.062	82.69
298.292	84.69
298.523	88.69
298.753	95.69
298.984	84.69
299.214	93.69
299.445	93.69
299.675	89.69
299.905	89.69
300.136	93.69
300.366	73.69
300.597	82.69
300.827	93.69
301.057	94.69
301.288	88.69
301.518	87.69
301.748	71.69
301.979	96.69
302.209	81.69
302.439	86.69
302.669	82.69
302.9	77.69
303.13	89.69
303.36	98.69
303.59	87.69
303.82	69.69
304.051	93.69
304.281	77.69
304.511	78.69
304.741	89.69
304.971	89.69
305.201	83.69
305.431	89.69
305.661	84.69
305.891	85.69
306.121	77.69
306.352	82.69
306.582	88.69
306.812	81.69
307.042	88.69
307.272	93.69
307.502	89.69
307.731	85.69
307.961	89.69
308.191	87.69
308.421	88.69
308.651	97.69
308.881	98.69
309.111	87.69
309.341	96.69
309.571	99.69
309.8	83.69
310.03	87.69
310.26	89.69
310.49	91.69
310.72	81.69
310.949	84.69
311.179	86.69
311.409	87.69
311.639	95.69
311.868	92.69
312.098	85.69
312.328	100.69
312.557	78.69
312.787	72.69
313.017	88.69
313.246	89.69
313.476	108.69
313.706	82.69
313.935	81.69
314.165	75.69
314.394	88.69
314.624	82.69
314.853	86.69
315.083	84.69
315.312	97.69
315.542	85.69
315.771	76.69
316.001	98.69
316.23	85.69
316.46	95.69
316.689	89.69
316.919	76.69
317.148	93.69
317.377	95.69
317.607	86.69
317.836	88.69
318.065	88.69
318.295	96.69
318.524	89.69
318.753	85.69
318.983	81.69
319.212	92.69
319.441	101.69
319.67	75.69
319.9	82.69
320.129	87.69
320.358	92.69
320.587	82.69
320.816	91.69
321.046	92.69
321.275	83.69
321.504	87.69
321.733	94.69
321.962	93.69
322.191	84.69
322.42	99.69
322.649	101.69
322.878	95.69
323.108	91.69
323.337	86.69
323.566	104.69
323.795	97.69
324.024	86.69
324.253	87.69
324.482	92.69
324.71	86.69
324.939	110.69
325.168	94.69
325.397	91.69
325.626	80.69
325.855	86.69
326.084	73.69
326.313	79.69
326.542	79.69
326.77	93.69
326.999	82.69
327.228	87.69
327.457	86.69
327.686	91.69
327.914	84.69
328.143	107.69
328.372	91.69
328.6	99.69
328.829	84.69
329.058	80.69
329.287	89.69
329.515	93.69
329.744	84.69
329.972	81.69
330.201	89.69
330.43	70.69
330.658	66.69
330.887	79.69
331.115	98.69
331.344	87.69
331.572	84.69
331.801	73.69
332.03	79.69
332.258	85.69
332.486	89.69
332.715	81.69
332.943	89.69
333.172	82.69
333.4	83.69
333.629	95.69
333.857	94.69
334.085	79.69
334.314	91.69
334.542	111.69
334.771	88.69
334.999	107.69
335.227	110.69
335.455	114.69
335.684	116.69
335.912	110.69
336.14	121.69
336.369	120.69
336.597	100.69
336.825	103.69
337.053	94.69
337.281	89.69
337.51	90.69
337.738	91.69
337.966	67.69
338.194	88.69
338.422	73.69
338.65	77.69
338.878	81.69
339.106	88.69
339.334	92.69
339.562	89.69
339.79	85.69
340.018	78.69
340.246	83.69
340.474	85.69
340.702	93.69
340.93	95.69
341.158	86.69
341.386	73.69
341.614	82.69
341.842	70.69
342.07	84.69
342.298	85.69
342.526	91.69
342.754	86.69
342.981	79.69
343.209	88.69
343.437	101.69
343.665	82.69
343.893	91.69
344.12	89.69
344.348	83.69
344.576	87.69
344.804	91.69
345.031	83.69
345.259	98.69
345.487	89.69
345.714	88.69
345.942	86.69
346.17	85.69
346.397	80.69
346.625	96.69
346.853	84.69
347.08	105.69
347.308	98.69
347.535	94.69
347.763	93.69
347.99	81.69
348.218	92.69
348.445	87.69
348.673	93.69
348.9	89.69
349.128	100.69
349.355	86.69
349.583	91.69
349.81	88.69
350.037	75.69
350.265	86.69
350.492	83.69
350.72	88.69
350.947	95.69
351.174	90.69
351.402	79.69
351.629	95.69
351.856	96.69
352.083	86.69
352.311	83.69
352.538	93.69
352.765	74.69
352.992	87.69
353.22	90.69
353.447	82.69
353.674	88.69
353.901	104.69
354.128	96.69
354.355	81.69
354.583	68.69
354.81	87.69
355.037	77.69
355.264	76.69
355.491	87.69
355.718	92.69
355.945	95.69
356.172	93.69
356.399	101.69
356.626	85.69
356.853	84.69
357.08	98.69
357.307	97.69
357.534	96.69
357.761	94.69
357.988	96.69
358.215	104.69
358.441	95.69
358.668	95.69
358.895	86.69
359.122	89.69
359.349	78.69
359.576	87.69
359.802	87.69
360.029	96.69
360.256	93.69
360.483	83.69
360.709	84.69
360.936	103.69
361.163	101.69
361.39	79.69
361.616	88.69
361.843	107.69
362.07	113.69
362.296	142.69
362.523	125.69
362.749	132.69
362.976	131.69
363.203	165.69
363.429	134.69
363.656	97.69
363.882	115.69
364.109	139.69
364.335	195.69
364.562	184.69
364.788	125.69
365.015	92.69
365.241	82.69
365.468	104.69
365.694	84.69
365.92	101.69
366.147	92.69
366.373	99.69
366.599	97.69
366.826	83.69
367.052	87.69
367.278	97.69
367.505	98.69
367.731	101.69
367.957	103.69
368.184	83.69
368.41	92.69
368.636	104.69
368.862	103.69
369.089	107.69
369.315	80.69
369.541	97.69
369.767	80.69
369.993	84.69
370.219	102.69
370.445	110.69
370.672	96.69
370.898	88.69
371.124	76.69
371.35	83.69
371.576	83.69
371.802	93.69
372.028	99.69
372.254	103.69
372.48	101.69
372.706	99.69
372.932	97.69
373.158	90.69
373.384	90.69
373.61	92.69
373.835	103.69
374.061	83.69
374.287	99.69
374.513	96.69
374.739	103.69
374.965	95.69
375.191	82.69
375.416	97.69
375.642	104.69
375.868	85.69
376.094	94.69
376.319	109.69
376.545	93.69
376.771	100.69
376.997	93.69
377.222	71.69
377.448	96.69
377.674	90.69
377.899	96.69
378.125	96.69
378.35	97.69
378.576	91.69
378.802	91.69
379.027	101.69
379.253	91.69
379.478	92.69
379.704	81.69
379.929	87.69
380.155	83.69
380.38	70.69
380.606	87.69
380.831	83.69
381.057	102.69
381.282	84.69
381.507	85.69
381.733	103.69
381.958	92.69
382.184	95.69
382.409	84.69
382.634	95.69
382.86	111.69
383.085	95.69
383.31	99.69
383.535	104.69
383.761	95.69
383.986	90.69
384.211	103.69
384.436	93.69
384.662	91.69
384.887	88.69
385.112	88.69
385.337	105.69
385.562	95.69
385.787	98.69
386.013	86.69
386.238	101.69
386.463	94.69
386.688	114.69
386.913	93.69
387.138	93.69
387.363	109.69
387.588	118.69
387.813	99.69
388.038	101.69
388.263	104.69
388.488	103.69
388.713	100.69
388.938	103.69
389.163	95.69
389.387	104.69
389.612	96.69
389.837	82.69
390.062	111.69
390.287	95.69
390.512	98.69
390.736	91.69
390.961	104.69
391.186	85.69
391.411	91.69
391.636	103.69
391.86	101.69
392.085	101.69
392.31	87.69
392.534	118.69
392.759	140.69
392.984	211.69
393.208	300.69
393.433	411.69
393.658	335.69
393.882	183.69
394.107	141.69
394.331	130.69
394.556	137.69
394.78	121.69
395.005	105.69
395.229	115.69
395.454	107.69
395.678	120.69
395.903	146.69
396.127	149.69
396.352	158.69
396.576	192.69
396.801	299.69
397.025	327.69
397.249	217.69
397.474	181.69
397.698	119.69
397.922	109.69
398.147	97.69
398.371	111.69
398.595	100.69
398.82	85.69
399.044	86.69
399.268	66.69
399.492	101.69
399.717	92.69
399.941	98.69
400.165	104.69
400.389	83.69
400.613	98.69
400.837	98.69
401.062	95.69
401.286	91.69
401.51	80.69
401.734	91.69
401.958	90.69
402.182	100.69
402.406	111.69
402.63	82.69
402.854	107.69
403.078	97.69
403.302	99.69
403.526	96.69
403.75	79.69
403.974	78.69
404.198	100.69
404.422	107.69
404.645	116.69
404.869	110.69
405.093	90.69
405.317	87.69
405.541	99.69
405.765	92.69
405.988	106.69
406.212	91.69
406.436	91.69
406.66	96.69
406.883	88.69
407.107	94.69
407.331	86.69
407.555	104.69
407.778	109.69
408.002	125.69
408.226	100.69
408.449	96.69
408.673	91.69
408.896	120.69
409.12	113.69
409.344	119.69
409.567	127.69
409.791	132.69
410.014	138.69
410.238	124.69
410.461	107.69
410.685	111.69
410.908	100.69
411.132	93.69
411.355	95.69
411.578	100.69
411.802	82.69
412.025	94.69
412.249	88.69
412.472	94.69
412.695	104.69
412.919	98.69
413.142	95.69
413.365	80.69
413.589	100.69
413.812	79.69
414.035	79.69
414.258	86.69
414.482	76.69
414.705	99.69
414.928	111.69
415.151	99.69
415.374	79.69
415.597	84.69
415.821	103.69
416.044	107.69
416.267	88.69
416.49	86.69
416.713	92.69
416.936	89.69
417.159	81.69
417.382	95.69
417.605	88.69
417.828	104.69
418.051	87.69
418.274	92.69
418.497	93.69
418.72	92.69
418.943	105.69
419.166	103.69
419.389	98.69
419.611	94.69
419.834	100.69
420.057	95.69
420.28	105.69
420.503	94.69
420.726	104.69
420.948	103.69
421.171	121.69
421.394	139.69
421.617	168.69
421.839	179.69
422.062	214.69
422.285	302.69
422.507	435.69
422.73	575.69
422.953	550.69
423.175	374.69
423.398	225.69
423.621	195.69
423.843	148.69
424.066	131.69
424.288	124.69
424.511	120.69
424.733	108.69
424.956	103.69
425.178	93.69
425.401	93.69
425.623	96.69
425.846	93.69
426.068	86.69
426.291	108.69
426.513	109.69
426.735	101.69
426.958	91.69
427.18	92.69
427.402	108.69
427.625	100.69
427.847	99.69
428.069	120.69
428.292	155.69
428.514	188.69
428.736	148.69
428.958	173.69
429.181	176.69
429.403	109.69
429.625	126.69
429.847	151.69
430.069	216.69
430.292	267.69
430.514	221.69
430.736	179.69
430.958	200.69
431.18	127.69
431.402	108.69
431.624	121.69
431.846	166.69
432.068	179.69
432.29	130.69
432.512	105.69
432.734	92.69
432.956	95.69
433.178	95.69
433.4	87.69
433.622	80.69
433.844	89.69
434.066	83.69
434.287	90.69
434.509	88.69
434.731	93.69
434.953	87.69
435.175	91.69
435.397	103.69
435.618	114.69
435.84	100.69
436.062	90.69
436.284	99.69
436.505	85.69
436.727	95.69
436.949	94.69
437.17	89.69
437.392	82.69
437.614	98.69
437.835	78.69
438.057	87.69
438.278	88.69
438.5	84.69
438.721	98.69
438.943	81.69
439.165	87.69
439.386	88.69
439.608	89.69
439.829	87.69
440.05	101.69
440.272	95.69
440.493	89.69
440.715	91.69
440.936	95.69
441.158	91.69
441.379	99.69
441.6	100.69
441.822	92.69
442.043	96.69
442.264	120.69
442.486	179.69
442.707	265.69
442.928	175.69
443.149	143.69
443.371	225.69
443.592	371.69
443.813	337.69
444.034	148.69
444.255	107.69
444.476	107.69
444.698	104.69
444.919	121.69
445.14	216.69
445.361	280.69
445.582	448.69
445.803	379.69
446.024	180.69
446.245	125.69
446.466	86.69
446.687	123.69
446.908	97.69
447.129	103.69
447.35	93.69
447.571	99.69
447.792	86.69
448.013	79.69
448.234	93.69
448.455	92.69
448.675	84.69
448.896	82.69
449.117	84.69
449.338	83.69
449.559	84.69
449.779	95.69
450	92.69
450.221	92.69
450.442	97.69
450.662	95.69
450.883	92.69
451.104	89.69
451.324	100.69
451.545	81.69
451.766	95.69
451.986	99.69
452.207	99.69
452.428	102.69
452.648	112.69
452.869	124.69
453.089	119.69
453.31	88.69
453.53	96.69
453.751	95.69
453.971	88.69
454.192	108.69
454.412	79.69
454.633	95.69
454.853	84.69
455.073	89.69
455.294	85.69
455.514	89.69
455.734	95.69
455.955	91.69
456.175	92.69
456.395	77.69
456.616	82.69
456.836	91.69
457.056	90.69
457.276	92.69
457.497	97.69
457.717	108.69
457.937	145.69
458.157	179.69
458.377	207.69
458.598	190.69
458.818	190.69
459.038	138.69
459.258	108.69
459.478	83.69
459.698	83.69
459.918	95.69
460.138	83.69
460.358	92.69
460.578	96.69
460.798	134.69
461.018	123.69
461.238	84.69
461.458	104.69
461.678	93.69
461.898	91.69
462.118	87.69
462.338	92.69
462.558	95.69
462.777	82.69
462.997	81.69
463.217	87.69
463.437	99.69
463.657	71.69
463.876	102.69
464.096	92.69
464.316	88.69
464.536	91.69
464.755	95.69
464.975	85.69
465.195	104.69
465.414	93.69
465.634	73.69
465.854	91.69
466.073	80.69
466.293	86.69
466.512	84.69
466.732	91.69
466.951	83.69
467.171	79.69
467.391	84.69
467.61	86.69
467.829	109.69
468.049	89.69
468.268	98.69
468.488	96.69
468.707	96.69
468.927	100.69
469.146	87.69
469.365	81.69
469.585	93.69
469.804	89.69
470.023	89.69
470.243	82.69
470.462	89.69
470.681	65.69
470.901	86.69
471.12	79.69
471.339	80.69
471.558	76.69
471.777	84.69
471.997	94.69
472.216	97.69
472.435	95.69
472.654	80.69
472.873	105.69
473.092	97.69
473.311	85.69
473.53	70.69
473.749	92.69
473.968	86.69
474.187	89.69
474.406	88.69
474.625	73.69
474.844	93.69
475.063	85.69
475.282	87.69
475.501	94.69
475.72	94.69
475.939	85.69
476.158	95.69
476.377	95.69
476.596	93.69
476.814	96.69
477.033	93.69
477.252	97.69
477.471	89.69
477.69	92.69
477.908	80.69
478.127	87.69
478.346	95.69
478.564	95.69
478.783	89.69
479.002	91.69
479.22	73.69
479.439	89.69
479.658	97.69
479.876	94.69
480.095	83.69
480.313	86.69
480.532	84.69
480.751	93.69
480.969	91.69
481.188	104.69
481.406	88.69
481.624	67.69
481.843	89.69
482.061	87.69
482.28	80.69
482.498	92.69
482.717	87.69
482.935	102.69
483.153	95.69
483.372	96.69
483.59	103.69
483.808	91.69
484.027	92.69
484.245	109.69
484.463	88.69
484.681	108.69
484.9	96.69
485.118	89.69
485.336	108.69
485.554	102.69
485.772	105.69
485.99	91.69
486.209	93.69
486.427	93.69
486.645	89.69
486.863	90.69
487.081	96.69
487.299	100.69
487.517	123.69
487.735	163.69
487.953	318.69
488.171	287.69
488.389	132.69
488.607	90.69
488.825	88.69
489.043	95.69
489.261	85.69
489.479	93.69
489.696	93.69
489.914	101.69
490.132	103.69
490.35	85.69
490.568	77.69
490.786	96.69
491.003	97.69
491.221	87.69
491.439	64.69
491.657	87.69
491.874	93.69
492.092	83.69
492.31	94.69
492.527	88.69
492.745	99.69
492.963	108.69
493.18	105.69
493.398	89.69
493.615	108.69
493.833	88.69
494.05	91.69
494.268	94.69
494.485	98.69
494.703	91.69
494.92	90.69
495.138	85.69
495.355	90.69
495.573	77.69
495.79	97.69
496.008	101.69
496.225	102.69
496.442	92.69
496.66	84.69
496.877	83.69
497.094	81.69
497.312	93.69
497.529	80.69
497.746	104.69
497.963	100.69
498.181	107.69
498.398	96.69
498.615	95.69
498.832	96.69
499.049	99.69
499.267	94.69
499.484	76.69
499.701	99.69
499.918	89.69
500.135	91.69
500.352	108.69
500.569	93.69
500.786	96.69
501.003	94.69
501.22	80.69
501.437	86.69
501.654	93.69
501.871	93.69
502.088	90.69
502.305	108.69
502.522	100.69
502.739	97.69
502.956	94.69
503.172	99.69
503.389	80.69
503.606	101.69
503.823	111.69
504.04	116.69
504.256	211.69
504.473	219.69
504.69	110.69
504.907	104.69
505.123	81.69
505.34	99.69
505.557	97.69
505.773	101.69
505.99	80.69
506.207	86.69
506.423	73.69
506.64	96.69
506.856	91.69
507.073	83.69
507.289	88.69
507.506	85.69
507.722	101.69
507.939	90.69
508.155	95.69
508.372	88.69
508.588	95.69
508.805	83.69
509.021	89.69
509.238	91.69
509.454	102.69
509.67	97.69
509.887	98.69
510.103	98.69
510.319	92.69
510.536	87.69
510.752	92.69
510.968	84.69
511.184	92.69
511.401	97.69
511.617	95.69
511.833	93.69
512.049	78.69
512.265	85.69
512.481	97.69
512.698	86.69
512.914	96.69
513.13	92.69
513.346	96.69
513.562	95.69
513.778	95.69
513.994	100.69
514.21	96.69
514.426	101.69
514.642	93.69
514.858	75.69
515.074	84.69
515.29	96.69
515.506	105.69
515.721	97.69
515.937	101.69
516.153	72.69
516.369	89.69
