Data from Uncirc_1990_H10_HRD10591_00038.txt Node
Date: Wed Jan 03 11:53:59 EST 2024
User: Yrep
Spectrometer: HR+D1059
Trigger mode: 1
Integration Time (sec): 1.000000E-1
Scans to average: 1
Electric dark correction enabled: true
Nonlinearity correction enabled: false
Boxcar width: 0
XAxis mode: Wavelengths
Number of Pixels in Spectrum: 2048
>>>>>Begin Spectral Data<<<<<
223.165	-27
223.4	-27
223.635	-27
223.869	-20
224.104	-31
224.338	-23
224.573	0
224.808	-12
225.042	-6
225.277	0
225.511	-7
225.746	14
225.98	14
226.215	17
226.449	30
226.683	10
226.918	17
227.152	24
227.387	39
227.621	39
227.856	41
228.09	52
228.324	48
228.559	59
228.793	65
229.027	70
229.262	54
229.496	75
229.73	79
229.964	83
230.199	63
230.433	81
230.667	88
230.901	86
231.136	69
231.37	82
231.604	73
231.838	98
232.072	79
232.306	83
232.541	83
232.775	86
233.009	88
233.243	81
233.477	88
233.711	87
233.945	83
234.179	80
234.413	89
234.647	82
234.881	90
235.115	100
235.349	89
235.583	85
235.817	80
236.051	92
236.285	82
236.519	75
236.753	70
236.987	91
237.221	83
237.455	88
237.689	80
237.922	79
238.156	79
238.39	87
238.624	65
238.858	84
239.091	88
239.325	95
239.559	80
239.793	82
240.027	83
240.26	82
240.494	73
240.728	94
240.961	77
241.195	81
241.429	82
241.662	65
241.896	87
242.13	83
242.363	75
242.597	75
242.83	84
243.064	90
243.298	79
243.531	87
243.765	85
243.998	81
244.232	79
244.465	81
244.699	82
244.932	78
245.166	75
245.399	70
245.633	75
245.866	66
246.099	82
246.333	78
246.566	83
246.8	78
247.033	72
247.266	77
247.5	85
247.733	85
247.966	68
248.2	85
248.433	89
248.666	73
248.899	91
249.133	86
249.366	100
249.599	93
249.832	80
250.066	90
250.299	82
250.532	67
250.765	88
250.998	78
251.231	77
251.465	76
251.698	95
251.931	75
252.164	87
252.397	88
252.63	78
252.863	90
253.096	69
253.329	81
253.562	86
253.795	84
254.028	80
254.261	63
254.494	79
254.727	84
254.96	79
255.193	76
255.426	76
255.659	97
255.892	87
256.124	79
256.357	77
256.59	87
256.823	80
257.056	78
257.289	80
257.521	72
257.754	91
257.987	85
258.22	81
258.452	85
258.685	77
258.918	84
259.151	82
259.383	84
259.616	80
259.849	91
260.081	93
260.314	71
260.547	97
260.779	76
261.012	83
261.244	93
261.477	103
261.71	93
261.942	101
262.175	114
262.407	85
262.64	89
262.872	84
263.105	94
263.337	86
263.57	84
263.802	80
264.035	88
264.267	86
264.499	89
264.732	85
264.964	82
265.197	78
265.429	89
265.661	83
265.894	87
266.126	78
266.358	75
266.591	91
266.823	85
267.055	81
267.287	82
267.52	94
267.752	83
267.984	83
268.216	76
268.448	89
268.681	89
268.913	84
269.145	77
269.377	85
269.609	76
269.841	87
270.073	90
270.306	94
270.538	87
270.77	72
271.002	88
271.234	83
271.466	87
271.698	86
271.93	88
272.162	79
272.394	93
272.626	86
272.858	87
273.09	85
273.322	86
273.553	83
273.785	84
274.017	81
274.249	86
274.481	94
274.713	82
274.945	85
275.176	77
275.408	88
275.64	68
275.872	82
276.104	86
276.335	92
276.567	104
276.799	117
277.031	100
277.262	88
277.494	92
277.726	79
277.957	94
278.189	86
278.421	90
278.652	92
278.884	88
279.115	82
279.347	91
279.579	88
279.81	77
280.042	88
280.273	84
280.505	71
280.736	93
280.968	88
281.199	88
281.431	86
281.662	77
281.894	87
282.125	95
282.356	105
282.588	137
282.819	110
283.051	95
283.282	71
283.513	83
283.745	78
283.976	95
284.207	101
284.439	93
284.67	80
284.901	78
285.132	88
285.364	79
285.595	81
285.826	96
286.057	97
286.288	73
286.52	87
286.751	91
286.982	84
287.213	88
287.444	75
287.675	80
287.906	96
288.138	94
288.369	85
288.6	88
288.831	91
289.062	101
289.293	89
289.524	81
289.755	78
289.986	98
290.217	102
290.448	92
290.679	98
290.91	72
291.141	88
291.371	91
291.602	87
291.833	88
292.064	99
292.295	103
292.526	99
292.757	95
292.987	101
293.218	87
293.449	87
293.68	82
293.91	96
294.141	86
294.372	95
294.603	94
294.833	96
295.064	74
295.295	94
295.525	84
295.756	97
295.987	123
296.217	132
296.448	128
296.679	94
296.909	81
297.14	97
297.37	86
297.601	97
297.831	84
298.062	97
298.292	102
298.523	83
298.753	78
298.984	85
299.214	87
299.445	101
299.675	87
299.905	86
300.136	100
300.366	76
300.597	84
300.827	81
301.057	95
301.288	107
301.518	87
301.748	98
301.979	108
302.209	95
302.439	111
302.669	84
302.9	83
303.13	96
303.36	87
303.59	84
303.82	97
304.051	85
304.281	84
304.511	94
304.741	88
304.971	96
305.201	94
305.431	89
305.661	97
305.891	75
306.121	90
306.352	93
306.582	98
306.812	84
307.042	96
307.272	78
307.502	96
307.731	84
307.961	103
308.191	103
308.421	86
308.651	85
308.881	87
309.111	86
309.341	96
309.571	99
309.8	109
310.03	95
310.26	105
310.49	103
310.72	103
310.949	108
311.179	101
311.409	87
311.639	92
311.868	91
312.098	92
312.328	102
312.557	94
312.787	99
313.017	100
313.246	97
313.476	89
313.706	85
313.935	91
314.165	83
314.394	108
314.624	106
314.853	87
315.083	89
315.312	92
315.542	96
315.771	79
316.001	98
316.23	89
316.46	89
316.689	93
316.919	96
317.148	92
317.377	90
317.607	94
317.836	84
318.065	108
318.295	100
318.524	86
318.753	89
318.983	95
319.212	107
319.441	118
319.67	93
319.9	87
320.129	104
320.358	104
320.587	91
320.816	103
321.046	90
321.275	110
321.504	89
321.733	80
321.962	99
322.191	103
322.42	105
322.649	111
322.878	101
323.108	116
323.337	112
323.566	137
323.795	142
324.024	194
324.253	370
324.482	771
324.71	1547
324.939	2115
325.168	744
325.397	248
325.626	142
325.855	135
326.084	139
326.313	131
326.542	157
326.77	224
326.999	439
327.228	869
327.457	1597
327.686	1271
327.914	352
328.143	191
328.372	141
328.6	124
328.829	114
329.058	112
329.287	100
329.515	111
329.744	96
329.972	115
330.201	93
330.43	103
330.658	109
330.887	117
331.115	112
331.344	99
331.572	92
331.801	97
332.03	106
332.258	101
332.486	88
332.715	101
332.943	84
333.172	100
333.4	94
333.629	99
333.857	104
334.085	96
334.314	101
334.542	105
334.771	100
334.999	77
335.227	89
335.455	89
335.684	97
335.912	96
336.14	96
336.369	113
336.597	101
336.825	108
337.053	80
337.281	101
337.51	88
337.738	92
337.966	102
338.194	87
338.422	87
338.65	86
338.878	102
339.106	98
339.334	89
339.562	93
339.79	92
340.018	88
340.246	96
340.474	108
340.702	91
340.93	71
341.158	100
341.386	100
341.614	96
341.842	82
342.07	94
342.298	91
342.526	96
342.754	102
342.981	77
343.209	89
343.437	101
343.665	80
343.893	89
344.12	90
344.348	94
344.576	97
344.804	78
345.031	107
345.259	91
345.487	83
345.714	84
345.942	94
346.17	93
346.397	80
346.625	87
346.853	84
347.08	90
347.308	96
347.535	94
347.763	91
347.99	105
348.218	100
348.445	104
348.673	109
348.9	111
349.128	93
349.355	84
349.583	104
349.81	90
350.037	95
350.265	95
350.492	99
350.72	96
350.947	106
351.174	120
351.402	83
351.629	110
351.856	88
352.083	96
352.311	87
352.538	105
352.765	100
352.992	117
353.22	95
353.447	98
353.674	82
353.901	106
354.128	104
354.355	87
354.583	100
354.81	101
355.037	97
355.264	91
355.491	97
355.718	89
355.945	86
356.172	98
356.399	97
356.626	80
356.853	85
357.08	103
357.307	110
357.534	95
357.761	97
357.988	92
358.215	96
358.441	110
358.668	89
358.895	78
359.122	80
359.349	94
359.576	88
359.802	98
360.029	83
360.256	98
360.483	93
360.709	78
360.936	88
361.163	94
361.39	86
361.616	110
361.843	81
362.07	99
362.296	99
362.523	83
362.749	95
362.976	84
363.203	96
363.429	104
363.656	104
363.882	92
364.109	95
364.335	93
364.562	94
364.788	84
365.015	105
365.241	84
365.468	101
365.694	99
365.92	92
366.147	107
366.373	105
366.599	91
366.826	87
367.052	87
367.278	83
367.505	87
367.731	85
367.957	95
368.184	87
368.41	101
368.636	124
368.862	105
369.089	103
369.315	89
369.541	77
369.767	92
369.993	96
370.219	85
370.445	88
370.672	93
370.898	91
371.124	87
371.35	96
371.576	82
371.802	92
372.028	84
372.254	77
372.48	86
372.706	102
372.932	100
373.158	90
373.384	100
373.61	84
373.835	92
374.061	94
374.287	89
374.513	88
374.739	65
374.965	85
375.191	102
375.416	92
375.642	87
375.868	84
376.094	97
376.319	89
376.545	93
376.771	84
376.997	90
377.222	79
377.448	94
377.674	83
377.899	93
378.125	86
378.35	88
378.576	99
378.802	86
379.027	93
379.253	104
379.478	98
379.704	103
379.929	84
380.155	93
380.38	96
380.606	91
380.831	100
381.057	97
381.282	94
381.507	86
381.733	97
381.958	82
382.184	90
382.409	99
382.634	103
382.86	98
383.085	103
383.31	103
383.535	103
383.761	100
383.986	105
384.211	99
384.436	100
384.662	87
384.887	98
385.112	110
385.337	103
385.562	104
385.787	89
386.013	104
386.238	95
386.463	95
386.688	101
386.913	98
387.138	95
387.363	107
387.588	89
387.813	89
388.038	104
388.263	85
388.488	103
388.713	103
388.938	84
389.163	84
389.387	90
389.612	94
389.837	79
390.062	93
390.287	103
390.512	88
390.736	96
390.961	81
391.186	101
391.411	88
391.636	99
391.86	86
392.085	96
392.31	80
392.534	101
392.759	78
392.984	96
393.208	90
393.433	95
393.658	89
393.882	84
394.107	100
394.331	83
394.556	95
394.78	92
395.005	82
395.229	79
395.454	88
395.678	96
395.903	94
396.127	76
396.352	84
396.576	94
396.801	95
397.025	81
397.249	82
397.474	89
397.698	73
397.922	88
398.147	89
398.371	62
398.595	72
398.82	85
399.044	87
399.268	89
399.492	88
399.717	92
399.941	79
400.165	111
400.389	86
400.613	86
400.837	84
401.062	94
401.286	96
401.51	82
401.734	99
401.958	100
402.182	108
402.406	144
402.63	112
402.854	109
403.078	87
403.302	91
403.526	81
403.75	95
403.974	82
404.198	93
404.422	88
404.645	82
404.869	105
405.093	91
405.317	97
405.541	83
405.765	91
405.988	105
406.212	152
406.436	215
406.66	139
406.883	88
407.107	69
407.331	99
407.555	97
407.778	99
408.002	95
408.226	99
408.449	97
408.673	105
408.896	101
409.12	79
409.344	83
409.567	80
409.791	91
410.014	90
410.238	92
410.461	89
410.685	87
410.908	87
411.132	104
411.355	112
411.578	93
411.802	79
412.025	102
412.249	95
412.472	79
412.695	68
412.919	94
413.142	87
413.365	79
413.589	87
413.812	90
414.035	89
414.258	93
414.482	86
414.705	90
414.928	86
415.151	76
415.374	98
415.597	73
415.821	84
416.044	95
416.267	95
416.49	69
416.713	86
416.936	103
417.159	76
417.382	89
417.605	79
417.828	94
418.051	97
418.274	91
418.497	95
418.72	92
418.943	96
419.166	88
419.389	81
419.611	97
419.834	89
420.057	84
420.28	100
420.503	87
420.726	86
420.948	86
421.171	91
421.394	87
421.617	85
421.839	88
422.062	97
422.285	105
422.507	96
422.73	100
422.953	88
423.175	87
423.398	103
423.621	97
423.843	93
424.066	83
424.288	83
424.511	86
424.733	87
424.956	89
425.178	93
425.401	105
425.623	99
425.846	90
426.068	91
426.291	108
426.513	87
426.735	98
426.958	76
427.18	109
427.402	135
427.625	154
427.847	121
428.069	83
428.292	88
428.514	96
428.736	86
428.958	101
429.181	96
429.403	85
429.625	73
429.847	101
430.069	96
430.292	83
430.514	86
430.736	81
430.958	79
431.18	92
431.402	93
431.624	97
431.846	95
432.068	100
432.29	87
432.512	98
432.734	86
432.956	91
433.178	97
433.4	97
433.622	82
433.844	85
434.066	96
434.287	82
434.509	79
434.731	100
434.953	83
435.175	77
435.397	97
435.618	104
435.84	86
436.062	119
436.284	111
436.505	88
436.727	103
436.949	98
437.17	88
437.392	95
437.614	108
437.835	97
438.057	108
438.278	98
438.5	103
438.721	126
438.943	96
439.165	98
439.386	86
439.608	95
439.829	87
440.05	123
440.272	135
440.493	100
440.715	85
440.936	95
441.158	94
441.379	89
441.6	96
441.822	87
442.043	87
442.264	102
442.486	95
442.707	99
442.928	102
443.149	110
443.371	116
443.592	107
443.813	107
444.034	91
444.255	91
444.476	78
444.698	87
444.919	99
445.14	115
445.361	115
445.582	118
445.803	113
446.024	113
446.245	131
446.466	91
446.687	80
446.908	95
447.129	84
447.35	81
447.571	94
447.792	83
448.013	96
448.234	99
448.455	87
448.675	117
448.896	113
449.117	99
449.338	102
449.559	127
449.779	132
450	82
450.221	89
450.442	96
450.662	94
450.883	89
451.104	103
451.324	94
451.545	84
451.766	81
451.986	102
452.207	89
452.428	99
452.648	81
452.869	96
453.089	96
453.31	125
453.53	89
453.751	94
453.971	97
454.192	103
454.412	106
454.633	103
454.853	98
455.073	84
455.294	91
455.514	103
455.734	88
455.955	83
456.175	92
456.395	80
456.616	84
456.836	91
457.056	93
457.276	85
457.497	83
457.717	82
457.937	77
458.157	92
458.377	93
458.598	100
458.818	139
459.038	150
459.258	112
459.478	87
459.698	78
459.918	82
460.138	65
460.358	90
460.578	83
460.798	95
461.018	94
461.238	84
461.458	96
461.678	71
461.898	99
462.118	79
462.338	82
462.558	83
462.777	91
462.997	86
463.217	91
463.437	87
463.657	85
463.876	97
464.096	86
464.316	97
464.536	74
464.755	96
464.975	108
465.195	153
465.414	163
465.634	97
465.854	97
466.073	86
466.293	88
466.512	88
466.732	97
466.951	95
467.171	97
467.391	87
467.61	93
467.829	101
468.049	77
468.268	101
468.488	85
468.707	94
468.927	95
469.146	94
469.365	100
469.585	84
469.804	76
470.023	110
470.243	93
470.462	100
470.681	111
470.901	89
471.12	72
471.339	85
471.558	91
471.777	77
471.997	78
472.216	81
472.435	92
472.654	85
472.873	91
473.092	85
473.311	97
473.53	85
473.749	105
473.968	103
474.187	115
474.406	83
474.625	96
474.844	102
475.063	80
475.282	79
475.501	91
475.72	82
475.939	90
476.158	93
476.377	77
476.596	92
476.814	94
477.033	87
477.252	102
477.471	90
477.69	85
477.908	101
478.127	84
478.346	86
478.564	87
478.783	95
479.002	94
479.22	89
479.439	91
479.658	93
479.876	92
480.095	92
480.313	78
480.532	95
480.751	91
480.969	94
481.188	103
481.406	87
481.624	97
481.843	83
482.061	95
482.28	87
482.498	87
482.717	93
482.935	103
483.153	94
483.372	93
483.59	94
483.808	97
484.027	110
484.245	76
484.463	97
484.681	98
484.9	87
485.118	109
485.336	79
485.554	91
485.772	92
485.99	84
486.209	102
486.427	102
486.645	105
486.863	97
487.081	87
487.299	98
487.517	97
487.735	109
487.953	101
488.171	93
488.389	97
488.607	107
488.825	91
489.043	104
489.261	97
489.479	72
489.696	90
489.914	87
490.132	92
490.35	85
490.568	86
490.786	106
491.003	99
491.221	105
491.439	88
491.657	96
491.874	91
492.092	88
492.31	91
492.527	105
492.745	93
492.963	100
493.18	77
493.398	94
493.615	94
493.833	102
494.05	98
494.268	81
494.485	87
494.703	92
494.92	83
495.138	81
495.355	98
495.573	98
495.79	93
496.008	88
496.225	80
496.442	104
496.66	103
496.877	79
497.094	113
497.312	88
497.529	85
497.746	103
497.963	114
498.181	92
498.398	85
498.615	99
498.832	96
499.049	77
499.267	99
499.484	100
499.701	101
499.918	94
500.135	80
500.352	73
500.569	83
500.786	89
501.003	98
501.22	92
501.437	96
501.654	99
501.871	88
502.088	85
502.305	95
502.522	100
502.739	87
502.956	85
503.172	91
503.389	83
503.606	96
503.823	100
504.04	87
504.256	101
504.473	98
504.69	76
504.907	112
505.123	97
505.34	95
505.557	102
505.773	93
505.99	102
506.207	89
506.423	104
506.64	87
506.856	87
507.073	102
507.289	91
507.506	80
507.722	99
507.939	115
508.155	89
508.372	103
508.588	93
508.805	108
509.021	100
509.238	88
509.454	95
509.67	100
509.887	101
510.103	135
510.319	210
510.536	695
510.752	2206
510.968	629
511.184	155
511.401	125
511.617	113
511.833	97
512.049	90
512.265	104
512.481	101
512.698	80
512.914	92
513.13	80
513.346	87
513.562	93
513.778	97
513.994	98
514.21	98
514.426	120
514.642	115
514.858	111
515.074	159
515.29	407
515.506	1277
515.721	478
515.937	142
516.153	105
516.369	95
516.585	95
516.801	99
517.016	94
517.232	87
517.448	94
517.664	103
517.879	109
518.095	98
518.311	99
518.527	92
518.742	90
518.958	105
519.173	87
519.389	86
519.605	98
519.82	103
520.036	101
520.251	129
520.467	127
520.682	102
520.898	106
521.113	108
521.329	121
521.544	184
521.76	499
521.975	2130
522.19	1275
522.406	294
522.621	114
522.836	89
523.052	99
523.267	98
523.482	107
523.698	105
523.913	130
524.128	103
524.343	101
524.559	87
524.774	103
524.989	107
525.204	108
525.419	99
525.634	93
525.849	97
526.064	88
526.28	92
526.495	80
526.71	102
526.925	103
527.14	92
527.355	85
527.57	89
527.785	88
527.999	100
528.214	82
528.429	108
528.644	109
528.859	99
529.074	110
529.289	121
529.503	154
529.718	113
529.933	113
530.148	89
530.363	75
530.577	98
530.792	86
531.007	81
531.221	87
531.436	94
531.651	101
531.865	88
532.08	84
532.295	88
532.509	91
532.724	79
532.938	95
533.153	110
533.367	93
533.582	98
533.796	98
534.011	84
534.225	103
534.44	98
534.654	89
534.868	93
535.083	88
535.297	84
535.511	96
535.726	104
535.94	99
536.154	96
536.369	86
536.583	107
536.797	78
537.011	89
537.225	102
537.44	93
537.654	96
537.868	92
538.082	82
538.296	110
538.51	100
538.724	83
538.938	96
539.153	102
539.367	106
539.581	93
539.795	93
540.009	89
540.222	95
540.436	89
540.65	89
540.864	82
541.078	83
541.292	80
541.506	86
541.72	89
541.934	93
542.147	87
542.361	92
542.575	73
542.789	83
543.002	87
543.216	86
543.43	84
543.644	91
543.857	92
544.071	93
544.285	103
544.498	94
544.712	90
544.925	94
545.139	97
545.352	93
545.566	98
545.779	78
545.993	86
546.206	84
546.42	91
546.633	109
546.847	103
547.06	95
547.274	81
547.487	81
547.7	97
547.914	69
548.127	84
548.34	94
548.554	98
548.767	101
548.98	94
549.193	78
549.407	104
549.62	91
549.833	91
550.046	83
550.259	91
550.473	102
550.686	99
550.899	88
551.112	96
551.325	80
551.538	99
551.751	98
551.964	86
552.177	71
552.39	72
552.603	86
552.816	85
553.029	80
553.242	87
553.455	94
553.667	108
553.88	115
554.093	93
554.306	113
554.519	102
554.732	92
554.944	86
555.157	96
555.37	97
555.583	97
555.795	88
556.008	86
556.221	95
556.433	87
556.646	99
556.859	92
557.071	82
557.284	79
557.496	86
557.709	114
557.921	91
558.134	97
558.346	89
558.559	98
558.771	91
558.984	84
559.196	89
559.409	87
559.621	100
559.833	96
560.046	87
560.258	87
560.47	82
560.683	92
560.895	95
561.107	87
561.32	91
561.532	86
561.744	97
561.956	98
562.168	99
562.381	92
562.593	92
562.805	103
563.017	94
563.229	88
563.441	100
563.653	93
563.865	95
564.077	81
564.289	96
564.501	92
564.713	107
564.925	104
565.137	111
565.349	92
565.561	89
565.773	90
565.985	96
566.197	91
566.408	90
566.62	87
566.832	89
567.044	84
567.255	88
567.467	85
567.679	80
567.891	89
568.102	79
568.314	80
568.526	89
568.737	91
568.949	89
569.161	85
569.372	89
569.584	94
569.795	86
570.007	104
570.218	223
570.43	141
570.641	83
570.853	87
571.064	91
571.276	79
571.487	96
571.698	90
571.91	84
572.121	86
572.333	80
572.544	92
572.755	90
572.966	88
573.178	82
573.389	92
573.6	93
573.811	97
574.023	95
574.234	93
574.445	86
574.656	90
574.867	97
575.078	96
575.289	88
575.501	89
575.712	81
575.923	89
576.134	102
576.345	99
576.556	78
576.767	93
576.978	101
577.188	100
577.399	88
577.61	94
577.821	103
578.032	104
578.243	248
578.454	742
578.665	198
578.875	105
579.086	94
579.297	94
579.508	75
579.718	93
579.929	92
580.14	86
580.35	94
580.561	88
580.772	90
580.982	96
581.193	87
581.403	85
581.614	63
581.825	86
582.035	77
582.246	89
582.456	92
582.667	77
582.877	96
583.087	96
583.298	76
583.508	83
583.719	80
583.929	77
584.139	88
