Data from Uncirc_1990_H10_HRD10591_00089.txt Node
Date: Wed Jan 03 11:54:09 EST 2024
User: Yrep
Spectrometer: HR+D1059
Trigger mode: 1
Integration Time (sec): 1.000000E-1
Scans to average: 1
Electric dark correction enabled: true
Nonlinearity correction enabled: false
Boxcar width: 0
XAxis mode: Wavelengths
Number of Pixels in Spectrum: 2048
>>>>>Begin Spectral Data<<<<<
223.165	-18.75
223.4	-18.75
223.635	-18.75
223.869	-28.75
224.104	-36.75
224.338	-6.75
224.573	-24.75
224.808	-0.75
225.042	-8.75
225.277	5.25
225.511	-11.75
225.746	2.25
225.98	12.25
226.215	12.25
226.449	24.25
226.683	11.25
226.918	36.25
227.152	33.25
227.387	42.25
227.621	30.25
227.856	38.25
228.09	41.25
228.324	39.25
228.559	53.25
228.793	66.25
229.027	78.25
229.262	61.25
229.496	59.25
229.73	80.25
229.964	78.25
230.199	82.25
230.433	72.25
230.667	76.25
230.901	82.25
231.136	80.25
231.37	93.25
231.604	78.25
231.838	90.25
232.072	87.25
232.306	85.25
232.541	78.25
232.775	83.25
233.009	72.25
233.243	81.25
233.477	66.25
233.711	84.25
233.945	94.25
234.179	90.25
234.413	77.25
234.647	81.25
234.881	77.25
235.115	76.25
235.349	79.25
235.583	90.25
235.817	73.25
236.051	91.25
236.285	88.25
236.519	88.25
236.753	82.25
236.987	70.25
237.221	74.25
237.455	79.25
237.689	88.25
237.922	90.25
238.156	80.25
238.39	78.25
238.624	70.25
238.858	74.25
239.091	85.25
239.325	89.25
239.559	94.25
239.793	73.25
240.027	73.25
240.26	65.25
240.494	84.25
240.728	78.25
240.961	69.25
241.195	64.25
241.429	74.25
241.662	73.25
241.896	74.25
242.13	77.25
242.363	66.25
242.597	68.25
242.83	76.25
243.064	66.25
243.298	72.25
243.531	73.25
243.765	76.25
243.998	88.25
244.232	82.25
244.465	88.25
244.699	74.25
244.932	92.25
245.166	90.25
245.399	90.25
245.633	82.25
245.866	81.25
246.099	103.25
246.333	72.25
246.566	77.25
246.8	87.25
247.033	68.25
247.266	89.25
247.5	80.25
247.733	91.25
247.966	83.25
248.2	80.25
248.433	96.25
248.666	74.25
248.899	88.25
249.133	80.25
249.366	90.25
249.599	99.25
249.832	87.25
250.066	85.25
250.299	70.25
250.532	68.25
250.765	71.25
250.998	85.25
251.231	86.25
251.465	74.25
251.698	82.25
251.931	80.25
252.164	86.25
252.397	79.25
252.63	90.25
252.863	74.25
253.096	86.25
253.329	84.25
253.562	78.25
253.795	79.25
254.028	93.25
254.261	71.25
254.494	66.25
254.727	76.25
254.96	76.25
255.193	87.25
255.426	88.25
255.659	82.25
255.892	87.25
256.124	80.25
256.357	76.25
256.59	84.25
256.823	90.25
257.056	80.25
257.289	87.25
257.521	85.25
257.754	97.25
257.987	76.25
258.22	81.25
258.452	68.25
258.685	95.25
258.918	101.25
259.151	87.25
259.383	91.25
259.616	85.25
259.849	87.25
260.081	90.25
260.314	90.25
260.547	78.25
260.779	92.25
261.012	97.25
261.244	95.25
261.477	85.25
261.71	99.25
261.942	104.25
262.175	109.25
262.407	100.25
262.64	72.25
262.872	75.25
263.105	95.25
263.337	89.25
263.57	95.25
263.802	72.25
264.035	81.25
264.267	85.25
264.499	72.25
264.732	87.25
264.964	84.25
265.197	79.25
265.429	84.25
265.661	82.25
265.894	91.25
266.126	100.25
266.358	76.25
266.591	88.25
266.823	82.25
267.055	81.25
267.287	82.25
267.52	71.25
267.752	94.25
267.984	94.25
268.216	88.25
268.448	82.25
268.681	81.25
268.913	81.25
269.145	76.25
269.377	87.25
269.609	78.25
269.841	78.25
270.073	80.25
270.306	82.25
270.538	77.25
270.77	89.25
271.002	89.25
271.234	72.25
271.466	90.25
271.698	87.25
271.93	85.25
272.162	83.25
272.394	81.25
272.626	84.25
272.858	86.25
273.09	91.25
273.322	90.25
273.553	78.25
273.785	83.25
274.017	86.25
274.249	72.25
274.481	82.25
274.713	87.25
274.945	86.25
275.176	96.25
275.408	90.25
275.64	71.25
275.872	78.25
276.104	94.25
276.335	92.25
276.567	93.25
276.799	105.25
277.031	103.25
277.262	90.25
277.494	102.25
277.726	81.25
277.957	73.25
278.189	77.25
278.421	76.25
278.652	80.25
278.884	98.25
279.115	96.25
279.347	79.25
279.579	93.25
279.81	86.25
280.042	96.25
280.273	80.25
280.505	81.25
280.736	86.25
280.968	72.25
281.199	89.25
281.431	84.25
281.662	75.25
281.894	97.25
282.125	106.25
282.356	113.25
282.588	125.25
282.819	112.25
283.051	102.25
283.282	87.25
283.513	102.25
283.745	90.25
283.976	80.25
284.207	89.25
284.439	88.25
284.67	73.25
284.901	93.25
285.132	94.25
285.364	86.25
285.595	93.25
285.826	106.25
286.057	87.25
286.288	80.25
286.52	93.25
286.751	80.25
286.982	99.25
287.213	72.25
287.444	96.25
287.675	98.25
287.906	85.25
288.138	62.25
288.369	104.25
288.6	86.25
288.831	91.25
289.062	86.25
289.293	90.25
289.524	82.25
289.755	81.25
289.986	80.25
290.217	84.25
290.448	100.25
290.679	89.25
290.91	84.25
291.141	89.25
291.371	102.25
291.602	102.25
291.833	93.25
292.064	99.25
292.295	86.25
292.526	97.25
292.757	95.25
292.987	84.25
293.218	94.25
293.449	87.25
293.68	108.25
293.91	78.25
294.141	94.25
294.372	92.25
294.603	96.25
294.833	89.25
295.064	93.25
295.295	68.25
295.525	94.25
295.756	117.25
295.987	101.25
296.217	129.25
296.448	124.25
296.679	104.25
296.909	94.25
297.14	86.25
297.37	90.25
297.601	99.25
297.831	86.25
298.062	92.25
298.292	86.25
298.523	84.25
298.753	87.25
298.984	101.25
299.214	88.25
299.445	92.25
299.675	88.25
299.905	93.25
300.136	84.25
300.366	80.25
300.597	86.25
300.827	89.25
301.057	98.25
301.288	94.25
301.518	90.25
301.748	99.25
301.979	96.25
302.209	64.25
302.439	87.25
302.669	89.25
302.9	97.25
303.13	103.25
303.36	94.25
303.59	89.25
303.82	101.25
304.051	91.25
304.281	101.25
304.511	94.25
304.741	77.25
304.971	86.25
305.201	85.25
305.431	98.25
305.661	93.25
305.891	92.25
306.121	100.25
306.352	95.25
306.582	90.25
306.812	105.25
307.042	105.25
307.272	111.25
307.502	98.25
307.731	96.25
307.961	103.25
308.191	92.25
308.421	89.25
308.651	99.25
308.881	94.25
309.111	94.25
309.341	72.25
309.571	84.25
309.8	93.25
310.03	94.25
310.26	93.25
310.49	87.25
310.72	83.25
310.949	109.25
311.179	89.25
311.409	90.25
311.639	94.25
311.868	93.25
312.098	86.25
312.328	76.25
312.557	94.25
312.787	113.25
313.017	104.25
313.246	89.25
313.476	97.25
313.706	96.25
313.935	88.25
314.165	104.25
314.394	102.25
314.624	86.25
314.853	96.25
315.083	96.25
315.312	97.25
315.542	82.25
315.771	103.25
316.001	88.25
316.23	97.25
316.46	82.25
316.689	91.25
316.919	88.25
317.148	92.25
317.377	110.25
317.607	82.25
317.836	89.25
318.065	90.25
318.295	94.25
318.524	99.25
318.753	86.25
318.983	95.25
319.212	107.25
319.441	118.25
319.67	98.25
319.9	89.25
320.129	101.25
320.358	103.25
320.587	95.25
320.816	102.25
321.046	98.25
321.275	93.25
321.504	96.25
321.733	109.25
321.962	84.25
322.191	90.25
322.42	94.25
322.649	90.25
322.878	97.25
323.108	108.25
323.337	137.25
323.566	128.25
323.795	140.25
324.024	201.25
324.253	378.25
324.482	793.25
324.71	1650.25
324.939	2193.25
325.168	798.25
325.397	239.25
325.626	148.25
325.855	119.25
326.084	111.25
326.313	133.25
326.542	161.25
326.77	212.25
326.999	464.25
327.228	938.25
327.457	1721.25
327.686	1343.25
327.914	367.25
328.143	179.25
328.372	151.25
328.6	140.25
328.829	124.25
329.058	127.25
329.287	137.25
329.515	104.25
329.744	110.25
329.972	109.25
330.201	107.25
330.43	115.25
330.658	125.25
330.887	121.25
331.115	117.25
331.344	101.25
331.572	91.25
331.801	113.25
332.03	90.25
332.258	100.25
332.486	88.25
332.715	95.25
332.943	93.25
333.172	97.25
333.4	112.25
333.629	101.25
333.857	124.25
334.085	102.25
334.314	114.25
334.542	122.25
334.771	118.25
334.999	103.25
335.227	108.25
335.455	92.25
335.684	101.25
335.912	91.25
336.14	94.25
336.369	101.25
336.597	100.25
336.825	97.25
337.053	87.25
337.281	97.25
337.51	100.25
337.738	96.25
337.966	89.25
338.194	80.25
338.422	86.25
338.65	92.25
338.878	98.25
339.106	89.25
339.334	90.25
339.562	75.25
339.79	84.25
340.018	96.25
340.246	90.25
340.474	101.25
340.702	102.25
340.93	102.25
341.158	111.25
341.386	104.25
341.614	94.25
341.842	107.25
342.07	96.25
342.298	96.25
342.526	87.25
342.754	76.25
342.981	74.25
343.209	104.25
343.437	84.25
343.665	105.25
343.893	92.25
344.12	84.25
344.348	94.25
344.576	88.25
344.804	101.25
345.031	91.25
345.259	97.25
345.487	83.25
345.714	98.25
345.942	89.25
346.17	96.25
346.397	110.25
346.625	88.25
346.853	100.25
347.08	93.25
347.308	96.25
347.535	113.25
347.763	102.25
347.99	102.25
348.218	95.25
348.445	112.25
348.673	98.25
348.9	91.25
349.128	91.25
349.355	99.25
349.583	96.25
349.81	94.25
350.037	96.25
350.265	100.25
350.492	83.25
350.72	95.25
350.947	89.25
351.174	95.25
351.402	108.25
351.629	101.25
351.856	96.25
352.083	94.25
352.311	108.25
352.538	119.25
352.765	104.25
352.992	98.25
353.22	108.25
353.447	110.25
353.674	94.25
353.901	94.25
354.128	98.25
354.355	85.25
354.583	102.25
354.81	104.25
355.037	105.25
355.264	94.25
355.491	102.25
355.718	98.25
355.945	106.25
356.172	104.25
356.399	80.25
356.626	106.25
356.853	91.25
357.08	97.25
357.307	100.25
357.534	98.25
357.761	92.25
357.988	86.25
358.215	92.25
358.441	97.25
358.668	96.25
358.895	95.25
359.122	87.25
359.349	96.25
359.576	88.25
359.802	104.25
360.029	104.25
360.256	110.25
360.483	80.25
360.709	96.25
360.936	77.25
361.163	96.25
361.39	93.25
361.616	95.25
361.843	88.25
362.07	97.25
362.296	99.25
362.523	114.25
362.749	89.25
362.976	94.25
363.203	104.25
363.429	88.25
363.656	114.25
363.882	90.25
364.109	108.25
364.335	98.25
364.562	95.25
364.788	89.25
365.015	98.25
365.241	86.25
365.468	109.25
365.694	106.25
365.92	102.25
366.147	98.25
366.373	100.25
366.599	102.25
366.826	98.25
367.052	98.25
367.278	105.25
367.505	88.25
367.731	92.25
367.957	66.25
368.184	96.25
368.41	82.25
368.636	107.25
368.862	115.25
369.089	106.25
369.315	94.25
369.541	115.25
369.767	83.25
369.993	90.25
370.219	75.25
370.445	86.25
370.672	88.25
370.898	91.25
371.124	88.25
371.35	87.25
371.576	94.25
371.802	84.25
372.028	77.25
372.254	83.25
372.48	87.25
372.706	108.25
372.932	82.25
373.158	105.25
373.384	101.25
373.61	86.25
373.835	81.25
374.061	96.25
374.287	71.25
374.513	92.25
374.739	89.25
374.965	94.25
375.191	92.25
375.416	92.25
375.642	89.25
375.868	94.25
376.094	90.25
376.319	89.25
376.545	97.25
376.771	95.25
376.997	81.25
377.222	92.25
377.448	86.25
377.674	92.25
377.899	84.25
378.125	77.25
378.35	85.25
378.576	87.25
378.802	92.25
379.027	81.25
379.253	89.25
379.478	90.25
379.704	85.25
379.929	85.25
380.155	92.25
380.38	100.25
380.606	99.25
380.831	100.25
381.057	84.25
381.282	100.25
381.507	86.25
381.733	94.25
381.958	92.25
382.184	96.25
382.409	101.25
382.634	102.25
382.86	94.25
383.085	109.25
383.31	100.25
383.535	106.25
383.761	85.25
383.986	94.25
384.211	90.25
384.436	94.25
384.662	110.25
384.887	106.25
385.112	101.25
385.337	87.25
385.562	88.25
385.787	94.25
386.013	102.25
386.238	110.25
386.463	104.25
386.688	111.25
386.913	93.25
387.138	90.25
387.363	104.25
387.588	105.25
387.813	114.25
388.038	112.25
388.263	112.25
388.488	109.25
388.713	93.25
388.938	94.25
389.163	97.25
389.387	110.25
389.612	107.25
389.837	101.25
390.062	101.25
390.287	97.25
390.512	85.25
390.736	85.25
390.961	106.25
391.186	88.25
391.411	106.25
391.636	86.25
391.86	77.25
392.085	85.25
392.31	96.25
392.534	98.25
392.759	89.25
392.984	89.25
393.208	82.25
393.433	83.25
393.658	87.25
393.882	93.25
394.107	86.25
394.331	98.25
394.556	85.25
394.78	94.25
395.005	95.25
395.229	90.25
395.454	89.25
395.678	78.25
395.903	80.25
396.127	69.25
396.352	80.25
396.576	94.25
396.801	74.25
397.025	99.25
397.249	90.25
397.474	86.25
397.698	90.25
397.922	85.25
398.147	89.25
398.371	81.25
398.595	90.25
398.82	90.25
399.044	82.25
399.268	91.25
399.492	90.25
399.717	90.25
399.941	90.25
400.165	102.25
400.389	105.25
400.613	102.25
400.837	93.25
401.062	98.25
401.286	86.25
401.51	78.25
401.734	80.25
401.958	97.25
402.182	110.25
402.406	157.25
402.63	115.25
402.854	105.25
403.078	85.25
403.302	86.25
403.526	81.25
403.75	89.25
403.974	100.25
404.198	97.25
404.422	93.25
404.645	79.25
404.869	100.25
405.093	91.25
405.317	96.25
405.541	98.25
405.765	94.25
405.988	114.25
406.212	154.25
406.436	199.25
406.66	135.25
406.883	105.25
407.107	84.25
407.331	98.25
407.555	92.25
407.778	98.25
408.002	105.25
408.226	85.25
408.449	85.25
408.673	90.25
408.896	89.25
409.12	91.25
409.344	88.25
409.567	89.25
409.791	88.25
410.014	105.25
410.238	106.25
410.461	102.25
410.685	95.25
410.908	110.25
411.132	114.25
411.355	108.25
411.578	101.25
411.802	107.25
412.025	81.25
412.249	92.25
412.472	85.25
412.695	96.25
412.919	91.25
413.142	85.25
413.365	78.25
413.589	83.25
413.812	94.25
414.035	108.25
414.258	94.25
414.482	97.25
414.705	97.25
414.928	77.25
415.151	95.25
415.374	110.25
415.597	88.25
415.821	90.25
416.044	90.25
416.267	96.25
416.49	77.25
416.713	96.25
416.936	86.25
417.159	106.25
417.382	99.25
417.605	88.25
417.828	72.25
418.051	96.25
418.274	85.25
418.497	98.25
418.72	80.25
418.943	85.25
419.166	86.25
419.389	92.25
419.611	87.25
419.834	94.25
420.057	90.25
420.28	89.25
420.503	84.25
420.726	77.25
420.948	97.25
421.171	96.25
421.394	91.25
421.617	90.25
421.839	81.25
422.062	84.25
422.285	101.25
422.507	96.25
422.73	105.25
422.953	100.25
423.175	96.25
423.398	94.25
423.621	93.25
423.843	79.25
424.066	93.25
424.288	83.25
424.511	90.25
424.733	87.25
424.956	110.25
425.178	99.25
425.401	107.25
425.623	106.25
425.846	93.25
426.068	99.25
426.291	98.25
426.513	83.25
426.735	102.25
426.958	98.25
427.18	99.25
427.402	126.25
427.625	157.25
427.847	117.25
428.069	111.25
428.292	112.25
428.514	81.25
428.736	73.25
428.958	95.25
429.181	84.25
429.403	102.25
429.625	85.25
429.847	96.25
430.069	98.25
430.292	92.25
430.514	97.25
430.736	88.25
430.958	91.25
431.18	80.25
431.402	70.25
431.624	93.25
431.846	93.25
432.068	84.25
432.29	91.25
432.512	78.25
432.734	88.25
432.956	81.25
433.178	103.25
433.4	107.25
433.622	90.25
433.844	110.25
434.066	92.25
434.287	101.25
434.509	92.25
434.731	83.25
434.953	91.25
435.175	101.25
435.397	88.25
435.618	101.25
435.84	103.25
436.062	111.25
436.284	118.25
436.505	95.25
436.727	101.25
436.949	88.25
437.17	87.25
437.392	84.25
437.614	94.25
437.835	102.25
438.057	117.25
438.278	100.25
438.5	102.25
438.721	119.25
438.943	105.25
439.165	78.25
439.386	81.25
439.608	88.25
439.829	95.25
440.05	98.25
440.272	129.25
440.493	110.25
440.715	90.25
440.936	86.25
441.158	79.25
441.379	84.25
441.6	82.25
441.822	98.25
442.043	108.25
442.264	93.25
442.486	117.25
442.707	96.25
442.928	87.25
443.149	108.25
443.371	141.25
443.592	93.25
443.813	124.25
444.034	116.25
444.255	92.25
444.476	89.25
444.698	91.25
444.919	106.25
445.14	120.25
445.361	128.25
445.582	113.25
445.803	128.25
446.024	141.25
446.245	121.25
446.466	99.25
446.687	91.25
446.908	84.25
447.129	82.25
447.35	97.25
447.571	86.25
447.792	72.25
448.013	104.25
448.234	105.25
448.455	113.25
448.675	110.25
448.896	103.25
449.117	104.25
449.338	86.25
449.559	128.25
449.779	142.25
450	96.25
450.221	106.25
450.442	102.25
450.662	69.25
450.883	100.25
451.104	115.25
451.324	89.25
451.545	88.25
451.766	85.25
451.986	100.25
452.207	89.25
452.428	102.25
452.648	97.25
452.869	115.25
453.089	103.25
453.31	109.25
453.53	85.25
453.751	86.25
453.971	102.25
454.192	91.25
454.412	91.25
454.633	92.25
454.853	84.25
455.073	105.25
455.294	87.25
455.514	94.25
455.734	100.25
455.955	93.25
456.175	82.25
456.395	82.25
456.616	94.25
456.836	87.25
457.056	90.25
457.276	82.25
457.497	94.25
457.717	88.25
457.937	85.25
458.157	101.25
458.377	84.25
458.598	112.25
458.818	133.25
459.038	158.25
459.258	110.25
459.478	87.25
459.698	90.25
459.918	88.25
460.138	81.25
460.358	88.25
460.578	87.25
460.798	82.25
461.018	107.25
461.238	105.25
461.458	101.25
461.678	85.25
461.898	89.25
462.118	78.25
462.338	93.25
462.558	89.25
462.777	82.25
462.997	81.25
463.217	94.25
463.437	88.25
463.657	79.25
463.876	93.25
464.096	98.25
464.316	90.25
464.536	95.25
464.755	109.25
464.975	83.25
465.195	146.25
465.414	152.25
465.634	101.25
465.854	80.25
466.073	82.25
466.293	64.25
466.512	86.25
466.732	87.25
466.951	82.25
467.171	95.25
467.391	98.25
467.61	105.25
467.829	88.25
468.049	103.25
468.268	102.25
468.488	90.25
468.707	97.25
468.927	83.25
469.146	81.25
469.365	91.25
469.585	79.25
469.804	97.25
470.023	85.25
470.243	93.25
470.462	96.25
470.681	100.25
470.901	94.25
471.12	91.25
471.339	103.25
471.558	85.25
471.777	79.25
471.997	95.25
472.216	118.25
472.435	126.25
472.654	88.25
472.873	96.25
473.092	84.25
473.311	97.25
473.53	94.25
473.749	99.25
473.968	95.25
474.187	131.25
474.406	94.25
474.625	85.25
474.844	93.25
475.063	92.25
475.282	95.25
475.501	88.25
475.72	87.25
475.939	98.25
476.158	97.25
476.377	100.25
476.596	105.25
476.814	94.25
477.033	95.25
477.252	103.25
477.471	95.25
477.69	94.25
477.908	110.25
478.127	95.25
478.346	84.25
478.564	81.25
478.783	97.25
479.002	84.25
479.22	94.25
479.439	95.25
479.658	111.25
479.876	103.25
480.095	94.25
480.313	85.25
480.532	90.25
480.751	103.25
480.969	119.25
481.188	168.25
481.406	134.25
481.624	93.25
481.843	97.25
482.061	83.25
482.28	98.25
482.498	98.25
482.717	85.25
482.935	92.25
483.153	92.25
483.372	88.25
483.59	71.25
483.808	89.25
484.027	105.25
484.245	97.25
484.463	90.25
484.681	98.25
484.9	92.25
485.118	94.25
485.336	104.25
485.554	95.25
485.772	96.25
485.99	101.25
486.209	102.25
486.427	108.25
486.645	99.25
486.863	118.25
487.081	108.25
487.299	91.25
487.517	108.25
487.735	92.25
487.953	91.25
488.171	89.25
488.389	110.25
488.607	100.25
488.825	93.25
489.043	81.25
489.261	96.25
489.479	92.25
489.696	80.25
489.914	89.25
490.132	81.25
490.35	92.25
490.568	91.25
490.786	95.25
491.003	83.25
491.221	80.25
491.439	96.25
491.657	86.25
491.874	89.25
492.092	95.25
492.31	97.25
492.527	94.25
492.745	76.25
492.963	88.25
493.18	99.25
493.398	90.25
493.615	102.25
493.833	109.25
494.05	84.25
494.268	88.25
494.485	93.25
494.703	96.25
494.92	96.25
495.138	93.25
495.355	93.25
495.573	101.25
495.79	101.25
496.008	100.25
496.225	109.25
496.442	88.25
496.66	105.25
496.877	110.25
497.094	87.25
497.312	96.25
497.529	86.25
497.746	94.25
497.963	98.25
498.181	77.25
498.398	100.25
498.615	106.25
498.832	101.25
499.049	90.25
499.267	92.25
499.484	100.25
499.701	103.25
499.918	90.25
500.135	86.25
500.352	86.25
500.569	90.25
500.786	87.25
501.003	93.25
501.22	88.25
501.437	89.25
501.654	101.25
501.871	124.25
502.088	80.25
502.305	102.25
502.522	80.25
502.739	100.25
502.956	90.25
503.172	87.25
503.389	99.25
503.606	96.25
503.823	105.25
504.04	94.25
504.256	85.25
504.473	99.25
504.69	90.25
504.907	94.25
505.123	104.25
505.34	93.25
505.557	98.25
505.773	82.25
505.99	94.25
506.207	81.25
506.423	88.25
506.64	89.25
506.856	88.25
507.073	73.25
507.289	96.25
507.506	94.25
507.722	113.25
507.939	108.25
508.155	108.25
508.372	99.25
508.588	90.25
508.805	91.25
509.021	106.25
509.238	103.25
509.454	104.25
509.67	104.25
509.887	111.25
510.103	119.25
510.319	197.25
510.536	718.25
510.752	2220.25
510.968	591.25
511.184	153.25
511.401	108.25
511.617	95.25
511.833	104.25
512.049	93.25
512.265	97.25
512.481	96.25
512.698	97.25
512.914	101.25
513.13	102.25
513.346	92.25
513.562	101.25
513.778	98.25
513.994	94.25
514.21	114.25
514.426	106.25
514.642	116.25
514.858	106.25
515.074	164.25
