Data from Uncirc_1990_H10_HRD10591_00043.txt Node
Date: Wed Jan 03 11:54:00 EST 2024
User: Yrep
Spectrometer: HR+D1059
Trigger mode: 1
Integration Time (sec): 1.000000E-1
Scans to average: 1
Electric dark correction enabled: true
Nonlinearity correction enabled: false
Boxcar width: 0
XAxis mode: Wavelengths
Number of Pixels in Spectrum: 2048
>>>>>Begin Spectral Data<<<<<
223.165	-10.19
223.4	-10.19
223.635	-10.19
223.869	-24.19
224.104	-4.19
224.338	-13.19
224.573	-21.19
224.808	-9.19
225.042	6.81
225.277	-10.19
225.511	-4.19
225.746	0.81
225.98	-17.19
226.215	11.81
226.449	7.81
226.683	26.81
226.918	20.81
227.152	38.81
227.387	48.81
227.621	37.81
227.856	43.81
228.09	44.81
228.324	42.81
228.559	72.81
228.793	70.81
229.027	77.81
229.262	68.81
229.496	89.81
229.73	64.81
229.964	76.81
230.199	75.81
230.433	66.81
230.667	69.81
230.901	76.81
231.136	82.81
231.37	86.81
231.604	78.81
231.838	93.81
232.072	79.81
232.306	88.81
232.541	70.81
232.775	78.81
233.009	78.81
233.243	77.81
233.477	81.81
233.711	93.81
233.945	74.81
234.179	72.81
234.413	82.81
234.647	84.81
234.881	69.81
235.115	85.81
235.349	84.81
235.583	70.81
235.817	82.81
236.051	63.81
236.285	71.81
236.519	75.81
236.753	77.81
236.987	69.81
237.221	75.81
237.455	67.81
237.689	74.81
237.922	67.81
238.156	76.81
238.39	84.81
238.624	77.81
238.858	87.81
239.091	77.81
239.325	72.81
239.559	93.81
239.793	67.81
240.027	84.81
240.26	86.81
240.494	78.81
240.728	70.81
240.961	89.81
241.195	75.81
241.429	85.81
241.662	77.81
241.896	70.81
242.13	80.81
242.363	90.81
242.597	96.81
242.83	83.81
243.064	79.81
243.298	86.81
243.531	78.81
243.765	54.81
243.998	72.81
244.232	79.81
244.465	85.81
244.699	80.81
244.932	74.81
245.166	83.81
245.399	71.81
245.633	75.81
245.866	71.81
246.099	80.81
246.333	79.81
246.566	86.81
246.8	82.81
247.033	77.81
247.266	81.81
247.5	77.81
247.733	66.81
247.966	90.81
248.2	77.81
248.433	79.81
248.666	84.81
248.899	67.81
249.133	89.81
249.366	98.81
249.599	88.81
249.832	90.81
250.066	82.81
250.299	97.81
250.532	73.81
250.765	84.81
250.998	70.81
251.231	75.81
251.465	78.81
251.698	81.81
251.931	77.81
252.164	80.81
252.397	84.81
252.63	77.81
252.863	88.81
253.096	79.81
253.329	79.81
253.562	76.81
253.795	87.81
254.028	94.81
254.261	82.81
254.494	84.81
254.727	87.81
254.96	88.81
255.193	90.81
255.426	87.81
255.659	86.81
255.892	83.81
256.124	76.81
256.357	82.81
256.59	67.81
256.823	82.81
257.056	76.81
257.289	97.81
257.521	77.81
257.754	76.81
257.987	69.81
258.22	76.81
258.452	76.81
258.685	84.81
258.918	82.81
259.151	85.81
259.383	79.81
259.616	96.81
259.849	68.81
260.081	79.81
260.314	85.81
260.547	79.81
260.779	92.81
261.012	72.81
261.244	97.81
261.477	84.81
261.71	83.81
261.942	111.81
262.175	111.81
262.407	70.81
262.64	90.81
262.872	80.81
263.105	78.81
263.337	88.81
263.57	88.81
263.802	83.81
264.035	83.81
264.267	80.81
264.499	96.81
264.732	93.81
264.964	85.81
265.197	79.81
265.429	83.81
265.661	95.81
265.894	94.81
266.126	92.81
266.358	84.81
266.591	81.81
266.823	68.81
267.055	71.81
267.287	77.81
267.52	76.81
267.752	90.81
267.984	75.81
268.216	86.81
268.448	83.81
268.681	82.81
268.913	71.81
269.145	80.81
269.377	92.81
269.609	88.81
269.841	66.81
270.073	75.81
270.306	64.81
270.538	90.81
270.77	78.81
271.002	66.81
271.234	87.81
271.466	97.81
271.698	97.81
271.93	84.81
272.162	89.81
272.394	84.81
272.626	87.81
272.858	81.81
273.09	74.81
273.322	88.81
273.553	77.81
273.785	81.81
274.017	88.81
274.249	85.81
274.481	78.81
274.713	86.81
274.945	93.81
275.176	89.81
275.408	92.81
275.64	92.81
275.872	83.81
276.104	102.81
276.335	100.81
276.567	99.81
276.799	97.81
277.031	85.81
277.262	98.81
277.494	93.81
277.726	78.81
277.957	88.81
278.189	79.81
278.421	94.81
278.652	82.81
278.884	82.81
279.115	100.81
279.347	91.81
279.579	95.81
279.81	74.81
280.042	94.81
280.273	84.81
280.505	92.81
280.736	81.81
280.968	87.81
281.199	92.81
281.431	69.81
281.662	83.81
281.894	79.81
282.125	102.81
282.356	107.81
282.588	118.81
282.819	95.81
283.051	82.81
283.282	84.81
283.513	84.81
283.745	76.81
283.976	95.81
284.207	89.81
284.439	95.81
284.67	93.81
284.901	74.81
285.132	86.81
285.364	81.81
285.595	86.81
285.826	89.81
286.057	82.81
286.288	76.81
286.52	76.81
286.751	89.81
286.982	96.81
287.213	86.81
287.444	72.81
287.675	86.81
287.906	85.81
288.138	82.81
288.369	90.81
288.6	90.81
288.831	86.81
289.062	85.81
289.293	65.81
289.524	84.81
289.755	70.81
289.986	108.81
290.217	95.81
290.448	77.81
290.679	75.81
290.91	95.81
291.141	89.81
291.371	94.81
291.602	98.81
291.833	90.81
292.064	93.81
292.295	95.81
292.526	90.81
292.757	78.81
292.987	83.81
293.218	83.81
293.449	90.81
293.68	88.81
293.91	79.81
294.141	95.81
294.372	86.81
294.603	87.81
294.833	78.81
295.064	83.81
295.295	88.81
295.525	96.81
295.756	94.81
295.987	103.81
296.217	119.81
296.448	125.81
296.679	90.81
296.909	87.81
297.14	90.81
297.37	85.81
297.601	76.81
297.831	93.81
298.062	94.81
298.292	91.81
298.523	80.81
298.753	72.81
298.984	78.81
299.214	78.81
299.445	80.81
299.675	93.81
299.905	93.81
300.136	93.81
300.366	87.81
300.597	92.81
300.827	87.81
301.057	87.81
301.288	103.81
301.518	75.81
301.748	83.81
301.979	101.81
302.209	94.81
302.439	95.81
302.669	86.81
302.9	85.81
303.13	82.81
303.36	85.81
303.59	87.81
303.82	99.81
304.051	89.81
304.281	82.81
304.511	77.81
304.741	86.81
304.971	91.81
305.201	79.81
305.431	76.81
305.661	89.81
305.891	89.81
306.121	95.81
306.352	91.81
306.582	96.81
306.812	92.81
307.042	96.81
307.272	90.81
307.502	83.81
307.731	110.81
307.961	94.81
308.191	81.81
308.421	102.81
308.651	84.81
308.881	101.81
309.111	103.81
309.341	77.81
309.571	85.81
309.8	87.81
310.03	99.81
310.26	99.81
310.49	96.81
310.72	98.81
310.949	98.81
311.179	104.81
311.409	93.81
311.639	99.81
311.868	90.81
312.098	93.81
312.328	93.81
312.557	98.81
312.787	98.81
313.017	81.81
313.246	81.81
313.476	77.81
313.706	88.81
313.935	104.81
314.165	87.81
314.394	99.81
314.624	78.81
314.853	108.81
315.083	86.81
315.312	84.81
315.542	81.81
315.771	104.81
316.001	90.81
316.23	95.81
316.46	96.81
316.689	97.81
316.919	79.81
317.148	94.81
317.377	89.81
317.607	88.81
317.836	92.81
318.065	99.81
318.295	92.81
318.524	89.81
318.753	94.81
318.983	98.81
319.212	101.81
319.441	106.81
319.67	99.81
319.9	90.81
320.129	82.81
320.358	100.81
320.587	97.81
320.816	99.81
321.046	99.81
321.275	104.81
321.504	95.81
321.733	94.81
321.962	100.81
322.191	94.81
322.42	95.81
322.649	114.81
322.878	96.81
323.108	122.81
323.337	117.81
323.566	120.81
323.795	135.81
324.024	184.81
324.253	354.81
324.482	739.81
324.71	1536.81
324.939	2042.81
325.168	756.81
325.397	234.81
325.626	126.81
325.855	127.81
326.084	122.81
326.313	122.81
326.542	141.81
326.77	194.81
326.999	417.81
327.228	859.81
327.457	1539.81
327.686	1257.81
327.914	370.81
328.143	186.81
328.372	142.81
328.6	115.81
328.829	111.81
329.058	111.81
329.287	104.81
329.515	102.81
329.744	98.81
329.972	96.81
330.201	100.81
330.43	107.81
330.658	119.81
330.887	132.81
331.115	103.81
331.344	90.81
331.572	93.81
331.801	103.81
332.03	102.81
332.258	95.81
332.486	84.81
332.715	88.81
332.943	95.81
333.172	84.81
333.4	89.81
333.629	95.81
333.857	109.81
334.085	99.81
334.314	106.81
334.542	92.81
334.771	105.81
334.999	93.81
335.227	87.81
335.455	102.81
335.684	99.81
335.912	91.81
336.14	92.81
336.369	87.81
336.597	91.81
336.825	100.81
337.053	88.81
337.281	91.81
337.51	89.81
337.738	88.81
337.966	92.81
338.194	92.81
338.422	101.81
338.65	91.81
338.878	102.81
339.106	83.81
339.334	79.81
339.562	66.81
339.79	89.81
340.018	82.81
340.246	89.81
340.474	96.81
340.702	81.81
340.93	94.81
341.158	91.81
341.386	94.81
341.614	95.81
341.842	97.81
342.07	98.81
342.298	94.81
342.526	99.81
342.754	88.81
342.981	96.81
343.209	99.81
343.437	106.81
343.665	106.81
343.893	103.81
344.12	87.81
344.348	84.81
344.576	92.81
344.804	99.81
345.031	101.81
345.259	102.81
345.487	83.81
345.714	98.81
345.942	99.81
346.17	85.81
346.397	84.81
346.625	87.81
346.853	92.81
347.08	90.81
347.308	104.81
347.535	85.81
347.763	93.81
347.99	89.81
348.218	110.81
348.445	99.81
348.673	96.81
348.9	95.81
349.128	102.81
349.355	91.81
349.583	92.81
349.81	94.81
350.037	92.81
350.265	97.81
350.492	97.81
350.72	100.81
350.947	103.81
351.174	110.81
351.402	122.81
351.629	95.81
351.856	91.81
352.083	110.81
352.311	114.81
352.538	112.81
352.765	103.81
352.992	108.81
353.22	116.81
353.447	98.81
353.674	94.81
353.901	113.81
354.128	92.81
354.355	103.81
354.583	102.81
354.81	112.81
355.037	88.81
355.264	109.81
355.491	92.81
355.718	103.81
355.945	90.81
356.172	95.81
356.399	95.81
356.626	100.81
356.853	83.81
357.08	91.81
357.307	87.81
357.534	108.81
357.761	92.81
357.988	91.81
358.215	110.81
358.441	90.81
358.668	82.81
358.895	88.81
359.122	93.81
359.349	88.81
359.576	74.81
359.802	82.81
360.029	100.81
360.256	106.81
360.483	97.81
360.709	92.81
360.936	86.81
361.163	76.81
361.39	92.81
361.616	87.81
361.843	82.81
362.07	102.81
362.296	100.81
362.523	92.81
362.749	90.81
362.976	82.81
363.203	107.81
363.429	97.81
363.656	80.81
363.882	83.81
364.109	90.81
364.335	90.81
364.562	80.81
364.788	89.81
365.015	106.81
365.241	99.81
365.468	106.81
365.694	91.81
365.92	96.81
366.147	99.81
366.373	83.81
366.599	88.81
366.826	80.81
367.052	101.81
367.278	94.81
367.505	94.81
367.731	81.81
367.957	93.81
368.184	84.81
368.41	88.81
368.636	103.81
368.862	117.81
369.089	112.81
369.315	91.81
369.541	83.81
369.767	91.81
369.993	88.81
370.219	81.81
370.445	80.81
370.672	75.81
370.898	90.81
371.124	84.81
371.35	96.81
371.576	95.81
371.802	96.81
372.028	95.81
372.254	107.81
372.48	91.81
372.706	82.81
372.932	85.81
373.158	83.81
373.384	90.81
373.61	95.81
373.835	84.81
374.061	86.81
374.287	82.81
374.513	88.81
374.739	96.81
374.965	90.81
375.191	86.81
375.416	86.81
375.642	87.81
375.868	89.81
376.094	90.81
376.319	95.81
376.545	86.81
376.771	98.81
376.997	99.81
377.222	86.81
377.448	114.81
377.674	84.81
377.899	89.81
378.125	90.81
378.35	86.81
378.576	93.81
378.802	92.81
379.027	96.81
379.253	96.81
379.478	85.81
379.704	82.81
379.929	81.81
380.155	86.81
380.38	102.81
380.606	95.81
380.831	96.81
381.057	91.81
381.282	94.81
381.507	91.81
381.733	100.81
381.958	114.81
382.184	96.81
382.409	100.81
382.634	95.81
382.86	96.81
383.085	83.81
383.31	92.81
383.535	86.81
383.761	91.81
383.986	96.81
384.211	98.81
384.436	91.81
384.662	91.81
384.887	96.81
385.112	97.81
385.337	104.81
385.562	106.81
385.787	85.81
386.013	96.81
386.238	111.81
386.463	110.81
386.688	112.81
386.913	113.81
387.138	104.81
387.363	96.81
387.588	90.81
387.813	91.81
388.038	91.81
388.263	96.81
388.488	105.81
388.713	98.81
388.938	88.81
389.163	99.81
389.387	94.81
389.612	101.81
389.837	97.81
390.062	93.81
390.287	103.81
390.512	96.81
390.736	105.81
390.961	87.81
391.186	93.81
391.411	96.81
391.636	83.81
391.86	89.81
392.085	81.81
392.31	77.81
392.534	91.81
392.759	81.81
392.984	67.81
393.208	94.81
393.433	82.81
393.658	87.81
393.882	102.81
394.107	99.81
394.331	74.81
394.556	102.81
394.78	103.81
395.005	74.81
395.229	89.81
395.454	80.81
395.678	78.81
395.903	85.81
396.127	81.81
396.352	78.81
396.576	74.81
396.801	77.81
397.025	83.81
397.249	78.81
397.474	87.81
397.698	93.81
397.922	72.81
398.147	95.81
398.371	63.81
398.595	90.81
398.82	82.81
399.044	69.81
399.268	94.81
399.492	89.81
399.717	91.81
399.941	93.81
400.165	84.81
400.389	91.81
400.613	96.81
400.837	80.81
401.062	95.81
401.286	85.81
401.51	79.81
401.734	79.81
401.958	93.81
402.182	104.81
402.406	143.81
402.63	104.81
402.854	84.81
403.078	77.81
403.302	100.81
403.526	79.81
403.75	95.81
403.974	89.81
404.198	90.81
404.422	93.81
404.645	88.81
404.869	101.81
405.093	95.81
405.317	85.81
405.541	103.81
405.765	109.81
405.988	99.81
406.212	138.81
406.436	211.81
406.66	124.81
406.883	106.81
407.107	79.81
407.331	96.81
407.555	107.81
407.778	98.81
408.002	91.81
408.226	94.81
408.449	74.81
408.673	90.81
408.896	84.81
409.12	96.81
409.344	77.81
409.567	91.81
409.791	108.81
410.014	102.81
410.238	101.81
410.461	88.81
410.685	78.81
410.908	94.81
411.132	108.81
411.355	95.81
411.578	83.81
411.802	83.81
412.025	77.81
412.249	93.81
412.472	84.81
412.695	82.81
412.919	78.81
413.142	84.81
413.365	100.81
413.589	73.81
413.812	86.81
414.035	81.81
414.258	96.81
414.482	85.81
414.705	94.81
414.928	90.81
415.151	92.81
415.374	90.81
415.597	89.81
415.821	94.81
416.044	73.81
416.267	96.81
416.49	83.81
416.713	92.81
416.936	82.81
417.159	101.81
417.382	77.81
417.605	82.81
417.828	97.81
418.051	88.81
418.274	87.81
418.497	87.81
418.72	88.81
418.943	90.81
419.166	79.81
419.389	75.81
419.611	95.81
419.834	98.81
420.057	101.81
420.28	86.81
420.503	83.81
420.726	86.81
420.948	81.81
421.171	96.81
421.394	79.81
421.617	86.81
421.839	97.81
422.062	97.81
422.285	94.81
422.507	94.81
422.73	102.81
422.953	87.81
423.175	98.81
423.398	103.81
423.621	89.81
423.843	84.81
424.066	80.81
424.288	86.81
424.511	106.81
424.733	81.81
424.956	96.81
425.178	107.81
425.401	118.81
425.623	78.81
425.846	96.81
426.068	79.81
426.291	87.81
426.513	93.81
426.735	89.81
426.958	94.81
427.18	107.81
427.402	141.81
427.625	144.81
427.847	124.81
428.069	106.81
428.292	89.81
428.514	79.81
428.736	85.81
428.958	82.81
429.181	91.81
429.403	76.81
429.625	96.81
429.847	75.81
430.069	96.81
430.292	97.81
430.514	72.81
430.736	86.81
430.958	92.81
431.18	93.81
431.402	89.81
431.624	87.81
431.846	87.81
432.068	100.81
432.29	93.81
432.512	91.81
432.734	94.81
432.956	85.81
433.178	116.81
433.4	103.81
433.622	84.81
433.844	83.81
434.066	94.81
434.287	89.81
434.509	90.81
434.731	98.81
434.953	94.81
435.175	81.81
435.397	95.81
435.618	98.81
435.84	93.81
436.062	110.81
436.284	110.81
436.505	102.81
436.727	95.81
436.949	96.81
437.17	92.81
437.392	102.81
437.614	90.81
437.835	84.81
438.057	104.81
438.278	101.81
438.5	102.81
438.721	125.81
438.943	84.81
439.165	99.81
439.386	76.81
439.608	89.81
439.829	115.81
440.05	107.81
440.272	140.81
440.493	96.81
440.715	95.81
440.936	76.81
441.158	92.81
441.379	97.81
441.6	77.81
441.822	87.81
442.043	92.81
442.264	96.81
442.486	98.81
442.707	85.81
442.928	95.81
443.149	123.81
443.371	114.81
443.592	111.81
443.813	120.81
444.034	115.81
444.255	83.81
444.476	80.81
444.698	83.81
444.919	90.81
445.14	122.81
445.361	112.81
445.582	101.81
445.803	95.81
446.024	119.81
446.245	123.81
446.466	99.81
446.687	93.81
446.908	91.81
447.129	100.81
447.35	77.81
447.571	87.81
447.792	84.81
448.013	81.81
448.234	90.81
448.455	91.81
448.675	100.81
448.896	114.81
449.117	98.81
449.338	99.81
449.559	108.81
449.779	125.81
450	85.81
450.221	78.81
450.442	91.81
450.662	92.81
450.883	113.81
451.104	110.81
451.324	80.81
451.545	97.81
451.766	94.81
451.986	93.81
452.207	90.81
452.428	100.81
452.648	95.81
452.869	112.81
453.089	104.81
453.31	124.81
453.53	95.81
453.751	74.81
453.971	93.81
454.192	106.81
454.412	77.81
454.633	91.81
454.853	95.81
455.073	86.81
455.294	88.81
455.514	90.81
455.734	95.81
455.955	80.81
456.175	79.81
456.395	88.81
456.616	94.81
456.836	92.81
457.056	91.81
457.276	88.81
457.497	77.81
457.717	82.81
457.937	91.81
458.157	94.81
458.377	94.81
458.598	100.81
458.818	134.81
459.038	139.81
459.258	94.81
459.478	79.81
459.698	76.81
459.918	95.81
460.138	92.81
460.358	84.81
460.578	89.81
460.798	80.81
461.018	93.81
461.238	65.81
461.458	86.81
461.678	90.81
461.898	81.81
462.118	86.81
462.338	76.81
462.558	81.81
462.777	95.81
462.997	86.81
463.217	56.81
463.437	78.81
463.657	84.81
463.876	94.81
464.096	88.81
464.316	76.81
464.536	74.81
464.755	98.81
464.975	99.81
465.195	148.81
465.414	150.81
465.634	105.81
465.854	88.81
466.073	99.81
466.293	95.81
466.512	71.81
466.732	85.81
466.951	88.81
467.171	88.81
467.391	98.81
467.61	93.81
467.829	94.81
468.049	95.81
468.268	83.81
468.488	93.81
468.707	84.81
468.927	79.81
469.146	90.81
469.365	77.81
469.585	95.81
469.804	85.81
470.023	90.81
470.243	90.81
470.462	83.81
470.681	110.81
470.901	95.81
471.12	82.81
471.339	72.81
471.558	82.81
471.777	77.81
471.997	96.81
472.216	94.81
472.435	94.81
472.654	72.81
472.873	94.81
473.092	87.81
473.311	71.81
473.53	87.81
473.749	88.81
473.968	97.81
474.187	96.81
474.406	86.81
474.625	91.81
474.844	83.81
475.063	97.81
475.282	94.81
475.501	84.81
475.72	100.81
475.939	68.81
476.158	73.81
476.377	72.81
476.596	79.81
476.814	94.81
477.033	87.81
477.252	85.81
477.471	99.81
477.69	85.81
477.908	77.81
478.127	84.81
478.346	93.81
478.564	91.81
478.783	92.81
479.002	85.81
479.22	79.81
479.439	99.81
479.658	109.81
479.876	105.81
480.095	85.81
480.313	87.81
480.532	74.81
480.751	100.81
480.969	91.81
481.188	104.81
481.406	108.81
481.624	95.81
481.843	82.81
482.061	86.81
482.28	70.81
482.498	75.81
482.717	102.81
482.935	100.81
483.153	88.81
483.372	80.81
483.59	71.81
483.808	103.81
484.027	92.81
484.245	94.81
484.463	82.81
484.681	94.81
484.9	100.81
485.118	101.81
485.336	92.81
485.554	102.81
485.772	81.81
485.99	89.81
486.209	107.81
486.427	105.81
486.645	108.81
486.863	114.81
487.081	112.81
487.299	98.81
487.517	97.81
487.735	93.81
487.953	94.81
488.171	92.81
488.389	87.81
488.607	100.81
488.825	85.81
489.043	85.81
489.261	99.81
489.479	96.81
489.696	100.81
489.914	84.81
490.132	93.81
490.35	78.81
490.568	99.81
490.786	87.81
491.003	92.81
491.221	89.81
491.439	94.81
491.657	95.81
491.874	84.81
492.092	92.81
492.31	119.81
492.527	84.81
492.745	89.81
492.963	95.81
493.18	94.81
493.398	103.81
493.615	87.81
493.833	68.81
494.05	82.81
494.268	88.81
494.485	96.81
494.703	85.81
494.92	95.81
495.138	88.81
495.355	98.81
495.573	98.81
495.79	92.81
496.008	78.81
496.225	107.81
496.442	88.81
496.66	92.81
496.877	97.81
497.094	100.81
497.312	96.81
497.529	76.81
497.746	91.81
497.963	98.81
498.181	113.81
498.398	95.81
498.615	109.81
498.832	97.81
499.049	82.81
499.267	96.81
499.484	87.81
499.701	94.81
499.918	94.81
500.135	92.81
500.352	77.81
500.569	97.81
500.786	94.81
501.003	83.81
501.22	83.81
501.437	99.81
501.654	95.81
501.871	102.81
502.088	92.81
502.305	103.81
502.522	86.81
502.739	91.81
502.956	82.81
503.172	98.81
503.389	92.81
503.606	113.81
503.823	101.81
504.04	95.81
504.256	102.81
504.473	87.81
504.69	102.81
504.907	104.81
505.123	83.81
505.34	89.81
505.557	82.81
505.773	98.81
505.99	86.81
506.207	81.81
506.423	91.81
506.64	83.81
506.856	101.81
507.073	86.81
507.289	82.81
507.506	85.81
507.722	101.81
507.939	105.81
508.155	88.81
508.372	87.81
508.588	97.81
508.805	107.81
509.021	93.81
509.238	98.81
509.454	99.81
509.67	88.81
509.887	111.81
510.103	130.81
510.319	200.81
510.536	694.81
510.752	2130.81
510.968	580.81
511.184	143.81
511.401	110.81
511.617	96.81
511.833	96.81
512.049	104.81
512.265	82.81
512.481	78.81
512.698	91.81
512.914	86.81
513.13	86.81
513.346	90.81
513.562	95.81
513.778	88.81
513.994	107.81
514.21	106.81
514.426	97.81
514.642	132.81
514.858	128.81
515.074	156.81
515.29	384.81
515.506	1244.81
515.721	454.81
515.937	143.81
516.153	110.81
516.369	109.81
