Data from Uncirc_1990_H10_HRD10591_00074.txt Node
Date: Wed Jan 03 11:54:06 EST 2024
User: Yrep
Spectrometer: HR+D1059
Trigger mode: 1
Integration Time (sec): 1.000000E-1
Scans to average: 1
Electric dark correction enabled: true
Nonlinearity correction enabled: false
Boxcar width: 0
XAxis mode: Wavelengths
Number of Pixels in Spectrum: 2048
>>>>>Begin Spectral Data<<<<<
223.165	-16.94
223.4	-16.94
223.635	-16.94
223.869	-15.94
224.104	-10.94
224.338	-25.94
224.573	-0.94
224.808	-11.94
225.042	-9.94
225.277	-5.94
225.511	-12.94
225.746	4.06
225.98	5.06
226.215	9.06
226.449	15.06
226.683	17.06
226.918	24.06
227.152	37.06
227.387	38.06
227.621	30.06
227.856	39.06
228.09	39.06
228.324	64.06
228.559	50.06
228.793	68.06
229.027	60.06
229.262	63.06
229.496	80.06
229.73	85.06
229.964	63.06
230.199	78.06
230.433	60.06
230.667	77.06
230.901	73.06
231.136	69.06
231.37	86.06
231.604	71.06
231.838	74.06
232.072	65.06
232.306	74.06
232.541	69.06
232.775	78.06
233.009	78.06
233.243	85.06
233.477	80.06
233.711	85.06
233.945	65.06
234.179	72.06
234.413	70.06
234.647	92.06
234.881	75.06
235.115	83.06
235.349	90.06
235.583	82.06
235.817	83.06
236.051	86.06
236.285	72.06
236.519	86.06
236.753	79.06
236.987	78.06
237.221	92.06
237.455	91.06
237.689	81.06
237.922	78.06
238.156	85.06
238.39	59.06
238.624	74.06
238.858	67.06
239.091	80.06
239.325	91.06
239.559	78.06
239.793	69.06
240.027	89.06
240.26	81.06
240.494	75.06
240.728	76.06
240.961	54.06
241.195	77.06
241.429	68.06
241.662	68.06
241.896	63.06
242.13	80.06
242.363	80.06
242.597	70.06
242.83	72.06
243.064	86.06
243.298	64.06
243.531	80.06
243.765	80.06
243.998	79.06
244.232	78.06
244.465	83.06
244.699	90.06
244.932	71.06
245.166	74.06
245.399	71.06
245.633	79.06
245.866	82.06
246.099	84.06
246.333	77.06
246.566	74.06
246.8	74.06
247.033	75.06
247.266	79.06
247.5	78.06
247.733	77.06
247.966	69.06
248.2	66.06
248.433	67.06
248.666	71.06
248.899	74.06
249.133	78.06
249.366	98.06
249.599	81.06
249.832	79.06
250.066	91.06
250.299	69.06
250.532	67.06
250.765	71.06
250.998	83.06
251.231	71.06
251.465	75.06
251.698	75.06
251.931	77.06
252.164	79.06
252.397	83.06
252.63	76.06
252.863	81.06
253.096	84.06
253.329	71.06
253.562	76.06
253.795	100.06
254.028	78.06
254.261	81.06
254.494	71.06
254.727	78.06
254.96	70.06
255.193	92.06
255.426	70.06
255.659	81.06
255.892	90.06
256.124	71.06
256.357	82.06
256.59	80.06
256.823	66.06
257.056	86.06
257.289	80.06
257.521	75.06
257.754	78.06
257.987	78.06
258.22	86.06
258.452	75.06
258.685	80.06
258.918	80.06
259.151	77.06
259.383	91.06
259.616	85.06
259.849	78.06
260.081	84.06
260.314	91.06
260.547	86.06
260.779	77.06
261.012	92.06
261.244	79.06
261.477	89.06
261.71	97.06
261.942	104.06
262.175	108.06
262.407	87.06
262.64	82.06
262.872	55.06
263.105	76.06
263.337	86.06
263.57	68.06
263.802	85.06
264.035	78.06
264.267	90.06
264.499	76.06
264.732	85.06
264.964	76.06
265.197	89.06
265.429	82.06
265.661	90.06
265.894	95.06
266.126	84.06
266.358	90.06
266.591	78.06
266.823	89.06
267.055	90.06
267.287	91.06
267.52	71.06
267.752	84.06
267.984	94.06
268.216	78.06
268.448	64.06
268.681	84.06
268.913	90.06
269.145	84.06
269.377	91.06
269.609	75.06
269.841	82.06
270.073	75.06
270.306	84.06
270.538	87.06
270.77	76.06
271.002	94.06
271.234	89.06
271.466	82.06
271.698	73.06
271.93	81.06
272.162	102.06
272.394	82.06
272.626	90.06
272.858	76.06
273.09	91.06
273.322	87.06
273.553	76.06
273.785	94.06
274.017	81.06
274.249	89.06
274.481	95.06
274.713	78.06
274.945	95.06
275.176	84.06
275.408	82.06
275.64	104.06
275.872	84.06
276.104	85.06
276.335	109.06
276.567	104.06
276.799	114.06
277.031	92.06
277.262	96.06
277.494	85.06
277.726	87.06
277.957	82.06
278.189	91.06
278.421	89.06
278.652	74.06
278.884	80.06
279.115	84.06
279.347	73.06
279.579	90.06
279.81	71.06
280.042	79.06
280.273	92.06
280.505	94.06
280.736	92.06
280.968	81.06
281.199	92.06
281.431	93.06
281.662	94.06
281.894	82.06
282.125	84.06
282.356	118.06
282.588	115.06
282.819	113.06
283.051	84.06
283.282	92.06
283.513	85.06
283.745	87.06
283.976	91.06
284.207	85.06
284.439	86.06
284.67	98.06
284.901	96.06
285.132	76.06
285.364	85.06
285.595	92.06
285.826	90.06
286.057	84.06
286.288	81.06
286.52	81.06
286.751	82.06
286.982	94.06
287.213	94.06
287.444	89.06
287.675	90.06
287.906	96.06
288.138	99.06
288.369	88.06
288.6	78.06
288.831	80.06
289.062	76.06
289.293	71.06
289.524	88.06
289.755	84.06
289.986	97.06
290.217	84.06
290.448	90.06
290.679	95.06
290.91	92.06
291.141	67.06
291.371	97.06
291.602	86.06
291.833	79.06
292.064	83.06
292.295	80.06
292.526	115.06
292.757	99.06
292.987	90.06
293.218	83.06
293.449	80.06
293.68	92.06
293.91	88.06
294.141	104.06
294.372	90.06
294.603	82.06
294.833	91.06
295.064	94.06
295.295	84.06
295.525	90.06
295.756	95.06
295.987	101.06
296.217	134.06
296.448	117.06
296.679	99.06
296.909	103.06
297.14	95.06
297.37	103.06
297.601	80.06
297.831	94.06
298.062	82.06
298.292	83.06
298.523	104.06
298.753	88.06
298.984	84.06
299.214	91.06
299.445	85.06
299.675	105.06
299.905	87.06
300.136	76.06
300.366	102.06
300.597	89.06
300.827	103.06
301.057	98.06
301.288	103.06
301.518	100.06
301.748	93.06
301.979	92.06
302.209	93.06
302.439	87.06
302.669	86.06
302.9	88.06
303.13	78.06
303.36	86.06
303.59	102.06
303.82	94.06
304.051	86.06
304.281	88.06
304.511	79.06
304.741	92.06
304.971	83.06
305.201	83.06
305.431	84.06
305.661	75.06
305.891	84.06
306.121	104.06
306.352	101.06
306.582	93.06
306.812	99.06
307.042	94.06
307.272	92.06
307.502	94.06
307.731	84.06
307.961	85.06
308.191	84.06
308.421	102.06
308.651	95.06
308.881	90.06
309.111	91.06
309.341	97.06
309.571	102.06
309.8	93.06
310.03	114.06
310.26	82.06
310.49	98.06
310.72	113.06
310.949	100.06
311.179	106.06
311.409	91.06
311.639	92.06
311.868	89.06
312.098	102.06
312.328	95.06
312.557	102.06
312.787	89.06
313.017	90.06
313.246	88.06
313.476	91.06
313.706	87.06
313.935	101.06
314.165	105.06
314.394	100.06
314.624	102.06
314.853	107.06
315.083	92.06
315.312	109.06
315.542	87.06
315.771	78.06
316.001	90.06
316.23	89.06
316.46	95.06
316.689	90.06
316.919	93.06
317.148	86.06
317.377	89.06
317.607	78.06
317.836	80.06
318.065	75.06
318.295	100.06
318.524	85.06
318.753	94.06
318.983	91.06
319.212	86.06
319.441	98.06
319.67	114.06
319.9	100.06
320.129	99.06
320.358	91.06
320.587	107.06
320.816	110.06
321.046	101.06
321.275	104.06
321.504	96.06
321.733	102.06
321.962	98.06
322.191	97.06
322.42	90.06
322.649	110.06
322.878	113.06
323.108	102.06
323.337	118.06
323.566	138.06
323.795	148.06
324.024	214.06
324.253	404.06
324.482	861.06
324.71	1735.06
324.939	2350.06
325.168	865.06
325.397	256.06
325.626	167.06
325.855	125.06
326.084	124.06
326.313	139.06
326.542	158.06
326.77	236.06
326.999	464.06
327.228	990.06
327.457	1849.06
327.686	1436.06
327.914	391.06
328.143	199.06
328.372	140.06
328.6	116.06
328.829	111.06
329.058	126.06
329.287	122.06
329.515	104.06
329.744	117.06
329.972	105.06
330.201	97.06
330.43	123.06
330.658	133.06
330.887	128.06
331.115	122.06
331.344	102.06
331.572	114.06
331.801	109.06
332.03	109.06
332.258	111.06
332.486	87.06
332.715	94.06
332.943	91.06
333.172	103.06
333.4	96.06
333.629	96.06
333.857	101.06
334.085	107.06
334.314	108.06
334.542	109.06
334.771	107.06
334.999	108.06
335.227	82.06
335.455	96.06
335.684	98.06
335.912	100.06
336.14	111.06
336.369	100.06
336.597	107.06
336.825	102.06
337.053	87.06
337.281	99.06
337.51	84.06
337.738	88.06
337.966	78.06
338.194	90.06
338.422	89.06
338.65	102.06
338.878	98.06
339.106	93.06
339.334	91.06
339.562	78.06
339.79	95.06
340.018	79.06
340.246	88.06
340.474	96.06
340.702	94.06
340.93	86.06
341.158	90.06
341.386	94.06
341.614	107.06
341.842	92.06
342.07	95.06
342.298	92.06
342.526	91.06
342.754	96.06
342.981	88.06
343.209	86.06
343.437	95.06
343.665	63.06
343.893	91.06
344.12	96.06
344.348	96.06
344.576	101.06
344.804	99.06
345.031	84.06
345.259	105.06
345.487	93.06
345.714	86.06
345.942	96.06
346.17	100.06
346.397	90.06
346.625	96.06
346.853	107.06
347.08	88.06
347.308	97.06
347.535	100.06
347.763	96.06
347.99	104.06
348.218	109.06
348.445	92.06
348.673	105.06
348.9	108.06
349.128	91.06
349.355	89.06
349.583	93.06
349.81	86.06
350.037	93.06
350.265	90.06
350.492	94.06
350.72	88.06
350.947	100.06
351.174	97.06
351.402	100.06
351.629	92.06
351.856	112.06
352.083	112.06
352.311	104.06
352.538	106.06
352.765	94.06
352.992	96.06
353.22	108.06
353.447	117.06
353.674	105.06
353.901	90.06
354.128	106.06
354.355	98.06
354.583	108.06
354.81	95.06
355.037	96.06
355.264	100.06
355.491	92.06
355.718	98.06
355.945	111.06
356.172	111.06
356.399	86.06
356.626	102.06
356.853	83.06
357.08	88.06
357.307	102.06
357.534	100.06
357.761	95.06
357.988	95.06
358.215	88.06
358.441	94.06
358.668	86.06
358.895	86.06
359.122	107.06
359.349	95.06
359.576	82.06
359.802	110.06
360.029	102.06
360.256	111.06
360.483	114.06
360.709	94.06
360.936	84.06
361.163	97.06
361.39	105.06
361.616	99.06
361.843	74.06
362.07	103.06
362.296	96.06
362.523	94.06
362.749	97.06
362.976	87.06
363.203	95.06
363.429	98.06
363.656	80.06
363.882	74.06
364.109	94.06
364.335	87.06
364.562	89.06
364.788	112.06
365.015	89.06
365.241	96.06
365.468	119.06
365.694	93.06
365.92	86.06
366.147	100.06
366.373	90.06
366.599	84.06
366.826	91.06
367.052	87.06
367.278	95.06
367.505	91.06
367.731	90.06
367.957	103.06
368.184	91.06
368.41	92.06
368.636	104.06
368.862	104.06
369.089	104.06
369.315	108.06
369.541	88.06
369.767	89.06
369.993	87.06
370.219	79.06
370.445	91.06
370.672	92.06
370.898	94.06
371.124	87.06
371.35	80.06
371.576	92.06
371.802	91.06
372.028	87.06
372.254	96.06
372.48	89.06
372.706	80.06
372.932	88.06
373.158	85.06
373.384	76.06
373.61	90.06
373.835	100.06
374.061	106.06
374.287	95.06
374.513	85.06
374.739	76.06
374.965	98.06
375.191	86.06
375.416	80.06
375.642	90.06
375.868	86.06
376.094	94.06
376.319	96.06
376.545	93.06
376.771	83.06
376.997	86.06
377.222	74.06
377.448	90.06
377.674	91.06
377.899	92.06
378.125	96.06
378.35	100.06
378.576	92.06
378.802	103.06
379.027	98.06
379.253	91.06
379.478	92.06
379.704	92.06
379.929	86.06
380.155	99.06
380.38	80.06
380.606	84.06
380.831	101.06
381.057	95.06
381.282	98.06
381.507	89.06
381.733	98.06
381.958	93.06
382.184	92.06
382.409	92.06
382.634	104.06
382.86	109.06
383.085	100.06
383.31	95.06
383.535	97.06
383.761	95.06
383.986	92.06
384.211	88.06
384.436	117.06
384.662	107.06
384.887	98.06
385.112	106.06
385.337	95.06
385.562	96.06
385.787	103.06
386.013	105.06
386.238	115.06
386.463	97.06
386.688	125.06
386.913	85.06
387.138	108.06
387.363	102.06
387.588	96.06
387.813	86.06
388.038	91.06
388.263	99.06
388.488	74.06
388.713	97.06
388.938	102.06
389.163	101.06
389.387	100.06
389.612	93.06
389.837	100.06
390.062	96.06
390.287	90.06
390.512	86.06
390.736	100.06
390.961	94.06
391.186	83.06
391.411	100.06
391.636	94.06
391.86	94.06
392.085	74.06
392.31	79.06
392.534	85.06
392.759	80.06
392.984	75.06
393.208	87.06
393.433	96.06
393.658	87.06
393.882	72.06
394.107	94.06
394.331	92.06
394.556	91.06
394.78	102.06
395.005	99.06
395.229	83.06
395.454	98.06
395.678	93.06
395.903	89.06
396.127	80.06
396.352	86.06
396.576	90.06
396.801	86.06
397.025	81.06
397.249	78.06
397.474	81.06
397.698	88.06
397.922	77.06
398.147	76.06
398.371	87.06
398.595	83.06
398.82	80.06
399.044	92.06
399.268	86.06
399.492	81.06
399.717	102.06
399.941	88.06
400.165	98.06
400.389	107.06
400.613	94.06
400.837	91.06
401.062	85.06
401.286	76.06
401.51	83.06
401.734	88.06
401.958	102.06
402.182	115.06
402.406	147.06
402.63	109.06
402.854	90.06
403.078	96.06
403.302	84.06
403.526	93.06
403.75	88.06
403.974	83.06
404.198	82.06
404.422	80.06
404.645	93.06
404.869	91.06
405.093	113.06
405.317	98.06
405.541	108.06
405.765	95.06
405.988	117.06
406.212	161.06
406.436	228.06
406.66	134.06
406.883	104.06
407.107	101.06
407.331	92.06
407.555	96.06
407.778	92.06
408.002	90.06
408.226	94.06
408.449	89.06
408.673	77.06
408.896	98.06
409.12	97.06
409.344	88.06
409.567	90.06
409.791	95.06
410.014	106.06
410.238	92.06
410.461	91.06
410.685	75.06
410.908	95.06
411.132	108.06
411.355	98.06
411.578	102.06
411.802	86.06
412.025	71.06
412.249	93.06
412.472	98.06
412.695	100.06
412.919	94.06
413.142	76.06
413.365	85.06
413.589	80.06
413.812	109.06
414.035	91.06
414.258	87.06
414.482	103.06
414.705	83.06
414.928	82.06
415.151	100.06
415.374	94.06
415.597	83.06
415.821	94.06
416.044	99.06
416.267	98.06
416.49	97.06
416.713	89.06
416.936	86.06
417.159	96.06
417.382	88.06
417.605	76.06
417.828	87.06
418.051	82.06
418.274	88.06
418.497	77.06
418.72	76.06
418.943	89.06
419.166	81.06
419.389	83.06
419.611	90.06
419.834	87.06
420.057	91.06
420.28	94.06
420.503	85.06
420.726	85.06
420.948	90.06
421.171	81.06
421.394	97.06
421.617	84.06
421.839	94.06
422.062	84.06
422.285	99.06
422.507	100.06
422.73	82.06
422.953	82.06
423.175	95.06
423.398	80.06
423.621	84.06
423.843	80.06
424.066	85.06
424.288	76.06
424.511	84.06
424.733	96.06
424.956	91.06
425.178	86.06
425.401	112.06
425.623	102.06
425.846	95.06
426.068	95.06
426.291	97.06
426.513	89.06
426.735	80.06
426.958	93.06
427.18	99.06
427.402	140.06
427.625	148.06
427.847	127.06
428.069	112.06
428.292	85.06
428.514	86.06
428.736	76.06
428.958	79.06
429.181	76.06
429.403	76.06
429.625	92.06
429.847	83.06
430.069	102.06
430.292	96.06
430.514	85.06
430.736	79.06
430.958	83.06
431.18	82.06
431.402	85.06
431.624	90.06
431.846	90.06
432.068	90.06
432.29	96.06
432.512	74.06
432.734	77.06
432.956	72.06
433.178	95.06
433.4	104.06
433.622	104.06
433.844	98.06
434.066	105.06
434.287	76.06
434.509	93.06
434.731	88.06
434.953	98.06
435.175	107.06
435.397	101.06
435.618	86.06
435.84	101.06
436.062	104.06
436.284	112.06
436.505	86.06
436.727	100.06
436.949	84.06
437.17	75.06
437.392	90.06
437.614	98.06
437.835	88.06
438.057	100.06
438.278	117.06
438.5	92.06
438.721	124.06
438.943	95.06
439.165	100.06
439.386	86.06
439.608	101.06
439.829	92.06
440.05	114.06
440.272	139.06
440.493	109.06
440.715	86.06
440.936	82.06
441.158	82.06
441.379	93.06
441.6	93.06
441.822	90.06
442.043	89.06
442.264	101.06
442.486	101.06
442.707	99.06
442.928	96.06
443.149	130.06
443.371	121.06
443.592	116.06
443.813	107.06
444.034	98.06
444.255	85.06
444.476	95.06
444.698	91.06
444.919	83.06
445.14	121.06
445.361	124.06
445.582	117.06
445.803	118.06
446.024	127.06
446.245	130.06
446.466	103.06
446.687	88.06
446.908	94.06
447.129	94.06
447.35	73.06
447.571	84.06
447.792	107.06
448.013	92.06
448.234	91.06
448.455	101.06
448.675	107.06
448.896	127.06
449.117	104.06
449.338	96.06
449.559	142.06
449.779	134.06
450	92.06
450.221	91.06
450.442	85.06
450.662	95.06
450.883	90.06
451.104	102.06
451.324	103.06
451.545	82.06
451.766	92.06
451.986	69.06
452.207	85.06
452.428	99.06
452.648	83.06
452.869	103.06
453.089	107.06
453.31	99.06
453.53	84.06
453.751	103.06
453.971	99.06
454.192	98.06
454.412	80.06
454.633	82.06
454.853	79.06
455.073	83.06
455.294	107.06
455.514	92.06
455.734	82.06
455.955	84.06
456.175	88.06
456.395	91.06
456.616	81.06
456.836	77.06
457.056	89.06
457.276	77.06
457.497	78.06
457.717	88.06
457.937	85.06
458.157	93.06
458.377	97.06
458.598	104.06
458.818	150.06
459.038	144.06
459.258	109.06
459.478	88.06
459.698	74.06
459.918	71.06
460.138	79.06
460.358	77.06
460.578	90.06
460.798	86.06
461.018	87.06
461.238	76.06
461.458	66.06
461.678	96.06
461.898	85.06
462.118	74.06
462.338	91.06
462.558	95.06
462.777	101.06
462.997	94.06
463.217	78.06
463.437	87.06
463.657	84.06
463.876	76.06
464.096	98.06
464.316	92.06
464.536	87.06
464.755	85.06
464.975	100.06
465.195	157.06
465.414	158.06
465.634	108.06
465.854	82.06
466.073	86.06
466.293	88.06
466.512	82.06
466.732	98.06
466.951	88.06
467.171	96.06
467.391	78.06
467.61	104.06
467.829	94.06
468.049	84.06
468.268	82.06
468.488	79.06
468.707	76.06
468.927	92.06
469.146	91.06
469.365	88.06
469.585	84.06
469.804	90.06
470.023	94.06
470.243	99.06
470.462	92.06
470.681	96.06
470.901	85.06
471.12	87.06
471.339	91.06
471.558	80.06
471.777	87.06
471.997	95.06
472.216	98.06
472.435	114.06
472.654	83.06
472.873	91.06
473.092	84.06
473.311	89.06
473.53	86.06
473.749	83.06
473.968	82.06
474.187	97.06
474.406	96.06
474.625	77.06
474.844	95.06
475.063	90.06
475.282	70.06
475.501	76.06
475.72	92.06
475.939	81.06
476.158	90.06
476.377	88.06
476.596	86.06
476.814	78.06
477.033	87.06
477.252	82.06
477.471	82.06
477.69	76.06
477.908	95.06
478.127	74.06
478.346	104.06
478.564	86.06
478.783	83.06
479.002	91.06
479.22	84.06
479.439	94.06
479.658	101.06
479.876	90.06
480.095	91.06
480.313	98.06
480.532	102.06
480.751	84.06
480.969	79.06
481.188	140.06
481.406	117.06
481.624	88.06
481.843	87.06
482.061	85.06
482.28	79.06
482.498	88.06
482.717	88.06
482.935	99.06
483.153	97.06
483.372	87.06
483.59	87.06
483.808	100.06
484.027	87.06
484.245	98.06
484.463	90.06
484.681	90.06
484.9	86.06
485.118	97.06
485.336	100.06
485.554	100.06
485.772	104.06
485.99	90.06
486.209	104.06
486.427	93.06
486.645	101.06
486.863	96.06
487.081	95.06
487.299	92.06
487.517	94.06
487.735	76.06
487.953	100.06
488.171	86.06
488.389	100.06
488.607	91.06
488.825	73.06
489.043	86.06
489.261	85.06
489.479	90.06
489.696	88.06
489.914	92.06
490.132	86.06
490.35	90.06
490.568	79.06
490.786	81.06
491.003	103.06
491.221	81.06
491.439	104.06
491.657	90.06
491.874	83.06
492.092	86.06
492.31	89.06
492.527	68.06
492.745	76.06
492.963	86.06
493.18	90.06
493.398	108.06
493.615	109.06
493.833	89.06
494.05	90.06
494.268	86.06
494.485	84.06
494.703	83.06
494.92	75.06
495.138	89.06
495.355	71.06
495.573	82.06
495.79	86.06
496.008	71.06
496.225	98.06
496.442	83.06
496.66	87.06
496.877	104.06
497.094	86.06
497.312	100.06
497.529	91.06
497.746	85.06
497.963	91.06
498.181	97.06
498.398	87.06
498.615	105.06
498.832	108.06
499.049	95.06
499.267	102.06
499.484	98.06
499.701	92.06
499.918	97.06
500.135	78.06
500.352	84.06
500.569	93.06
500.786	98.06
501.003	98.06
501.22	105.06
501.437	87.06
501.654	105.06
501.871	92.06
502.088	87.06
502.305	79.06
502.522	85.06
502.739	109.06
502.956	86.06
503.172	78.06
503.389	93.06
503.606	101.06
503.823	91.06
504.04	102.06
504.256	100.06
504.473	88.06
504.69	86.06
504.907	93.06
505.123	78.06
505.34	102.06
505.557	93.06
505.773	87.06
505.99	85.06
506.207	82.06
506.423	68.06
506.64	96.06
506.856	87.06
507.073	84.06
507.289	88.06
507.506	101.06
507.722	95.06
507.939	114.06
508.155	97.06
508.372	93.06
508.588	88.06
508.805	104.06
509.021	88.06
509.238	103.06
509.454	96.06
509.67	97.06
509.887	107.06
510.103	124.06
510.319	213.06
510.536	708.06
510.752	2300.06
510.968	618.06
511.184	158.06
511.401	120.06
511.617	95.06
511.833	107.06
512.049	82.06
512.265	92.06
512.481	83.06
512.698	93.06
512.914	68.06
513.13	94.06
513.346	96.06
513.562	87.06
513.778	96.06
513.994	114.06
514.21	97.06
514.426	102.06
514.642	143.06
514.858	118.06
515.074	145.06
515.29	417.06
515.506	1357.06
515.721	498.06
