Data from Uncirc_1990_H10_HRD10591_00064.txt Node
Date: Wed Jan 03 11:54:04 EST 2024
User: Yrep
Spectrometer: HR+D1059
Trigger mode: 1
Integration Time (sec): 1.000000E-1
Scans to average: 1
Electric dark correction enabled: true
Nonlinearity correction enabled: false
Boxcar width: 0
XAxis mode: Wavelengths
Number of Pixels in Spectrum: 2048
>>>>>Begin Spectral Data<<<<<
223.165	-32.19
223.4	-32.19
223.635	-32.19
223.869	-26.19
224.104	-21.19
224.338	-13.19
224.573	-21.19
224.808	-11.19
225.042	-9.19
225.277	-12.19
225.511	0.81
225.746	6.81
225.98	6.81
226.215	18.81
226.449	22.81
226.683	10.81
226.918	31.81
227.152	47.81
227.387	28.81
227.621	29.81
227.856	41.81
228.09	41.81
228.324	57.81
228.559	53.81
228.793	57.81
229.027	59.81
229.262	63.81
229.496	65.81
229.73	78.81
229.964	65.81
230.199	66.81
230.433	63.81
230.667	84.81
230.901	66.81
231.136	76.81
231.37	86.81
231.604	73.81
231.838	86.81
232.072	70.81
232.306	84.81
232.541	82.81
232.775	69.81
233.009	81.81
233.243	71.81
233.477	84.81
233.711	85.81
233.945	85.81
234.179	91.81
234.413	69.81
234.647	80.81
234.881	66.81
235.115	67.81
235.349	87.81
235.583	82.81
235.817	90.81
236.051	71.81
236.285	62.81
236.519	84.81
236.753	74.81
236.987	82.81
237.221	69.81
237.455	82.81
237.689	75.81
237.922	64.81
238.156	70.81
238.39	69.81
238.624	77.81
238.858	78.81
239.091	56.81
239.325	79.81
239.559	98.81
239.793	86.81
240.027	81.81
240.26	78.81
240.494	72.81
240.728	69.81
240.961	70.81
241.195	85.81
241.429	85.81
241.662	81.81
241.896	80.81
242.13	80.81
242.363	76.81
242.597	63.81
242.83	58.81
243.064	71.81
243.298	69.81
243.531	94.81
243.765	81.81
243.998	77.81
244.232	69.81
244.465	71.81
244.699	85.81
244.932	80.81
245.166	98.81
245.399	75.81
245.633	84.81
245.866	69.81
246.099	77.81
246.333	91.81
246.566	65.81
246.8	70.81
247.033	75.81
247.266	82.81
247.5	76.81
247.733	71.81
247.966	81.81
248.2	77.81
248.433	81.81
248.666	78.81
248.899	73.81
249.133	79.81
249.366	85.81
249.599	88.81
249.832	78.81
250.066	73.81
250.299	75.81
250.532	78.81
250.765	82.81
250.998	79.81
251.231	75.81
251.465	89.81
251.698	84.81
251.931	77.81
252.164	101.81
252.397	82.81
252.63	61.81
252.863	73.81
253.096	74.81
253.329	92.81
253.562	92.81
253.795	90.81
254.028	86.81
254.261	95.81
254.494	85.81
254.727	77.81
254.96	80.81
255.193	81.81
255.426	71.81
255.659	78.81
255.892	81.81
256.124	72.81
256.357	85.81
256.59	72.81
256.823	84.81
257.056	82.81
257.289	75.81
257.521	81.81
257.754	78.81
257.987	79.81
258.22	81.81
258.452	87.81
258.685	89.81
258.918	68.81
259.151	77.81
259.383	68.81
259.616	67.81
259.849	69.81
260.081	88.81
260.314	69.81
260.547	70.81
260.779	66.81
261.012	75.81
261.244	91.81
261.477	82.81
261.71	90.81
261.942	99.81
262.175	111.81
262.407	91.81
262.64	76.81
262.872	87.81
263.105	93.81
263.337	97.81
263.57	80.81
263.802	79.81
264.035	75.81
264.267	77.81
264.499	78.81
264.732	82.81
264.964	85.81
265.197	67.81
265.429	77.81
265.661	79.81
265.894	69.81
266.126	84.81
266.358	82.81
266.591	85.81
266.823	78.81
267.055	78.81
267.287	66.81
267.52	87.81
267.752	97.81
267.984	87.81
268.216	80.81
268.448	91.81
268.681	98.81
268.913	82.81
269.145	96.81
269.377	86.81
269.609	83.81
269.841	86.81
270.073	86.81
270.306	98.81
270.538	83.81
270.77	89.81
271.002	75.81
271.234	88.81
271.466	100.81
271.698	79.81
271.93	77.81
272.162	81.81
272.394	91.81
272.626	93.81
272.858	86.81
273.09	77.81
273.322	79.81
273.553	58.81
273.785	84.81
274.017	77.81
274.249	81.81
274.481	69.81
274.713	84.81
274.945	86.81
275.176	78.81
275.408	93.81
275.64	83.81
275.872	75.81
276.104	88.81
276.335	92.81
276.567	91.81
276.799	109.81
277.031	97.81
277.262	98.81
277.494	96.81
277.726	90.81
277.957	71.81
278.189	95.81
278.421	97.81
278.652	70.81
278.884	85.81
279.115	82.81
279.347	87.81
279.579	78.81
279.81	88.81
280.042	97.81
280.273	75.81
280.505	66.81
280.736	84.81
280.968	98.81
281.199	85.81
281.431	90.81
281.662	84.81
281.894	97.81
282.125	95.81
282.356	118.81
282.588	129.81
282.819	118.81
283.051	94.81
283.282	84.81
283.513	91.81
283.745	81.81
283.976	86.81
284.207	86.81
284.439	83.81
284.67	90.81
284.901	82.81
285.132	102.81
285.364	102.81
285.595	99.81
285.826	90.81
286.057	94.81
286.288	88.81
286.52	96.81
286.751	95.81
286.982	80.81
287.213	86.81
287.444	93.81
287.675	80.81
287.906	87.81
288.138	88.81
288.369	93.81
288.6	71.81
288.831	79.81
289.062	83.81
289.293	100.81
289.524	85.81
289.755	81.81
289.986	92.81
290.217	92.81
290.448	96.81
290.679	71.81
290.91	88.81
291.141	97.81
291.371	76.81
291.602	84.81
291.833	81.81
292.064	101.81
292.295	84.81
292.526	78.81
292.757	97.81
292.987	89.81
293.218	97.81
293.449	79.81
293.68	82.81
293.91	97.81
294.141	93.81
294.372	79.81
294.603	71.81
294.833	98.81
295.064	101.81
295.295	74.81
295.525	87.81
295.756	97.81
295.987	102.81
296.217	129.81
296.448	133.81
296.679	90.81
296.909	87.81
297.14	84.81
297.37	94.81
297.601	60.81
297.831	76.81
298.062	92.81
298.292	76.81
298.523	84.81
298.753	89.81
298.984	92.81
299.214	85.81
299.445	102.81
299.675	106.81
299.905	106.81
300.136	94.81
300.366	83.81
300.597	97.81
300.827	95.81
301.057	107.81
301.288	109.81
301.518	85.81
301.748	79.81
301.979	106.81
302.209	94.81
302.439	101.81
302.669	82.81
302.9	88.81
303.13	91.81
303.36	91.81
303.59	99.81
303.82	112.81
304.051	93.81
304.281	103.81
304.511	92.81
304.741	87.81
304.971	85.81
305.201	94.81
305.431	88.81
305.661	82.81
305.891	95.81
306.121	91.81
306.352	100.81
306.582	95.81
306.812	93.81
307.042	86.81
307.272	82.81
307.502	81.81
307.731	91.81
307.961	102.81
308.191	90.81
308.421	93.81
308.651	99.81
308.881	99.81
309.111	81.81
309.341	85.81
309.571	90.81
309.8	97.81
310.03	88.81
310.26	93.81
310.49	94.81
310.72	90.81
310.949	106.81
311.179	100.81
311.409	93.81
311.639	95.81
311.868	81.81
312.098	101.81
312.328	100.81
312.557	100.81
312.787	94.81
313.017	100.81
313.246	94.81
313.476	83.81
313.706	101.81
313.935	98.81
314.165	106.81
314.394	99.81
314.624	101.81
314.853	99.81
315.083	94.81
315.312	93.81
315.542	96.81
315.771	85.81
316.001	92.81
316.23	90.81
316.46	97.81
316.689	96.81
316.919	101.81
317.148	107.81
317.377	109.81
317.607	85.81
317.836	100.81
318.065	93.81
318.295	85.81
318.524	102.81
318.753	103.81
318.983	101.81
319.212	113.81
319.441	115.81
319.67	95.81
319.9	85.81
320.129	84.81
320.358	99.81
320.587	91.81
320.816	106.81
321.046	99.81
321.275	103.81
321.504	96.81
321.733	100.81
321.962	92.81
322.191	100.81
322.42	99.81
322.649	100.81
322.878	118.81
323.108	138.81
323.337	118.81
323.566	107.81
323.795	141.81
324.024	178.81
324.253	371.81
324.482	763.81
324.71	1612.81
324.939	2101.81
325.168	776.81
325.397	229.81
325.626	145.81
325.855	119.81
326.084	112.81
326.313	122.81
326.542	135.81
326.77	211.81
326.999	423.81
327.228	890.81
327.457	1609.81
327.686	1293.81
327.914	350.81
328.143	191.81
328.372	160.81
328.6	120.81
328.829	123.81
329.058	122.81
329.287	120.81
329.515	108.81
329.744	100.81
329.972	93.81
330.201	100.81
330.43	110.81
330.658	106.81
330.887	131.81
331.115	115.81
331.344	107.81
331.572	97.81
331.801	93.81
332.03	99.81
332.258	96.81
332.486	101.81
332.715	103.81
332.943	108.81
333.172	99.81
333.4	91.81
333.629	102.81
333.857	115.81
334.085	101.81
334.314	102.81
334.542	104.81
334.771	123.81
334.999	96.81
335.227	101.81
335.455	93.81
335.684	89.81
335.912	83.81
336.14	83.81
336.369	92.81
336.597	96.81
336.825	91.81
337.053	93.81
337.281	82.81
337.51	83.81
337.738	87.81
337.966	82.81
338.194	101.81
338.422	86.81
338.65	90.81
338.878	87.81
339.106	82.81
339.334	106.81
339.562	99.81
339.79	94.81
340.018	93.81
340.246	87.81
340.474	100.81
340.702	97.81
340.93	100.81
341.158	109.81
341.386	100.81
341.614	98.81
341.842	88.81
342.07	88.81
342.298	91.81
342.526	93.81
342.754	83.81
342.981	97.81
343.209	93.81
343.437	93.81
343.665	90.81
343.893	88.81
344.12	94.81
344.348	109.81
344.576	94.81
344.804	76.81
345.031	97.81
345.259	89.81
345.487	89.81
345.714	77.81
345.942	87.81
346.17	103.81
346.397	91.81
346.625	97.81
346.853	91.81
347.08	87.81
347.308	95.81
347.535	92.81
347.763	98.81
347.99	108.81
348.218	114.81
348.445	115.81
348.673	98.81
348.9	107.81
349.128	105.81
349.355	76.81
349.583	93.81
349.81	94.81
350.037	89.81
350.265	98.81
350.492	77.81
350.72	92.81
350.947	94.81
351.174	104.81
351.402	93.81
351.629	93.81
351.856	96.81
352.083	94.81
352.311	96.81
352.538	102.81
352.765	112.81
352.992	113.81
353.22	114.81
353.447	98.81
353.674	97.81
353.901	96.81
354.128	85.81
354.355	92.81
354.583	95.81
354.81	106.81
355.037	96.81
355.264	94.81
355.491	85.81
355.718	98.81
355.945	107.81
356.172	90.81
356.399	96.81
356.626	103.81
356.853	94.81
357.08	81.81
357.307	100.81
357.534	96.81
357.761	98.81
357.988	111.81
358.215	91.81
358.441	99.81
358.668	99.81
358.895	94.81
359.122	80.81
359.349	81.81
359.576	93.81
359.802	95.81
360.029	101.81
360.256	113.81
360.483	101.81
360.709	89.81
360.936	94.81
361.163	91.81
361.39	100.81
361.616	98.81
361.843	90.81
362.07	96.81
362.296	77.81
362.523	86.81
362.749	94.81
362.976	98.81
363.203	89.81
363.429	89.81
363.656	74.81
363.882	91.81
364.109	82.81
364.335	79.81
364.562	90.81
364.788	101.81
365.015	89.81
365.241	110.81
365.468	100.81
365.694	100.81
365.92	89.81
366.147	91.81
366.373	85.81
366.599	93.81
366.826	90.81
367.052	90.81
367.278	106.81
367.505	97.81
367.731	95.81
367.957	75.81
368.184	89.81
368.41	87.81
368.636	109.81
368.862	113.81
369.089	106.81
369.315	107.81
369.541	83.81
369.767	82.81
369.993	88.81
370.219	78.81
370.445	84.81
370.672	89.81
370.898	91.81
371.124	77.81
371.35	89.81
371.576	89.81
371.802	94.81
372.028	96.81
372.254	89.81
372.48	90.81
372.706	94.81
372.932	93.81
373.158	85.81
373.384	84.81
373.61	83.81
373.835	86.81
374.061	78.81
374.287	85.81
374.513	91.81
374.739	91.81
374.965	81.81
375.191	93.81
375.416	82.81
375.642	82.81
375.868	81.81
376.094	95.81
376.319	100.81
376.545	79.81
376.771	85.81
376.997	90.81
377.222	88.81
377.448	87.81
377.674	82.81
377.899	87.81
378.125	85.81
378.35	93.81
378.576	102.81
378.802	81.81
379.027	89.81
379.253	93.81
379.478	82.81
379.704	99.81
379.929	81.81
380.155	100.81
380.38	99.81
380.606	92.81
380.831	82.81
381.057	91.81
381.282	101.81
381.507	91.81
381.733	85.81
381.958	94.81
382.184	99.81
382.409	100.81
382.634	95.81
382.86	111.81
383.085	104.81
383.31	100.81
383.535	94.81
383.761	107.81
383.986	106.81
384.211	75.81
384.436	87.81
384.662	93.81
384.887	87.81
385.112	96.81
385.337	98.81
385.562	113.81
385.787	98.81
386.013	103.81
386.238	97.81
386.463	100.81
386.688	95.81
386.913	86.81
387.138	85.81
387.363	97.81
387.588	81.81
387.813	96.81
388.038	98.81
388.263	117.81
388.488	91.81
388.713	96.81
388.938	89.81
389.163	95.81
389.387	103.81
389.612	89.81
389.837	80.81
390.062	96.81
390.287	96.81
390.512	83.81
390.736	84.81
390.961	102.81
391.186	99.81
391.411	87.81
391.636	89.81
391.86	90.81
392.085	68.81
392.31	82.81
392.534	83.81
392.759	86.81
392.984	90.81
393.208	96.81
393.433	91.81
393.658	90.81
393.882	80.81
394.107	84.81
394.331	89.81
394.556	89.81
394.78	102.81
395.005	84.81
395.229	83.81
395.454	90.81
395.678	87.81
395.903	87.81
396.127	96.81
396.352	83.81
396.576	83.81
396.801	92.81
397.025	63.81
397.249	96.81
397.474	87.81
397.698	89.81
397.922	84.81
398.147	94.81
398.371	90.81
398.595	68.81
398.82	81.81
399.044	85.81
399.268	85.81
399.492	85.81
399.717	85.81
399.941	101.81
400.165	100.81
400.389	86.81
400.613	81.81
400.837	92.81
401.062	103.81
401.286	77.81
401.51	90.81
401.734	74.81
401.958	101.81
402.182	97.81
402.406	133.81
402.63	106.81
402.854	83.81
403.078	88.81
403.302	95.81
403.526	77.81
403.75	84.81
403.974	95.81
404.198	97.81
404.422	89.81
404.645	91.81
404.869	91.81
405.093	87.81
405.317	105.81
405.541	96.81
405.765	102.81
405.988	112.81
406.212	165.81
406.436	209.81
406.66	127.81
406.883	95.81
407.107	89.81
407.331	86.81
407.555	90.81
407.778	79.81
408.002	86.81
408.226	89.81
408.449	77.81
408.673	102.81
408.896	88.81
409.12	98.81
409.344	89.81
409.567	89.81
409.791	78.81
410.014	100.81
410.238	86.81
410.461	85.81
410.685	86.81
410.908	85.81
411.132	97.81
411.355	111.81
411.578	102.81
411.802	86.81
412.025	82.81
412.249	86.81
412.472	95.81
412.695	90.81
412.919	68.81
413.142	89.81
413.365	93.81
413.589	81.81
413.812	82.81
414.035	88.81
414.258	82.81
414.482	81.81
414.705	82.81
414.928	82.81
415.151	87.81
415.374	96.81
415.597	91.81
415.821	75.81
416.044	95.81
416.267	91.81
416.49	85.81
416.713	88.81
416.936	87.81
417.159	85.81
417.382	99.81
417.605	95.81
417.828	84.81
418.051	89.81
418.274	86.81
418.497	86.81
418.72	84.81
418.943	89.81
419.166	83.81
419.389	84.81
419.611	94.81
419.834	81.81
420.057	97.81
420.28	79.81
420.503	87.81
420.726	92.81
420.948	77.81
421.171	79.81
421.394	85.81
421.617	85.81
421.839	84.81
422.062	84.81
422.285	101.81
422.507	100.81
422.73	90.81
422.953	80.81
423.175	86.81
423.398	91.81
423.621	85.81
423.843	94.81
424.066	74.81
424.288	89.81
424.511	82.81
424.733	88.81
424.956	90.81
425.178	93.81
425.401	110.81
425.623	81.81
425.846	91.81
426.068	87.81
426.291	80.81
426.513	95.81
426.735	73.81
426.958	79.81
427.18	107.81
427.402	124.81
427.625	143.81
427.847	100.81
428.069	102.81
428.292	100.81
428.514	81.81
428.736	82.81
428.958	82.81
429.181	65.81
429.403	84.81
429.625	79.81
429.847	86.81
430.069	85.81
430.292	73.81
430.514	78.81
430.736	85.81
430.958	65.81
431.18	75.81
431.402	78.81
431.624	83.81
431.846	89.81
432.068	79.81
432.29	86.81
432.512	94.81
432.734	86.81
432.956	86.81
433.178	94.81
433.4	86.81
433.622	89.81
433.844	100.81
434.066	89.81
434.287	92.81
434.509	70.81
434.731	94.81
434.953	96.81
435.175	82.81
435.397	82.81
435.618	90.81
435.84	93.81
436.062	118.81
436.284	106.81
436.505	105.81
436.727	109.81
436.949	93.81
437.17	83.81
437.392	81.81
437.614	87.81
437.835	98.81
438.057	110.81
438.278	113.81
438.5	89.81
438.721	122.81
438.943	95.81
439.165	91.81
439.386	85.81
439.608	100.81
439.829	93.81
440.05	102.81
440.272	120.81
440.493	101.81
440.715	90.81
440.936	79.81
441.158	85.81
441.379	91.81
441.6	97.81
441.822	91.81
442.043	93.81
442.264	108.81
442.486	97.81
442.707	85.81
442.928	91.81
443.149	144.81
443.371	126.81
443.592	103.81
443.813	118.81
444.034	103.81
444.255	83.81
444.476	93.81
444.698	85.81
444.919	85.81
445.14	109.81
445.361	110.81
445.582	112.81
445.803	126.81
446.024	133.81
446.245	135.81
446.466	100.81
446.687	89.81
446.908	88.81
447.129	86.81
447.35	94.81
447.571	82.81
447.792	101.81
448.013	96.81
448.234	118.81
448.455	95.81
448.675	105.81
448.896	110.81
449.117	99.81
449.338	106.81
449.559	125.81
449.779	103.81
450	89.81
450.221	89.81
450.442	90.81
450.662	93.81
450.883	109.81
451.104	108.81
451.324	89.81
451.545	83.81
451.766	89.81
451.986	74.81
452.207	94.81
452.428	95.81
452.648	95.81
452.869	112.81
453.089	113.81
453.31	123.81
453.53	95.81
453.751	102.81
453.971	96.81
454.192	94.81
454.412	106.81
454.633	85.81
454.853	70.81
455.073	90.81
455.294	70.81
455.514	95.81
455.734	100.81
455.955	86.81
456.175	73.81
456.395	93.81
456.616	82.81
456.836	80.81
457.056	84.81
457.276	89.81
457.497	82.81
457.717	73.81
457.937	75.81
458.157	89.81
458.377	84.81
458.598	98.81
458.818	139.81
459.038	159.81
459.258	104.81
459.478	85.81
459.698	84.81
459.918	77.81
460.138	81.81
460.358	101.81
460.578	83.81
460.798	81.81
461.018	90.81
461.238	77.81
461.458	106.81
461.678	90.81
461.898	79.81
462.118	87.81
462.338	83.81
462.558	94.81
462.777	76.81
462.997	85.81
463.217	92.81
463.437	85.81
463.657	79.81
463.876	78.81
464.096	85.81
464.316	84.81
464.536	90.81
464.755	85.81
464.975	105.81
465.195	149.81
465.414	146.81
465.634	100.81
465.854	89.81
466.073	85.81
466.293	81.81
466.512	92.81
466.732	99.81
466.951	75.81
467.171	102.81
467.391	87.81
467.61	90.81
467.829	100.81
468.049	94.81
468.268	80.81
468.488	89.81
468.707	87.81
468.927	81.81
469.146	95.81
469.365	88.81
469.585	83.81
469.804	102.81
470.023	93.81
470.243	67.81
470.462	97.81
470.681	96.81
470.901	96.81
471.12	67.81
471.339	75.81
471.558	79.81
471.777	94.81
471.997	87.81
472.216	101.81
472.435	125.81
472.654	105.81
472.873	89.81
473.092	85.81
473.311	85.81
473.53	84.81
473.749	88.81
473.968	92.81
474.187	119.81
474.406	95.81
474.625	82.81
474.844	72.81
475.063	96.81
475.282	91.81
475.501	77.81
475.72	80.81
475.939	89.81
476.158	80.81
476.377	89.81
476.596	101.81
476.814	107.81
477.033	77.81
477.252	97.81
477.471	93.81
477.69	92.81
477.908	79.81
478.127	86.81
478.346	101.81
478.564	95.81
478.783	93.81
479.002	102.81
479.22	87.81
479.439	94.81
479.658	88.81
479.876	92.81
480.095	98.81
480.313	90.81
480.532	83.81
480.751	90.81
480.969	105.81
481.188	146.81
481.406	99.81
481.624	99.81
481.843	93.81
482.061	87.81
482.28	84.81
482.498	86.81
482.717	60.81
482.935	84.81
483.153	97.81
483.372	100.81
483.59	92.81
483.808	95.81
484.027	96.81
484.245	81.81
484.463	99.81
484.681	88.81
484.9	90.81
485.118	99.81
485.336	98.81
485.554	86.81
485.772	94.81
485.99	92.81
486.209	100.81
486.427	111.81
486.645	108.81
486.863	106.81
487.081	102.81
487.299	97.81
487.517	102.81
487.735	75.81
487.953	86.81
488.171	101.81
488.389	86.81
488.607	89.81
488.825	91.81
489.043	90.81
489.261	87.81
489.479	82.81
489.696	82.81
489.914	91.81
490.132	87.81
490.35	95.81
490.568	75.81
490.786	80.81
491.003	89.81
491.221	89.81
491.439	96.81
491.657	92.81
491.874	86.81
492.092	86.81
492.31	94.81
492.527	84.81
492.745	86.81
492.963	80.81
493.18	98.81
493.398	103.81
493.615	103.81
493.833	82.81
494.05	90.81
494.268	100.81
494.485	90.81
494.703	78.81
494.92	98.81
495.138	73.81
495.355	77.81
495.573	96.81
495.79	98.81
496.008	92.81
496.225	89.81
496.442	84.81
496.66	101.81
496.877	99.81
497.094	95.81
497.312	96.81
497.529	79.81
497.746	66.81
497.963	87.81
498.181	93.81
498.398	101.81
498.615	89.81
498.832	96.81
499.049	91.81
499.267	96.81
499.484	81.81
499.701	74.81
499.918	80.81
500.135	83.81
500.352	84.81
500.569	90.81
500.786	83.81
501.003	94.81
501.22	88.81
501.437	93.81
501.654	88.81
501.871	95.81
502.088	96.81
502.305	96.81
502.522	78.81
502.739	88.81
502.956	91.81
503.172	94.81
503.389	85.81
503.606	102.81
503.823	103.81
504.04	85.81
504.256	81.81
504.473	101.81
504.69	99.81
504.907	93.81
505.123	74.81
505.34	85.81
505.557	83.81
505.773	86.81
505.99	98.81
506.207	87.81
506.423	94.81
506.64	87.81
506.856	98.81
507.073	90.81
507.289	100.81
507.506	91.81
507.722	88.81
507.939	101.81
508.155	110.81
508.372	91.81
508.588	85.81
508.805	100.81
509.021	93.81
509.238	89.81
509.454	101.81
509.67	106.81
509.887	106.81
510.103	126.81
510.319	215.81
510.536	717.81
510.752	2323.81
510.968	631.81
511.184	157.81
511.401	109.81
511.617	92.81
511.833	91.81
512.049	85.81
512.265	74.81
512.481	105.81
512.698	82.81
512.914	105.81
513.13	76.81
513.346	95.81
513.562	108.81
513.778	104.81
513.994	107.81
514.21	94.81
514.426	120.81
514.642	120.81
514.858	124.81
515.074	158.81
515.29	423.81
515.506	1400.81
515.721	497.81
515.937	161.81
516.153	102.81
