Data from Uncirc_1990_H10_HRD10591_00028.txt Node
Date: Wed Jan 03 11:53:57 EST 2024
User: Yrep
Spectrometer: HR+D1059
Trigger mode: 1
Integration Time (sec): 1.000000E-1
Scans to average: 1
Electric dark correction enabled: true
Nonlinearity correction enabled: false
Boxcar width: 0
XAxis mode: Wavelengths
Number of Pixels in Spectrum: 2048
>>>>>Begin Spectral Data<<<<<
223.165	-19.5
223.4	-19.5
223.635	-19.5
223.869	-17.5
224.104	-11.5
224.338	-21.5
224.573	-15.5
224.808	-13.5
225.042	-12.5
225.277	3.5
225.511	-17.5
225.746	2.5
225.98	12.5
226.215	17.5
226.449	15.5
226.683	20.5
226.918	22.5
227.152	34.5
227.387	31.5
227.621	45.5
227.856	43.5
228.09	44.5
228.324	55.5
228.559	57.5
228.793	62.5
229.027	66.5
229.262	70.5
229.496	70.5
229.73	73.5
229.964	79.5
230.199	85.5
230.433	79.5
230.667	73.5
230.901	81.5
231.136	87.5
231.37	87.5
231.604	80.5
231.838	89.5
232.072	73.5
232.306	83.5
232.541	81.5
232.775	91.5
233.009	76.5
233.243	76.5
233.477	67.5
233.711	75.5
233.945	66.5
234.179	81.5
234.413	87.5
234.647	74.5
234.881	87.5
235.115	79.5
235.349	84.5
235.583	96.5
235.817	78.5
236.051	84.5
236.285	93.5
236.519	80.5
236.753	71.5
236.987	66.5
237.221	87.5
237.455	84.5
237.689	71.5
237.922	79.5
238.156	74.5
238.39	78.5
238.624	80.5
238.858	66.5
239.091	81.5
239.325	69.5
239.559	81.5
239.793	75.5
240.027	79.5
240.26	76.5
240.494	68.5
240.728	84.5
240.961	79.5
241.195	90.5
241.429	79.5
241.662	84.5
241.896	74.5
242.13	64.5
242.363	68.5
242.597	67.5
242.83	73.5
243.064	81.5
243.298	87.5
243.531	83.5
243.765	87.5
243.998	90.5
244.232	73.5
244.465	65.5
244.699	76.5
244.932	84.5
245.166	71.5
245.399	71.5
245.633	70.5
245.866	80.5
246.099	77.5
246.333	65.5
246.566	71.5
246.8	67.5
247.033	75.5
247.266	76.5
247.5	69.5
247.733	93.5
247.966	83.5
248.2	56.5
248.433	79.5
248.666	75.5
248.899	70.5
249.133	84.5
249.366	87.5
249.599	99.5
249.832	84.5
250.066	86.5
250.299	68.5
250.532	78.5
250.765	67.5
250.998	85.5
251.231	63.5
251.465	68.5
251.698	84.5
251.931	75.5
252.164	91.5
252.397	71.5
252.63	67.5
252.863	77.5
253.096	86.5
253.329	88.5
253.562	82.5
253.795	89.5
254.028	92.5
254.261	90.5
254.494	86.5
254.727	81.5
254.96	75.5
255.193	83.5
255.426	76.5
255.659	77.5
255.892	89.5
256.124	68.5
256.357	77.5
256.59	77.5
256.823	80.5
257.056	75.5
257.289	93.5
257.521	73.5
257.754	82.5
257.987	79.5
258.22	89.5
258.452	75.5
258.685	68.5
258.918	75.5
259.151	58.5
259.383	92.5
259.616	77.5
259.849	79.5
260.081	81.5
260.314	90.5
260.547	70.5
260.779	78.5
261.012	85.5
261.244	81.5
261.477	86.5
261.71	93.5
261.942	99.5
262.175	108.5
262.407	83.5
262.64	81.5
262.872	81.5
263.105	70.5
263.337	63.5
263.57	82.5
263.802	80.5
264.035	89.5
264.267	80.5
264.499	87.5
264.732	81.5
264.964	69.5
265.197	85.5
265.429	79.5
265.661	99.5
265.894	93.5
266.126	83.5
266.358	81.5
266.591	88.5
266.823	80.5
267.055	71.5
267.287	80.5
267.52	77.5
267.752	83.5
267.984	95.5
268.216	86.5
268.448	85.5
268.681	73.5
268.913	78.5
269.145	86.5
269.377	81.5
269.609	77.5
269.841	73.5
270.073	89.5
270.306	65.5
270.538	96.5
270.77	95.5
271.002	84.5
271.234	89.5
271.466	91.5
271.698	81.5
271.93	86.5
272.162	79.5
272.394	90.5
272.626	92.5
272.858	87.5
273.09	81.5
273.322	80.5
273.553	78.5
273.785	89.5
274.017	78.5
274.249	94.5
274.481	84.5
274.713	66.5
274.945	89.5
275.176	86.5
275.408	91.5
275.64	85.5
275.872	81.5
276.104	75.5
276.335	89.5
276.567	95.5
276.799	112.5
277.031	107.5
277.262	94.5
277.494	85.5
277.726	84.5
277.957	83.5
278.189	89.5
278.421	89.5
278.652	90.5
278.884	85.5
279.115	85.5
279.347	91.5
279.579	90.5
279.81	76.5
280.042	82.5
280.273	83.5
280.505	95.5
280.736	80.5
280.968	87.5
281.199	79.5
281.431	77.5
281.662	83.5
281.894	90.5
282.125	85.5
282.356	107.5
282.588	127.5
282.819	123.5
283.051	92.5
283.282	83.5
283.513	93.5
283.745	74.5
283.976	89.5
284.207	90.5
284.439	94.5
284.67	94.5
284.901	89.5
285.132	91.5
285.364	76.5
285.595	91.5
285.826	80.5
286.057	88.5
286.288	78.5
286.52	92.5
286.751	93.5
286.982	81.5
287.213	71.5
287.444	88.5
287.675	77.5
287.906	75.5
288.138	88.5
288.369	97.5
288.6	97.5
288.831	79.5
289.062	79.5
289.293	95.5
289.524	84.5
289.755	81.5
289.986	81.5
290.217	78.5
290.448	90.5
290.679	74.5
290.91	80.5
291.141	78.5
291.371	84.5
291.602	76.5
291.833	95.5
292.064	100.5
292.295	89.5
292.526	82.5
292.757	92.5
292.987	87.5
293.218	91.5
293.449	94.5
293.68	92.5
293.91	89.5
294.141	91.5
294.372	79.5
294.603	90.5
294.833	102.5
295.064	93.5
295.295	83.5
295.525	87.5
295.756	95.5
295.987	100.5
296.217	128.5
296.448	104.5
296.679	89.5
296.909	87.5
297.14	83.5
297.37	99.5
297.601	96.5
297.831	93.5
298.062	93.5
298.292	97.5
298.523	86.5
298.753	82.5
298.984	88.5
299.214	88.5
299.445	83.5
299.675	82.5
299.905	83.5
300.136	85.5
300.366	81.5
300.597	89.5
300.827	93.5
301.057	87.5
301.288	84.5
301.518	90.5
301.748	91.5
301.979	93.5
302.209	91.5
302.439	80.5
302.669	87.5
302.9	85.5
303.13	95.5
303.36	92.5
303.59	92.5
303.82	94.5
304.051	94.5
304.281	99.5
304.511	103.5
304.741	90.5
304.971	85.5
305.201	87.5
305.431	84.5
305.661	94.5
305.891	100.5
306.121	91.5
306.352	102.5
306.582	106.5
306.812	94.5
307.042	88.5
307.272	92.5
307.502	87.5
307.731	87.5
307.961	83.5
308.191	76.5
308.421	86.5
308.651	91.5
308.881	74.5
309.111	73.5
309.341	99.5
309.571	95.5
309.8	101.5
310.03	88.5
310.26	103.5
310.49	95.5
310.72	93.5
310.949	94.5
311.179	97.5
311.409	94.5
311.639	89.5
311.868	94.5
312.098	95.5
312.328	91.5
312.557	77.5
312.787	105.5
313.017	90.5
313.246	98.5
313.476	85.5
313.706	107.5
313.935	90.5
314.165	92.5
314.394	116.5
314.624	89.5
314.853	93.5
315.083	92.5
315.312	78.5
315.542	94.5
315.771	86.5
316.001	90.5
316.23	99.5
316.46	76.5
316.689	96.5
316.919	91.5
317.148	87.5
317.377	105.5
317.607	102.5
317.836	91.5
318.065	110.5
318.295	94.5
318.524	101.5
318.753	97.5
318.983	85.5
319.212	102.5
319.441	95.5
319.67	89.5
319.9	84.5
320.129	89.5
320.358	91.5
320.587	100.5
320.816	92.5
321.046	94.5
321.275	86.5
321.504	98.5
321.733	87.5
321.962	80.5
322.191	93.5
322.42	106.5
322.649	121.5
322.878	99.5
323.108	110.5
323.337	120.5
323.566	135.5
323.795	142.5
324.024	177.5
324.253	354.5
324.482	728.5
324.71	1477.5
324.939	1977.5
325.168	726.5
325.397	227.5
325.626	137.5
325.855	124.5
326.084	123.5
326.313	126.5
326.542	140.5
326.77	207.5
326.999	425.5
327.228	837.5
327.457	1513.5
327.686	1217.5
327.914	355.5
328.143	181.5
328.372	140.5
328.6	111.5
328.829	105.5
329.058	116.5
329.287	126.5
329.515	107.5
329.744	113.5
329.972	96.5
330.201	87.5
330.43	108.5
330.658	98.5
330.887	123.5
331.115	116.5
331.344	93.5
331.572	103.5
331.801	92.5
332.03	95.5
332.258	93.5
332.486	83.5
332.715	87.5
332.943	92.5
333.172	87.5
333.4	94.5
333.629	101.5
333.857	98.5
334.085	95.5
334.314	91.5
334.542	97.5
334.771	99.5
334.999	102.5
335.227	85.5
335.455	106.5
335.684	108.5
335.912	91.5
336.14	95.5
336.369	98.5
336.597	92.5
336.825	93.5
337.053	92.5
337.281	98.5
337.51	80.5
337.738	88.5
337.966	94.5
338.194	84.5
338.422	90.5
338.65	98.5
338.878	87.5
339.106	77.5
339.334	82.5
339.562	91.5
339.79	100.5
340.018	102.5
340.246	89.5
340.474	90.5
340.702	87.5
340.93	103.5
341.158	96.5
341.386	94.5
341.614	81.5
341.842	83.5
342.07	90.5
342.298	86.5
342.526	92.5
342.754	92.5
342.981	97.5
343.209	89.5
343.437	110.5
343.665	100.5
343.893	79.5
344.12	92.5
344.348	81.5
344.576	81.5
344.804	95.5
345.031	82.5
345.259	82.5
345.487	96.5
345.714	98.5
345.942	79.5
346.17	93.5
346.397	93.5
346.625	90.5
346.853	80.5
347.08	86.5
347.308	95.5
347.535	100.5
347.763	95.5
347.99	94.5
348.218	100.5
348.445	109.5
348.673	98.5
348.9	97.5
349.128	88.5
349.355	89.5
349.583	95.5
349.81	103.5
350.037	103.5
350.265	99.5
350.492	103.5
350.72	94.5
350.947	97.5
351.174	82.5
351.402	109.5
351.629	95.5
351.856	101.5
352.083	105.5
352.311	105.5
352.538	93.5
352.765	104.5
352.992	127.5
353.22	106.5
353.447	92.5
353.674	99.5
353.901	112.5
354.128	115.5
354.355	100.5
354.583	85.5
354.81	91.5
355.037	95.5
355.264	108.5
355.491	82.5
355.718	87.5
355.945	90.5
356.172	98.5
356.399	103.5
356.626	83.5
356.853	91.5
357.08	101.5
357.307	89.5
357.534	91.5
357.761	84.5
357.988	90.5
358.215	105.5
358.441	79.5
358.668	94.5
358.895	93.5
359.122	90.5
359.349	95.5
359.576	93.5
359.802	101.5
360.029	106.5
360.256	99.5
360.483	102.5
360.709	85.5
360.936	85.5
361.163	91.5
361.39	101.5
361.616	93.5
361.843	84.5
362.07	92.5
362.296	94.5
362.523	106.5
362.749	90.5
362.976	82.5
363.203	83.5
363.429	85.5
363.656	90.5
363.882	91.5
364.109	83.5
364.335	86.5
364.562	85.5
364.788	80.5
365.015	91.5
365.241	103.5
365.468	89.5
365.694	89.5
365.92	99.5
366.147	92.5
366.373	73.5
366.599	74.5
366.826	87.5
367.052	85.5
367.278	99.5
367.505	89.5
367.731	100.5
367.957	91.5
368.184	99.5
368.41	101.5
368.636	105.5
368.862	115.5
369.089	98.5
369.315	79.5
369.541	86.5
369.767	83.5
369.993	95.5
370.219	99.5
370.445	88.5
370.672	99.5
370.898	87.5
371.124	87.5
371.35	86.5
371.576	101.5
371.802	89.5
372.028	84.5
372.254	91.5
372.48	89.5
372.706	93.5
372.932	83.5
373.158	79.5
373.384	94.5
373.61	75.5
373.835	86.5
374.061	95.5
374.287	91.5
374.513	87.5
374.739	83.5
374.965	95.5
375.191	84.5
375.416	93.5
375.642	70.5
375.868	99.5
376.094	89.5
376.319	98.5
376.545	90.5
376.771	94.5
376.997	82.5
377.222	79.5
377.448	103.5
377.674	90.5
377.899	97.5
378.125	91.5
378.35	97.5
378.576	88.5
378.802	74.5
379.027	106.5
379.253	90.5
379.478	103.5
379.704	99.5
379.929	90.5
380.155	95.5
380.38	101.5
380.606	83.5
380.831	108.5
381.057	95.5
381.282	101.5
381.507	99.5
381.733	108.5
381.958	93.5
382.184	91.5
382.409	103.5
382.634	98.5
382.86	92.5
383.085	99.5
383.31	101.5
383.535	100.5
383.761	88.5
383.986	96.5
384.211	102.5
384.436	94.5
384.662	90.5
384.887	93.5
385.112	95.5
385.337	96.5
385.562	102.5
385.787	92.5
386.013	103.5
386.238	85.5
386.463	86.5
386.688	107.5
386.913	102.5
387.138	89.5
387.363	109.5
387.588	97.5
387.813	103.5
388.038	101.5
388.263	100.5
388.488	102.5
388.713	98.5
388.938	85.5
389.163	86.5
389.387	95.5
389.612	96.5
389.837	88.5
390.062	91.5
390.287	93.5
390.512	84.5
390.736	97.5
390.961	95.5
391.186	114.5
391.411	102.5
391.636	89.5
391.86	93.5
392.085	98.5
392.31	77.5
392.534	91.5
392.759	86.5
392.984	92.5
393.208	96.5
393.433	100.5
393.658	94.5
393.882	86.5
394.107	82.5
394.331	94.5
394.556	86.5
394.78	86.5
395.005	95.5
395.229	75.5
395.454	81.5
395.678	87.5
395.903	86.5
396.127	80.5
396.352	85.5
396.576	74.5
396.801	86.5
397.025	93.5
397.249	99.5
397.474	85.5
397.698	90.5
397.922	100.5
398.147	95.5
398.371	87.5
398.595	78.5
398.82	86.5
399.044	91.5
399.268	68.5
399.492	92.5
399.717	73.5
399.941	104.5
400.165	89.5
400.389	78.5
400.613	84.5
400.837	85.5
401.062	89.5
401.286	85.5
401.51	99.5
401.734	90.5
401.958	91.5
402.182	117.5
402.406	134.5
402.63	102.5
402.854	102.5
403.078	78.5
403.302	97.5
403.526	73.5
403.75	84.5
403.974	79.5
404.198	67.5
404.422	83.5
404.645	85.5
404.869	68.5
405.093	80.5
405.317	96.5
405.541	85.5
405.765	100.5
405.988	106.5
406.212	165.5
406.436	201.5
406.66	133.5
406.883	77.5
407.107	94.5
407.331	98.5
407.555	89.5
407.778	90.5
408.002	81.5
408.226	90.5
408.449	83.5
408.673	89.5
408.896	81.5
409.12	103.5
409.344	89.5
409.567	85.5
409.791	77.5
410.014	97.5
410.238	94.5
410.461	95.5
410.685	77.5
410.908	92.5
411.132	90.5
411.355	102.5
411.578	99.5
411.802	88.5
412.025	105.5
412.249	93.5
412.472	81.5
412.695	100.5
412.919	89.5
413.142	79.5
413.365	79.5
413.589	94.5
413.812	92.5
414.035	83.5
414.258	71.5
414.482	92.5
414.705	96.5
414.928	90.5
415.151	83.5
415.374	86.5
415.597	93.5
415.821	77.5
416.044	88.5
416.267	76.5
416.49	82.5
416.713	79.5
416.936	102.5
417.159	81.5
417.382	89.5
417.605	94.5
417.828	84.5
418.051	107.5
418.274	75.5
418.497	85.5
418.72	78.5
418.943	92.5
419.166	89.5
419.389	86.5
419.611	82.5
419.834	95.5
420.057	93.5
420.28	83.5
420.503	83.5
420.726	79.5
420.948	84.5
421.171	89.5
421.394	91.5
421.617	84.5
421.839	69.5
422.062	80.5
422.285	89.5
422.507	75.5
422.73	96.5
422.953	100.5
423.175	97.5
423.398	87.5
423.621	76.5
423.843	86.5
424.066	96.5
424.288	89.5
424.511	82.5
424.733	102.5
424.956	115.5
425.178	98.5
425.401	100.5
425.623	84.5
425.846	100.5
426.068	80.5
426.291	103.5
426.513	82.5
426.735	86.5
426.958	94.5
427.18	88.5
427.402	122.5
427.625	148.5
427.847	118.5
428.069	100.5
428.292	87.5
428.514	93.5
428.736	85.5
428.958	87.5
429.181	77.5
429.403	69.5
429.625	97.5
429.847	91.5
430.069	82.5
430.292	77.5
430.514	87.5
430.736	75.5
430.958	73.5
431.18	93.5
431.402	89.5
431.624	85.5
431.846	85.5
432.068	73.5
432.29	98.5
432.512	81.5
432.734	83.5
432.956	85.5
433.178	94.5
433.4	83.5
433.622	88.5
433.844	93.5
434.066	105.5
434.287	83.5
434.509	89.5
434.731	91.5
434.953	96.5
435.175	91.5
435.397	98.5
435.618	100.5
435.84	85.5
436.062	105.5
436.284	96.5
436.505	93.5
436.727	75.5
436.949	109.5
437.17	97.5
437.392	81.5
437.614	89.5
437.835	94.5
438.057	96.5
438.278	103.5
438.5	95.5
438.721	113.5
438.943	100.5
439.165	93.5
439.386	85.5
439.608	85.5
439.829	90.5
440.05	107.5
440.272	131.5
440.493	103.5
440.715	84.5
440.936	95.5
441.158	92.5
441.379	78.5
441.6	86.5
441.822	100.5
442.043	100.5
442.264	99.5
442.486	101.5
442.707	102.5
442.928	108.5
443.149	127.5
443.371	112.5
443.592	92.5
443.813	102.5
444.034	93.5
444.255	78.5
444.476	85.5
444.698	99.5
444.919	86.5
445.14	133.5
445.361	121.5
445.582	121.5
445.803	122.5
446.024	110.5
446.245	139.5
446.466	95.5
446.687	93.5
446.908	74.5
447.129	78.5
447.35	96.5
447.571	89.5
447.792	88.5
448.013	90.5
448.234	92.5
448.455	103.5
448.675	114.5
448.896	105.5
449.117	121.5
449.338	106.5
449.559	110.5
449.779	112.5
450	90.5
450.221	101.5
450.442	79.5
450.662	95.5
450.883	96.5
451.104	101.5
451.324	104.5
451.545	81.5
451.766	93.5
451.986	86.5
452.207	85.5
452.428	87.5
452.648	82.5
452.869	100.5
453.089	100.5
453.31	102.5
453.53	90.5
453.751	91.5
453.971	86.5
454.192	116.5
454.412	82.5
454.633	79.5
454.853	85.5
455.073	75.5
455.294	85.5
455.514	95.5
455.734	102.5
455.955	75.5
456.175	82.5
456.395	85.5
456.616	66.5
456.836	82.5
457.056	90.5
457.276	93.5
457.497	67.5
457.717	84.5
457.937	83.5
458.157	86.5
458.377	101.5
458.598	96.5
458.818	142.5
459.038	141.5
459.258	110.5
459.478	90.5
459.698	85.5
459.918	80.5
460.138	97.5
460.358	82.5
460.578	73.5
460.798	102.5
461.018	88.5
461.238	94.5
461.458	80.5
461.678	94.5
461.898	83.5
462.118	84.5
462.338	95.5
462.558	90.5
462.777	93.5
462.997	87.5
463.217	98.5
463.437	82.5
463.657	91.5
463.876	90.5
464.096	83.5
464.316	84.5
464.536	92.5
464.755	90.5
464.975	101.5
465.195	144.5
465.414	119.5
465.634	93.5
465.854	82.5
466.073	96.5
466.293	91.5
466.512	87.5
466.732	92.5
466.951	102.5
467.171	92.5
467.391	96.5
467.61	85.5
467.829	93.5
468.049	85.5
468.268	69.5
468.488	95.5
468.707	76.5
468.927	98.5
469.146	86.5
469.365	94.5
469.585	81.5
469.804	99.5
470.023	96.5
470.243	84.5
470.462	99.5
470.681	103.5
470.901	97.5
471.12	89.5
471.339	88.5
471.558	92.5
471.777	75.5
471.997	83.5
472.216	83.5
472.435	83.5
472.654	64.5
472.873	88.5
473.092	84.5
473.311	86.5
473.53	79.5
473.749	77.5
473.968	87.5
474.187	96.5
474.406	93.5
474.625	99.5
474.844	73.5
475.063	83.5
475.282	81.5
475.501	81.5
475.72	81.5
475.939	86.5
476.158	75.5
476.377	89.5
476.596	92.5
476.814	87.5
477.033	94.5
477.252	87.5
477.471	79.5
477.69	98.5
477.908	85.5
478.127	88.5
478.346	89.5
478.564	90.5
478.783	97.5
479.002	87.5
479.22	83.5
479.439	112.5
479.658	97.5
479.876	93.5
480.095	75.5
480.313	85.5
480.532	94.5
480.751	81.5
480.969	103.5
481.188	98.5
481.406	93.5
481.624	85.5
481.843	97.5
482.061	93.5
482.28	69.5
482.498	95.5
482.717	92.5
482.935	83.5
483.153	85.5
483.372	84.5
483.59	86.5
483.808	86.5
484.027	92.5
484.245	79.5
484.463	81.5
484.681	95.5
484.9	87.5
485.118	97.5
485.336	85.5
485.554	113.5
485.772	100.5
485.99	106.5
486.209	102.5
486.427	105.5
486.645	106.5
486.863	113.5
487.081	110.5
487.299	90.5
487.517	98.5
487.735	97.5
487.953	86.5
488.171	82.5
488.389	92.5
488.607	107.5
488.825	99.5
489.043	95.5
489.261	86.5
489.479	85.5
489.696	77.5
489.914	75.5
490.132	84.5
490.35	81.5
490.568	88.5
490.786	80.5
491.003	99.5
491.221	98.5
491.439	95.5
491.657	95.5
491.874	101.5
492.092	76.5
492.31	89.5
492.527	93.5
492.745	83.5
492.963	86.5
493.18	89.5
493.398	92.5
493.615	103.5
493.833	90.5
494.05	84.5
494.268	82.5
494.485	82.5
494.703	97.5
494.92	82.5
495.138	91.5
495.355	89.5
495.573	104.5
495.79	78.5
496.008	85.5
496.225	84.5
496.442	79.5
496.66	99.5
496.877	97.5
497.094	86.5
497.312	97.5
497.529	89.5
497.746	99.5
497.963	75.5
498.181	94.5
498.398	92.5
498.615	107.5
498.832	103.5
499.049	81.5
499.267	89.5
499.484	105.5
499.701	93.5
499.918	86.5
500.135	91.5
500.352	86.5
500.569	87.5
500.786	103.5
501.003	93.5
501.22	76.5
501.437	90.5
501.654	89.5
501.871	115.5
502.088	99.5
502.305	83.5
502.522	90.5
502.739	89.5
502.956	101.5
503.172	100.5
503.389	83.5
503.606	94.5
503.823	89.5
504.04	102.5
504.256	111.5
504.473	95.5
504.69	97.5
504.907	93.5
505.123	95.5
505.34	85.5
505.557	77.5
505.773	83.5
505.99	93.5
506.207	96.5
506.423	87.5
506.64	90.5
506.856	78.5
507.073	106.5
507.289	93.5
507.506	109.5
507.722	100.5
507.939	109.5
508.155	95.5
508.372	83.5
508.588	86.5
508.805	104.5
509.021	99.5
509.238	87.5
509.454	94.5
509.67	85.5
509.887	111.5
510.103	119.5
510.319	187.5
510.536	668.5
510.752	2215.5
510.968	597.5
511.184	143.5
511.401	118.5
511.617	96.5
511.833	100.5
512.049	89.5
512.265	90.5
512.481	86.5
512.698	107.5
512.914	88.5
513.13	101.5
513.346	96.5
513.562	109.5
513.778	92.5
513.994	98.5
514.21	96.5
514.426	89.5
514.642	128.5
514.858	116.5
515.074	156.5
515.29	389.5
515.506	1279.5
515.721	482.5
515.937	140.5
516.153	109.5
516.369	97.5
516.585	102.5
516.801	102.5
517.016	100.5
517.232	89.5
517.448	91.5
517.664	89.5
517.879	99.5
518.095	96.5
518.311	97.5
518.527	97.5
518.742	92.5
518.958	87.5
519.173	85.5
519.389	96.5
519.605	100.5
519.82	84.5
520.036	88.5
520.251	110.5
520.467	104.5
520.682	113.5
520.898	110.5
521.113	110.5
521.329	139.5
521.544	213.5
521.76	484.5
521.975	2125.5
522.19	1250.5
522.406	270.5
522.621	118.5
522.836	96.5
523.052	95.5
523.267	98.5
523.482	104.5
523.698	94.5
523.913	114.5
524.128	90.5
524.343	96.5
524.559	101.5
524.774	96.5
524.989	83.5
525.204	89.5
525.419	90.5
525.634	86.5
525.849	90.5
526.064	85.5
526.28	86.5
526.495	101.5
526.71	94.5
526.925	100.5
527.14	78.5
527.355	87.5
527.57	81.5
527.785	81.5
527.999	101.5
528.214	98.5
528.429	98.5
528.644	95.5
528.859	89.5
529.074	91.5
529.289	112.5
529.503	153.5
529.718	109.5
529.933	96.5
530.148	102.5
530.363	89.5
530.577	75.5
530.792	92.5
531.007	94.5
531.221	100.5
531.436	81.5
531.651	95.5
531.865	94.5
532.08	93.5
532.295	91.5
532.509	93.5
532.724	109.5
532.938	87.5
533.153	98.5
533.367	85.5
533.582	110.5
533.796	99.5
534.011	91.5
534.225	80.5
534.44	89.5
534.654	94.5
534.868	106.5
535.083	91.5
535.297	86.5
535.511	102.5
535.726	92.5
535.94	94.5
536.154	108.5
