Data from Uncirc_1990_H10_HRD10591_00034.txt Node
Date: Wed Jan 03 11:53:58 EST 2024
User: Yrep
Spectrometer: HR+D1059
Trigger mode: 1
Integration Time (sec): 1.000000E-1
Scans to average: 1
Electric dark correction enabled: true
Nonlinearity correction enabled: false
Boxcar width: 0
XAxis mode: Wavelengths
Number of Pixels in Spectrum: 2048
>>>>>Begin Spectral Data<<<<<
223.165	-24.75
223.4	-24.75
223.635	-24.75
223.869	-26.75
224.104	-20.75
224.338	-20.75
224.573	-26.75
224.808	-10.75
225.042	-5.75
225.277	-2.75
225.511	4.25
225.746	10.25
225.98	6.25
226.215	11.25
226.449	21.25
226.683	11.25
226.918	36.25
227.152	38.25
227.387	39.25
227.621	41.25
227.856	41.25
228.09	50.25
228.324	47.25
228.559	52.25
228.793	57.25
229.027	68.25
229.262	56.25
229.496	85.25
229.73	82.25
229.964	77.25
230.199	73.25
230.433	66.25
230.667	71.25
230.901	72.25
231.136	101.25
231.37	89.25
231.604	79.25
231.838	79.25
232.072	79.25
232.306	84.25
232.541	94.25
232.775	84.25
233.009	68.25
233.243	73.25
233.477	69.25
233.711	77.25
233.945	83.25
234.179	80.25
234.413	68.25
234.647	86.25
234.881	86.25
235.115	68.25
235.349	75.25
235.583	75.25
235.817	77.25
236.051	76.25
236.285	66.25
236.519	75.25
236.753	90.25
236.987	70.25
237.221	88.25
237.455	94.25
237.689	89.25
237.922	74.25
238.156	66.25
238.39	69.25
238.624	80.25
238.858	68.25
239.091	76.25
239.325	66.25
239.559	75.25
239.793	89.25
240.027	82.25
240.26	80.25
240.494	66.25
240.728	80.25
240.961	64.25
241.195	73.25
241.429	75.25
241.662	71.25
241.896	74.25
242.13	69.25
242.363	70.25
242.597	85.25
242.83	74.25
243.064	76.25
243.298	85.25
243.531	90.25
243.765	80.25
243.998	68.25
244.232	73.25
244.465	77.25
244.699	70.25
244.932	80.25
245.166	65.25
245.399	78.25
245.633	76.25
245.866	58.25
246.099	63.25
246.333	73.25
246.566	79.25
246.8	81.25
247.033	81.25
247.266	84.25
247.5	68.25
247.733	69.25
247.966	92.25
248.2	79.25
248.433	77.25
248.666	74.25
248.899	75.25
249.133	78.25
249.366	94.25
249.599	95.25
249.832	72.25
250.066	99.25
250.299	80.25
250.532	81.25
250.765	83.25
250.998	62.25
251.231	73.25
251.465	87.25
251.698	89.25
251.931	81.25
252.164	84.25
252.397	78.25
252.63	76.25
252.863	73.25
253.096	79.25
253.329	72.25
253.562	93.25
253.795	82.25
254.028	90.25
254.261	80.25
254.494	79.25
254.727	73.25
254.96	68.25
255.193	73.25
255.426	75.25
255.659	88.25
255.892	86.25
256.124	81.25
256.357	78.25
256.59	85.25
256.823	87.25
257.056	84.25
257.289	83.25
257.521	77.25
257.754	80.25
257.987	85.25
258.22	83.25
258.452	77.25
258.685	77.25
258.918	62.25
259.151	79.25
259.383	85.25
259.616	79.25
259.849	78.25
260.081	102.25
260.314	75.25
260.547	69.25
260.779	89.25
261.012	93.25
261.244	95.25
261.477	79.25
261.71	89.25
261.942	102.25
262.175	116.25
262.407	79.25
262.64	82.25
262.872	83.25
263.105	83.25
263.337	94.25
263.57	78.25
263.802	90.25
264.035	99.25
264.267	78.25
264.499	91.25
264.732	74.25
264.964	78.25
265.197	90.25
265.429	72.25
265.661	82.25
265.894	84.25
266.126	88.25
266.358	78.25
266.591	79.25
266.823	89.25
267.055	93.25
267.287	67.25
267.52	74.25
267.752	70.25
267.984	57.25
268.216	70.25
268.448	84.25
268.681	80.25
268.913	73.25
269.145	85.25
269.377	77.25
269.609	83.25
269.841	90.25
270.073	73.25
270.306	77.25
270.538	83.25
270.77	87.25
271.002	84.25
271.234	76.25
271.466	100.25
271.698	70.25
271.93	90.25
272.162	93.25
272.394	71.25
272.626	82.25
272.858	87.25
273.09	85.25
273.322	66.25
273.553	65.25
273.785	85.25
274.017	89.25
274.249	87.25
274.481	87.25
274.713	82.25
274.945	80.25
275.176	71.25
275.408	83.25
275.64	91.25
275.872	83.25
276.104	94.25
276.335	98.25
276.567	102.25
276.799	105.25
277.031	89.25
277.262	77.25
277.494	75.25
277.726	76.25
277.957	75.25
278.189	78.25
278.421	91.25
278.652	83.25
278.884	101.25
279.115	85.25
279.347	81.25
279.579	84.25
279.81	85.25
280.042	69.25
280.273	84.25
280.505	90.25
280.736	79.25
280.968	82.25
281.199	87.25
281.431	70.25
281.662	87.25
281.894	86.25
282.125	93.25
282.356	106.25
282.588	123.25
282.819	108.25
283.051	90.25
283.282	79.25
283.513	87.25
283.745	86.25
283.976	97.25
284.207	97.25
284.439	98.25
284.67	85.25
284.901	87.25
285.132	94.25
285.364	85.25
285.595	80.25
285.826	87.25
286.057	85.25
286.288	87.25
286.52	95.25
286.751	85.25
286.982	89.25
287.213	87.25
287.444	94.25
287.675	89.25
287.906	82.25
288.138	95.25
288.369	89.25
288.6	84.25
288.831	86.25
289.062	90.25
289.293	77.25
289.524	77.25
289.755	96.25
289.986	88.25
290.217	86.25
290.448	96.25
290.679	81.25
290.91	96.25
291.141	98.25
291.371	80.25
291.602	76.25
291.833	84.25
292.064	82.25
292.295	81.25
292.526	91.25
292.757	91.25
292.987	96.25
293.218	83.25
293.449	77.25
293.68	87.25
293.91	90.25
294.141	91.25
294.372	84.25
294.603	85.25
294.833	85.25
295.064	79.25
295.295	84.25
295.525	90.25
295.756	101.25
295.987	104.25
296.217	105.25
296.448	105.25
296.679	81.25
296.909	91.25
297.14	82.25
297.37	83.25
297.601	87.25
297.831	83.25
298.062	87.25
298.292	91.25
298.523	90.25
298.753	94.25
298.984	79.25
299.214	80.25
299.445	87.25
299.675	75.25
299.905	87.25
300.136	89.25
300.366	77.25
300.597	90.25
300.827	100.25
301.057	88.25
301.288	101.25
301.518	103.25
301.748	79.25
301.979	97.25
302.209	80.25
302.439	83.25
302.669	87.25
302.9	96.25
303.13	91.25
303.36	93.25
303.59	96.25
303.82	107.25
304.051	98.25
304.281	87.25
304.511	88.25
304.741	107.25
304.971	93.25
305.201	84.25
305.431	86.25
305.661	96.25
305.891	82.25
306.121	91.25
306.352	101.25
306.582	110.25
306.812	89.25
307.042	88.25
307.272	96.25
307.502	96.25
307.731	95.25
307.961	75.25
308.191	77.25
308.421	89.25
308.651	93.25
308.881	88.25
309.111	84.25
309.341	75.25
309.571	90.25
309.8	82.25
310.03	92.25
310.26	109.25
310.49	81.25
310.72	94.25
310.949	97.25
311.179	94.25
311.409	94.25
311.639	93.25
311.868	97.25
312.098	105.25
312.328	85.25
312.557	105.25
312.787	108.25
313.017	92.25
313.246	104.25
313.476	95.25
313.706	82.25
313.935	90.25
314.165	91.25
314.394	96.25
314.624	95.25
314.853	85.25
315.083	97.25
315.312	79.25
315.542	109.25
315.771	94.25
316.001	92.25
316.23	90.25
316.46	93.25
316.689	87.25
316.919	101.25
317.148	89.25
317.377	101.25
317.607	92.25
317.836	79.25
318.065	72.25
318.295	83.25
318.524	91.25
318.753	84.25
318.983	89.25
319.212	89.25
319.441	95.25
319.67	94.25
319.9	84.25
320.129	89.25
320.358	92.25
320.587	89.25
320.816	81.25
321.046	91.25
321.275	100.25
321.504	104.25
321.733	94.25
321.962	95.25
322.191	101.25
322.42	111.25
322.649	105.25
322.878	100.25
323.108	108.25
323.337	115.25
323.566	109.25
323.795	134.25
324.024	188.25
324.253	345.25
324.482	677.25
324.71	1477.25
324.939	1956.25
325.168	710.25
325.397	222.25
325.626	134.25
325.855	127.25
326.084	126.25
326.313	110.25
326.542	140.25
326.77	211.25
326.999	406.25
327.228	841.25
327.457	1483.25
327.686	1175.25
327.914	321.25
328.143	166.25
328.372	142.25
328.6	113.25
328.829	114.25
329.058	113.25
329.287	107.25
329.515	100.25
329.744	91.25
329.972	107.25
330.201	86.25
330.43	99.25
330.658	109.25
330.887	114.25
331.115	106.25
331.344	107.25
331.572	98.25
331.801	81.25
332.03	97.25
332.258	104.25
332.486	90.25
332.715	99.25
332.943	102.25
333.172	94.25
333.4	94.25
333.629	99.25
333.857	97.25
334.085	97.25
334.314	92.25
334.542	85.25
334.771	91.25
334.999	105.25
335.227	95.25
335.455	89.25
335.684	95.25
335.912	92.25
336.14	82.25
336.369	87.25
336.597	97.25
336.825	106.25
337.053	92.25
337.281	97.25
337.51	103.25
337.738	101.25
337.966	79.25
338.194	95.25
338.422	101.25
338.65	98.25
338.878	89.25
339.106	85.25
339.334	91.25
339.562	93.25
339.79	77.25
340.018	84.25
340.246	88.25
340.474	94.25
340.702	96.25
340.93	90.25
341.158	89.25
341.386	90.25
341.614	93.25
341.842	95.25
342.07	99.25
342.298	97.25
342.526	81.25
342.754	77.25
342.981	86.25
343.209	86.25
343.437	101.25
343.665	88.25
343.893	89.25
344.12	96.25
344.348	87.25
344.576	97.25
344.804	72.25
345.031	93.25
345.259	92.25
345.487	95.25
345.714	86.25
345.942	89.25
346.17	71.25
346.397	76.25
346.625	92.25
346.853	94.25
347.08	79.25
347.308	92.25
347.535	108.25
347.763	94.25
347.99	93.25
348.218	101.25
348.445	87.25
348.673	95.25
348.9	93.25
349.128	98.25
349.355	95.25
349.583	98.25
349.81	83.25
350.037	92.25
350.265	95.25
350.492	82.25
350.72	109.25
350.947	110.25
351.174	102.25
351.402	107.25
351.629	103.25
351.856	91.25
352.083	86.25
352.311	100.25
352.538	94.25
352.765	107.25
352.992	103.25
353.22	100.25
353.447	98.25
353.674	93.25
353.901	99.25
354.128	101.25
354.355	115.25
354.583	110.25
354.81	87.25
355.037	104.25
355.264	85.25
355.491	100.25
355.718	108.25
355.945	94.25
356.172	91.25
356.399	87.25
356.626	90.25
356.853	89.25
357.08	82.25
357.307	85.25
357.534	91.25
357.761	89.25
357.988	90.25
358.215	102.25
358.441	90.25
358.668	95.25
358.895	97.25
359.122	92.25
359.349	81.25
359.576	86.25
359.802	89.25
360.029	98.25
360.256	95.25
360.483	94.25
360.709	98.25
360.936	103.25
361.163	93.25
361.39	99.25
361.616	77.25
361.843	83.25
362.07	73.25
362.296	81.25
362.523	90.25
362.749	81.25
362.976	91.25
363.203	98.25
363.429	91.25
363.656	81.25
363.882	101.25
364.109	93.25
364.335	90.25
364.562	88.25
364.788	97.25
365.015	92.25
365.241	98.25
365.468	91.25
365.694	100.25
365.92	85.25
366.147	94.25
366.373	79.25
366.599	93.25
366.826	93.25
367.052	78.25
367.278	70.25
367.505	85.25
367.731	73.25
367.957	68.25
368.184	77.25
368.41	91.25
368.636	110.25
368.862	113.25
369.089	92.25
369.315	89.25
369.541	83.25
369.767	94.25
369.993	96.25
370.219	97.25
370.445	77.25
370.672	88.25
370.898	95.25
371.124	87.25
371.35	91.25
371.576	75.25
371.802	69.25
372.028	91.25
372.254	92.25
372.48	91.25
372.706	82.25
372.932	96.25
373.158	84.25
373.384	101.25
373.61	91.25
373.835	75.25
374.061	94.25
374.287	97.25
374.513	95.25
374.739	79.25
374.965	82.25
375.191	89.25
375.416	87.25
375.642	87.25
375.868	101.25
376.094	96.25
376.319	82.25
376.545	73.25
376.771	74.25
376.997	79.25
377.222	84.25
377.448	85.25
377.674	97.25
377.899	84.25
378.125	67.25
378.35	102.25
378.576	99.25
378.802	90.25
379.027	84.25
379.253	97.25
379.478	91.25
379.704	69.25
379.929	79.25
380.155	83.25
380.38	115.25
380.606	101.25
380.831	98.25
381.057	88.25
381.282	89.25
381.507	74.25
381.733	77.25
381.958	98.25
382.184	91.25
382.409	87.25
382.634	108.25
382.86	86.25
383.085	77.25
383.31	87.25
383.535	93.25
383.761	89.25
383.986	86.25
384.211	93.25
384.436	102.25
384.662	87.25
384.887	92.25
385.112	93.25
385.337	97.25
385.562	90.25
385.787	102.25
386.013	104.25
386.238	91.25
386.463	103.25
386.688	112.25
386.913	88.25
387.138	95.25
387.363	100.25
387.588	82.25
387.813	94.25
388.038	103.25
388.263	106.25
388.488	101.25
388.713	96.25
388.938	86.25
389.163	90.25
389.387	106.25
389.612	95.25
389.837	80.25
390.062	81.25
390.287	94.25
390.512	98.25
390.736	99.25
390.961	89.25
391.186	93.25
391.411	90.25
391.636	93.25
391.86	82.25
392.085	95.25
392.31	85.25
392.534	77.25
392.759	88.25
392.984	85.25
393.208	87.25
393.433	92.25
393.658	97.25
393.882	81.25
394.107	75.25
394.331	81.25
394.556	100.25
394.78	93.25
395.005	90.25
395.229	78.25
395.454	92.25
395.678	87.25
395.903	80.25
396.127	69.25
396.352	96.25
396.576	79.25
396.801	96.25
397.025	87.25
397.249	99.25
397.474	96.25
397.698	96.25
397.922	75.25
398.147	75.25
398.371	82.25
398.595	81.25
398.82	79.25
399.044	73.25
399.268	75.25
399.492	95.25
399.717	79.25
399.941	96.25
400.165	95.25
400.389	85.25
400.613	73.25
400.837	87.25
401.062	75.25
401.286	85.25
401.51	100.25
401.734	97.25
401.958	79.25
402.182	116.25
402.406	134.25
402.63	111.25
402.854	97.25
403.078	85.25
403.302	75.25
403.526	70.25
403.75	88.25
403.974	98.25
404.198	94.25
404.422	92.25
404.645	88.25
404.869	79.25
405.093	92.25
405.317	93.25
405.541	91.25
405.765	89.25
405.988	97.25
406.212	142.25
406.436	207.25
406.66	135.25
406.883	100.25
407.107	100.25
407.331	78.25
407.555	91.25
407.778	80.25
408.002	100.25
408.226	79.25
408.449	85.25
408.673	97.25
408.896	93.25
409.12	89.25
409.344	94.25
409.567	86.25
409.791	83.25
410.014	103.25
410.238	97.25
410.461	89.25
410.685	101.25
410.908	94.25
411.132	97.25
411.355	90.25
411.578	87.25
411.802	94.25
412.025	95.25
412.249	88.25
412.472	80.25
412.695	93.25
412.919	81.25
413.142	87.25
413.365	96.25
413.589	83.25
413.812	82.25
414.035	93.25
414.258	78.25
414.482	86.25
414.705	87.25
414.928	84.25
415.151	75.25
415.374	80.25
415.597	90.25
415.821	80.25
416.044	91.25
416.267	89.25
416.49	85.25
416.713	73.25
416.936	79.25
417.159	86.25
417.382	94.25
417.605	94.25
417.828	91.25
418.051	86.25
418.274	88.25
418.497	95.25
418.72	94.25
418.943	85.25
419.166	92.25
419.389	83.25
419.611	82.25
419.834	97.25
420.057	71.25
420.28	81.25
420.503	99.25
420.726	71.25
420.948	90.25
421.171	106.25
421.394	102.25
421.617	91.25
421.839	94.25
422.062	102.25
422.285	95.25
422.507	100.25
422.73	101.25
422.953	91.25
423.175	90.25
423.398	92.25
423.621	85.25
423.843	82.25
424.066	84.25
424.288	95.25
424.511	95.25
424.733	85.25
424.956	94.25
425.178	94.25
425.401	101.25
425.623	103.25
425.846	98.25
426.068	78.25
426.291	92.25
426.513	90.25
426.735	86.25
426.958	96.25
427.18	101.25
427.402	127.25
427.625	144.25
427.847	119.25
428.069	91.25
428.292	93.25
428.514	81.25
428.736	81.25
428.958	77.25
429.181	83.25
429.403	82.25
429.625	87.25
429.847	97.25
430.069	100.25
430.292	88.25
430.514	74.25
430.736	70.25
430.958	80.25
431.18	77.25
431.402	103.25
431.624	89.25
431.846	76.25
432.068	83.25
432.29	83.25
432.512	70.25
432.734	83.25
432.956	81.25
433.178	92.25
433.4	95.25
433.622	71.25
433.844	93.25
434.066	76.25
434.287	97.25
434.509	88.25
434.731	91.25
434.953	82.25
435.175	80.25
435.397	89.25
435.618	82.25
435.84	105.25
436.062	117.25
436.284	114.25
436.505	94.25
436.727	93.25
436.949	71.25
437.17	91.25
437.392	87.25
437.614	88.25
437.835	95.25
438.057	110.25
438.278	98.25
438.5	107.25
438.721	115.25
438.943	94.25
439.165	95.25
439.386	81.25
439.608	98.25
439.829	95.25
440.05	118.25
440.272	127.25
440.493	101.25
440.715	87.25
440.936	97.25
441.158	78.25
441.379	88.25
441.6	94.25
441.822	89.25
442.043	101.25
442.264	102.25
442.486	76.25
442.707	71.25
442.928	88.25
443.149	116.25
443.371	117.25
443.592	106.25
443.813	104.25
444.034	91.25
444.255	81.25
444.476	84.25
444.698	91.25
444.919	83.25
445.14	135.25
445.361	115.25
445.582	92.25
445.803	121.25
446.024	127.25
446.245	134.25
446.466	105.25
446.687	98.25
446.908	79.25
447.129	84.25
447.35	79.25
447.571	102.25
447.792	91.25
448.013	93.25
448.234	87.25
448.455	88.25
448.675	122.25
448.896	109.25
449.117	84.25
449.338	94.25
449.559	117.25
449.779	136.25
450	91.25
450.221	83.25
450.442	96.25
450.662	104.25
450.883	109.25
451.104	104.25
451.324	84.25
451.545	90.25
451.766	64.25
451.986	77.25
452.207	86.25
452.428	89.25
452.648	101.25
452.869	102.25
453.089	99.25
453.31	111.25
453.53	100.25
453.751	102.25
453.971	105.25
454.192	103.25
454.412	88.25
454.633	97.25
454.853	74.25
455.073	97.25
455.294	92.25
455.514	94.25
455.734	82.25
455.955	85.25
456.175	85.25
456.395	90.25
456.616	83.25
456.836	67.25
457.056	84.25
457.276	79.25
457.497	78.25
457.717	96.25
457.937	81.25
458.157	87.25
458.377	81.25
458.598	91.25
458.818	135.25
459.038	141.25
459.258	106.25
459.478	87.25
459.698	95.25
459.918	91.25
460.138	94.25
460.358	93.25
460.578	90.25
460.798	90.25
461.018	83.25
461.238	82.25
461.458	75.25
461.678	79.25
461.898	71.25
462.118	90.25
462.338	89.25
462.558	77.25
462.777	81.25
462.997	76.25
463.217	99.25
463.437	82.25
463.657	84.25
463.876	78.25
464.096	77.25
464.316	82.25
464.536	87.25
464.755	92.25
464.975	106.25
465.195	124.25
465.414	134.25
465.634	97.25
465.854	85.25
466.073	87.25
466.293	92.25
466.512	87.25
466.732	77.25
466.951	91.25
467.171	81.25
467.391	92.25
467.61	94.25
467.829	86.25
468.049	99.25
468.268	95.25
468.488	85.25
468.707	93.25
468.927	89.25
469.146	83.25
469.365	93.25
469.585	95.25
469.804	85.25
470.023	99.25
470.243	101.25
470.462	108.25
470.681	98.25
470.901	91.25
471.12	80.25
471.339	82.25
471.558	91.25
471.777	97.25
471.997	93.25
472.216	88.25
472.435	99.25
472.654	94.25
472.873	113.25
473.092	91.25
473.311	85.25
473.53	87.25
473.749	71.25
473.968	97.25
474.187	103.25
474.406	93.25
474.625	89.25
474.844	99.25
475.063	91.25
475.282	88.25
475.501	93.25
475.72	84.25
475.939	80.25
476.158	82.25
476.377	86.25
476.596	115.25
476.814	89.25
477.033	95.25
477.252	94.25
477.471	66.25
477.69	94.25
477.908	90.25
478.127	83.25
478.346	82.25
478.564	81.25
478.783	100.25
479.002	88.25
479.22	99.25
479.439	101.25
479.658	84.25
479.876	80.25
480.095	90.25
480.313	93.25
480.532	96.25
480.751	83.25
480.969	98.25
481.188	96.25
481.406	102.25
481.624	95.25
481.843	87.25
482.061	78.25
482.28	94.25
482.498	90.25
482.717	90.25
482.935	85.25
483.153	78.25
483.372	93.25
483.59	90.25
483.808	74.25
484.027	79.25
484.245	89.25
484.463	87.25
484.681	101.25
484.9	96.25
485.118	79.25
485.336	90.25
485.554	93.25
485.772	98.25
485.99	103.25
486.209	101.25
486.427	89.25
486.645	98.25
486.863	110.25
487.081	93.25
487.299	99.25
487.517	107.25
487.735	84.25
487.953	99.25
488.171	110.25
488.389	101.25
488.607	94.25
488.825	93.25
489.043	94.25
489.261	93.25
489.479	88.25
489.696	89.25
489.914	88.25
490.132	92.25
490.35	80.25
490.568	84.25
490.786	86.25
491.003	83.25
491.221	82.25
491.439	87.25
491.657	94.25
491.874	96.25
492.092	90.25
492.31	97.25
492.527	87.25
492.745	77.25
492.963	91.25
493.18	115.25
493.398	100.25
493.615	98.25
493.833	87.25
494.05	93.25
494.268	83.25
494.485	86.25
494.703	81.25
494.92	89.25
495.138	92.25
495.355	92.25
495.573	98.25
495.79	84.25
496.008	92.25
496.225	89.25
496.442	82.25
496.66	80.25
496.877	93.25
497.094	87.25
497.312	90.25
497.529	86.25
497.746	74.25
497.963	87.25
498.181	81.25
498.398	80.25
498.615	109.25
498.832	97.25
499.049	108.25
499.267	93.25
499.484	88.25
499.701	101.25
499.918	91.25
500.135	93.25
500.352	92.25
500.569	83.25
500.786	83.25
501.003	77.25
501.22	97.25
501.437	86.25
501.654	101.25
501.871	101.25
502.088	81.25
502.305	92.25
502.522	102.25
502.739	75.25
502.956	87.25
503.172	92.25
503.389	94.25
503.606	90.25
503.823	98.25
504.04	76.25
504.256	83.25
504.473	89.25
504.69	78.25
504.907	95.25
505.123	93.25
505.34	104.25
505.557	81.25
505.773	100.25
505.99	93.25
506.207	87.25
506.423	81.25
506.64	76.25
506.856	87.25
507.073	95.25
507.289	89.25
507.506	90.25
507.722	95.25
507.939	98.25
508.155	98.25
508.372	82.25
508.588	94.25
508.805	89.25
509.021	82.25
509.238	81.25
509.454	101.25
509.67	95.25
509.887	99.25
510.103	116.25
510.319	187.25
510.536	640.25
510.752	1978.25
510.968	551.25
511.184	163.25
511.401	105.25
511.617	88.25
511.833	100.25
512.049	101.25
512.265	80.25
512.481	84.25
512.698	98.25
512.914	93.25
513.13	86.25
513.346	83.25
513.562	81.25
513.778	109.25
513.994	91.25
514.21	99.25
514.426	110.25
514.642	126.25
514.858	117.25
515.074	138.25
515.29	357.25
515.506	1093.25
515.721	416.25
515.937	129.25
516.153	91.25
516.369	99.25
516.585	87.25
516.801	83.25
