Data from Uncirc_1990_H10_HRD10591_00090.txt Node
Date: Wed Jan 03 11:54:09 EST 2024
User: Yrep
Spectrometer: HR+D1059
Trigger mode: 1
Integration Time (sec): 1.000000E-1
Scans to average: 1
Electric dark correction enabled: true
Nonlinearity correction enabled: false
Boxcar width: 0
XAxis mode: Wavelengths
Number of Pixels in Spectrum: 2048
>>>>>Begin Spectral Data<<<<<
223.165	-14.06
223.4	-14.06
223.635	-14.06
223.869	-4.06
224.104	-23.06
224.338	-30.06
224.573	-21.06
224.808	-18.06
225.042	-1.06
225.277	-12.06
225.511	6.94
225.746	18.94
225.98	-1.06
226.215	14.94
226.449	15.94
226.683	15.94
226.918	21.94
227.152	29.94
227.387	42.94
227.621	40.94
227.856	43.94
228.09	54.94
228.324	57.94
228.559	62.94
228.793	64.94
229.027	68.94
229.262	76.94
229.496	73.94
229.73	65.94
229.964	77.94
230.199	88.94
230.433	80.94
230.667	73.94
230.901	74.94
231.136	70.94
231.37	71.94
231.604	70.94
231.838	78.94
232.072	74.94
232.306	80.94
232.541	80.94
232.775	90.94
233.009	79.94
233.243	91.94
233.477	87.94
233.711	88.94
233.945	99.94
234.179	80.94
234.413	80.94
234.647	73.94
234.881	88.94
235.115	71.94
235.349	76.94
235.583	71.94
235.817	97.94
236.051	101.94
236.285	78.94
236.519	76.94
236.753	85.94
236.987	97.94
237.221	94.94
237.455	80.94
237.689	82.94
237.922	87.94
238.156	84.94
238.39	93.94
238.624	61.94
238.858	80.94
239.091	86.94
239.325	51.94
239.559	86.94
239.793	86.94
240.027	76.94
240.26	73.94
240.494	80.94
240.728	78.94
240.961	84.94
241.195	82.94
241.429	73.94
241.662	84.94
241.896	80.94
242.13	83.94
242.363	84.94
242.597	70.94
242.83	85.94
243.064	74.94
243.298	86.94
243.531	72.94
243.765	73.94
243.998	91.94
244.232	87.94
244.465	81.94
244.699	83.94
244.932	77.94
245.166	81.94
245.399	67.94
245.633	76.94
245.866	89.94
246.099	73.94
246.333	79.94
246.566	86.94
246.8	91.94
247.033	84.94
247.266	78.94
247.5	78.94
247.733	90.94
247.966	84.94
248.2	84.94
248.433	77.94
248.666	74.94
248.899	80.94
249.133	82.94
249.366	88.94
249.599	84.94
249.832	77.94
250.066	87.94
250.299	77.94
250.532	87.94
250.765	72.94
250.998	82.94
251.231	86.94
251.465	79.94
251.698	88.94
251.931	88.94
252.164	78.94
252.397	85.94
252.63	91.94
252.863	63.94
253.096	83.94
253.329	81.94
253.562	74.94
253.795	93.94
254.028	86.94
254.261	85.94
254.494	71.94
254.727	99.94
254.96	80.94
255.193	86.94
255.426	79.94
255.659	84.94
255.892	83.94
256.124	63.94
256.357	78.94
256.59	94.94
256.823	92.94
257.056	80.94
257.289	93.94
257.521	76.94
257.754	84.94
257.987	81.94
258.22	71.94
258.452	72.94
258.685	87.94
258.918	80.94
259.151	71.94
259.383	80.94
259.616	81.94
259.849	84.94
260.081	86.94
260.314	74.94
260.547	78.94
260.779	82.94
261.012	86.94
261.244	94.94
261.477	87.94
261.71	82.94
261.942	130.94
262.175	112.94
262.407	83.94
262.64	92.94
262.872	83.94
263.105	83.94
263.337	96.94
263.57	84.94
263.802	86.94
264.035	82.94
264.267	97.94
264.499	98.94
264.732	80.94
264.964	89.94
265.197	82.94
265.429	84.94
265.661	86.94
265.894	81.94
266.126	92.94
266.358	88.94
266.591	85.94
266.823	81.94
267.055	90.94
267.287	86.94
267.52	70.94
267.752	91.94
267.984	84.94
268.216	87.94
268.448	86.94
268.681	80.94
268.913	94.94
269.145	79.94
269.377	96.94
269.609	92.94
269.841	90.94
270.073	89.94
270.306	93.94
270.538	94.94
270.77	93.94
271.002	94.94
271.234	76.94
271.466	94.94
271.698	72.94
271.93	72.94
272.162	89.94
272.394	90.94
272.626	93.94
272.858	70.94
273.09	78.94
273.322	74.94
273.553	79.94
273.785	80.94
274.017	77.94
274.249	100.94
274.481	77.94
274.713	71.94
274.945	94.94
275.176	97.94
275.408	78.94
275.64	86.94
275.872	88.94
276.104	88.94
276.335	97.94
276.567	101.94
276.799	107.94
277.031	96.94
277.262	89.94
277.494	97.94
277.726	86.94
277.957	78.94
278.189	87.94
278.421	89.94
278.652	92.94
278.884	84.94
279.115	87.94
279.347	81.94
279.579	93.94
279.81	85.94
280.042	92.94
280.273	90.94
280.505	96.94
280.736	77.94
280.968	89.94
281.199	82.94
281.431	70.94
281.662	87.94
281.894	83.94
282.125	89.94
282.356	117.94
282.588	129.94
282.819	104.94
283.051	94.94
283.282	83.94
283.513	97.94
283.745	85.94
283.976	96.94
284.207	78.94
284.439	78.94
284.67	87.94
284.901	92.94
285.132	84.94
285.364	85.94
285.595	92.94
285.826	91.94
286.057	95.94
286.288	84.94
286.52	81.94
286.751	95.94
286.982	94.94
287.213	79.94
287.444	90.94
287.675	96.94
287.906	90.94
288.138	93.94
288.369	89.94
288.6	97.94
288.831	78.94
289.062	99.94
289.293	90.94
289.524	93.94
289.755	80.94
289.986	84.94
290.217	89.94
290.448	92.94
290.679	76.94
290.91	90.94
291.141	73.94
291.371	97.94
291.602	92.94
291.833	94.94
292.064	88.94
292.295	89.94
292.526	80.94
292.757	102.94
292.987	78.94
293.218	87.94
293.449	97.94
293.68	89.94
293.91	83.94
294.141	80.94
294.372	80.94
294.603	84.94
294.833	105.94
295.064	105.94
295.295	80.94
295.525	113.94
295.756	92.94
295.987	126.94
296.217	120.94
296.448	124.94
296.679	94.94
296.909	92.94
297.14	101.94
297.37	94.94
297.601	88.94
297.831	96.94
298.062	86.94
298.292	86.94
298.523	111.94
298.753	104.94
298.984	83.94
299.214	71.94
299.445	78.94
299.675	93.94
299.905	90.94
300.136	86.94
300.366	87.94
300.597	87.94
300.827	98.94
301.057	97.94
301.288	107.94
301.518	93.94
301.748	107.94
301.979	100.94
302.209	88.94
302.439	89.94
302.669	85.94
302.9	89.94
303.13	89.94
303.36	98.94
303.59	92.94
303.82	87.94
304.051	95.94
304.281	82.94
304.511	84.94
304.741	73.94
304.971	85.94
305.201	88.94
305.431	87.94
305.661	95.94
305.891	76.94
306.121	100.94
306.352	113.94
306.582	99.94
306.812	96.94
307.042	98.94
307.272	90.94
307.502	99.94
307.731	96.94
307.961	89.94
308.191	94.94
308.421	90.94
308.651	99.94
308.881	91.94
309.111	78.94
309.341	97.94
309.571	98.94
309.8	93.94
310.03	104.94
310.26	107.94
310.49	101.94
310.72	97.94
310.949	98.94
311.179	94.94
311.409	105.94
311.639	95.94
311.868	99.94
312.098	111.94
312.328	98.94
312.557	87.94
312.787	110.94
313.017	97.94
313.246	87.94
313.476	106.94
313.706	84.94
313.935	97.94
314.165	97.94
314.394	109.94
314.624	102.94
314.853	108.94
315.083	96.94
315.312	85.94
315.542	95.94
315.771	92.94
316.001	101.94
316.23	84.94
316.46	86.94
316.689	80.94
316.919	98.94
317.148	105.94
317.377	96.94
317.607	94.94
317.836	106.94
318.065	87.94
318.295	88.94
318.524	96.94
318.753	97.94
318.983	105.94
319.212	115.94
319.441	125.94
319.67	109.94
319.9	92.94
320.129	94.94
320.358	93.94
320.587	109.94
320.816	94.94
321.046	97.94
321.275	106.94
321.504	84.94
321.733	104.94
321.962	108.94
322.191	89.94
322.42	103.94
322.649	107.94
322.878	122.94
323.108	113.94
323.337	117.94
323.566	122.94
323.795	137.94
324.024	199.94
324.253	382.94
324.482	786.94
324.71	1654.94
324.939	2132.94
325.168	788.94
325.397	240.94
325.626	144.94
325.855	136.94
326.084	137.94
326.313	125.94
326.542	137.94
326.77	236.94
326.999	446.94
327.228	924.94
327.457	1712.94
327.686	1333.94
327.914	354.94
328.143	195.94
328.372	160.94
328.6	117.94
328.829	120.94
329.058	125.94
329.287	128.94
329.515	114.94
329.744	111.94
329.972	104.94
330.201	105.94
330.43	124.94
330.658	123.94
330.887	136.94
331.115	119.94
331.344	101.94
331.572	96.94
331.801	106.94
332.03	112.94
332.258	95.94
332.486	105.94
332.715	94.94
332.943	81.94
333.172	102.94
333.4	89.94
333.629	99.94
333.857	113.94
334.085	100.94
334.314	110.94
334.542	126.94
334.771	127.94
334.999	105.94
335.227	99.94
335.455	85.94
335.684	106.94
335.912	101.94
336.14	99.94
336.369	102.94
336.597	104.94
336.825	90.94
337.053	81.94
337.281	87.94
337.51	87.94
337.738	95.94
337.966	100.94
338.194	96.94
338.422	83.94
338.65	93.94
338.878	105.94
339.106	93.94
339.334	102.94
339.562	95.94
339.79	90.94
340.018	105.94
340.246	87.94
340.474	97.94
340.702	102.94
340.93	97.94
341.158	96.94
341.386	107.94
341.614	90.94
341.842	97.94
342.07	101.94
342.298	79.94
342.526	88.94
342.754	93.94
342.981	93.94
343.209	89.94
343.437	106.94
343.665	95.94
343.893	95.94
344.12	107.94
344.348	94.94
344.576	88.94
344.804	85.94
345.031	104.94
345.259	84.94
345.487	103.94
345.714	91.94
345.942	94.94
346.17	104.94
346.397	112.94
346.625	97.94
346.853	97.94
347.08	84.94
347.308	100.94
347.535	90.94
347.763	94.94
347.99	101.94
348.218	92.94
348.445	98.94
348.673	96.94
348.9	120.94
349.128	102.94
349.355	89.94
349.583	103.94
349.81	93.94
350.037	98.94
350.265	104.94
350.492	96.94
350.72	82.94
350.947	109.94
351.174	108.94
351.402	107.94
351.629	101.94
351.856	103.94
352.083	109.94
352.311	106.94
352.538	106.94
352.765	101.94
352.992	98.94
353.22	111.94
353.447	100.94
353.674	100.94
353.901	104.94
354.128	93.94
354.355	92.94
354.583	116.94
354.81	104.94
355.037	88.94
355.264	95.94
355.491	93.94
355.718	108.94
355.945	95.94
356.172	81.94
356.399	102.94
356.626	93.94
356.853	98.94
357.08	96.94
357.307	93.94
357.534	100.94
357.761	97.94
357.988	89.94
358.215	89.94
358.441	96.94
358.668	92.94
358.895	90.94
359.122	95.94
359.349	84.94
359.576	94.94
359.802	117.94
360.029	104.94
360.256	109.94
360.483	100.94
360.709	87.94
360.936	100.94
361.163	101.94
361.39	94.94
361.616	97.94
361.843	109.94
362.07	102.94
362.296	96.94
362.523	86.94
362.749	97.94
362.976	94.94
363.203	93.94
363.429	97.94
363.656	92.94
363.882	95.94
364.109	108.94
364.335	88.94
364.562	103.94
364.788	89.94
365.015	84.94
365.241	99.94
365.468	104.94
365.694	105.94
365.92	110.94
366.147	88.94
366.373	84.94
366.599	77.94
366.826	82.94
367.052	86.94
367.278	101.94
367.505	94.94
367.731	104.94
367.957	109.94
368.184	98.94
368.41	105.94
368.636	109.94
368.862	122.94
369.089	115.94
369.315	94.94
369.541	96.94
369.767	94.94
369.993	102.94
370.219	81.94
370.445	106.94
370.672	104.94
370.898	98.94
371.124	93.94
371.35	78.94
371.576	91.94
371.802	104.94
372.028	85.94
372.254	96.94
372.48	92.94
372.706	103.94
372.932	109.94
373.158	107.94
373.384	88.94
373.61	94.94
373.835	96.94
374.061	87.94
374.287	81.94
374.513	88.94
374.739	87.94
374.965	87.94
375.191	101.94
375.416	87.94
375.642	88.94
375.868	97.94
376.094	97.94
376.319	103.94
376.545	83.94
376.771	89.94
376.997	101.94
377.222	83.94
377.448	93.94
377.674	78.94
377.899	96.94
378.125	97.94
378.35	96.94
378.576	96.94
378.802	93.94
379.027	95.94
379.253	111.94
379.478	96.94
379.704	92.94
379.929	84.94
380.155	83.94
380.38	106.94
380.606	76.94
380.831	88.94
381.057	105.94
381.282	94.94
381.507	96.94
381.733	91.94
381.958	102.94
382.184	82.94
382.409	102.94
382.634	105.94
382.86	99.94
383.085	89.94
383.31	90.94
383.535	97.94
383.761	95.94
383.986	100.94
384.211	92.94
384.436	88.94
384.662	96.94
384.887	102.94
385.112	100.94
385.337	99.94
385.562	99.94
385.787	93.94
386.013	95.94
386.238	109.94
386.463	117.94
386.688	119.94
386.913	93.94
387.138	98.94
387.363	105.94
387.588	94.94
387.813	101.94
388.038	117.94
388.263	102.94
388.488	106.94
388.713	96.94
388.938	100.94
389.163	93.94
389.387	106.94
389.612	94.94
389.837	101.94
390.062	95.94
390.287	102.94
390.512	95.94
390.736	92.94
390.961	86.94
391.186	103.94
391.411	99.94
391.636	99.94
391.86	97.94
392.085	94.94
392.31	76.94
392.534	96.94
392.759	79.94
392.984	101.94
393.208	90.94
393.433	102.94
393.658	85.94
393.882	93.94
394.107	79.94
394.331	86.94
394.556	79.94
394.78	85.94
395.005	84.94
395.229	88.94
395.454	83.94
395.678	78.94
395.903	100.94
396.127	106.94
396.352	87.94
396.576	76.94
396.801	85.94
397.025	100.94
397.249	80.94
397.474	98.94
397.698	104.94
397.922	83.94
398.147	79.94
398.371	80.94
398.595	83.94
398.82	80.94
399.044	85.94
399.268	94.94
399.492	89.94
399.717	93.94
399.941	96.94
400.165	113.94
400.389	92.94
400.613	102.94
400.837	85.94
401.062	88.94
401.286	86.94
401.51	94.94
401.734	81.94
401.958	102.94
402.182	120.94
402.406	135.94
402.63	109.94
402.854	101.94
403.078	95.94
403.302	94.94
403.526	92.94
403.75	76.94
403.974	85.94
404.198	86.94
404.422	113.94
404.645	94.94
404.869	106.94
405.093	101.94
405.317	105.94
405.541	110.94
405.765	93.94
405.988	117.94
406.212	162.94
406.436	212.94
406.66	142.94
406.883	105.94
407.107	82.94
407.331	97.94
407.555	102.94
407.778	92.94
408.002	92.94
408.226	96.94
408.449	86.94
408.673	89.94
408.896	93.94
409.12	88.94
409.344	86.94
409.567	94.94
409.791	89.94
410.014	97.94
410.238	99.94
410.461	102.94
410.685	92.94
410.908	105.94
411.132	116.94
411.355	89.94
411.578	81.94
411.802	92.94
412.025	84.94
412.249	86.94
412.472	75.94
412.695	100.94
412.919	81.94
413.142	84.94
413.365	96.94
413.589	84.94
413.812	90.94
414.035	103.94
414.258	92.94
414.482	80.94
414.705	73.94
414.928	92.94
415.151	96.94
415.374	112.94
415.597	111.94
415.821	91.94
416.044	100.94
416.267	84.94
416.49	88.94
416.713	93.94
416.936	88.94
417.159	77.94
417.382	89.94
417.605	80.94
417.828	102.94
418.051	80.94
418.274	97.94
418.497	85.94
418.72	87.94
418.943	88.94
419.166	103.94
419.389	91.94
419.611	82.94
419.834	78.94
420.057	85.94
420.28	85.94
420.503	85.94
420.726	80.94
420.948	81.94
421.171	95.94
421.394	88.94
421.617	89.94
421.839	92.94
422.062	106.94
422.285	92.94
422.507	103.94
422.73	104.94
422.953	105.94
423.175	94.94
423.398	79.94
423.621	85.94
423.843	76.94
424.066	86.94
424.288	84.94
424.511	85.94
424.733	113.94
424.956	107.94
425.178	97.94
425.401	102.94
425.623	98.94
425.846	93.94
426.068	81.94
426.291	92.94
426.513	90.94
426.735	87.94
426.958	102.94
427.18	113.94
427.402	129.94
427.625	166.94
427.847	140.94
428.069	107.94
428.292	88.94
428.514	92.94
428.736	97.94
428.958	73.94
429.181	93.94
429.403	80.94
429.625	93.94
429.847	96.94
430.069	111.94
430.292	105.94
430.514	86.94
430.736	82.94
430.958	101.94
431.18	82.94
431.402	87.94
431.624	73.94
431.846	84.94
432.068	92.94
432.29	105.94
432.512	88.94
432.734	105.94
432.956	93.94
433.178	99.94
433.4	101.94
433.622	90.94
433.844	88.94
434.066	89.94
434.287	90.94
434.509	94.94
434.731	88.94
434.953	88.94
435.175	87.94
435.397	97.94
435.618	93.94
435.84	100.94
436.062	121.94
436.284	110.94
436.505	103.94
436.727	115.94
436.949	89.94
437.17	94.94
437.392	82.94
437.614	96.94
437.835	101.94
438.057	110.94
438.278	121.94
438.5	106.94
438.721	124.94
438.943	104.94
439.165	85.94
439.386	95.94
439.608	93.94
439.829	101.94
440.05	116.94
440.272	132.94
440.493	100.94
440.715	71.94
440.936	95.94
441.158	77.94
441.379	82.94
441.6	86.94
441.822	87.94
442.043	85.94
442.264	94.94
442.486	105.94
442.707	98.94
442.928	110.94
443.149	136.94
443.371	151.94
443.592	109.94
443.813	116.94
444.034	108.94
444.255	96.94
444.476	92.94
444.698	98.94
444.919	89.94
445.14	112.94
445.361	127.94
445.582	105.94
445.803	119.94
446.024	126.94
446.245	130.94
446.466	122.94
446.687	87.94
446.908	92.94
447.129	97.94
447.35	82.94
447.571	96.94
447.792	93.94
448.013	99.94
448.234	98.94
448.455	107.94
448.675	119.94
448.896	127.94
449.117	90.94
449.338	99.94
449.559	118.94
449.779	126.94
450	97.94
450.221	97.94
450.442	78.94
450.662	96.94
450.883	98.94
451.104	104.94
451.324	84.94
451.545	90.94
451.766	87.94
451.986	85.94
452.207	89.94
452.428	89.94
452.648	96.94
452.869	98.94
453.089	113.94
453.31	124.94
453.53	91.94
453.751	96.94
453.971	101.94
454.192	105.94
454.412	99.94
454.633	97.94
454.853	83.94
455.073	98.94
455.294	84.94
455.514	105.94
455.734	78.94
455.955	80.94
456.175	95.94
456.395	81.94
456.616	100.94
456.836	73.94
457.056	87.94
457.276	72.94
457.497	83.94
457.717	84.94
457.937	78.94
458.157	97.94
458.377	86.94
458.598	120.94
458.818	126.94
459.038	152.94
459.258	102.94
459.478	87.94
459.698	88.94
459.918	88.94
460.138	85.94
460.358	81.94
460.578	94.94
460.798	86.94
461.018	73.94
461.238	86.94
461.458	86.94
461.678	86.94
461.898	90.94
462.118	97.94
462.338	95.94
462.558	90.94
462.777	93.94
462.997	99.94
463.217	80.94
463.437	85.94
463.657	84.94
463.876	95.94
464.096	100.94
464.316	95.94
464.536	112.94
464.755	78.94
464.975	100.94
465.195	144.94
465.414	152.94
465.634	81.94
465.854	80.94
466.073	94.94
466.293	97.94
466.512	86.94
466.732	97.94
466.951	88.94
467.171	95.94
467.391	90.94
467.61	109.94
467.829	94.94
468.049	90.94
468.268	105.94
468.488	84.94
468.707	81.94
468.927	92.94
469.146	94.94
469.365	101.94
469.585	78.94
469.804	103.94
470.023	103.94
470.243	98.94
470.462	101.94
470.681	103.94
470.901	97.94
471.12	86.94
471.339	92.94
471.558	92.94
471.777	80.94
471.997	96.94
472.216	112.94
472.435	133.94
472.654	113.94
472.873	88.94
473.092	83.94
473.311	98.94
473.53	97.94
473.749	105.94
473.968	89.94
474.187	111.94
474.406	88.94
474.625	101.94
474.844	82.94
475.063	94.94
475.282	93.94
475.501	78.94
475.72	88.94
475.939	92.94
476.158	87.94
476.377	92.94
476.596	85.94
476.814	94.94
477.033	96.94
477.252	92.94
477.471	96.94
477.69	85.94
477.908	92.94
478.127	85.94
478.346	89.94
478.564	93.94
478.783	85.94
479.002	97.94
479.22	95.94
479.439	86.94
479.658	102.94
479.876	88.94
480.095	76.94
480.313	84.94
480.532	66.94
480.751	97.94
480.969	113.94
481.188	170.94
481.406	131.94
481.624	95.94
481.843	92.94
482.061	98.94
482.28	98.94
482.498	103.94
482.717	89.94
482.935	93.94
483.153	79.94
483.372	98.94
483.59	97.94
483.808	93.94
484.027	88.94
484.245	98.94
484.463	101.94
484.681	111.94
484.9	91.94
485.118	93.94
485.336	106.94
485.554	111.94
485.772	95.94
485.99	111.94
486.209	100.94
486.427	90.94
486.645	109.94
486.863	99.94
487.081	91.94
487.299	99.94
487.517	104.94
487.735	95.94
487.953	93.94
488.171	88.94
488.389	108.94
488.607	91.94
488.825	89.94
489.043	97.94
489.261	92.94
489.479	86.94
489.696	95.94
489.914	87.94
490.132	102.94
490.35	88.94
490.568	92.94
490.786	97.94
491.003	101.94
491.221	96.94
491.439	78.94
491.657	90.94
491.874	83.94
492.092	84.94
492.31	82.94
492.527	96.94
492.745	96.94
492.963	86.94
493.18	88.94
493.398	89.94
493.615	92.94
493.833	88.94
494.05	90.94
494.268	104.94
494.485	105.94
494.703	92.94
494.92	92.94
495.138	79.94
495.355	87.94
495.573	88.94
495.79	96.94
496.008	93.94
496.225	89.94
496.442	83.94
496.66	76.94
496.877	90.94
497.094	91.94
497.312	88.94
497.529	93.94
497.746	96.94
497.963	114.94
498.181	100.94
498.398	99.94
498.615	110.94
498.832	97.94
499.049	105.94
499.267	79.94
499.484	92.94
499.701	109.94
499.918	82.94
500.135	85.94
500.352	97.94
500.569	83.94
500.786	83.94
501.003	85.94
501.22	79.94
501.437	90.94
501.654	92.94
501.871	99.94
502.088	93.94
502.305	94.94
502.522	98.94
502.739	94.94
502.956	90.94
503.172	103.94
503.389	107.94
503.606	122.94
503.823	102.94
504.04	96.94
504.256	91.94
504.473	80.94
504.69	93.94
504.907	124.94
505.123	101.94
505.34	100.94
505.557	88.94
505.773	93.94
505.99	84.94
506.207	96.94
506.423	88.94
506.64	70.94
506.856	90.94
507.073	94.94
507.289	93.94
507.506	84.94
507.722	115.94
507.939	96.94
508.155	90.94
508.372	97.94
508.588	80.94
508.805	92.94
509.021	103.94
509.238	107.94
509.454	90.94
509.67	100.94
509.887	106.94
510.103	118.94
510.319	195.94
510.536	716.94
510.752	2305.94
510.968	629.94
511.184	150.94
511.401	114.94
511.617	127.94
511.833	94.94
512.049	90.94
512.265	104.94
512.481	102.94
512.698	99.94
512.914	88.94
513.13	90.94
513.346	99.94
513.562	113.94
513.778	108.94
513.994	97.94
514.21	120.94
514.426	124.94
514.642	117.94
514.858	105.94
