Data from Uncirc_1990_H10_HRD10591_00085.txt Node
Date: Wed Jan 03 11:54:08 EST 2024
User: Yrep
Spectrometer: HR+D1059
Trigger mode: 1
Integration Time (sec): 1.000000E-1
Scans to average: 1
Electric dark correction enabled: true
Nonlinearity correction enabled: false
Boxcar width: 0
XAxis mode: Wavelengths
Number of Pixels in Spectrum: 2048
>>>>>Begin Spectral Data<<<<<
223.165	-25.88
223.4	-25.88
223.635	-25.88
223.869	-21.88
224.104	-10.88
224.338	-29.88
224.573	-4.88
224.808	-19.88
225.042	-2.88
225.277	-9.88
225.511	-6.88
225.746	-1.88
225.98	14.12
226.215	13.12
226.449	25.12
226.683	21.12
226.918	25.12
227.152	36.12
227.387	31.12
227.621	33.12
227.856	46.12
228.09	46.12
228.324	49.12
228.559	63.12
228.793	55.12
229.027	55.12
229.262	61.12
229.496	61.12
229.73	82.12
229.964	82.12
230.199	77.12
230.433	69.12
230.667	90.12
230.901	64.12
231.136	85.12
231.37	73.12
231.604	81.12
231.838	84.12
232.072	81.12
232.306	67.12
232.541	79.12
232.775	84.12
233.009	92.12
233.243	78.12
233.477	84.12
233.711	87.12
233.945	75.12
234.179	70.12
234.413	82.12
234.647	79.12
234.881	80.12
235.115	64.12
235.349	78.12
235.583	78.12
235.817	75.12
236.051	69.12
236.285	79.12
236.519	85.12
236.753	87.12
236.987	92.12
237.221	95.12
237.455	78.12
237.689	74.12
237.922	78.12
238.156	83.12
238.39	83.12
238.624	70.12
238.858	74.12
239.091	73.12
239.325	73.12
239.559	80.12
239.793	79.12
240.027	87.12
240.26	79.12
240.494	76.12
240.728	82.12
240.961	70.12
241.195	77.12
241.429	73.12
241.662	72.12
241.896	69.12
242.13	87.12
242.363	81.12
242.597	78.12
242.83	91.12
243.064	81.12
243.298	86.12
243.531	83.12
243.765	77.12
243.998	73.12
244.232	91.12
244.465	86.12
244.699	87.12
244.932	80.12
245.166	78.12
245.399	83.12
245.633	78.12
245.866	73.12
246.099	80.12
246.333	69.12
246.566	73.12
246.8	79.12
247.033	85.12
247.266	77.12
247.5	73.12
247.733	76.12
247.966	79.12
248.2	89.12
248.433	83.12
248.666	73.12
248.899	82.12
249.133	102.12
249.366	92.12
249.599	97.12
249.832	81.12
250.066	88.12
250.299	75.12
250.532	81.12
250.765	91.12
250.998	90.12
251.231	67.12
251.465	90.12
251.698	81.12
251.931	77.12
252.164	97.12
252.397	71.12
252.63	79.12
252.863	91.12
253.096	87.12
253.329	77.12
253.562	90.12
253.795	91.12
254.028	79.12
254.261	75.12
254.494	73.12
254.727	85.12
254.96	86.12
255.193	79.12
255.426	74.12
255.659	91.12
255.892	79.12
256.124	80.12
256.357	86.12
256.59	91.12
256.823	77.12
257.056	82.12
257.289	77.12
257.521	80.12
257.754	93.12
257.987	68.12
258.22	88.12
258.452	77.12
258.685	84.12
258.918	84.12
259.151	85.12
259.383	77.12
259.616	82.12
259.849	81.12
260.081	75.12
260.314	70.12
260.547	77.12
260.779	71.12
261.012	97.12
261.244	80.12
261.477	88.12
261.71	100.12
261.942	108.12
262.175	113.12
262.407	83.12
262.64	78.12
262.872	85.12
263.105	73.12
263.337	90.12
263.57	85.12
263.802	76.12
264.035	87.12
264.267	100.12
264.499	76.12
264.732	79.12
264.964	86.12
265.197	82.12
265.429	74.12
265.661	78.12
265.894	76.12
266.126	79.12
266.358	75.12
266.591	84.12
266.823	81.12
267.055	81.12
267.287	89.12
267.52	75.12
267.752	68.12
267.984	85.12
268.216	91.12
268.448	85.12
268.681	75.12
268.913	85.12
269.145	75.12
269.377	82.12
269.609	86.12
269.841	80.12
270.073	84.12
270.306	77.12
270.538	85.12
270.77	80.12
271.002	89.12
271.234	90.12
271.466	100.12
271.698	86.12
271.93	75.12
272.162	79.12
272.394	87.12
272.626	85.12
272.858	78.12
273.09	70.12
273.322	80.12
273.553	73.12
273.785	77.12
274.017	87.12
274.249	76.12
274.481	69.12
274.713	86.12
274.945	83.12
275.176	91.12
275.408	92.12
275.64	94.12
275.872	83.12
276.104	85.12
276.335	96.12
276.567	95.12
276.799	97.12
277.031	94.12
277.262	85.12
277.494	91.12
277.726	70.12
277.957	79.12
278.189	101.12
278.421	79.12
278.652	90.12
278.884	73.12
279.115	81.12
279.347	77.12
279.579	92.12
279.81	91.12
280.042	78.12
280.273	83.12
280.505	80.12
280.736	76.12
280.968	86.12
281.199	85.12
281.431	94.12
281.662	102.12
281.894	90.12
282.125	94.12
282.356	108.12
282.588	135.12
282.819	109.12
283.051	87.12
283.282	99.12
283.513	79.12
283.745	83.12
283.976	96.12
284.207	80.12
284.439	89.12
284.67	84.12
284.901	80.12
285.132	78.12
285.364	82.12
285.595	94.12
285.826	89.12
286.057	98.12
286.288	96.12
286.52	83.12
286.751	79.12
286.982	93.12
287.213	83.12
287.444	86.12
287.675	97.12
287.906	89.12
288.138	83.12
288.369	98.12
288.6	91.12
288.831	76.12
289.062	91.12
289.293	98.12
289.524	85.12
289.755	81.12
289.986	86.12
290.217	88.12
290.448	86.12
290.679	87.12
290.91	94.12
291.141	84.12
291.371	87.12
291.602	74.12
291.833	94.12
292.064	88.12
292.295	89.12
292.526	90.12
292.757	84.12
292.987	86.12
293.218	88.12
293.449	71.12
293.68	85.12
293.91	89.12
294.141	75.12
294.372	86.12
294.603	84.12
294.833	87.12
295.064	83.12
295.295	94.12
295.525	71.12
295.756	91.12
295.987	112.12
296.217	127.12
296.448	118.12
296.679	80.12
296.909	85.12
297.14	95.12
297.37	83.12
297.601	95.12
297.831	95.12
298.062	91.12
298.292	89.12
298.523	85.12
298.753	83.12
298.984	92.12
299.214	84.12
299.445	97.12
299.675	84.12
299.905	89.12
300.136	88.12
300.366	92.12
300.597	90.12
300.827	99.12
301.057	98.12
301.288	109.12
301.518	90.12
301.748	75.12
301.979	99.12
302.209	90.12
302.439	70.12
302.669	79.12
302.9	102.12
303.13	88.12
303.36	83.12
303.59	99.12
303.82	121.12
304.051	81.12
304.281	103.12
304.511	85.12
304.741	79.12
304.971	77.12
305.201	110.12
305.431	92.12
305.661	91.12
305.891	89.12
306.121	85.12
306.352	93.12
306.582	109.12
306.812	87.12
307.042	103.12
307.272	86.12
307.502	101.12
307.731	94.12
307.961	76.12
308.191	77.12
308.421	77.12
308.651	77.12
308.881	103.12
309.111	95.12
309.341	99.12
309.571	100.12
309.8	102.12
310.03	93.12
310.26	94.12
310.49	99.12
310.72	95.12
310.949	108.12
311.179	93.12
311.409	85.12
311.639	94.12
311.868	109.12
312.098	86.12
312.328	86.12
312.557	111.12
312.787	108.12
313.017	101.12
313.246	95.12
313.476	99.12
313.706	72.12
313.935	90.12
314.165	96.12
314.394	97.12
314.624	102.12
314.853	85.12
315.083	93.12
315.312	96.12
315.542	97.12
315.771	92.12
316.001	97.12
316.23	84.12
316.46	63.12
316.689	86.12
316.919	79.12
317.148	87.12
317.377	79.12
317.607	95.12
317.836	92.12
318.065	95.12
318.295	85.12
318.524	91.12
318.753	87.12
318.983	86.12
319.212	95.12
319.441	110.12
319.67	100.12
319.9	97.12
320.129	95.12
320.358	99.12
320.587	99.12
320.816	97.12
321.046	114.12
321.275	100.12
321.504	93.12
321.733	90.12
321.962	102.12
322.191	102.12
322.42	106.12
322.649	102.12
322.878	103.12
323.108	101.12
323.337	114.12
323.566	128.12
323.795	131.12
324.024	192.12
324.253	371.12
324.482	835.12
324.71	1667.12
324.939	2235.12
325.168	822.12
325.397	256.12
325.626	151.12
325.855	122.12
326.084	123.12
326.313	134.12
326.542	170.12
326.77	221.12
326.999	446.12
327.228	919.12
327.457	1728.12
327.686	1381.12
327.914	365.12
328.143	198.12
328.372	137.12
328.6	119.12
328.829	113.12
329.058	104.12
329.287	129.12
329.515	90.12
329.744	110.12
329.972	99.12
330.201	103.12
330.43	118.12
330.658	124.12
330.887	111.12
331.115	113.12
331.344	94.12
331.572	83.12
331.801	93.12
332.03	93.12
332.258	100.12
332.486	91.12
332.715	96.12
332.943	101.12
333.172	92.12
333.4	109.12
333.629	103.12
333.857	117.12
334.085	124.12
334.314	106.12
334.542	131.12
334.771	127.12
334.999	96.12
335.227	82.12
335.455	109.12
335.684	102.12
335.912	86.12
336.14	84.12
336.369	109.12
336.597	99.12
336.825	91.12
337.053	94.12
337.281	98.12
337.51	92.12
337.738	90.12
337.966	91.12
338.194	103.12
338.422	93.12
338.65	91.12
338.878	106.12
339.106	96.12
339.334	100.12
339.562	80.12
339.79	89.12
340.018	92.12
340.246	98.12
340.474	93.12
340.702	92.12
340.93	78.12
341.158	92.12
341.386	97.12
341.614	93.12
341.842	94.12
342.07	84.12
342.298	87.12
342.526	92.12
342.754	89.12
342.981	81.12
343.209	98.12
343.437	101.12
343.665	96.12
343.893	88.12
344.12	98.12
344.348	85.12
344.576	75.12
344.804	80.12
345.031	100.12
345.259	96.12
345.487	88.12
345.714	86.12
345.942	86.12
346.17	95.12
346.397	94.12
346.625	98.12
346.853	92.12
347.08	93.12
347.308	89.12
347.535	92.12
347.763	103.12
347.99	92.12
348.218	90.12
348.445	97.12
348.673	94.12
348.9	86.12
349.128	88.12
349.355	93.12
349.583	98.12
349.81	95.12
350.037	95.12
350.265	86.12
350.492	93.12
350.72	100.12
350.947	102.12
351.174	106.12
351.402	94.12
351.629	82.12
351.856	90.12
352.083	114.12
352.311	100.12
352.538	96.12
352.765	100.12
352.992	114.12
353.22	109.12
353.447	92.12
353.674	104.12
353.901	91.12
354.128	85.12
354.355	91.12
354.583	86.12
354.81	101.12
355.037	87.12
355.264	92.12
355.491	97.12
355.718	89.12
355.945	92.12
356.172	89.12
356.399	102.12
356.626	85.12
356.853	103.12
357.08	88.12
357.307	77.12
357.534	79.12
357.761	101.12
357.988	98.12
358.215	78.12
358.441	93.12
358.668	70.12
358.895	73.12
359.122	86.12
359.349	77.12
359.576	92.12
359.802	96.12
360.029	109.12
360.256	103.12
360.483	100.12
360.709	81.12
360.936	86.12
361.163	92.12
361.39	100.12
361.616	92.12
361.843	85.12
362.07	91.12
362.296	89.12
362.523	74.12
362.749	96.12
362.976	76.12
363.203	104.12
363.429	87.12
363.656	95.12
363.882	99.12
364.109	85.12
364.335	79.12
364.562	87.12
364.788	82.12
365.015	95.12
365.241	94.12
365.468	104.12
365.694	108.12
365.92	100.12
366.147	90.12
366.373	98.12
366.599	81.12
366.826	82.12
367.052	88.12
367.278	83.12
367.505	101.12
367.731	89.12
367.957	98.12
368.184	85.12
368.41	77.12
368.636	111.12
368.862	123.12
369.089	111.12
369.315	97.12
369.541	81.12
369.767	82.12
369.993	93.12
370.219	91.12
370.445	84.12
370.672	80.12
370.898	87.12
371.124	80.12
371.35	94.12
371.576	77.12
371.802	83.12
372.028	84.12
372.254	99.12
372.48	85.12
372.706	87.12
372.932	82.12
373.158	77.12
373.384	81.12
373.61	82.12
373.835	85.12
374.061	92.12
374.287	81.12
374.513	77.12
374.739	84.12
374.965	80.12
375.191	76.12
375.416	87.12
375.642	89.12
375.868	102.12
376.094	100.12
376.319	81.12
376.545	96.12
376.771	86.12
376.997	93.12
377.222	109.12
377.448	94.12
377.674	96.12
377.899	95.12
378.125	96.12
378.35	85.12
378.576	93.12
378.802	90.12
379.027	81.12
379.253	102.12
379.478	67.12
379.704	89.12
379.929	97.12
380.155	93.12
380.38	90.12
380.606	94.12
380.831	95.12
381.057	96.12
381.282	100.12
381.507	96.12
381.733	100.12
381.958	89.12
382.184	92.12
382.409	90.12
382.634	90.12
382.86	93.12
383.085	76.12
383.31	94.12
383.535	102.12
383.761	102.12
383.986	96.12
384.211	77.12
384.436	101.12
384.662	85.12
384.887	98.12
385.112	102.12
385.337	101.12
385.562	99.12
385.787	90.12
386.013	103.12
386.238	101.12
386.463	100.12
386.688	98.12
386.913	76.12
387.138	92.12
387.363	99.12
387.588	100.12
387.813	91.12
388.038	98.12
388.263	110.12
388.488	103.12
388.713	89.12
388.938	82.12
389.163	103.12
389.387	76.12
389.612	74.12
389.837	90.12
390.062	88.12
390.287	96.12
390.512	99.12
390.736	103.12
390.961	89.12
391.186	89.12
391.411	87.12
391.636	73.12
391.86	86.12
392.085	81.12
392.31	70.12
392.534	81.12
392.759	93.12
392.984	81.12
393.208	91.12
393.433	92.12
393.658	89.12
393.882	73.12
394.107	82.12
394.331	94.12
394.556	84.12
394.78	89.12
395.005	90.12
395.229	82.12
395.454	89.12
395.678	71.12
395.903	81.12
396.127	93.12
396.352	85.12
396.576	84.12
396.801	92.12
397.025	91.12
397.249	86.12
397.474	98.12
397.698	82.12
397.922	90.12
398.147	75.12
398.371	86.12
398.595	78.12
398.82	89.12
399.044	78.12
399.268	75.12
399.492	88.12
399.717	99.12
399.941	96.12
400.165	112.12
400.389	89.12
400.613	96.12
400.837	89.12
401.062	74.12
401.286	77.12
401.51	82.12
401.734	103.12
401.958	97.12
402.182	118.12
402.406	158.12
402.63	113.12
402.854	102.12
403.078	78.12
403.302	99.12
403.526	89.12
403.75	86.12
403.974	77.12
404.198	96.12
404.422	80.12
404.645	89.12
404.869	91.12
405.093	111.12
405.317	102.12
405.541	101.12
405.765	96.12
405.988	97.12
406.212	166.12
406.436	211.12
406.66	137.12
406.883	95.12
407.107	95.12
407.331	75.12
407.555	71.12
407.778	86.12
408.002	97.12
408.226	88.12
408.449	90.12
408.673	79.12
408.896	82.12
409.12	88.12
409.344	86.12
409.567	77.12
409.791	89.12
410.014	80.12
410.238	101.12
410.461	91.12
410.685	94.12
410.908	98.12
411.132	110.12
411.355	70.12
411.578	88.12
411.802	86.12
412.025	76.12
412.249	79.12
412.472	96.12
412.695	95.12
412.919	73.12
413.142	88.12
413.365	94.12
413.589	88.12
413.812	80.12
414.035	90.12
414.258	71.12
414.482	82.12
414.705	89.12
414.928	90.12
415.151	77.12
415.374	81.12
415.597	69.12
415.821	85.12
416.044	88.12
416.267	89.12
416.49	85.12
416.713	81.12
416.936	87.12
417.159	79.12
417.382	85.12
417.605	86.12
417.828	85.12
418.051	83.12
418.274	82.12
418.497	78.12
418.72	84.12
418.943	92.12
419.166	92.12
419.389	79.12
419.611	92.12
419.834	101.12
420.057	82.12
420.28	97.12
420.503	95.12
420.726	89.12
420.948	90.12
421.171	97.12
421.394	103.12
421.617	82.12
421.839	74.12
422.062	74.12
422.285	99.12
422.507	96.12
422.73	94.12
422.953	101.12
423.175	79.12
423.398	67.12
423.621	81.12
423.843	91.12
424.066	79.12
424.288	89.12
424.511	86.12
424.733	86.12
424.956	102.12
425.178	105.12
425.401	93.12
425.623	97.12
425.846	95.12
426.068	79.12
426.291	83.12
426.513	88.12
426.735	85.12
426.958	97.12
427.18	94.12
427.402	129.12
427.625	146.12
427.847	143.12
428.069	100.12
428.292	101.12
428.514	97.12
428.736	73.12
428.958	84.12
429.181	71.12
429.403	88.12
429.625	87.12
429.847	80.12
430.069	94.12
430.292	92.12
430.514	96.12
430.736	84.12
430.958	68.12
431.18	70.12
431.402	70.12
431.624	78.12
431.846	70.12
432.068	87.12
432.29	89.12
432.512	78.12
432.734	90.12
432.956	92.12
433.178	86.12
433.4	110.12
433.622	78.12
433.844	90.12
434.066	93.12
434.287	86.12
434.509	80.12
434.731	96.12
434.953	86.12
435.175	75.12
435.397	100.12
435.618	95.12
435.84	98.12
436.062	115.12
436.284	104.12
436.505	102.12
436.727	103.12
436.949	74.12
437.17	92.12
437.392	74.12
437.614	99.12
437.835	109.12
438.057	116.12
438.278	109.12
438.5	91.12
438.721	115.12
438.943	94.12
439.165	77.12
439.386	77.12
439.608	95.12
439.829	100.12
440.05	112.12
440.272	133.12
440.493	93.12
440.715	93.12
440.936	92.12
441.158	87.12
441.379	74.12
441.6	90.12
441.822	84.12
442.043	92.12
442.264	98.12
442.486	98.12
442.707	82.12
442.928	96.12
443.149	122.12
443.371	110.12
443.592	109.12
443.813	92.12
444.034	112.12
444.255	86.12
444.476	83.12
444.698	89.12
444.919	82.12
445.14	129.12
445.361	104.12
445.582	100.12
445.803	126.12
446.024	142.12
446.245	125.12
446.466	99.12
446.687	80.12
446.908	85.12
447.129	92.12
447.35	86.12
447.571	79.12
447.792	81.12
448.013	96.12
448.234	105.12
448.455	93.12
448.675	104.12
448.896	117.12
449.117	93.12
449.338	89.12
449.559	118.12
449.779	126.12
450	90.12
450.221	102.12
450.442	83.12
450.662	82.12
450.883	114.12
451.104	107.12
451.324	79.12
451.545	90.12
451.766	86.12
451.986	81.12
452.207	99.12
452.428	103.12
452.648	87.12
452.869	110.12
453.089	105.12
453.31	110.12
453.53	117.12
453.751	94.12
453.971	98.12
454.192	103.12
454.412	96.12
454.633	92.12
454.853	92.12
455.073	90.12
455.294	82.12
455.514	93.12
455.734	79.12
455.955	93.12
456.175	79.12
456.395	86.12
456.616	82.12
456.836	77.12
457.056	101.12
457.276	100.12
457.497	91.12
457.717	95.12
457.937	100.12
458.157	94.12
458.377	94.12
458.598	94.12
458.818	127.12
459.038	127.12
459.258	104.12
459.478	99.12
459.698	75.12
459.918	107.12
460.138	84.12
460.358	72.12
460.578	87.12
460.798	87.12
461.018	86.12
461.238	81.12
461.458	83.12
461.678	79.12
461.898	88.12
462.118	83.12
462.338	77.12
462.558	90.12
462.777	78.12
462.997	86.12
463.217	83.12
463.437	94.12
463.657	86.12
463.876	92.12
464.096	70.12
464.316	99.12
464.536	91.12
464.755	83.12
464.975	105.12
465.195	145.12
465.414	130.12
465.634	90.12
465.854	97.12
466.073	86.12
466.293	88.12
466.512	77.12
466.732	87.12
466.951	87.12
467.171	98.12
467.391	81.12
467.61	85.12
467.829	82.12
468.049	99.12
468.268	101.12
468.488	77.12
468.707	97.12
468.927	88.12
469.146	85.12
469.365	83.12
469.585	83.12
469.804	117.12
470.023	99.12
470.243	94.12
470.462	93.12
470.681	107.12
470.901	85.12
471.12	94.12
471.339	94.12
471.558	90.12
471.777	83.12
471.997	86.12
472.216	113.12
472.435	117.12
472.654	90.12
472.873	78.12
473.092	81.12
473.311	89.12
473.53	93.12
473.749	81.12
473.968	85.12
474.187	84.12
474.406	97.12
474.625	85.12
474.844	87.12
475.063	88.12
475.282	82.12
475.501	97.12
475.72	88.12
475.939	86.12
476.158	74.12
476.377	87.12
476.596	82.12
476.814	91.12
477.033	92.12
477.252	81.12
477.471	83.12
477.69	82.12
477.908	89.12
478.127	97.12
478.346	86.12
478.564	84.12
478.783	94.12
479.002	87.12
479.22	89.12
479.439	93.12
479.658	103.12
479.876	86.12
480.095	92.12
480.313	84.12
480.532	89.12
480.751	87.12
480.969	103.12
481.188	157.12
481.406	134.12
481.624	112.12
481.843	94.12
482.061	80.12
482.28	99.12
482.498	81.12
482.717	84.12
482.935	91.12
483.153	92.12
483.372	90.12
483.59	89.12
483.808	77.12
484.027	88.12
484.245	97.12
484.463	86.12
484.681	100.12
484.9	92.12
485.118	97.12
485.336	84.12
485.554	100.12
485.772	93.12
485.99	97.12
486.209	104.12
486.427	100.12
486.645	105.12
486.863	104.12
487.081	114.12
487.299	103.12
487.517	93.12
487.735	115.12
487.953	97.12
488.171	94.12
488.389	98.12
488.607	98.12
488.825	89.12
489.043	106.12
489.261	87.12
489.479	90.12
489.696	83.12
489.914	96.12
490.132	81.12
490.35	92.12
490.568	80.12
490.786	83.12
491.003	93.12
491.221	78.12
491.439	83.12
491.657	85.12
491.874	85.12
492.092	95.12
492.31	92.12
492.527	90.12
492.745	89.12
492.963	97.12
493.18	79.12
493.398	109.12
493.615	92.12
493.833	102.12
494.05	101.12
494.268	100.12
494.485	82.12
494.703	82.12
494.92	91.12
495.138	93.12
495.355	85.12
495.573	99.12
495.79	97.12
496.008	89.12
496.225	96.12
496.442	96.12
496.66	91.12
496.877	87.12
497.094	91.12
497.312	89.12
497.529	85.12
497.746	86.12
497.963	90.12
498.181	99.12
498.398	96.12
498.615	112.12
498.832	87.12
499.049	90.12
499.267	107.12
499.484	88.12
499.701	101.12
499.918	89.12
500.135	85.12
500.352	90.12
500.569	91.12
500.786	100.12
501.003	94.12
501.22	82.12
501.437	99.12
501.654	103.12
501.871	100.12
502.088	85.12
502.305	85.12
502.522	79.12
502.739	93.12
502.956	89.12
503.172	98.12
503.389	106.12
503.606	100.12
503.823	93.12
504.04	96.12
504.256	102.12
504.473	96.12
504.69	73.12
504.907	98.12
505.123	91.12
505.34	86.12
505.557	95.12
505.773	90.12
505.99	83.12
506.207	85.12
506.423	97.12
506.64	99.12
506.856	95.12
507.073	90.12
507.289	91.12
507.506	107.12
507.722	107.12
507.939	110.12
508.155	98.12
508.372	101.12
508.588	88.12
508.805	91.12
509.021	84.12
509.238	103.12
509.454	112.12
509.67	113.12
509.887	110.12
510.103	136.12
510.319	203.12
510.536	738.12
510.752	2372.12
510.968	637.12
511.184	163.12
511.401	109.12
511.617	97.12
511.833	81.12
512.049	92.12
512.265	93.12
512.481	86.12
512.698	81.12
512.914	87.12
513.13	100.12
513.346	109.12
513.562	94.12
513.778	87.12
513.994	95.12
514.21	81.12
514.426	113.12
514.642	128.12
514.858	114.12
515.074	165.12
515.29	405.12
515.506	1402.12
515.721	491.12
515.937	146.12
516.153	108.12
