Data from Uncirc_1990_H10_HRD10591_00036.txt Node
Date: Wed Jan 03 11:53:58 EST 2024
User: Yrep
Spectrometer: HR+D1059
Trigger mode: 1
Integration Time (sec): 1.000000E-1
Scans to average: 1
Electric dark correction enabled: true
Nonlinearity correction enabled: false
Boxcar width: 0
XAxis mode: Wavelengths
Number of Pixels in Spectrum: 2048
>>>>>Begin Spectral Data<<<<<
223.165	-18.94
223.4	-18.94
223.635	-18.94
223.869	-31.94
224.104	-31.94
224.338	-15.94
224.573	-20.94
224.808	-11.94
225.042	-14.94
225.277	1.06
225.511	-4.94
225.746	0.06
225.98	24.06
226.215	17.06
226.449	12.06
226.683	34.06
226.918	29.06
227.152	34.06
227.387	33.06
227.621	39.06
227.856	43.06
228.09	38.06
228.324	49.06
228.559	56.06
228.793	72.06
229.027	62.06
229.262	60.06
229.496	73.06
229.73	94.06
229.964	71.06
230.199	65.06
230.433	85.06
230.667	68.06
230.901	67.06
231.136	69.06
231.37	78.06
231.604	86.06
231.838	83.06
232.072	81.06
232.306	72.06
232.541	84.06
232.775	84.06
233.009	83.06
233.243	80.06
233.477	78.06
233.711	77.06
233.945	74.06
234.179	67.06
234.413	82.06
234.647	72.06
234.881	92.06
235.115	66.06
235.349	72.06
235.583	70.06
235.817	83.06
236.051	90.06
236.285	76.06
236.519	70.06
236.753	87.06
236.987	80.06
237.221	78.06
237.455	85.06
237.689	93.06
237.922	74.06
238.156	80.06
238.39	72.06
238.624	77.06
238.858	70.06
239.091	86.06
239.325	79.06
239.559	73.06
239.793	89.06
240.027	80.06
240.26	72.06
240.494	72.06
240.728	89.06
240.961	85.06
241.195	82.06
241.429	78.06
241.662	77.06
241.896	79.06
242.13	82.06
242.363	76.06
242.597	66.06
242.83	81.06
243.064	74.06
243.298	80.06
243.531	70.06
243.765	70.06
243.998	60.06
244.232	79.06
244.465	76.06
244.699	84.06
244.932	77.06
245.166	86.06
245.399	83.06
245.633	80.06
245.866	73.06
246.099	70.06
246.333	86.06
246.566	78.06
246.8	81.06
247.033	85.06
247.266	77.06
247.5	82.06
247.733	86.06
247.966	63.06
248.2	89.06
248.433	86.06
248.666	76.06
248.899	90.06
249.133	73.06
249.366	86.06
249.599	104.06
249.832	89.06
250.066	81.06
250.299	94.06
250.532	88.06
250.765	72.06
250.998	69.06
251.231	79.06
251.465	88.06
251.698	81.06
251.931	71.06
252.164	81.06
252.397	81.06
252.63	88.06
252.863	89.06
253.096	85.06
253.329	89.06
253.562	77.06
253.795	88.06
254.028	68.06
254.261	85.06
254.494	85.06
254.727	86.06
254.96	70.06
255.193	82.06
255.426	72.06
255.659	74.06
255.892	73.06
256.124	96.06
256.357	76.06
256.59	86.06
256.823	81.06
257.056	83.06
257.289	69.06
257.521	74.06
257.754	78.06
257.987	84.06
258.22	90.06
258.452	95.06
258.685	80.06
258.918	92.06
259.151	78.06
259.383	95.06
259.616	89.06
259.849	99.06
260.081	97.06
260.314	82.06
260.547	93.06
260.779	85.06
261.012	81.06
261.244	77.06
261.477	87.06
261.71	99.06
261.942	98.06
262.175	121.06
262.407	96.06
262.64	82.06
262.872	82.06
263.105	78.06
263.337	80.06
263.57	84.06
263.802	88.06
264.035	80.06
264.267	86.06
264.499	97.06
264.732	87.06
264.964	84.06
265.197	88.06
265.429	86.06
265.661	79.06
265.894	88.06
266.126	106.06
266.358	71.06
266.591	80.06
266.823	79.06
267.055	77.06
267.287	88.06
267.52	74.06
267.752	93.06
267.984	81.06
268.216	92.06
268.448	75.06
268.681	89.06
268.913	94.06
269.145	72.06
269.377	70.06
269.609	77.06
269.841	85.06
270.073	94.06
270.306	92.06
270.538	94.06
270.77	86.06
271.002	75.06
271.234	89.06
271.466	80.06
271.698	82.06
271.93	77.06
272.162	77.06
272.394	81.06
272.626	96.06
272.858	89.06
273.09	85.06
273.322	86.06
273.553	82.06
273.785	85.06
274.017	85.06
274.249	89.06
274.481	84.06
274.713	68.06
274.945	92.06
275.176	85.06
275.408	84.06
275.64	84.06
275.872	89.06
276.104	89.06
276.335	87.06
276.567	92.06
276.799	101.06
277.031	87.06
277.262	93.06
277.494	95.06
277.726	83.06
277.957	86.06
278.189	82.06
278.421	90.06
278.652	80.06
278.884	82.06
279.115	94.06
279.347	83.06
279.579	86.06
279.81	87.06
280.042	85.06
280.273	88.06
280.505	92.06
280.736	96.06
280.968	82.06
281.199	97.06
281.431	84.06
281.662	82.06
281.894	97.06
282.125	93.06
282.356	112.06
282.588	146.06
282.819	122.06
283.051	81.06
283.282	88.06
283.513	93.06
283.745	81.06
283.976	85.06
284.207	82.06
284.439	104.06
284.67	81.06
284.901	97.06
285.132	88.06
285.364	78.06
285.595	96.06
285.826	86.06
286.057	94.06
286.288	104.06
286.52	89.06
286.751	80.06
286.982	91.06
287.213	82.06
287.444	84.06
287.675	88.06
287.906	103.06
288.138	92.06
288.369	102.06
288.6	93.06
288.831	78.06
289.062	89.06
289.293	87.06
289.524	98.06
289.755	96.06
289.986	78.06
290.217	83.06
290.448	104.06
290.679	92.06
290.91	92.06
291.141	94.06
291.371	88.06
291.602	88.06
291.833	88.06
292.064	88.06
292.295	86.06
292.526	100.06
292.757	74.06
292.987	82.06
293.218	79.06
293.449	84.06
293.68	90.06
293.91	97.06
294.141	97.06
294.372	85.06
294.603	85.06
294.833	91.06
295.064	93.06
295.295	101.06
295.525	89.06
295.756	101.06
295.987	103.06
296.217	126.06
296.448	118.06
296.679	87.06
296.909	102.06
297.14	95.06
297.37	97.06
297.601	88.06
297.831	87.06
298.062	92.06
298.292	82.06
298.523	95.06
298.753	79.06
298.984	95.06
299.214	82.06
299.445	97.06
299.675	95.06
299.905	102.06
300.136	85.06
300.366	82.06
300.597	81.06
300.827	99.06
301.057	106.06
301.288	108.06
301.518	96.06
301.748	101.06
301.979	106.06
302.209	90.06
302.439	105.06
302.669	111.06
302.9	79.06
303.13	97.06
303.36	102.06
303.59	96.06
303.82	103.06
304.051	87.06
304.281	86.06
304.511	99.06
304.741	96.06
304.971	86.06
305.201	100.06
305.431	86.06
305.661	105.06
305.891	80.06
306.121	92.06
306.352	103.06
306.582	95.06
306.812	102.06
307.042	116.06
307.272	93.06
307.502	102.06
307.731	94.06
307.961	94.06
308.191	97.06
308.421	101.06
308.651	101.06
308.881	98.06
309.111	87.06
309.341	84.06
309.571	105.06
309.8	90.06
310.03	86.06
310.26	95.06
310.49	96.06
310.72	103.06
310.949	98.06
311.179	98.06
311.409	92.06
311.639	86.06
311.868	92.06
312.098	80.06
312.328	96.06
312.557	92.06
312.787	99.06
313.017	112.06
313.246	99.06
313.476	90.06
313.706	85.06
313.935	101.06
314.165	95.06
314.394	89.06
314.624	98.06
314.853	87.06
315.083	82.06
315.312	103.06
315.542	87.06
315.771	94.06
316.001	100.06
316.23	101.06
316.46	85.06
316.689	92.06
316.919	99.06
317.148	96.06
317.377	100.06
317.607	103.06
317.836	91.06
318.065	82.06
318.295	90.06
318.524	92.06
318.753	85.06
318.983	95.06
319.212	101.06
319.441	95.06
319.67	101.06
319.9	86.06
320.129	93.06
320.358	98.06
320.587	104.06
320.816	104.06
321.046	115.06
321.275	106.06
321.504	89.06
321.733	94.06
321.962	94.06
322.191	94.06
322.42	108.06
322.649	111.06
322.878	107.06
323.108	101.06
323.337	133.06
323.566	126.06
323.795	156.06
324.024	200.06
324.253	397.06
324.482	784.06
324.71	1600.06
324.939	2210.06
325.168	797.06
325.397	244.06
325.626	156.06
325.855	125.06
326.084	116.06
326.313	156.06
326.542	125.06
326.77	216.06
326.999	420.06
327.228	897.06
327.457	1628.06
327.686	1331.06
327.914	356.06
328.143	178.06
328.372	124.06
328.6	123.06
328.829	125.06
329.058	135.06
329.287	136.06
329.515	116.06
329.744	98.06
329.972	105.06
330.201	96.06
330.43	107.06
330.658	112.06
330.887	146.06
331.115	110.06
331.344	94.06
331.572	84.06
331.801	104.06
332.03	108.06
332.258	103.06
332.486	105.06
332.715	98.06
332.943	96.06
333.172	108.06
333.4	92.06
333.629	101.06
333.857	116.06
334.085	114.06
334.314	103.06
334.542	96.06
334.771	101.06
334.999	102.06
335.227	115.06
335.455	103.06
335.684	94.06
335.912	108.06
336.14	87.06
336.369	90.06
336.597	99.06
336.825	105.06
337.053	92.06
337.281	93.06
337.51	95.06
337.738	110.06
337.966	96.06
338.194	94.06
338.422	108.06
338.65	103.06
338.878	91.06
339.106	84.06
339.334	102.06
339.562	95.06
339.79	92.06
340.018	96.06
340.246	84.06
340.474	86.06
340.702	105.06
340.93	94.06
341.158	98.06
341.386	100.06
341.614	99.06
341.842	110.06
342.07	100.06
342.298	101.06
342.526	91.06
342.754	108.06
342.981	87.06
343.209	76.06
343.437	101.06
343.665	96.06
343.893	104.06
344.12	88.06
344.348	97.06
344.576	88.06
344.804	95.06
345.031	95.06
345.259	107.06
345.487	109.06
345.714	105.06
345.942	98.06
346.17	102.06
346.397	105.06
346.625	104.06
346.853	97.06
347.08	100.06
347.308	96.06
347.535	98.06
347.763	97.06
347.99	92.06
348.218	112.06
348.445	109.06
348.673	103.06
348.9	99.06
349.128	95.06
349.355	110.06
349.583	97.06
349.81	92.06
350.037	105.06
350.265	101.06
350.492	111.06
350.72	95.06
350.947	120.06
351.174	115.06
351.402	106.06
351.629	104.06
351.856	112.06
352.083	100.06
352.311	107.06
352.538	108.06
352.765	118.06
352.992	103.06
353.22	100.06
353.447	109.06
353.674	108.06
353.901	96.06
354.128	98.06
354.355	93.06
354.583	92.06
354.81	99.06
355.037	93.06
355.264	107.06
355.491	96.06
355.718	83.06
355.945	108.06
356.172	90.06
356.399	105.06
356.626	103.06
356.853	96.06
357.08	100.06
357.307	84.06
357.534	105.06
357.761	92.06
357.988	95.06
358.215	107.06
358.441	92.06
358.668	94.06
358.895	107.06
359.122	94.06
359.349	97.06
359.576	92.06
359.802	85.06
360.029	119.06
360.256	103.06
360.483	87.06
360.709	88.06
360.936	93.06
361.163	84.06
361.39	101.06
361.616	104.06
361.843	95.06
362.07	88.06
362.296	89.06
362.523	96.06
362.749	97.06
362.976	98.06
363.203	95.06
363.429	82.06
363.656	89.06
363.882	96.06
364.109	84.06
364.335	93.06
364.562	83.06
364.788	97.06
365.015	96.06
365.241	108.06
365.468	113.06
365.694	97.06
365.92	108.06
366.147	77.06
366.373	95.06
366.599	96.06
366.826	99.06
367.052	93.06
367.278	96.06
367.505	101.06
367.731	86.06
367.957	74.06
368.184	88.06
368.41	106.06
368.636	127.06
368.862	116.06
369.089	117.06
369.315	84.06
369.541	103.06
369.767	92.06
369.993	84.06
370.219	82.06
370.445	111.06
370.672	93.06
370.898	88.06
371.124	84.06
371.35	78.06
371.576	101.06
371.802	92.06
372.028	80.06
372.254	97.06
372.48	88.06
372.706	84.06
372.932	93.06
373.158	98.06
373.384	97.06
373.61	91.06
373.835	90.06
374.061	90.06
374.287	82.06
374.513	90.06
374.739	94.06
374.965	95.06
375.191	93.06
375.416	88.06
375.642	92.06
375.868	99.06
376.094	89.06
376.319	102.06
376.545	94.06
376.771	83.06
376.997	84.06
377.222	84.06
377.448	83.06
377.674	87.06
377.899	108.06
378.125	94.06
378.35	99.06
378.576	88.06
378.802	81.06
379.027	96.06
379.253	102.06
379.478	87.06
379.704	96.06
379.929	93.06
380.155	81.06
380.38	86.06
380.606	104.06
380.831	102.06
381.057	102.06
381.282	109.06
381.507	112.06
381.733	89.06
381.958	96.06
382.184	90.06
382.409	96.06
382.634	96.06
382.86	95.06
383.085	102.06
383.31	106.06
383.535	106.06
383.761	93.06
383.986	109.06
384.211	97.06
384.436	101.06
384.662	106.06
384.887	106.06
385.112	111.06
385.337	100.06
385.562	108.06
385.787	98.06
386.013	114.06
386.238	108.06
386.463	104.06
386.688	109.06
386.913	112.06
387.138	107.06
387.363	100.06
387.588	101.06
387.813	92.06
388.038	100.06
388.263	99.06
388.488	112.06
388.713	96.06
388.938	109.06
389.163	86.06
389.387	97.06
389.612	116.06
389.837	101.06
390.062	104.06
390.287	79.06
390.512	97.06
390.736	94.06
390.961	96.06
391.186	91.06
391.411	88.06
391.636	89.06
391.86	96.06
392.085	87.06
392.31	93.06
392.534	96.06
392.759	88.06
392.984	76.06
393.208	71.06
393.433	102.06
393.658	96.06
393.882	89.06
394.107	80.06
394.331	82.06
394.556	85.06
394.78	91.06
395.005	90.06
395.229	94.06
395.454	91.06
395.678	94.06
395.903	85.06
396.127	83.06
396.352	88.06
396.576	90.06
396.801	79.06
397.025	79.06
397.249	96.06
397.474	98.06
397.698	86.06
397.922	85.06
398.147	77.06
398.371	82.06
398.595	84.06
398.82	86.06
399.044	91.06
399.268	76.06
399.492	96.06
399.717	74.06
399.941	101.06
400.165	94.06
400.389	100.06
400.613	90.06
400.837	82.06
401.062	87.06
401.286	95.06
401.51	86.06
401.734	84.06
401.958	96.06
402.182	122.06
402.406	146.06
402.63	110.06
402.854	93.06
403.078	94.06
403.302	88.06
403.526	88.06
403.75	103.06
403.974	82.06
404.198	71.06
404.422	90.06
404.645	89.06
404.869	98.06
405.093	103.06
405.317	94.06
405.541	89.06
405.765	95.06
405.988	102.06
406.212	161.06
406.436	216.06
406.66	130.06
406.883	117.06
407.107	105.06
407.331	90.06
407.555	99.06
407.778	97.06
408.002	90.06
408.226	88.06
408.449	94.06
408.673	102.06
408.896	84.06
409.12	93.06
409.344	84.06
409.567	81.06
409.791	97.06
410.014	94.06
410.238	95.06
410.461	102.06
410.685	97.06
410.908	95.06
411.132	101.06
411.355	100.06
411.578	102.06
411.802	80.06
412.025	96.06
412.249	86.06
412.472	92.06
412.695	100.06
412.919	98.06
413.142	91.06
413.365	74.06
413.589	92.06
413.812	80.06
414.035	86.06
414.258	88.06
414.482	99.06
414.705	92.06
414.928	95.06
415.151	89.06
415.374	98.06
415.597	96.06
415.821	82.06
416.044	88.06
416.267	89.06
416.49	92.06
416.713	86.06
416.936	90.06
417.159	89.06
417.382	84.06
417.605	84.06
417.828	89.06
418.051	96.06
418.274	103.06
418.497	97.06
418.72	81.06
418.943	100.06
419.166	96.06
419.389	82.06
419.611	87.06
419.834	92.06
420.057	89.06
420.28	85.06
420.503	80.06
420.726	92.06
420.948	99.06
421.171	93.06
421.394	93.06
421.617	103.06
421.839	88.06
422.062	82.06
422.285	92.06
422.507	111.06
422.73	97.06
422.953	105.06
423.175	94.06
423.398	104.06
423.621	91.06
423.843	92.06
424.066	84.06
424.288	92.06
424.511	94.06
424.733	111.06
424.956	114.06
425.178	100.06
425.401	104.06
425.623	105.06
425.846	87.06
426.068	92.06
426.291	88.06
426.513	85.06
426.735	91.06
426.958	92.06
427.18	112.06
427.402	137.06
427.625	168.06
427.847	127.06
428.069	99.06
428.292	105.06
428.514	85.06
428.736	89.06
428.958	91.06
429.181	80.06
429.403	81.06
429.625	76.06
429.847	90.06
430.069	100.06
430.292	89.06
430.514	88.06
430.736	94.06
430.958	89.06
431.18	88.06
431.402	69.06
431.624	80.06
431.846	76.06
432.068	89.06
432.29	84.06
432.512	88.06
432.734	79.06
432.956	90.06
433.178	101.06
433.4	88.06
433.622	86.06
433.844	84.06
434.066	83.06
434.287	107.06
434.509	97.06
434.731	94.06
434.953	92.06
435.175	82.06
435.397	95.06
435.618	92.06
435.84	106.06
436.062	125.06
436.284	119.06
436.505	98.06
436.727	112.06
436.949	94.06
437.17	106.06
437.392	87.06
437.614	97.06
437.835	98.06
438.057	124.06
438.278	120.06
438.5	104.06
438.721	132.06
438.943	88.06
439.165	98.06
439.386	78.06
439.608	95.06
439.829	97.06
440.05	117.06
440.272	150.06
440.493	98.06
440.715	81.06
440.936	86.06
441.158	92.06
441.379	93.06
441.6	99.06
441.822	101.06
442.043	97.06
442.264	100.06
442.486	106.06
442.707	108.06
442.928	102.06
443.149	122.06
443.371	117.06
443.592	108.06
443.813	103.06
444.034	104.06
444.255	82.06
444.476	95.06
444.698	95.06
444.919	77.06
445.14	119.06
445.361	118.06
445.582	120.06
445.803	131.06
446.024	133.06
446.245	131.06
446.466	95.06
446.687	97.06
446.908	72.06
447.129	82.06
447.35	86.06
447.571	90.06
447.792	102.06
448.013	97.06
448.234	102.06
448.455	103.06
448.675	102.06
448.896	109.06
449.117	97.06
449.338	100.06
449.559	129.06
449.779	150.06
450	93.06
450.221	94.06
450.442	82.06
450.662	84.06
450.883	86.06
451.104	121.06
451.324	95.06
451.545	87.06
451.766	89.06
451.986	85.06
452.207	94.06
452.428	94.06
452.648	96.06
452.869	109.06
453.089	104.06
453.31	107.06
453.53	86.06
453.751	92.06
453.971	90.06
454.192	98.06
454.412	94.06
454.633	83.06
454.853	84.06
455.073	81.06
455.294	92.06
455.514	98.06
455.734	99.06
455.955	90.06
456.175	89.06
456.395	76.06
456.616	69.06
456.836	78.06
457.056	79.06
457.276	76.06
457.497	85.06
457.717	95.06
457.937	101.06
458.157	88.06
458.377	85.06
458.598	105.06
458.818	120.06
459.038	147.06
459.258	121.06
459.478	89.06
459.698	81.06
459.918	81.06
460.138	84.06
460.358	79.06
460.578	98.06
460.798	81.06
461.018	81.06
461.238	87.06
461.458	103.06
461.678	96.06
461.898	109.06
462.118	88.06
462.338	92.06
462.558	80.06
462.777	90.06
462.997	82.06
463.217	98.06
463.437	95.06
463.657	90.06
463.876	114.06
464.096	80.06
464.316	89.06
464.536	96.06
464.755	102.06
464.975	106.06
465.195	167.06
465.414	154.06
465.634	88.06
465.854	96.06
466.073	98.06
466.293	83.06
466.512	87.06
466.732	82.06
466.951	97.06
467.171	89.06
467.391	94.06
467.61	95.06
467.829	88.06
468.049	88.06
468.268	88.06
468.488	93.06
468.707	62.06
468.927	93.06
469.146	89.06
469.365	86.06
469.585	80.06
469.804	98.06
470.023	88.06
470.243	88.06
470.462	109.06
470.681	102.06
470.901	89.06
471.12	86.06
471.339	92.06
471.558	88.06
471.777	80.06
471.997	82.06
472.216	103.06
472.435	103.06
472.654	94.06
472.873	98.06
473.092	96.06
473.311	100.06
473.53	91.06
473.749	82.06
473.968	88.06
474.187	99.06
474.406	90.06
474.625	106.06
474.844	93.06
475.063	96.06
475.282	96.06
475.501	92.06
475.72	91.06
475.939	94.06
476.158	76.06
476.377	84.06
476.596	97.06
476.814	108.06
477.033	96.06
477.252	104.06
477.471	87.06
477.69	94.06
477.908	84.06
478.127	85.06
478.346	99.06
478.564	95.06
478.783	114.06
479.002	71.06
479.22	107.06
479.439	88.06
479.658	93.06
479.876	84.06
480.095	88.06
480.313	88.06
480.532	104.06
480.751	110.06
480.969	84.06
481.188	102.06
481.406	114.06
481.624	89.06
481.843	80.06
482.061	85.06
482.28	84.06
482.498	88.06
482.717	84.06
482.935	90.06
483.153	89.06
483.372	88.06
483.59	91.06
483.808	98.06
484.027	104.06
484.245	96.06
484.463	99.06
484.681	106.06
484.9	111.06
485.118	107.06
485.336	89.06
485.554	103.06
485.772	94.06
485.99	110.06
486.209	102.06
486.427	107.06
486.645	120.06
486.863	109.06
487.081	98.06
487.299	95.06
487.517	100.06
487.735	89.06
487.953	101.06
488.171	93.06
488.389	87.06
488.607	86.06
488.825	89.06
489.043	90.06
489.261	86.06
489.479	89.06
489.696	95.06
489.914	96.06
490.132	96.06
490.35	100.06
490.568	84.06
490.786	86.06
491.003	86.06
491.221	92.06
491.439	87.06
491.657	104.06
491.874	90.06
492.092	102.06
492.31	95.06
492.527	89.06
492.745	92.06
492.963	85.06
493.18	79.06
493.398	104.06
493.615	111.06
493.833	99.06
494.05	92.06
494.268	103.06
494.485	76.06
494.703	103.06
494.92	89.06
495.138	82.06
495.355	94.06
495.573	85.06
495.79	95.06
496.008	74.06
496.225	94.06
496.442	84.06
496.66	101.06
496.877	73.06
497.094	91.06
497.312	103.06
497.529	94.06
497.746	103.06
497.963	90.06
498.181	105.06
498.398	97.06
498.615	98.06
498.832	99.06
499.049	93.06
499.267	95.06
499.484	80.06
499.701	91.06
499.918	89.06
500.135	78.06
500.352	90.06
500.569	79.06
500.786	107.06
501.003	80.06
501.22	104.06
501.437	100.06
501.654	85.06
501.871	117.06
502.088	85.06
502.305	85.06
502.522	89.06
502.739	89.06
502.956	101.06
503.172	93.06
503.389	86.06
503.606	94.06
503.823	103.06
504.04	99.06
504.256	98.06
504.473	95.06
504.69	85.06
504.907	106.06
505.123	98.06
505.34	95.06
505.557	104.06
505.773	88.06
505.99	99.06
506.207	102.06
506.423	101.06
506.64	86.06
506.856	101.06
507.073	90.06
507.289	87.06
507.506	97.06
507.722	113.06
507.939	109.06
508.155	98.06
508.372	97.06
508.588	88.06
508.805	92.06
509.021	99.06
509.238	86.06
509.454	110.06
509.67	101.06
509.887	113.06
510.103	127.06
510.319	215.06
510.536	711.06
510.752	2203.06
510.968	614.06
511.184	158.06
511.401	98.06
511.617	95.06
511.833	93.06
512.049	98.06
512.265	102.06
512.481	95.06
512.698	95.06
512.914	103.06
513.13	96.06
513.346	96.06
513.562	83.06
513.778	100.06
513.994	93.06
514.21	101.06
514.426	121.06
514.642	129.06
514.858	123.06
515.074	168.06
