Data from Uncirc_1990_H10_HRD10591_00092.txt Node
Date: Wed Jan 03 11:54:10 EST 2024
User: Yrep
Spectrometer: HR+D1059
Trigger mode: 1
Integration Time (sec): 1.000000E-1
Scans to average: 1
Electric dark correction enabled: true
Nonlinearity correction enabled: false
Boxcar width: 0
XAxis mode: Wavelengths
Number of Pixels in Spectrum: 2048
>>>>>Begin Spectral Data<<<<<
223.165	-17.94
223.4	-17.94
223.635	-17.94
223.869	-30.94
224.104	-19.94
224.338	-13.94
224.573	-5.94
224.808	-5.94
225.042	-17.94
225.277	-4.94
225.511	-22.94
225.746	1.06
225.98	4.06
226.215	9.06
226.449	30.06
226.683	31.06
226.918	32.06
227.152	33.06
227.387	45.06
227.621	31.06
227.856	50.06
228.09	62.06
228.324	58.06
228.559	49.06
228.793	35.06
229.027	59.06
229.262	65.06
229.496	74.06
229.73	65.06
229.964	78.06
230.199	75.06
230.433	69.06
230.667	81.06
230.901	86.06
231.136	68.06
231.37	85.06
231.604	77.06
231.838	79.06
232.072	67.06
232.306	96.06
232.541	97.06
232.775	80.06
233.009	86.06
233.243	74.06
233.477	82.06
233.711	90.06
233.945	80.06
234.179	78.06
234.413	70.06
234.647	63.06
234.881	89.06
235.115	68.06
235.349	67.06
235.583	69.06
235.817	76.06
236.051	78.06
236.285	71.06
236.519	70.06
236.753	92.06
236.987	69.06
237.221	69.06
237.455	87.06
237.689	76.06
237.922	84.06
238.156	78.06
238.39	67.06
238.624	81.06
238.858	77.06
239.091	81.06
239.325	80.06
239.559	75.06
239.793	67.06
240.027	73.06
240.26	77.06
240.494	75.06
240.728	74.06
240.961	64.06
241.195	78.06
241.429	75.06
241.662	82.06
241.896	77.06
242.13	77.06
242.363	80.06
242.597	68.06
242.83	69.06
243.064	79.06
243.298	74.06
243.531	80.06
243.765	78.06
243.998	72.06
244.232	76.06
244.465	94.06
244.699	71.06
244.932	86.06
245.166	85.06
245.399	73.06
245.633	90.06
245.866	83.06
246.099	78.06
246.333	77.06
246.566	70.06
246.8	83.06
247.033	75.06
247.266	87.06
247.5	62.06
247.733	81.06
247.966	93.06
248.2	81.06
248.433	86.06
248.666	74.06
248.899	86.06
249.133	92.06
249.366	106.06
249.599	83.06
249.832	74.06
250.066	94.06
250.299	75.06
250.532	87.06
250.765	85.06
250.998	88.06
251.231	91.06
251.465	95.06
251.698	83.06
251.931	74.06
252.164	74.06
252.397	85.06
252.63	80.06
252.863	69.06
253.096	72.06
253.329	84.06
253.562	79.06
253.795	74.06
254.028	83.06
254.261	81.06
254.494	66.06
254.727	73.06
254.96	76.06
255.193	87.06
255.426	94.06
255.659	85.06
255.892	78.06
256.124	90.06
256.357	79.06
256.59	70.06
256.823	85.06
257.056	87.06
257.289	81.06
257.521	83.06
257.754	70.06
257.987	63.06
258.22	83.06
258.452	93.06
258.685	85.06
258.918	75.06
259.151	84.06
259.383	94.06
259.616	75.06
259.849	80.06
260.081	81.06
260.314	87.06
260.547	78.06
260.779	90.06
261.012	82.06
261.244	80.06
261.477	97.06
261.71	92.06
261.942	101.06
262.175	107.06
262.407	71.06
262.64	78.06
262.872	77.06
263.105	86.06
263.337	99.06
263.57	98.06
263.802	83.06
264.035	89.06
264.267	76.06
264.499	82.06
264.732	98.06
264.964	85.06
265.197	77.06
265.429	78.06
265.661	83.06
265.894	80.06
266.126	74.06
266.358	85.06
266.591	89.06
266.823	83.06
267.055	77.06
267.287	88.06
267.52	75.06
267.752	90.06
267.984	79.06
268.216	78.06
268.448	88.06
268.681	76.06
268.913	93.06
269.145	82.06
269.377	99.06
269.609	77.06
269.841	85.06
270.073	82.06
270.306	80.06
270.538	74.06
270.77	80.06
271.002	95.06
271.234	97.06
271.466	83.06
271.698	93.06
271.93	86.06
272.162	86.06
272.394	66.06
272.626	83.06
272.858	82.06
273.09	77.06
273.322	87.06
273.553	82.06
273.785	84.06
274.017	81.06
274.249	79.06
274.481	87.06
274.713	88.06
274.945	103.06
275.176	81.06
275.408	93.06
275.64	79.06
275.872	90.06
276.104	87.06
276.335	78.06
276.567	86.06
276.799	100.06
277.031	89.06
277.262	93.06
277.494	85.06
277.726	93.06
277.957	70.06
278.189	93.06
278.421	80.06
278.652	81.06
278.884	82.06
279.115	84.06
279.347	92.06
279.579	88.06
279.81	87.06
280.042	90.06
280.273	93.06
280.505	84.06
280.736	83.06
280.968	86.06
281.199	94.06
281.431	74.06
281.662	82.06
281.894	78.06
282.125	85.06
282.356	127.06
282.588	113.06
282.819	101.06
283.051	83.06
283.282	70.06
283.513	81.06
283.745	95.06
283.976	83.06
284.207	82.06
284.439	78.06
284.67	79.06
284.901	82.06
285.132	80.06
285.364	89.06
285.595	102.06
285.826	92.06
286.057	87.06
286.288	75.06
286.52	92.06
286.751	89.06
286.982	92.06
287.213	88.06
287.444	88.06
287.675	86.06
287.906	81.06
288.138	89.06
288.369	100.06
288.6	93.06
288.831	88.06
289.062	92.06
289.293	92.06
289.524	95.06
289.755	88.06
289.986	76.06
290.217	73.06
290.448	88.06
290.679	78.06
290.91	72.06
291.141	84.06
291.371	92.06
291.602	82.06
291.833	81.06
292.064	62.06
292.295	89.06
292.526	66.06
292.757	95.06
292.987	93.06
293.218	79.06
293.449	78.06
293.68	98.06
293.91	86.06
294.141	90.06
294.372	89.06
294.603	79.06
294.833	75.06
295.064	80.06
295.295	82.06
295.525	101.06
295.756	102.06
295.987	103.06
296.217	124.06
296.448	106.06
296.679	93.06
296.909	91.06
297.14	87.06
297.37	95.06
297.601	87.06
297.831	77.06
298.062	84.06
298.292	94.06
298.523	99.06
298.753	85.06
298.984	83.06
299.214	98.06
299.445	91.06
299.675	100.06
299.905	93.06
300.136	98.06
300.366	92.06
300.597	89.06
300.827	83.06
301.057	94.06
301.288	93.06
301.518	113.06
301.748	94.06
301.979	97.06
302.209	96.06
302.439	86.06
302.669	83.06
302.9	81.06
303.13	77.06
303.36	91.06
303.59	100.06
303.82	91.06
304.051	107.06
304.281	97.06
304.511	104.06
304.741	80.06
304.971	83.06
305.201	94.06
305.431	86.06
305.661	86.06
305.891	90.06
306.121	83.06
306.352	97.06
306.582	103.06
306.812	99.06
307.042	87.06
307.272	86.06
307.502	97.06
307.731	109.06
307.961	89.06
308.191	109.06
308.421	87.06
308.651	98.06
308.881	101.06
309.111	95.06
309.341	80.06
309.571	92.06
309.8	87.06
310.03	85.06
310.26	71.06
310.49	102.06
310.72	103.06
310.949	87.06
311.179	102.06
311.409	85.06
311.639	82.06
311.868	92.06
312.098	109.06
312.328	96.06
312.557	105.06
312.787	96.06
313.017	89.06
313.246	79.06
313.476	93.06
313.706	109.06
313.935	92.06
314.165	101.06
314.394	85.06
314.624	80.06
314.853	93.06
315.083	90.06
315.312	90.06
315.542	98.06
315.771	90.06
316.001	88.06
316.23	92.06
316.46	87.06
316.689	77.06
316.919	78.06
317.148	75.06
317.377	87.06
317.607	90.06
317.836	77.06
318.065	95.06
318.295	81.06
318.524	94.06
318.753	100.06
318.983	108.06
319.212	100.06
319.441	107.06
319.67	94.06
319.9	97.06
320.129	89.06
320.358	107.06
320.587	97.06
320.816	99.06
321.046	90.06
321.275	111.06
321.504	104.06
321.733	79.06
321.962	87.06
322.191	106.06
322.42	110.06
322.649	103.06
322.878	102.06
323.108	110.06
323.337	120.06
323.566	122.06
323.795	149.06
324.024	203.06
324.253	370.06
324.482	793.06
324.71	1595.06
324.939	2129.06
325.168	806.06
325.397	231.06
325.626	127.06
325.855	132.06
326.084	109.06
326.313	116.06
326.542	147.06
326.77	220.06
326.999	441.06
327.228	899.06
327.457	1628.06
327.686	1333.06
327.914	370.06
328.143	183.06
328.372	148.06
328.6	111.06
328.829	112.06
329.058	126.06
329.287	120.06
329.515	127.06
329.744	92.06
329.972	99.06
330.201	116.06
330.43	143.06
330.658	120.06
330.887	138.06
331.115	113.06
331.344	102.06
331.572	107.06
331.801	102.06
332.03	85.06
332.258	80.06
332.486	81.06
332.715	98.06
332.943	101.06
333.172	97.06
333.4	83.06
333.629	102.06
333.857	102.06
334.085	107.06
334.314	114.06
334.542	133.06
334.771	137.06
334.999	115.06
335.227	76.06
335.455	106.06
335.684	93.06
335.912	105.06
336.14	82.06
336.369	85.06
336.597	105.06
336.825	99.06
337.053	91.06
337.281	92.06
337.51	88.06
337.738	89.06
337.966	101.06
338.194	84.06
338.422	81.06
338.65	90.06
338.878	90.06
339.106	85.06
339.334	82.06
339.562	83.06
339.79	87.06
340.018	86.06
340.246	93.06
340.474	96.06
340.702	92.06
340.93	93.06
341.158	94.06
341.386	83.06
341.614	87.06
341.842	95.06
342.07	83.06
342.298	93.06
342.526	91.06
342.754	95.06
342.981	83.06
343.209	94.06
343.437	87.06
343.665	86.06
343.893	101.06
344.12	94.06
344.348	71.06
344.576	101.06
344.804	88.06
345.031	85.06
345.259	111.06
345.487	106.06
345.714	93.06
345.942	84.06
346.17	85.06
346.397	89.06
346.625	92.06
346.853	93.06
347.08	104.06
347.308	99.06
347.535	110.06
347.763	101.06
347.99	97.06
348.218	103.06
348.445	106.06
348.673	114.06
348.9	98.06
349.128	78.06
349.355	94.06
349.583	93.06
349.81	83.06
350.037	101.06
350.265	101.06
350.492	93.06
350.72	96.06
350.947	101.06
351.174	97.06
351.402	113.06
351.629	107.06
351.856	92.06
352.083	90.06
352.311	110.06
352.538	109.06
352.765	109.06
352.992	103.06
353.22	85.06
353.447	99.06
353.674	90.06
353.901	67.06
354.128	89.06
354.355	90.06
354.583	96.06
354.81	96.06
355.037	101.06
355.264	90.06
355.491	100.06
355.718	84.06
355.945	100.06
356.172	87.06
356.399	88.06
356.626	92.06
356.853	113.06
357.08	90.06
357.307	78.06
357.534	95.06
357.761	102.06
357.988	96.06
358.215	85.06
358.441	88.06
358.668	77.06
358.895	82.06
359.122	81.06
359.349	78.06
359.576	90.06
359.802	92.06
360.029	106.06
360.256	102.06
360.483	103.06
360.709	83.06
360.936	87.06
361.163	87.06
361.39	101.06
361.616	86.06
361.843	100.06
362.07	95.06
362.296	100.06
362.523	89.06
362.749	85.06
362.976	84.06
363.203	103.06
363.429	81.06
363.656	87.06
363.882	71.06
364.109	99.06
364.335	83.06
364.562	88.06
364.788	77.06
365.015	77.06
365.241	92.06
365.468	93.06
365.694	106.06
365.92	89.06
366.147	82.06
366.373	91.06
366.599	90.06
366.826	91.06
367.052	89.06
367.278	73.06
367.505	79.06
367.731	84.06
367.957	87.06
368.184	94.06
368.41	91.06
368.636	106.06
368.862	116.06
369.089	103.06
369.315	92.06
369.541	89.06
369.767	87.06
369.993	84.06
370.219	82.06
370.445	81.06
370.672	84.06
370.898	87.06
371.124	109.06
371.35	91.06
371.576	91.06
371.802	78.06
372.028	90.06
372.254	84.06
372.48	87.06
372.706	94.06
372.932	68.06
373.158	74.06
373.384	89.06
373.61	86.06
373.835	91.06
374.061	86.06
374.287	85.06
374.513	78.06
374.739	83.06
374.965	85.06
375.191	73.06
375.416	84.06
375.642	103.06
375.868	92.06
376.094	82.06
376.319	77.06
376.545	90.06
376.771	96.06
376.997	94.06
377.222	91.06
377.448	78.06
377.674	94.06
377.899	92.06
378.125	86.06
378.35	92.06
378.576	75.06
378.802	82.06
379.027	93.06
379.253	81.06
379.478	66.06
379.704	85.06
379.929	94.06
380.155	74.06
380.38	94.06
380.606	77.06
380.831	92.06
381.057	91.06
381.282	93.06
381.507	75.06
381.733	85.06
381.958	87.06
382.184	78.06
382.409	100.06
382.634	111.06
382.86	92.06
383.085	92.06
383.31	98.06
383.535	94.06
383.761	91.06
383.986	84.06
384.211	91.06
384.436	98.06
384.662	106.06
384.887	87.06
385.112	100.06
385.337	90.06
385.562	100.06
385.787	96.06
386.013	101.06
386.238	110.06
386.463	111.06
386.688	105.06
386.913	109.06
387.138	90.06
387.363	111.06
387.588	89.06
387.813	99.06
388.038	92.06
388.263	106.06
388.488	108.06
388.713	102.06
388.938	80.06
389.163	98.06
389.387	93.06
389.612	87.06
389.837	95.06
390.062	105.06
390.287	84.06
390.512	82.06
390.736	89.06
390.961	92.06
391.186	97.06
391.411	108.06
391.636	81.06
391.86	82.06
392.085	86.06
392.31	81.06
392.534	78.06
392.759	95.06
392.984	81.06
393.208	90.06
393.433	93.06
393.658	90.06
393.882	79.06
394.107	83.06
394.331	77.06
394.556	81.06
394.78	84.06
395.005	82.06
395.229	89.06
395.454	98.06
395.678	80.06
395.903	86.06
396.127	86.06
396.352	79.06
396.576	85.06
396.801	82.06
397.025	84.06
397.249	79.06
397.474	101.06
397.698	93.06
397.922	84.06
398.147	93.06
398.371	69.06
398.595	71.06
398.82	74.06
399.044	81.06
399.268	85.06
399.492	89.06
399.717	90.06
399.941	88.06
400.165	92.06
400.389	93.06
400.613	80.06
400.837	96.06
401.062	67.06
401.286	89.06
401.51	82.06
401.734	71.06
401.958	98.06
402.182	126.06
402.406	142.06
402.63	115.06
402.854	77.06
403.078	73.06
403.302	84.06
403.526	90.06
403.75	82.06
403.974	74.06
404.198	69.06
404.422	73.06
404.645	92.06
404.869	82.06
405.093	91.06
405.317	95.06
405.541	109.06
405.765	87.06
405.988	121.06
406.212	141.06
406.436	193.06
406.66	137.06
406.883	94.06
407.107	84.06
407.331	95.06
407.555	85.06
407.778	103.06
408.002	100.06
408.226	90.06
408.449	91.06
408.673	100.06
408.896	86.06
409.12	91.06
409.344	106.06
409.567	91.06
409.791	80.06
410.014	108.06
410.238	98.06
410.461	98.06
410.685	86.06
410.908	84.06
411.132	101.06
411.355	102.06
411.578	99.06
411.802	95.06
412.025	90.06
412.249	93.06
412.472	91.06
412.695	86.06
412.919	86.06
413.142	90.06
413.365	82.06
413.589	92.06
413.812	98.06
414.035	98.06
414.258	96.06
414.482	97.06
414.705	84.06
414.928	84.06
415.151	95.06
415.374	89.06
415.597	85.06
415.821	86.06
416.044	86.06
416.267	89.06
416.49	90.06
416.713	93.06
416.936	75.06
417.159	84.06
417.382	79.06
417.605	75.06
417.828	97.06
418.051	85.06
418.274	81.06
418.497	78.06
418.72	79.06
418.943	92.06
419.166	88.06
419.389	95.06
419.611	94.06
419.834	95.06
420.057	94.06
420.28	94.06
420.503	80.06
420.726	82.06
420.948	94.06
421.171	84.06
421.394	93.06
421.617	81.06
421.839	78.06
422.062	87.06
422.285	91.06
422.507	84.06
422.73	96.06
422.953	96.06
423.175	79.06
423.398	87.06
423.621	93.06
423.843	85.06
424.066	83.06
424.288	90.06
424.511	87.06
424.733	90.06
424.956	99.06
425.178	98.06
425.401	114.06
425.623	95.06
425.846	82.06
426.068	103.06
426.291	88.06
426.513	93.06
426.735	97.06
426.958	110.06
427.18	105.06
427.402	129.06
427.625	133.06
427.847	110.06
428.069	89.06
428.292	87.06
428.514	87.06
428.736	90.06
428.958	95.06
429.181	79.06
429.403	97.06
429.625	72.06
429.847	92.06
430.069	98.06
430.292	96.06
430.514	84.06
430.736	78.06
430.958	87.06
431.18	84.06
431.402	88.06
431.624	91.06
431.846	89.06
432.068	96.06
432.29	95.06
432.512	84.06
432.734	83.06
432.956	89.06
433.178	98.06
433.4	95.06
433.622	100.06
433.844	79.06
434.066	98.06
434.287	82.06
434.509	85.06
434.731	93.06
434.953	77.06
435.175	85.06
435.397	81.06
435.618	101.06
435.84	98.06
436.062	104.06
436.284	112.06
436.505	96.06
436.727	90.06
436.949	92.06
437.17	98.06
437.392	69.06
437.614	87.06
437.835	95.06
438.057	111.06
438.278	89.06
438.5	86.06
438.721	111.06
438.943	105.06
439.165	85.06
439.386	85.06
439.608	90.06
439.829	103.06
440.05	111.06
440.272	138.06
440.493	93.06
440.715	81.06
440.936	93.06
441.158	83.06
441.379	81.06
441.6	89.06
441.822	90.06
442.043	111.06
442.264	117.06
442.486	94.06
442.707	88.06
442.928	105.06
443.149	118.06
443.371	128.06
443.592	112.06
443.813	98.06
444.034	104.06
444.255	100.06
444.476	70.06
444.698	77.06
444.919	81.06
445.14	134.06
445.361	118.06
445.582	103.06
445.803	107.06
446.024	134.06
446.245	133.06
446.466	106.06
446.687	84.06
446.908	77.06
447.129	77.06
447.35	82.06
447.571	95.06
447.792	93.06
448.013	85.06
448.234	109.06
448.455	99.06
448.675	118.06
448.896	122.06
449.117	97.06
449.338	88.06
449.559	114.06
449.779	124.06
450	97.06
450.221	80.06
450.442	100.06
450.662	103.06
450.883	106.06
451.104	102.06
451.324	86.06
451.545	91.06
451.766	87.06
451.986	92.06
452.207	89.06
452.428	98.06
452.648	94.06
452.869	82.06
453.089	105.06
453.31	114.06
453.53	86.06
453.751	103.06
453.971	90.06
454.192	94.06
454.412	85.06
454.633	77.06
454.853	85.06
455.073	79.06
455.294	75.06
455.514	90.06
455.734	89.06
455.955	86.06
456.175	78.06
456.395	84.06
456.616	77.06
456.836	71.06
457.056	79.06
457.276	78.06
457.497	82.06
457.717	88.06
457.937	77.06
458.157	100.06
458.377	84.06
458.598	101.06
458.818	134.06
459.038	163.06
459.258	105.06
459.478	74.06
459.698	69.06
459.918	85.06
460.138	93.06
460.358	96.06
460.578	80.06
460.798	103.06
461.018	90.06
461.238	95.06
461.458	79.06
461.678	91.06
461.898	87.06
462.118	86.06
462.338	83.06
462.558	89.06
462.777	96.06
462.997	81.06
463.217	73.06
463.437	73.06
463.657	83.06
463.876	75.06
464.096	81.06
464.316	81.06
464.536	97.06
464.755	96.06
464.975	92.06
465.195	138.06
465.414	149.06
465.634	90.06
465.854	79.06
466.073	81.06
466.293	81.06
466.512	84.06
466.732	90.06
466.951	83.06
467.171	100.06
467.391	97.06
467.61	94.06
467.829	98.06
468.049	97.06
468.268	95.06
468.488	67.06
468.707	78.06
468.927	81.06
469.146	79.06
469.365	86.06
469.585	92.06
469.804	89.06
470.023	97.06
470.243	88.06
470.462	94.06
470.681	94.06
470.901	78.06
471.12	80.06
471.339	86.06
471.558	88.06
471.777	89.06
471.997	87.06
472.216	113.06
472.435	136.06
472.654	93.06
472.873	97.06
473.092	87.06
473.311	96.06
473.53	78.06
473.749	102.06
473.968	69.06
474.187	93.06
474.406	102.06
474.625	99.06
474.844	94.06
475.063	71.06
475.282	91.06
475.501	81.06
475.72	83.06
475.939	81.06
476.158	104.06
476.377	87.06
476.596	87.06
476.814	79.06
477.033	84.06
477.252	93.06
477.471	90.06
477.69	83.06
477.908	97.06
478.127	84.06
478.346	83.06
478.564	85.06
478.783	103.06
479.002	86.06
479.22	90.06
479.439	101.06
479.658	89.06
479.876	85.06
480.095	87.06
480.313	87.06
480.532	77.06
480.751	95.06
480.969	111.06
481.188	175.06
481.406	141.06
481.624	108.06
481.843	93.06
482.061	74.06
482.28	81.06
482.498	97.06
482.717	83.06
482.935	92.06
483.153	86.06
483.372	82.06
483.59	87.06
483.808	97.06
484.027	87.06
484.245	107.06
484.463	99.06
484.681	93.06
484.9	91.06
485.118	95.06
485.336	82.06
485.554	87.06
485.772	91.06
485.99	93.06
486.209	94.06
486.427	114.06
486.645	96.06
486.863	113.06
487.081	100.06
487.299	88.06
487.517	81.06
487.735	93.06
487.953	93.06
488.171	101.06
488.389	96.06
488.607	88.06
488.825	106.06
489.043	85.06
489.261	97.06
489.479	94.06
489.696	88.06
489.914	103.06
490.132	83.06
490.35	89.06
490.568	87.06
490.786	83.06
491.003	84.06
491.221	87.06
491.439	89.06
491.657	102.06
491.874	94.06
492.092	98.06
492.31	97.06
492.527	65.06
492.745	80.06
492.963	91.06
493.18	73.06
493.398	106.06
493.615	103.06
493.833	83.06
494.05	95.06
494.268	80.06
494.485	105.06
494.703	94.06
494.92	98.06
495.138	78.06
495.355	88.06
495.573	91.06
495.79	91.06
496.008	93.06
496.225	95.06
496.442	87.06
496.66	85.06
496.877	86.06
497.094	99.06
497.312	74.06
497.529	88.06
497.746	88.06
497.963	84.06
498.181	71.06
498.398	91.06
498.615	96.06
498.832	112.06
499.049	81.06
499.267	98.06
499.484	78.06
499.701	93.06
499.918	82.06
500.135	78.06
500.352	89.06
500.569	86.06
500.786	97.06
501.003	89.06
501.22	94.06
501.437	82.06
501.654	97.06
501.871	92.06
502.088	64.06
502.305	94.06
502.522	85.06
502.739	98.06
502.956	80.06
503.172	76.06
503.389	98.06
503.606	98.06
503.823	85.06
504.04	87.06
504.256	87.06
504.473	88.06
504.69	113.06
504.907	105.06
505.123	85.06
505.34	94.06
505.557	86.06
505.773	84.06
505.99	99.06
506.207	107.06
506.423	80.06
506.64	102.06
506.856	94.06
507.073	83.06
507.289	93.06
507.506	79.06
507.722	102.06
507.939	110.06
508.155	74.06
508.372	85.06
508.588	103.06
508.805	101.06
509.021	91.06
509.238	94.06
509.454	92.06
509.67	92.06
509.887	108.06
510.103	128.06
510.319	195.06
510.536	717.06
510.752	2207.06
510.968	573.06
511.184	140.06
511.401	103.06
511.617	99.06
511.833	91.06
512.049	93.06
512.265	89.06
512.481	89.06
512.698	95.06
512.914	90.06
513.13	92.06
513.346	83.06
513.562	98.06
513.778	96.06
513.994	106.06
514.21	96.06
514.426	105.06
514.642	120.06
514.858	107.06
515.074	151.06
515.29	405.06
515.506	1266.06
515.721	481.06
515.937	138.06
516.153	97.06
516.369	101.06
