Data from Uncirc_1990_H10_HRD10591_00097.txt Node
Date: Wed Jan 03 11:54:11 EST 2024
User: Yrep
Spectrometer: HR+D1059
Trigger mode: 1
Integration Time (sec): 1.000000E-1
Scans to average: 1
Electric dark correction enabled: true
Nonlinearity correction enabled: false
Boxcar width: 0
XAxis mode: Wavelengths
Number of Pixels in Spectrum: 2048
>>>>>Begin Spectral Data<<<<<
223.165	-17.31
223.4	-17.31
223.635	-17.31
223.869	-5.31
224.104	-11.31
224.338	-6.31
224.573	-29.31
224.808	-25.31
225.042	-10.31
225.277	-16.31
225.511	4.69
225.746	16.69
225.98	0.69
226.215	19.69
226.449	4.69
226.683	26.69
226.918	30.69
227.152	17.69
227.387	32.69
227.621	53.69
227.856	39.69
228.09	47.69
228.324	54.69
228.559	57.69
228.793	55.69
229.027	69.69
229.262	61.69
229.496	82.69
229.73	88.69
229.964	80.69
230.199	85.69
230.433	95.69
230.667	95.69
230.901	81.69
231.136	78.69
231.37	95.69
231.604	80.69
231.838	88.69
232.072	76.69
232.306	86.69
232.541	84.69
232.775	80.69
233.009	79.69
233.243	86.69
233.477	73.69
233.711	90.69
233.945	95.69
234.179	71.69
234.413	85.69
234.647	99.69
234.881	86.69
235.115	92.69
235.349	79.69
235.583	79.69
235.817	104.69
236.051	67.69
236.285	89.69
236.519	86.69
236.753	92.69
236.987	80.69
237.221	86.69
237.455	94.69
237.689	80.69
237.922	77.69
238.156	76.69
238.39	72.69
238.624	88.69
238.858	78.69
239.091	92.69
239.325	76.69
239.559	91.69
239.793	87.69
240.027	85.69
240.26	75.69
240.494	78.69
240.728	70.69
240.961	65.69
241.195	68.69
241.429	78.69
241.662	72.69
241.896	73.69
242.13	81.69
242.363	72.69
242.597	79.69
242.83	77.69
243.064	84.69
243.298	64.69
243.531	77.69
243.765	88.69
243.998	78.69
244.232	91.69
244.465	72.69
244.699	76.69
244.932	84.69
245.166	82.69
245.399	81.69
245.633	78.69
245.866	76.69
246.099	78.69
246.333	78.69
246.566	73.69
246.8	86.69
247.033	65.69
247.266	65.69
247.5	76.69
247.733	67.69
247.966	87.69
248.2	72.69
248.433	78.69
248.666	85.69
248.899	92.69
249.133	83.69
249.366	100.69
249.599	79.69
249.832	80.69
250.066	83.69
250.299	103.69
250.532	85.69
250.765	86.69
250.998	91.69
251.231	83.69
251.465	73.69
251.698	86.69
251.931	78.69
252.164	60.69
252.397	82.69
252.63	79.69
252.863	84.69
253.096	83.69
253.329	85.69
253.562	79.69
253.795	93.69
254.028	87.69
254.261	85.69
254.494	76.69
254.727	80.69
254.96	87.69
255.193	68.69
255.426	83.69
255.659	78.69
255.892	85.69
256.124	88.69
256.357	85.69
256.59	86.69
256.823	87.69
257.056	91.69
257.289	70.69
257.521	83.69
257.754	78.69
257.987	76.69
258.22	68.69
258.452	92.69
258.685	92.69
258.918	80.69
259.151	83.69
259.383	85.69
259.616	97.69
259.849	93.69
260.081	71.69
260.314	87.69
260.547	86.69
260.779	88.69
261.012	75.69
261.244	88.69
261.477	97.69
261.71	90.69
261.942	104.69
262.175	104.69
262.407	73.69
262.64	88.69
262.872	85.69
263.105	76.69
263.337	90.69
263.57	79.69
263.802	77.69
264.035	76.69
264.267	87.69
264.499	83.69
264.732	83.69
264.964	89.69
265.197	88.69
265.429	72.69
265.661	81.69
265.894	87.69
266.126	79.69
266.358	81.69
266.591	79.69
266.823	93.69
267.055	83.69
267.287	78.69
267.52	83.69
267.752	83.69
267.984	93.69
268.216	78.69
268.448	75.69
268.681	87.69
268.913	76.69
269.145	99.69
269.377	70.69
269.609	89.69
269.841	75.69
270.073	91.69
270.306	88.69
270.538	80.69
270.77	86.69
271.002	87.69
271.234	75.69
271.466	90.69
271.698	85.69
271.93	81.69
272.162	77.69
272.394	83.69
272.626	86.69
272.858	78.69
273.09	87.69
273.322	75.69
273.553	81.69
273.785	96.69
274.017	81.69
274.249	88.69
274.481	88.69
274.713	82.69
274.945	83.69
275.176	80.69
275.408	96.69
275.64	98.69
275.872	77.69
276.104	89.69
276.335	89.69
276.567	95.69
276.799	95.69
277.031	91.69
277.262	104.69
277.494	81.69
277.726	89.69
277.957	88.69
278.189	84.69
278.421	101.69
278.652	85.69
278.884	88.69
279.115	84.69
279.347	92.69
279.579	80.69
279.81	86.69
280.042	84.69
280.273	88.69
280.505	97.69
280.736	84.69
280.968	87.69
281.199	82.69
281.431	89.69
281.662	90.69
281.894	96.69
282.125	92.69
282.356	109.69
282.588	124.69
282.819	110.69
283.051	92.69
283.282	77.69
283.513	79.69
283.745	87.69
283.976	85.69
284.207	81.69
284.439	65.69
284.67	83.69
284.901	103.69
285.132	96.69
285.364	77.69
285.595	85.69
285.826	83.69
286.057	85.69
286.288	79.69
286.52	94.69
286.751	85.69
286.982	91.69
287.213	88.69
287.444	83.69
287.675	88.69
287.906	86.69
288.138	96.69
288.369	95.69
288.6	95.69
288.831	87.69
289.062	95.69
289.293	97.69
289.524	89.69
289.755	91.69
289.986	86.69
290.217	87.69
290.448	75.69
290.679	96.69
290.91	103.69
291.141	88.69
291.371	82.69
291.602	88.69
291.833	75.69
292.064	85.69
292.295	75.69
292.526	92.69
292.757	87.69
292.987	92.69
293.218	92.69
293.449	100.69
293.68	73.69
293.91	79.69
294.141	87.69
294.372	86.69
294.603	99.69
294.833	85.69
295.064	84.69
295.295	79.69
295.525	97.69
295.756	95.69
295.987	103.69
296.217	131.69
296.448	114.69
296.679	88.69
296.909	94.69
297.14	95.69
297.37	91.69
297.601	104.69
297.831	79.69
298.062	90.69
298.292	84.69
298.523	88.69
298.753	83.69
298.984	84.69
299.214	80.69
299.445	93.69
299.675	84.69
299.905	99.69
300.136	95.69
300.366	88.69
300.597	94.69
300.827	99.69
301.057	101.69
301.288	91.69
301.518	103.69
301.748	97.69
301.979	103.69
302.209	83.69
302.439	97.69
302.669	87.69
302.9	81.69
303.13	105.69
303.36	82.69
303.59	99.69
303.82	101.69
304.051	99.69
304.281	91.69
304.511	105.69
304.741	98.69
304.971	93.69
305.201	86.69
305.431	92.69
305.661	87.69
305.891	95.69
306.121	88.69
306.352	98.69
306.582	95.69
306.812	96.69
307.042	89.69
307.272	96.69
307.502	103.69
307.731	99.69
307.961	98.69
308.191	91.69
308.421	95.69
308.651	109.69
308.881	102.69
309.111	97.69
309.341	95.69
309.571	102.69
309.8	85.69
310.03	92.69
310.26	100.69
310.49	87.69
310.72	106.69
310.949	109.69
311.179	93.69
311.409	92.69
311.639	96.69
311.868	92.69
312.098	84.69
312.328	92.69
312.557	94.69
312.787	107.69
313.017	95.69
313.246	99.69
313.476	93.69
313.706	99.69
313.935	96.69
314.165	88.69
314.394	101.69
314.624	106.69
314.853	95.69
315.083	97.69
315.312	101.69
315.542	89.69
315.771	89.69
316.001	93.69
316.23	87.69
316.46	95.69
316.689	80.69
316.919	98.69
317.148	93.69
317.377	92.69
317.607	108.69
317.836	84.69
318.065	99.69
318.295	92.69
318.524	81.69
318.753	94.69
318.983	103.69
319.212	100.69
319.441	111.69
319.67	111.69
319.9	88.69
320.129	101.69
320.358	98.69
320.587	103.69
320.816	90.69
321.046	96.69
321.275	101.69
321.504	91.69
321.733	100.69
321.962	108.69
322.191	98.69
322.42	101.69
322.649	103.69
322.878	111.69
323.108	125.69
323.337	120.69
323.566	137.69
323.795	162.69
324.024	209.69
324.253	376.69
324.482	800.69
324.71	1637.69
324.939	2143.69
325.168	771.69
325.397	232.69
325.626	169.69
325.855	132.69
326.084	123.69
326.313	130.69
326.542	155.69
326.77	233.69
326.999	453.69
327.228	902.69
327.457	1731.69
327.686	1337.69
327.914	375.69
328.143	194.69
328.372	133.69
328.6	107.69
328.829	114.69
329.058	127.69
329.287	121.69
329.515	96.69
329.744	98.69
329.972	95.69
330.201	127.69
330.43	131.69
330.658	111.69
330.887	117.69
331.115	130.69
331.344	104.69
331.572	95.69
331.801	120.69
332.03	110.69
332.258	98.69
332.486	88.69
332.715	105.69
332.943	102.69
333.172	95.69
333.4	96.69
333.629	105.69
333.857	95.69
334.085	109.69
334.314	103.69
334.542	113.69
334.771	124.69
334.999	111.69
335.227	99.69
335.455	76.69
335.684	93.69
335.912	95.69
336.14	108.69
336.369	104.69
336.597	102.69
336.825	80.69
337.053	96.69
337.281	111.69
337.51	96.69
337.738	98.69
337.966	84.69
338.194	96.69
338.422	99.69
338.65	103.69
338.878	90.69
339.106	91.69
339.334	94.69
339.562	91.69
339.79	99.69
340.018	83.69
340.246	102.69
340.474	104.69
340.702	101.69
340.93	95.69
341.158	82.69
341.386	97.69
341.614	99.69
341.842	98.69
342.07	95.69
342.298	101.69
342.526	76.69
342.754	90.69
342.981	84.69
343.209	106.69
343.437	112.69
343.665	94.69
343.893	99.69
344.12	107.69
344.348	87.69
344.576	87.69
344.804	91.69
345.031	83.69
345.259	95.69
345.487	95.69
345.714	88.69
345.942	95.69
346.17	101.69
346.397	92.69
346.625	75.69
346.853	85.69
347.08	105.69
347.308	111.69
347.535	97.69
347.763	88.69
347.99	95.69
348.218	98.69
348.445	110.69
348.673	88.69
348.9	92.69
349.128	105.69
349.355	99.69
349.583	72.69
349.81	92.69
350.037	99.69
350.265	103.69
350.492	99.69
350.72	86.69
350.947	93.69
351.174	102.69
351.402	97.69
351.629	112.69
351.856	100.69
352.083	88.69
352.311	106.69
352.538	114.69
352.765	111.69
352.992	107.69
353.22	108.69
353.447	99.69
353.674	104.69
353.901	88.69
354.128	111.69
354.355	91.69
354.583	103.69
354.81	100.69
355.037	92.69
355.264	90.69
355.491	110.69
355.718	90.69
355.945	107.69
356.172	105.69
356.399	94.69
356.626	91.69
356.853	92.69
357.08	103.69
357.307	95.69
357.534	88.69
357.761	83.69
357.988	90.69
358.215	102.69
358.441	88.69
358.668	95.69
358.895	83.69
359.122	102.69
359.349	93.69
359.576	83.69
359.802	104.69
360.029	118.69
360.256	102.69
360.483	104.69
360.709	93.69
360.936	94.69
361.163	103.69
361.39	88.69
361.616	75.69
361.843	87.69
362.07	101.69
362.296	92.69
362.523	92.69
362.749	99.69
362.976	101.69
363.203	90.69
363.429	96.69
363.656	91.69
363.882	100.69
364.109	85.69
364.335	81.69
364.562	78.69
364.788	94.69
365.015	85.69
365.241	98.69
365.468	94.69
365.694	93.69
365.92	107.69
366.147	110.69
366.373	88.69
366.599	91.69
366.826	88.69
367.052	87.69
367.278	96.69
367.505	96.69
367.731	95.69
367.957	86.69
368.184	99.69
368.41	105.69
368.636	99.69
368.862	108.69
369.089	100.69
369.315	87.69
369.541	92.69
369.767	91.69
369.993	88.69
370.219	92.69
370.445	79.69
370.672	79.69
370.898	88.69
371.124	95.69
371.35	80.69
371.576	90.69
371.802	83.69
372.028	91.69
372.254	97.69
372.48	96.69
372.706	82.69
372.932	108.69
373.158	91.69
373.384	99.69
373.61	90.69
373.835	97.69
374.061	91.69
374.287	78.69
374.513	73.69
374.739	67.69
374.965	102.69
375.191	96.69
375.416	91.69
375.642	99.69
375.868	93.69
376.094	113.69
376.319	84.69
376.545	92.69
376.771	81.69
376.997	80.69
377.222	84.69
377.448	95.69
377.674	77.69
377.899	90.69
378.125	89.69
378.35	77.69
378.576	93.69
378.802	78.69
379.027	94.69
379.253	112.69
379.478	90.69
379.704	84.69
379.929	99.69
380.155	83.69
380.38	95.69
380.606	95.69
380.831	104.69
381.057	84.69
381.282	90.69
381.507	83.69
381.733	91.69
381.958	107.69
382.184	90.69
382.409	109.69
382.634	96.69
382.86	91.69
383.085	111.69
383.31	104.69
383.535	94.69
383.761	96.69
383.986	108.69
384.211	92.69
384.436	85.69
384.662	99.69
384.887	87.69
385.112	101.69
385.337	100.69
385.562	97.69
385.787	96.69
386.013	101.69
386.238	104.69
386.463	84.69
386.688	110.69
386.913	103.69
387.138	99.69
387.363	104.69
387.588	94.69
387.813	89.69
388.038	95.69
388.263	102.69
388.488	101.69
388.713	89.69
388.938	92.69
389.163	97.69
389.387	92.69
389.612	97.69
389.837	96.69
390.062	92.69
390.287	108.69
390.512	95.69
390.736	92.69
390.961	91.69
391.186	99.69
391.411	112.69
391.636	85.69
391.86	79.69
392.085	86.69
392.31	77.69
392.534	81.69
392.759	79.69
392.984	92.69
393.208	96.69
393.433	78.69
393.658	100.69
393.882	92.69
394.107	83.69
394.331	84.69
394.556	94.69
394.78	87.69
395.005	101.69
395.229	83.69
395.454	88.69
395.678	93.69
395.903	92.69
396.127	87.69
396.352	95.69
396.576	88.69
396.801	84.69
397.025	84.69
397.249	81.69
397.474	93.69
397.698	85.69
397.922	90.69
398.147	81.69
398.371	86.69
398.595	96.69
398.82	80.69
399.044	89.69
399.268	86.69
399.492	85.69
399.717	85.69
399.941	100.69
400.165	85.69
400.389	86.69
400.613	86.69
400.837	89.69
401.062	79.69
401.286	86.69
401.51	90.69
401.734	112.69
401.958	93.69
402.182	112.69
402.406	148.69
402.63	115.69
402.854	92.69
403.078	89.69
403.302	95.69
403.526	90.69
403.75	78.69
403.974	79.69
404.198	78.69
404.422	85.69
404.645	83.69
404.869	88.69
405.093	91.69
405.317	108.69
405.541	107.69
405.765	91.69
405.988	107.69
406.212	162.69
406.436	212.69
406.66	140.69
406.883	93.69
407.107	87.69
407.331	101.69
407.555	89.69
407.778	115.69
408.002	89.69
408.226	91.69
408.449	89.69
408.673	95.69
408.896	97.69
409.12	84.69
409.344	87.69
409.567	81.69
409.791	98.69
410.014	104.69
410.238	96.69
410.461	94.69
410.685	101.69
410.908	109.69
411.132	104.69
411.355	104.69
411.578	91.69
411.802	85.69
412.025	98.69
412.249	92.69
412.472	86.69
412.695	104.69
412.919	79.69
413.142	82.69
413.365	95.69
413.589	96.69
413.812	82.69
414.035	97.69
414.258	91.69
414.482	101.69
414.705	78.69
414.928	77.69
415.151	89.69
415.374	95.69
415.597	82.69
415.821	92.69
416.044	98.69
416.267	85.69
416.49	79.69
416.713	91.69
416.936	102.69
417.159	101.69
417.382	85.69
417.605	76.69
417.828	81.69
418.051	87.69
418.274	80.69
418.497	89.69
418.72	87.69
418.943	91.69
419.166	92.69
419.389	102.69
419.611	91.69
419.834	97.69
420.057	84.69
420.28	96.69
420.503	81.69
420.726	76.69
420.948	95.69
421.171	108.69
421.394	91.69
421.617	85.69
421.839	89.69
422.062	82.69
422.285	93.69
422.507	96.69
422.73	100.69
422.953	79.69
423.175	93.69
423.398	87.69
423.621	91.69
423.843	88.69
424.066	85.69
424.288	81.69
424.511	80.69
424.733	104.69
424.956	98.69
425.178	111.69
425.401	90.69
425.623	91.69
425.846	89.69
426.068	98.69
426.291	79.69
426.513	92.69
426.735	103.69
426.958	102.69
427.18	107.69
427.402	146.69
427.625	162.69
427.847	132.69
428.069	112.69
428.292	92.69
428.514	87.69
428.736	65.69
428.958	83.69
429.181	90.69
429.403	88.69
429.625	84.69
429.847	90.69
430.069	103.69
430.292	90.69
430.514	85.69
430.736	82.69
430.958	79.69
431.18	86.69
431.402	81.69
431.624	82.69
431.846	71.69
432.068	87.69
432.29	85.69
432.512	87.69
432.734	83.69
432.956	91.69
433.178	89.69
433.4	104.69
433.622	100.69
433.844	78.69
434.066	82.69
434.287	95.69
434.509	88.69
434.731	81.69
434.953	72.69
435.175	88.69
435.397	81.69
435.618	87.69
435.84	100.69
436.062	118.69
436.284	110.69
436.505	113.69
436.727	94.69
436.949	97.69
437.17	83.69
437.392	86.69
437.614	91.69
437.835	99.69
438.057	112.69
438.278	104.69
438.5	107.69
438.721	128.69
438.943	112.69
439.165	86.69
439.386	83.69
439.608	92.69
439.829	96.69
440.05	119.69
440.272	136.69
440.493	110.69
440.715	85.69
440.936	95.69
441.158	104.69
441.379	82.69
441.6	97.69
441.822	93.69
442.043	92.69
442.264	100.69
442.486	97.69
442.707	87.69
442.928	96.69
443.149	124.69
443.371	127.69
443.592	119.69
443.813	104.69
444.034	110.69
444.255	99.69
444.476	105.69
444.698	88.69
444.919	83.69
445.14	136.69
445.361	114.69
445.582	118.69
445.803	120.69
446.024	115.69
446.245	137.69
446.466	112.69
446.687	83.69
446.908	85.69
447.129	96.69
447.35	95.69
447.571	89.69
447.792	100.69
448.013	102.69
448.234	108.69
448.455	114.69
448.675	104.69
448.896	116.69
449.117	96.69
449.338	110.69
449.559	123.69
449.779	116.69
450	91.69
450.221	79.69
450.442	96.69
450.662	103.69
450.883	84.69
451.104	110.69
451.324	99.69
451.545	85.69
451.766	105.69
451.986	86.69
452.207	86.69
452.428	94.69
452.648	90.69
452.869	112.69
453.089	115.69
453.31	119.69
453.53	94.69
453.751	96.69
453.971	104.69
454.192	112.69
454.412	93.69
454.633	87.69
454.853	91.69
455.073	87.69
455.294	83.69
455.514	103.69
455.734	84.69
455.955	92.69
456.175	93.69
456.395	93.69
456.616	96.69
456.836	87.69
457.056	74.69
457.276	79.69
457.497	92.69
457.717	95.69
457.937	97.69
458.157	92.69
458.377	99.69
458.598	115.69
458.818	133.69
459.038	157.69
459.258	109.69
459.478	97.69
459.698	91.69
459.918	80.69
460.138	84.69
460.358	82.69
460.578	87.69
460.798	101.69
461.018	82.69
461.238	87.69
461.458	73.69
461.678	86.69
461.898	100.69
462.118	90.69
462.338	71.69
462.558	87.69
462.777	95.69
462.997	95.69
463.217	93.69
463.437	91.69
463.657	67.69
463.876	102.69
464.096	95.69
464.316	85.69
464.536	89.69
464.755	88.69
464.975	95.69
465.195	153.69
465.414	153.69
465.634	91.69
465.854	86.69
466.073	90.69
466.293	67.69
466.512	84.69
466.732	86.69
466.951	85.69
467.171	91.69
467.391	98.69
467.61	91.69
467.829	94.69
468.049	88.69
468.268	100.69
468.488	93.69
468.707	100.69
468.927	89.69
469.146	79.69
469.365	85.69
469.585	76.69
469.804	93.69
470.023	102.69
470.243	83.69
470.462	98.69
470.681	102.69
470.901	95.69
471.12	101.69
471.339	91.69
471.558	84.69
471.777	70.69
471.997	92.69
472.216	100.69
472.435	137.69
472.654	92.69
472.873	88.69
473.092	83.69
473.311	97.69
473.53	75.69
473.749	96.69
473.968	100.69
474.187	111.69
474.406	88.69
474.625	83.69
474.844	85.69
475.063	76.69
475.282	86.69
475.501	81.69
475.72	91.69
475.939	91.69
476.158	90.69
476.377	89.69
476.596	97.69
476.814	91.69
477.033	93.69
477.252	100.69
477.471	87.69
477.69	90.69
477.908	93.69
478.127	101.69
478.346	101.69
478.564	91.69
478.783	98.69
479.002	83.69
479.22	91.69
479.439	99.69
479.658	100.69
479.876	97.69
480.095	102.69
480.313	98.69
480.532	104.69
480.751	84.69
480.969	110.69
481.188	196.69
481.406	140.69
481.624	96.69
481.843	101.69
482.061	71.69
482.28	79.69
482.498	84.69
482.717	108.69
482.935	91.69
483.153	86.69
483.372	88.69
483.59	96.69
483.808	103.69
484.027	96.69
484.245	91.69
484.463	86.69
484.681	109.69
484.9	90.69
485.118	81.69
485.336	83.69
485.554	97.69
485.772	101.69
485.99	109.69
486.209	102.69
486.427	98.69
486.645	115.69
486.863	108.69
487.081	104.69
487.299	92.69
487.517	83.69
487.735	93.69
487.953	97.69
488.171	105.69
488.389	99.69
488.607	108.69
488.825	91.69
489.043	90.69
489.261	92.69
489.479	95.69
489.696	95.69
489.914	91.69
490.132	88.69
490.35	99.69
490.568	100.69
490.786	86.69
491.003	97.69
491.221	89.69
491.439	69.69
491.657	98.69
491.874	89.69
492.092	87.69
492.31	94.69
492.527	91.69
492.745	85.69
492.963	94.69
493.18	83.69
493.398	88.69
493.615	86.69
493.833	94.69
494.05	96.69
494.268	88.69
494.485	88.69
494.703	90.69
494.92	83.69
495.138	100.69
495.355	98.69
495.573	89.69
495.79	83.69
496.008	91.69
496.225	99.69
496.442	87.69
496.66	102.69
496.877	96.69
497.094	96.69
497.312	85.69
497.529	84.69
497.746	92.69
497.963	107.69
498.181	90.69
498.398	108.69
498.615	105.69
498.832	100.69
499.049	95.69
499.267	85.69
499.484	91.69
499.701	92.69
499.918	100.69
500.135	81.69
500.352	92.69
500.569	88.69
500.786	105.69
501.003	88.69
501.22	91.69
501.437	94.69
501.654	94.69
501.871	96.69
502.088	76.69
502.305	86.69
502.522	105.69
502.739	102.69
502.956	92.69
503.172	91.69
503.389	92.69
503.606	94.69
503.823	117.69
504.04	83.69
504.256	81.69
504.473	102.69
504.69	86.69
504.907	89.69
505.123	79.69
505.34	102.69
505.557	93.69
505.773	106.69
505.99	85.69
506.207	101.69
506.423	88.69
506.64	76.69
506.856	77.69
507.073	101.69
507.289	104.69
507.506	92.69
507.722	105.69
507.939	114.69
508.155	87.69
508.372	85.69
508.588	84.69
508.805	79.69
509.021	98.69
509.238	102.69
509.454	108.69
509.67	110.69
509.887	99.69
510.103	132.69
510.319	212.69
510.536	715.69
510.752	2252.69
510.968	617.69
511.184	156.69
511.401	123.69
511.617	98.69
511.833	97.69
512.049	98.69
512.265	88.69
512.481	108.69
512.698	87.69
512.914	88.69
513.13	95.69
513.346	87.69
513.562	94.69
513.778	104.69
513.994	89.69
514.21	82.69
514.426	104.69
514.642	118.69
514.858	125.69
515.074	170.69
515.29	409.69
515.506	1365.69
