Data from Uncirc_1990_H10_HRD10591_00035.txt Node
Date: Wed Jan 03 11:53:58 EST 2024
User: Yrep
Spectrometer: HR+D1059
Trigger mode: 1
Integration Time (sec): 1.000000E-1
Scans to average: 1
Electric dark correction enabled: true
Nonlinearity correction enabled: false
Boxcar width: 0
XAxis mode: Wavelengths
Number of Pixels in Spectrum: 2048
>>>>>Begin Spectral Data<<<<<
223.165	-16.19
223.4	-16.19
223.635	-16.19
223.869	-15.19
224.104	-23.19
224.338	-12.19
224.573	-8.19
224.808	-29.19
225.042	-3.19
225.277	-6.19
225.511	-10.19
225.746	-12.19
225.98	11.81
226.215	10.81
226.449	24.81
226.683	17.81
226.918	30.81
227.152	39.81
227.387	40.81
227.621	20.81
227.856	51.81
228.09	38.81
228.324	63.81
228.559	54.81
228.793	53.81
229.027	76.81
229.262	67.81
229.496	83.81
229.73	74.81
229.964	73.81
230.199	65.81
230.433	78.81
230.667	69.81
230.901	83.81
231.136	71.81
231.37	97.81
231.604	88.81
231.838	85.81
232.072	68.81
232.306	86.81
232.541	82.81
232.775	89.81
233.009	80.81
233.243	83.81
233.477	81.81
233.711	82.81
233.945	79.81
234.179	74.81
234.413	82.81
234.647	84.81
234.881	74.81
235.115	82.81
235.349	75.81
235.583	75.81
235.817	77.81
236.051	82.81
236.285	77.81
236.519	80.81
236.753	77.81
236.987	72.81
237.221	91.81
237.455	79.81
237.689	79.81
237.922	87.81
238.156	65.81
238.39	83.81
238.624	80.81
238.858	71.81
239.091	74.81
239.325	64.81
239.559	82.81
239.793	82.81
240.027	85.81
240.26	86.81
240.494	78.81
240.728	76.81
240.961	79.81
241.195	70.81
241.429	66.81
241.662	72.81
241.896	77.81
242.13	78.81
242.363	84.81
242.597	86.81
242.83	78.81
243.064	80.81
243.298	82.81
243.531	89.81
243.765	80.81
243.998	70.81
244.232	65.81
244.465	91.81
244.699	74.81
244.932	71.81
245.166	85.81
245.399	80.81
245.633	82.81
245.866	77.81
246.099	91.81
246.333	68.81
246.566	77.81
246.8	82.81
247.033	82.81
247.266	85.81
247.5	74.81
247.733	67.81
247.966	70.81
248.2	85.81
248.433	86.81
248.666	66.81
248.899	79.81
249.133	86.81
249.366	84.81
249.599	101.81
249.832	72.81
250.066	81.81
250.299	92.81
250.532	63.81
250.765	72.81
250.998	76.81
251.231	90.81
251.465	85.81
251.698	92.81
251.931	83.81
252.164	90.81
252.397	78.81
252.63	83.81
252.863	83.81
253.096	80.81
253.329	74.81
253.562	81.81
253.795	94.81
254.028	85.81
254.261	72.81
254.494	83.81
254.727	86.81
254.96	82.81
255.193	75.81
255.426	76.81
255.659	79.81
255.892	74.81
256.124	80.81
256.357	65.81
256.59	87.81
256.823	78.81
257.056	98.81
257.289	78.81
257.521	69.81
257.754	78.81
257.987	91.81
258.22	92.81
258.452	84.81
258.685	93.81
258.918	87.81
259.151	93.81
259.383	88.81
259.616	78.81
259.849	92.81
260.081	87.81
260.314	85.81
260.547	85.81
260.779	93.81
261.012	86.81
261.244	78.81
261.477	83.81
261.71	100.81
261.942	112.81
262.175	102.81
262.407	84.81
262.64	76.81
262.872	66.81
263.105	91.81
263.337	79.81
263.57	78.81
263.802	84.81
264.035	84.81
264.267	80.81
264.499	85.81
264.732	94.81
264.964	99.81
265.197	94.81
265.429	90.81
265.661	92.81
265.894	76.81
266.126	75.81
266.358	90.81
266.591	86.81
266.823	84.81
267.055	85.81
267.287	86.81
267.52	96.81
267.752	86.81
267.984	85.81
268.216	87.81
268.448	80.81
268.681	81.81
268.913	95.81
269.145	69.81
269.377	75.81
269.609	90.81
269.841	103.81
270.073	94.81
270.306	91.81
270.538	92.81
270.77	87.81
271.002	87.81
271.234	93.81
271.466	86.81
271.698	93.81
271.93	85.81
272.162	88.81
272.394	92.81
272.626	87.81
272.858	85.81
273.09	92.81
273.322	81.81
273.553	88.81
273.785	94.81
274.017	70.81
274.249	91.81
274.481	96.81
274.713	91.81
274.945	94.81
275.176	100.81
275.408	86.81
275.64	92.81
275.872	73.81
276.104	91.81
276.335	78.81
276.567	86.81
276.799	102.81
277.031	93.81
277.262	94.81
277.494	90.81
277.726	78.81
277.957	70.81
278.189	88.81
278.421	95.81
278.652	103.81
278.884	96.81
279.115	84.81
279.347	72.81
279.579	71.81
279.81	90.81
280.042	88.81
280.273	88.81
280.505	81.81
280.736	79.81
280.968	94.81
281.199	88.81
281.431	72.81
281.662	101.81
281.894	102.81
282.125	96.81
282.356	114.81
282.588	130.81
282.819	111.81
283.051	96.81
283.282	83.81
283.513	79.81
283.745	91.81
283.976	83.81
284.207	78.81
284.439	92.81
284.67	79.81
284.901	95.81
285.132	90.81
285.364	84.81
285.595	77.81
285.826	92.81
286.057	78.81
286.288	93.81
286.52	85.81
286.751	96.81
286.982	87.81
287.213	98.81
287.444	95.81
287.675	91.81
287.906	83.81
288.138	79.81
288.369	82.81
288.6	85.81
288.831	100.81
289.062	86.81
289.293	79.81
289.524	96.81
289.755	80.81
289.986	87.81
290.217	85.81
290.448	93.81
290.679	90.81
290.91	94.81
291.141	83.81
291.371	91.81
291.602	91.81
291.833	94.81
292.064	79.81
292.295	94.81
292.526	87.81
292.757	85.81
292.987	96.81
293.218	101.81
293.449	95.81
293.68	94.81
293.91	104.81
294.141	80.81
294.372	90.81
294.603	79.81
294.833	71.81
295.064	83.81
295.295	83.81
295.525	98.81
295.756	101.81
295.987	103.81
296.217	139.81
296.448	123.81
296.679	99.81
296.909	100.81
297.14	97.81
297.37	97.81
297.601	78.81
297.831	78.81
298.062	96.81
298.292	90.81
298.523	89.81
298.753	77.81
298.984	82.81
299.214	78.81
299.445	90.81
299.675	88.81
299.905	88.81
300.136	89.81
300.366	101.81
300.597	91.81
300.827	97.81
301.057	104.81
301.288	101.81
301.518	81.81
301.748	69.81
301.979	107.81
302.209	91.81
302.439	82.81
302.669	86.81
302.9	91.81
303.13	94.81
303.36	80.81
303.59	100.81
303.82	104.81
304.051	90.81
304.281	103.81
304.511	94.81
304.741	91.81
304.971	85.81
305.201	94.81
305.431	79.81
305.661	82.81
305.891	82.81
306.121	96.81
306.352	103.81
306.582	112.81
306.812	88.81
307.042	87.81
307.272	96.81
307.502	87.81
307.731	94.81
307.961	94.81
308.191	94.81
308.421	90.81
308.651	99.81
308.881	79.81
309.111	96.81
309.341	103.81
309.571	96.81
309.8	100.81
310.03	96.81
310.26	86.81
310.49	90.81
310.72	94.81
310.949	95.81
311.179	98.81
311.409	88.81
311.639	75.81
311.868	85.81
312.098	82.81
312.328	98.81
312.557	102.81
312.787	92.81
313.017	99.81
313.246	94.81
313.476	88.81
313.706	100.81
313.935	92.81
314.165	100.81
314.394	80.81
314.624	86.81
314.853	96.81
315.083	104.81
315.312	89.81
315.542	89.81
315.771	86.81
316.001	87.81
316.23	93.81
316.46	90.81
316.689	91.81
316.919	101.81
317.148	105.81
317.377	87.81
317.607	81.81
317.836	96.81
318.065	100.81
318.295	98.81
318.524	84.81
318.753	99.81
318.983	85.81
319.212	90.81
319.441	95.81
319.67	110.81
319.9	94.81
320.129	88.81
320.358	86.81
320.587	99.81
320.816	87.81
321.046	87.81
321.275	106.81
321.504	97.81
321.733	93.81
321.962	85.81
322.191	90.81
322.42	94.81
322.649	100.81
322.878	104.81
323.108	106.81
323.337	126.81
323.566	124.81
323.795	150.81
324.024	179.81
324.253	339.81
324.482	743.81
324.71	1498.81
324.939	1984.81
325.168	739.81
325.397	231.81
325.626	142.81
325.855	123.81
326.084	114.81
326.313	129.81
326.542	155.81
326.77	204.81
326.999	416.81
327.228	852.81
327.457	1602.81
327.686	1268.81
327.914	342.81
328.143	177.81
328.372	137.81
328.6	116.81
328.829	125.81
329.058	113.81
329.287	116.81
329.515	98.81
329.744	91.81
329.972	97.81
330.201	90.81
330.43	93.81
330.658	93.81
330.887	127.81
331.115	105.81
331.344	111.81
331.572	99.81
331.801	94.81
332.03	93.81
332.258	99.81
332.486	74.81
332.715	90.81
332.943	85.81
333.172	95.81
333.4	90.81
333.629	102.81
333.857	97.81
334.085	96.81
334.314	101.81
334.542	107.81
334.771	97.81
334.999	98.81
335.227	116.81
335.455	98.81
335.684	88.81
335.912	91.81
336.14	94.81
336.369	108.81
336.597	102.81
336.825	77.81
337.053	92.81
337.281	92.81
337.51	100.81
337.738	100.81
337.966	94.81
338.194	79.81
338.422	95.81
338.65	97.81
338.878	100.81
339.106	107.81
339.334	86.81
339.562	71.81
339.79	86.81
340.018	78.81
340.246	97.81
340.474	98.81
340.702	82.81
340.93	86.81
341.158	93.81
341.386	94.81
341.614	99.81
341.842	96.81
342.07	100.81
342.298	103.81
342.526	92.81
342.754	98.81
342.981	88.81
343.209	83.81
343.437	96.81
343.665	80.81
343.893	77.81
344.12	95.81
344.348	92.81
344.576	102.81
344.804	101.81
345.031	85.81
345.259	114.81
345.487	109.81
345.714	78.81
345.942	101.81
346.17	84.81
346.397	85.81
346.625	103.81
346.853	76.81
347.08	81.81
347.308	95.81
347.535	99.81
347.763	96.81
347.99	90.81
348.218	104.81
348.445	94.81
348.673	85.81
348.9	86.81
349.128	76.81
349.355	77.81
349.583	108.81
349.81	92.81
350.037	100.81
350.265	82.81
350.492	76.81
350.72	93.81
350.947	94.81
351.174	95.81
351.402	110.81
351.629	109.81
351.856	89.81
352.083	102.81
352.311	112.81
352.538	93.81
352.765	93.81
352.992	110.81
353.22	112.81
353.447	111.81
353.674	96.81
353.901	86.81
354.128	97.81
354.355	103.81
354.583	91.81
354.81	91.81
355.037	87.81
355.264	88.81
355.491	88.81
355.718	103.81
355.945	82.81
356.172	88.81
356.399	96.81
356.626	91.81
356.853	101.81
357.08	93.81
357.307	87.81
357.534	82.81
357.761	78.81
357.988	79.81
358.215	94.81
358.441	98.81
358.668	95.81
358.895	101.81
359.122	81.81
359.349	91.81
359.576	100.81
359.802	96.81
360.029	105.81
360.256	103.81
360.483	78.81
360.709	85.81
360.936	90.81
361.163	97.81
361.39	86.81
361.616	96.81
361.843	94.81
362.07	88.81
362.296	88.81
362.523	88.81
362.749	79.81
362.976	82.81
363.203	98.81
363.429	93.81
363.656	89.81
363.882	87.81
364.109	83.81
364.335	85.81
364.562	87.81
364.788	101.81
365.015	85.81
365.241	99.81
365.468	94.81
365.694	103.81
365.92	106.81
366.147	90.81
366.373	80.81
366.599	90.81
366.826	95.81
367.052	98.81
367.278	79.81
367.505	87.81
367.731	93.81
367.957	89.81
368.184	82.81
368.41	88.81
368.636	113.81
368.862	92.81
369.089	102.81
369.315	79.81
369.541	86.81
369.767	90.81
369.993	84.81
370.219	96.81
370.445	85.81
370.672	86.81
370.898	86.81
371.124	75.81
371.35	93.81
371.576	92.81
371.802	86.81
372.028	85.81
372.254	90.81
372.48	95.81
372.706	90.81
372.932	81.81
373.158	104.81
373.384	94.81
373.61	90.81
373.835	91.81
374.061	69.81
374.287	91.81
374.513	81.81
374.739	89.81
374.965	98.81
375.191	115.81
375.416	94.81
375.642	89.81
375.868	94.81
376.094	109.81
376.319	91.81
376.545	88.81
376.771	91.81
376.997	87.81
377.222	90.81
377.448	98.81
377.674	98.81
377.899	81.81
378.125	90.81
378.35	96.81
378.576	84.81
378.802	78.81
379.027	86.81
379.253	87.81
379.478	96.81
379.704	79.81
379.929	89.81
380.155	88.81
380.38	87.81
380.606	88.81
380.831	97.81
381.057	98.81
381.282	92.81
381.507	92.81
381.733	98.81
381.958	96.81
382.184	76.81
382.409	90.81
382.634	108.81
382.86	102.81
383.085	105.81
383.31	96.81
383.535	92.81
383.761	97.81
383.986	111.81
384.211	99.81
384.436	85.81
384.662	93.81
384.887	96.81
385.112	91.81
385.337	97.81
385.562	98.81
385.787	80.81
386.013	108.81
386.238	93.81
386.463	113.81
386.688	95.81
386.913	121.81
387.138	95.81
387.363	111.81
387.588	85.81
387.813	104.81
388.038	90.81
388.263	88.81
388.488	114.81
388.713	93.81
388.938	109.81
389.163	89.81
389.387	93.81
389.612	97.81
389.837	85.81
390.062	80.81
390.287	85.81
390.512	101.81
390.736	83.81
390.961	99.81
391.186	105.81
391.411	101.81
391.636	87.81
391.86	74.81
392.085	86.81
392.31	80.81
392.534	90.81
392.759	86.81
392.984	82.81
393.208	77.81
393.433	94.81
393.658	94.81
393.882	89.81
394.107	90.81
394.331	76.81
394.556	79.81
394.78	75.81
395.005	95.81
395.229	77.81
395.454	98.81
395.678	91.81
395.903	96.81
396.127	93.81
396.352	82.81
396.576	79.81
396.801	82.81
397.025	94.81
397.249	91.81
397.474	103.81
397.698	84.81
397.922	91.81
398.147	99.81
398.371	81.81
398.595	101.81
398.82	81.81
399.044	80.81
399.268	84.81
399.492	91.81
399.717	86.81
399.941	83.81
400.165	86.81
400.389	76.81
400.613	91.81
400.837	87.81
401.062	79.81
401.286	79.81
401.51	91.81
401.734	93.81
401.958	100.81
402.182	121.81
402.406	120.81
402.63	113.81
402.854	84.81
403.078	88.81
403.302	86.81
403.526	77.81
403.75	88.81
403.974	74.81
404.198	90.81
404.422	95.81
404.645	90.81
404.869	106.81
405.093	83.81
405.317	94.81
405.541	94.81
405.765	104.81
405.988	109.81
406.212	154.81
406.436	191.81
406.66	144.81
406.883	94.81
407.107	93.81
407.331	100.81
407.555	100.81
407.778	84.81
408.002	83.81
408.226	94.81
408.449	86.81
408.673	104.81
408.896	94.81
409.12	101.81
409.344	82.81
409.567	100.81
409.791	85.81
410.014	92.81
410.238	92.81
410.461	80.81
410.685	87.81
410.908	90.81
411.132	106.81
411.355	80.81
411.578	107.81
411.802	81.81
412.025	87.81
412.249	86.81
412.472	86.81
412.695	96.81
412.919	87.81
413.142	99.81
413.365	84.81
413.589	90.81
413.812	89.81
414.035	85.81
414.258	91.81
414.482	92.81
414.705	92.81
414.928	82.81
415.151	78.81
415.374	95.81
415.597	96.81
415.821	78.81
416.044	75.81
416.267	79.81
416.49	90.81
416.713	93.81
416.936	85.81
417.159	90.81
417.382	82.81
417.605	65.81
417.828	98.81
418.051	87.81
418.274	96.81
418.497	95.81
418.72	80.81
418.943	81.81
419.166	94.81
419.389	85.81
419.611	91.81
419.834	104.81
420.057	85.81
420.28	84.81
420.503	81.81
420.726	88.81
420.948	104.81
421.171	86.81
421.394	106.81
421.617	81.81
421.839	90.81
422.062	80.81
422.285	102.81
422.507	93.81
422.73	101.81
422.953	76.81
423.175	80.81
423.398	87.81
423.621	87.81
423.843	87.81
424.066	91.81
424.288	90.81
424.511	79.81
424.733	104.81
424.956	107.81
425.178	87.81
425.401	102.81
425.623	89.81
425.846	82.81
426.068	84.81
426.291	90.81
426.513	88.81
426.735	86.81
426.958	84.81
427.18	93.81
427.402	120.81
427.625	163.81
427.847	111.81
428.069	98.81
428.292	78.81
428.514	77.81
428.736	97.81
428.958	96.81
429.181	87.81
429.403	86.81
429.625	80.81
429.847	87.81
430.069	86.81
430.292	94.81
430.514	84.81
430.736	82.81
430.958	84.81
431.18	72.81
431.402	90.81
431.624	84.81
431.846	83.81
432.068	84.81
432.29	85.81
432.512	83.81
432.734	86.81
432.956	97.81
433.178	88.81
433.4	104.81
433.622	98.81
433.844	99.81
434.066	106.81
434.287	94.81
434.509	97.81
434.731	104.81
434.953	95.81
435.175	88.81
435.397	89.81
435.618	83.81
435.84	85.81
436.062	118.81
436.284	105.81
436.505	103.81
436.727	108.81
436.949	80.81
437.17	75.81
437.392	84.81
437.614	88.81
437.835	104.81
438.057	97.81
438.278	82.81
438.5	104.81
438.721	125.81
438.943	96.81
439.165	76.81
439.386	87.81
439.608	80.81
439.829	102.81
440.05	112.81
440.272	130.81
440.493	89.81
440.715	93.81
440.936	81.81
441.158	92.81
441.379	85.81
441.6	89.81
441.822	100.81
442.043	77.81
442.264	100.81
442.486	107.81
442.707	89.81
442.928	103.81
443.149	102.81
443.371	119.81
443.592	104.81
443.813	111.81
444.034	105.81
444.255	86.81
444.476	99.81
444.698	80.81
444.919	90.81
445.14	130.81
445.361	119.81
445.582	99.81
445.803	125.81
446.024	139.81
446.245	138.81
446.466	107.81
446.687	71.81
446.908	96.81
447.129	87.81
447.35	97.81
447.571	95.81
447.792	91.81
448.013	100.81
448.234	98.81
448.455	102.81
448.675	89.81
448.896	115.81
449.117	105.81
449.338	107.81
449.559	114.81
449.779	120.81
450	94.81
450.221	82.81
450.442	88.81
450.662	79.81
450.883	106.81
451.104	104.81
451.324	92.81
451.545	79.81
451.766	83.81
451.986	78.81
452.207	86.81
452.428	91.81
452.648	101.81
452.869	101.81
453.089	114.81
453.31	115.81
453.53	97.81
453.751	91.81
453.971	96.81
454.192	94.81
454.412	93.81
454.633	95.81
454.853	81.81
455.073	81.81
455.294	82.81
455.514	96.81
455.734	85.81
455.955	74.81
456.175	94.81
456.395	90.81
456.616	75.81
456.836	73.81
457.056	90.81
457.276	71.81
457.497	95.81
457.717	96.81
457.937	85.81
458.157	88.81
458.377	110.81
458.598	82.81
458.818	131.81
459.038	125.81
459.258	103.81
459.478	86.81
459.698	92.81
459.918	88.81
460.138	90.81
460.358	82.81
460.578	92.81
460.798	93.81
461.018	84.81
461.238	79.81
461.458	88.81
461.678	96.81
461.898	85.81
462.118	67.81
462.338	81.81
462.558	77.81
462.777	83.81
462.997	77.81
463.217	85.81
463.437	86.81
463.657	97.81
463.876	92.81
464.096	79.81
464.316	98.81
464.536	97.81
464.755	90.81
464.975	95.81
465.195	132.81
465.414	125.81
465.634	101.81
465.854	81.81
466.073	86.81
466.293	97.81
466.512	87.81
466.732	101.81
466.951	84.81
467.171	98.81
467.391	88.81
467.61	96.81
467.829	92.81
468.049	86.81
468.268	99.81
468.488	82.81
468.707	84.81
468.927	92.81
469.146	90.81
469.365	82.81
469.585	85.81
469.804	83.81
470.023	90.81
470.243	99.81
470.462	100.81
470.681	87.81
470.901	94.81
471.12	83.81
471.339	90.81
471.558	76.81
471.777	66.81
471.997	94.81
472.216	97.81
472.435	85.81
472.654	88.81
472.873	93.81
473.092	100.81
473.311	92.81
473.53	76.81
473.749	76.81
473.968	81.81
474.187	102.81
474.406	104.81
474.625	98.81
474.844	87.81
475.063	90.81
475.282	87.81
475.501	91.81
475.72	86.81
475.939	86.81
476.158	91.81
476.377	89.81
476.596	81.81
476.814	98.81
477.033	92.81
477.252	72.81
477.471	93.81
477.69	86.81
477.908	84.81
478.127	88.81
478.346	88.81
478.564	88.81
478.783	93.81
479.002	78.81
479.22	95.81
479.439	88.81
479.658	96.81
479.876	100.81
480.095	76.81
480.313	90.81
480.532	88.81
480.751	86.81
480.969	94.81
481.188	93.81
481.406	98.81
481.624	96.81
481.843	92.81
482.061	81.81
482.28	82.81
482.498	85.81
482.717	96.81
482.935	112.81
483.153	103.81
483.372	78.81
483.59	85.81
483.808	78.81
484.027	93.81
484.245	92.81
484.463	94.81
484.681	86.81
484.9	84.81
485.118	103.81
485.336	95.81
485.554	93.81
485.772	97.81
485.99	103.81
486.209	112.81
486.427	102.81
486.645	97.81
486.863	111.81
487.081	84.81
487.299	88.81
487.517	96.81
487.735	94.81
487.953	104.81
488.171	94.81
488.389	94.81
488.607	90.81
488.825	91.81
489.043	94.81
489.261	96.81
489.479	102.81
489.696	80.81
489.914	88.81
490.132	93.81
490.35	84.81
490.568	94.81
490.786	95.81
491.003	87.81
491.221	81.81
491.439	99.81
491.657	93.81
491.874	72.81
492.092	102.81
492.31	95.81
492.527	82.81
492.745	97.81
492.963	98.81
493.18	94.81
493.398	94.81
493.615	116.81
493.833	102.81
494.05	99.81
494.268	94.81
494.485	95.81
494.703	88.81
494.92	89.81
495.138	101.81
495.355	100.81
495.573	90.81
495.79	81.81
496.008	96.81
496.225	98.81
496.442	84.81
496.66	92.81
496.877	91.81
497.094	108.81
497.312	91.81
497.529	81.81
497.746	87.81
497.963	91.81
498.181	104.81
498.398	97.81
498.615	114.81
498.832	88.81
499.049	77.81
499.267	86.81
499.484	83.81
499.701	91.81
499.918	88.81
500.135	85.81
500.352	78.81
500.569	94.81
500.786	88.81
501.003	101.81
501.22	93.81
501.437	97.81
501.654	91.81
501.871	104.81
502.088	92.81
502.305	85.81
502.522	82.81
502.739	94.81
502.956	84.81
503.172	91.81
503.389	99.81
503.606	93.81
503.823	82.81
504.04	85.81
504.256	84.81
504.473	81.81
504.69	83.81
504.907	87.81
505.123	102.81
505.34	92.81
505.557	89.81
505.773	83.81
505.99	89.81
506.207	82.81
506.423	97.81
506.64	96.81
506.856	107.81
507.073	94.81
507.289	80.81
507.506	91.81
507.722	93.81
507.939	105.81
508.155	78.81
508.372	87.81
508.588	85.81
508.805	85.81
509.021	93.81
509.238	93.81
509.454	101.81
509.67	89.81
509.887	117.81
510.103	117.81
510.319	205.81
510.536	680.81
510.752	2087.81
510.968	584.81
511.184	141.81
511.401	110.81
511.617	101.81
511.833	95.81
512.049	95.81
512.265	85.81
512.481	89.81
512.698	98.81
512.914	89.81
513.13	93.81
513.346	92.81
513.562	104.81
513.778	83.81
513.994	103.81
514.21	102.81
514.426	104.81
514.642	125.81
514.858	114.81
515.074	142.81
515.29	363.81
515.506	1198.81
515.721	448.81
515.937	144.81
516.153	107.81
516.369	88.81
