Data from Uncirc_1990_H10_HRD10591_00021.txt Node
Date: Wed Jan 03 11:53:55 EST 2024
User: Yrep
Spectrometer: HR+D1059
Trigger mode: 1
Integration Time (sec): 1.000000E-1
Scans to average: 1
Electric dark correction enabled: true
Nonlinearity correction enabled: false
Boxcar width: 0
XAxis mode: Wavelengths
Number of Pixels in Spectrum: 2048
>>>>>Begin Spectral Data<<<<<
223.165	-17.25
223.4	-17.25
223.635	-17.25
223.869	-26.25
224.104	-21.25
224.338	-5.25
224.573	-20.25
224.808	-7.25
225.042	-1.25
225.277	-7.25
225.511	2.75
225.746	2.75
225.98	-1.25
226.215	-11.25
226.449	13.75
226.683	23.75
226.918	27.75
227.152	47.75
227.387	37.75
227.621	27.75
227.856	41.75
228.09	45.75
228.324	62.75
228.559	51.75
228.793	63.75
229.027	55.75
229.262	63.75
229.496	67.75
229.73	77.75
229.964	75.75
230.199	71.75
230.433	83.75
230.667	72.75
230.901	78.75
231.136	65.75
231.37	70.75
231.604	60.75
231.838	77.75
232.072	82.75
232.306	73.75
232.541	77.75
232.775	70.75
233.009	71.75
233.243	83.75
233.477	63.75
233.711	80.75
233.945	84.75
234.179	85.75
234.413	90.75
234.647	77.75
234.881	77.75
235.115	70.75
235.349	79.75
235.583	70.75
235.817	70.75
236.051	77.75
236.285	68.75
236.519	73.75
236.753	83.75
236.987	79.75
237.221	72.75
237.455	84.75
237.689	71.75
237.922	66.75
238.156	80.75
238.39	93.75
238.624	90.75
238.858	84.75
239.091	66.75
239.325	76.75
239.559	84.75
239.793	77.75
240.027	90.75
240.26	68.75
240.494	85.75
240.728	68.75
240.961	70.75
241.195	74.75
241.429	91.75
241.662	75.75
241.896	70.75
242.13	75.75
242.363	78.75
242.597	76.75
242.83	78.75
243.064	82.75
243.298	66.75
243.531	77.75
243.765	85.75
243.998	72.75
244.232	81.75
244.465	77.75
244.699	75.75
244.932	83.75
245.166	78.75
245.399	60.75
245.633	77.75
245.866	67.75
246.099	62.75
246.333	77.75
246.566	74.75
246.8	86.75
247.033	79.75
247.266	77.75
247.5	90.75
247.733	81.75
247.966	85.75
248.2	73.75
248.433	85.75
248.666	89.75
248.899	73.75
249.133	63.75
249.366	80.75
249.599	102.75
249.832	77.75
250.066	80.75
250.299	70.75
250.532	66.75
250.765	77.75
250.998	89.75
251.231	97.75
251.465	88.75
251.698	70.75
251.931	83.75
252.164	74.75
252.397	78.75
252.63	97.75
252.863	87.75
253.096	66.75
253.329	81.75
253.562	81.75
253.795	76.75
254.028	79.75
254.261	87.75
254.494	89.75
254.727	75.75
254.96	61.75
255.193	83.75
255.426	88.75
255.659	75.75
255.892	74.75
256.124	80.75
256.357	87.75
256.59	70.75
256.823	82.75
257.056	78.75
257.289	89.75
257.521	75.75
257.754	65.75
257.987	81.75
258.22	87.75
258.452	69.75
258.685	66.75
258.918	88.75
259.151	87.75
259.383	71.75
259.616	78.75
259.849	78.75
260.081	90.75
260.314	74.75
260.547	96.75
260.779	79.75
261.012	81.75
261.244	80.75
261.477	87.75
261.71	87.75
261.942	96.75
262.175	99.75
262.407	73.75
262.64	81.75
262.872	77.75
263.105	87.75
263.337	105.75
263.57	91.75
263.802	72.75
264.035	78.75
264.267	75.75
264.499	64.75
264.732	74.75
264.964	79.75
265.197	75.75
265.429	77.75
265.661	86.75
265.894	77.75
266.126	93.75
266.358	73.75
266.591	90.75
266.823	89.75
267.055	77.75
267.287	76.75
267.52	82.75
267.752	78.75
267.984	91.75
268.216	75.75
268.448	82.75
268.681	77.75
268.913	89.75
269.145	87.75
269.377	80.75
269.609	89.75
269.841	78.75
270.073	78.75
270.306	77.75
270.538	83.75
270.77	77.75
271.002	82.75
271.234	92.75
271.466	80.75
271.698	77.75
271.93	81.75
272.162	78.75
272.394	77.75
272.626	80.75
272.858	82.75
273.09	95.75
273.322	94.75
273.553	90.75
273.785	89.75
274.017	80.75
274.249	77.75
274.481	83.75
274.713	90.75
274.945	80.75
275.176	81.75
275.408	86.75
275.64	76.75
275.872	90.75
276.104	79.75
276.335	66.75
276.567	97.75
276.799	97.75
277.031	82.75
277.262	81.75
277.494	73.75
277.726	90.75
277.957	83.75
278.189	91.75
278.421	79.75
278.652	90.75
278.884	83.75
279.115	83.75
279.347	73.75
279.579	85.75
279.81	77.75
280.042	80.75
280.273	83.75
280.505	93.75
280.736	78.75
280.968	75.75
281.199	83.75
281.431	89.75
281.662	75.75
281.894	97.75
282.125	111.75
282.356	109.75
282.588	111.75
282.819	97.75
283.051	81.75
283.282	84.75
283.513	87.75
283.745	90.75
283.976	92.75
284.207	66.75
284.439	86.75
284.67	94.75
284.901	91.75
285.132	82.75
285.364	77.75
285.595	83.75
285.826	103.75
286.057	93.75
286.288	89.75
286.52	75.75
286.751	90.75
286.982	89.75
287.213	95.75
287.444	91.75
287.675	76.75
287.906	87.75
288.138	75.75
288.369	93.75
288.6	86.75
288.831	94.75
289.062	93.75
289.293	85.75
289.524	78.75
289.755	93.75
289.986	87.75
290.217	99.75
290.448	79.75
290.679	75.75
290.91	72.75
291.141	82.75
291.371	70.75
291.602	77.75
291.833	70.75
292.064	82.75
292.295	95.75
292.526	73.75
292.757	91.75
292.987	90.75
293.218	83.75
293.449	78.75
293.68	91.75
293.91	96.75
294.141	85.75
294.372	83.75
294.603	90.75
294.833	83.75
295.064	98.75
295.295	89.75
295.525	91.75
295.756	97.75
295.987	107.75
296.217	129.75
296.448	123.75
296.679	92.75
296.909	77.75
297.14	77.75
297.37	86.75
297.601	81.75
297.831	89.75
298.062	86.75
298.292	94.75
298.523	86.75
298.753	76.75
298.984	94.75
299.214	92.75
299.445	92.75
299.675	92.75
299.905	108.75
300.136	82.75
300.366	75.75
300.597	80.75
300.827	100.75
301.057	77.75
301.288	101.75
301.518	94.75
301.748	78.75
301.979	97.75
302.209	77.75
302.439	82.75
302.669	101.75
302.9	89.75
303.13	83.75
303.36	86.75
303.59	110.75
303.82	93.75
304.051	103.75
304.281	112.75
304.511	94.75
304.741	87.75
304.971	91.75
305.201	77.75
305.431	96.75
305.661	92.75
305.891	89.75
306.121	82.75
306.352	86.75
306.582	102.75
306.812	95.75
307.042	93.75
307.272	102.75
307.502	81.75
307.731	88.75
307.961	102.75
308.191	77.75
308.421	90.75
308.651	94.75
308.881	80.75
309.111	78.75
309.341	110.75
309.571	85.75
309.8	93.75
310.03	100.75
310.26	98.75
310.49	95.75
310.72	81.75
310.949	101.75
311.179	103.75
311.409	109.75
311.639	93.75
311.868	103.75
312.098	99.75
312.328	93.75
312.557	99.75
312.787	99.75
313.017	102.75
313.246	87.75
313.476	97.75
313.706	89.75
313.935	89.75
314.165	86.75
314.394	97.75
314.624	93.75
314.853	89.75
315.083	82.75
315.312	90.75
315.542	91.75
315.771	94.75
316.001	91.75
316.23	90.75
316.46	91.75
316.689	104.75
316.919	91.75
317.148	86.75
317.377	87.75
317.607	97.75
317.836	93.75
318.065	102.75
318.295	74.75
318.524	91.75
318.753	90.75
318.983	101.75
319.212	92.75
319.441	108.75
319.67	95.75
319.9	111.75
320.129	98.75
320.358	100.75
320.587	96.75
320.816	99.75
321.046	98.75
321.275	91.75
321.504	89.75
321.733	103.75
321.962	93.75
322.191	78.75
322.42	95.75
322.649	99.75
322.878	99.75
323.108	103.75
323.337	113.75
323.566	112.75
323.795	140.75
324.024	181.75
324.253	321.75
324.482	717.75
324.71	1439.75
324.939	1938.75
325.168	706.75
325.397	205.75
325.626	118.75
325.855	113.75
326.084	125.75
326.313	124.75
326.542	148.75
326.77	223.75
326.999	400.75
327.228	839.75
327.457	1547.75
327.686	1223.75
327.914	329.75
328.143	164.75
328.372	125.75
328.6	126.75
328.829	112.75
329.058	117.75
329.287	122.75
329.515	98.75
329.744	93.75
329.972	92.75
330.201	88.75
330.43	101.75
330.658	109.75
330.887	109.75
331.115	117.75
331.344	106.75
331.572	92.75
331.801	101.75
332.03	92.75
332.258	93.75
332.486	86.75
332.715	97.75
332.943	99.75
333.172	102.75
333.4	80.75
333.629	102.75
333.857	114.75
334.085	88.75
334.314	104.75
334.542	110.75
334.771	94.75
334.999	94.75
335.227	83.75
335.455	101.75
335.684	90.75
335.912	101.75
336.14	102.75
336.369	84.75
336.597	91.75
336.825	90.75
337.053	89.75
337.281	90.75
337.51	86.75
337.738	106.75
337.966	96.75
338.194	96.75
338.422	94.75
338.65	92.75
338.878	90.75
339.106	86.75
339.334	98.75
339.562	88.75
339.79	86.75
340.018	79.75
340.246	82.75
340.474	104.75
340.702	93.75
340.93	82.75
341.158	88.75
341.386	94.75
341.614	89.75
341.842	92.75
342.07	101.75
342.298	81.75
342.526	94.75
342.754	99.75
342.981	99.75
343.209	83.75
343.437	103.75
343.665	102.75
343.893	99.75
344.12	86.75
344.348	83.75
344.576	90.75
344.804	93.75
345.031	83.75
345.259	92.75
345.487	93.75
345.714	90.75
345.942	85.75
346.17	82.75
346.397	84.75
346.625	99.75
346.853	84.75
347.08	82.75
347.308	101.75
347.535	67.75
347.763	96.75
347.99	96.75
348.218	94.75
348.445	85.75
348.673	85.75
348.9	94.75
349.128	92.75
349.355	103.75
349.583	91.75
349.81	95.75
350.037	99.75
350.265	93.75
350.492	96.75
350.72	96.75
350.947	75.75
351.174	90.75
351.402	102.75
351.629	97.75
351.856	91.75
352.083	101.75
352.311	99.75
352.538	109.75
352.765	107.75
352.992	93.75
353.22	111.75
353.447	91.75
353.674	95.75
353.901	84.75
354.128	101.75
354.355	91.75
354.583	94.75
354.81	105.75
355.037	101.75
355.264	97.75
355.491	91.75
355.718	110.75
355.945	99.75
356.172	97.75
356.399	99.75
356.626	93.75
356.853	97.75
357.08	94.75
357.307	99.75
357.534	96.75
357.761	99.75
357.988	92.75
358.215	86.75
358.441	91.75
358.668	85.75
358.895	81.75
359.122	91.75
359.349	90.75
359.576	97.75
359.802	90.75
360.029	102.75
360.256	110.75
360.483	90.75
360.709	81.75
360.936	92.75
361.163	107.75
361.39	91.75
361.616	87.75
361.843	93.75
362.07	81.75
362.296	89.75
362.523	86.75
362.749	103.75
362.976	76.75
363.203	83.75
363.429	79.75
363.656	91.75
363.882	89.75
364.109	90.75
364.335	82.75
364.562	81.75
364.788	83.75
365.015	83.75
365.241	83.75
365.468	96.75
365.694	83.75
365.92	100.75
366.147	104.75
366.373	99.75
366.599	106.75
366.826	81.75
367.052	86.75
367.278	92.75
367.505	69.75
367.731	77.75
367.957	85.75
368.184	91.75
368.41	97.75
368.636	88.75
368.862	99.75
369.089	91.75
369.315	87.75
369.541	89.75
369.767	83.75
369.993	82.75
370.219	95.75
370.445	85.75
370.672	77.75
370.898	75.75
371.124	95.75
371.35	84.75
371.576	88.75
371.802	82.75
372.028	96.75
372.254	80.75
372.48	93.75
372.706	85.75
372.932	86.75
373.158	86.75
373.384	89.75
373.61	93.75
373.835	99.75
374.061	97.75
374.287	95.75
374.513	86.75
374.739	85.75
374.965	83.75
375.191	97.75
375.416	84.75
375.642	90.75
375.868	86.75
376.094	78.75
376.319	92.75
376.545	93.75
376.771	84.75
376.997	93.75
377.222	81.75
377.448	83.75
377.674	85.75
377.899	86.75
378.125	89.75
378.35	93.75
378.576	89.75
378.802	94.75
379.027	93.75
379.253	80.75
379.478	88.75
379.704	83.75
379.929	87.75
380.155	82.75
380.38	89.75
380.606	89.75
380.831	89.75
381.057	106.75
381.282	77.75
381.507	92.75
381.733	101.75
381.958	96.75
382.184	98.75
382.409	104.75
382.634	90.75
382.86	83.75
383.085	89.75
383.31	87.75
383.535	102.75
383.761	100.75
383.986	94.75
384.211	90.75
384.436	65.75
384.662	100.75
384.887	83.75
385.112	113.75
385.337	98.75
385.562	89.75
385.787	98.75
386.013	90.75
386.238	99.75
386.463	110.75
386.688	113.75
386.913	96.75
387.138	109.75
387.363	97.75
387.588	97.75
387.813	106.75
388.038	102.75
388.263	93.75
388.488	116.75
388.713	99.75
388.938	87.75
389.163	96.75
389.387	99.75
389.612	93.75
389.837	90.75
390.062	77.75
390.287	86.75
390.512	90.75
390.736	88.75
390.961	66.75
391.186	106.75
391.411	82.75
391.636	84.75
391.86	84.75
392.085	80.75
392.31	77.75
392.534	75.75
392.759	88.75
392.984	85.75
393.208	82.75
393.433	83.75
393.658	94.75
393.882	78.75
394.107	78.75
394.331	69.75
394.556	88.75
394.78	91.75
395.005	91.75
395.229	89.75
395.454	76.75
395.678	75.75
395.903	89.75
396.127	91.75
396.352	87.75
396.576	78.75
396.801	93.75
397.025	88.75
397.249	86.75
397.474	95.75
397.698	87.75
397.922	96.75
398.147	89.75
398.371	77.75
398.595	79.75
398.82	83.75
399.044	91.75
399.268	81.75
399.492	85.75
399.717	99.75
399.941	94.75
400.165	79.75
400.389	95.75
400.613	86.75
400.837	74.75
401.062	69.75
401.286	85.75
401.51	97.75
401.734	79.75
401.958	86.75
402.182	126.75
402.406	128.75
402.63	101.75
402.854	89.75
403.078	99.75
403.302	84.75
403.526	83.75
403.75	91.75
403.974	96.75
404.198	94.75
404.422	90.75
404.645	73.75
404.869	80.75
405.093	84.75
405.317	84.75
405.541	84.75
405.765	89.75
405.988	109.75
406.212	147.75
406.436	178.75
406.66	105.75
406.883	95.75
407.107	92.75
407.331	91.75
407.555	98.75
407.778	91.75
408.002	89.75
408.226	93.75
408.449	99.75
408.673	80.75
408.896	67.75
409.12	91.75
409.344	84.75
409.567	95.75
409.791	87.75
410.014	89.75
410.238	100.75
410.461	97.75
410.685	91.75
410.908	101.75
411.132	94.75
411.355	94.75
411.578	78.75
411.802	80.75
412.025	94.75
412.249	96.75
412.472	103.75
412.695	85.75
412.919	80.75
413.142	75.75
413.365	90.75
413.589	92.75
413.812	77.75
414.035	76.75
414.258	93.75
414.482	90.75
414.705	86.75
414.928	91.75
415.151	80.75
415.374	85.75
415.597	90.75
415.821	97.75
416.044	100.75
416.267	94.75
416.49	91.75
416.713	71.75
416.936	90.75
417.159	86.75
417.382	92.75
417.605	94.75
417.828	86.75
418.051	69.75
418.274	98.75
418.497	99.75
418.72	85.75
418.943	77.75
419.166	88.75
419.389	74.75
419.611	88.75
419.834	87.75
420.057	89.75
420.28	91.75
420.503	78.75
420.726	83.75
420.948	86.75
421.171	93.75
421.394	91.75
421.617	85.75
421.839	85.75
422.062	98.75
422.285	83.75
422.507	87.75
422.73	98.75
422.953	87.75
423.175	80.75
423.398	101.75
423.621	87.75
423.843	85.75
424.066	76.75
424.288	90.75
424.511	82.75
424.733	90.75
424.956	100.75
425.178	91.75
425.401	100.75
425.623	102.75
425.846	94.75
426.068	104.75
426.291	92.75
426.513	79.75
426.735	72.75
426.958	79.75
427.18	103.75
427.402	128.75
427.625	127.75
427.847	121.75
428.069	103.75
428.292	89.75
428.514	79.75
428.736	86.75
428.958	81.75
429.181	83.75
429.403	78.75
429.625	96.75
429.847	94.75
430.069	97.75
430.292	99.75
430.514	90.75
430.736	96.75
430.958	88.75
431.18	86.75
431.402	100.75
431.624	77.75
431.846	82.75
432.068	80.75
432.29	93.75
432.512	83.75
432.734	96.75
432.956	103.75
433.178	106.75
433.4	87.75
433.622	88.75
433.844	93.75
434.066	94.75
434.287	85.75
434.509	80.75
434.731	70.75
434.953	89.75
435.175	93.75
435.397	95.75
435.618	88.75
435.84	106.75
436.062	104.75
436.284	101.75
436.505	96.75
436.727	102.75
436.949	87.75
437.17	88.75
437.392	95.75
437.614	104.75
437.835	97.75
438.057	120.75
438.278	90.75
438.5	95.75
438.721	128.75
438.943	106.75
439.165	89.75
439.386	86.75
439.608	86.75
439.829	79.75
440.05	98.75
440.272	118.75
440.493	110.75
440.715	87.75
440.936	77.75
441.158	77.75
441.379	82.75
441.6	88.75
441.822	97.75
442.043	89.75
442.264	90.75
442.486	111.75
442.707	83.75
442.928	91.75
443.149	114.75
443.371	109.75
443.592	98.75
443.813	93.75
444.034	97.75
444.255	89.75
444.476	99.75
444.698	101.75
444.919	80.75
445.14	123.75
445.361	117.75
445.582	94.75
445.803	113.75
446.024	120.75
446.245	113.75
446.466	102.75
446.687	92.75
446.908	95.75
447.129	73.75
447.35	77.75
447.571	84.75
447.792	95.75
448.013	83.75
448.234	100.75
448.455	93.75
448.675	91.75
448.896	114.75
449.117	101.75
449.338	97.75
449.559	109.75
449.779	133.75
450	95.75
450.221	84.75
450.442	95.75
450.662	83.75
450.883	101.75
451.104	84.75
451.324	89.75
451.545	80.75
451.766	88.75
451.986	67.75
452.207	77.75
452.428	89.75
452.648	94.75
452.869	95.75
453.089	101.75
453.31	105.75
453.53	92.75
453.751	80.75
453.971	93.75
454.192	107.75
454.412	79.75
454.633	79.75
454.853	87.75
455.073	93.75
455.294	91.75
455.514	90.75
455.734	90.75
455.955	84.75
456.175	95.75
456.395	87.75
456.616	91.75
456.836	81.75
457.056	89.75
457.276	77.75
457.497	83.75
457.717	82.75
457.937	91.75
458.157	76.75
458.377	95.75
458.598	100.75
458.818	127.75
459.038	141.75
459.258	114.75
459.478	95.75
459.698	94.75
459.918	89.75
460.138	78.75
460.358	86.75
460.578	73.75
460.798	83.75
461.018	89.75
461.238	80.75
461.458	83.75
461.678	78.75
461.898	89.75
462.118	86.75
462.338	82.75
462.558	86.75
462.777	94.75
462.997	87.75
463.217	84.75
463.437	85.75
463.657	99.75
463.876	82.75
464.096	86.75
464.316	80.75
464.536	82.75
464.755	82.75
464.975	87.75
465.195	142.75
465.414	132.75
465.634	77.75
465.854	91.75
466.073	81.75
466.293	94.75
466.512	82.75
466.732	88.75
466.951	70.75
467.171	81.75
467.391	85.75
467.61	84.75
467.829	95.75
468.049	97.75
468.268	88.75
468.488	83.75
468.707	84.75
468.927	71.75
469.146	85.75
469.365	94.75
469.585	80.75
469.804	86.75
470.023	97.75
470.243	85.75
470.462	77.75
470.681	97.75
470.901	91.75
471.12	102.75
471.339	93.75
471.558	96.75
471.777	89.75
471.997	84.75
472.216	73.75
472.435	86.75
472.654	79.75
472.873	86.75
473.092	84.75
473.311	89.75
473.53	85.75
473.749	92.75
473.968	91.75
474.187	95.75
474.406	87.75
474.625	82.75
474.844	74.75
475.063	89.75
475.282	85.75
475.501	78.75
475.72	77.75
475.939	79.75
476.158	85.75
476.377	83.75
476.596	76.75
476.814	104.75
477.033	75.75
477.252	87.75
477.471	86.75
477.69	80.75
477.908	90.75
478.127	89.75
478.346	80.75
478.564	76.75
478.783	87.75
479.002	87.75
479.22	101.75
479.439	99.75
479.658	95.75
479.876	75.75
480.095	75.75
480.313	83.75
480.532	90.75
480.751	83.75
480.969	96.75
481.188	108.75
481.406	96.75
481.624	109.75
481.843	76.75
482.061	85.75
482.28	90.75
482.498	85.75
482.717	94.75
482.935	96.75
483.153	81.75
483.372	76.75
483.59	93.75
483.808	86.75
484.027	97.75
484.245	94.75
484.463	88.75
484.681	96.75
484.9	84.75
485.118	84.75
485.336	105.75
485.554	93.75
485.772	104.75
485.99	89.75
486.209	102.75
486.427	94.75
486.645	109.75
486.863	94.75
487.081	95.75
487.299	102.75
487.517	96.75
487.735	77.75
487.953	87.75
488.171	99.75
488.389	91.75
488.607	103.75
488.825	84.75
489.043	89.75
489.261	92.75
489.479	84.75
489.696	90.75
489.914	84.75
490.132	75.75
490.35	84.75
490.568	89.75
490.786	88.75
491.003	97.75
491.221	86.75
491.439	77.75
491.657	103.75
491.874	83.75
492.092	107.75
492.31	105.75
492.527	76.75
492.745	93.75
492.963	99.75
493.18	93.75
493.398	93.75
493.615	91.75
493.833	89.75
494.05	81.75
494.268	94.75
494.485	99.75
494.703	93.75
494.92	107.75
495.138	87.75
495.355	95.75
495.573	93.75
495.79	77.75
496.008	95.75
496.225	88.75
496.442	79.75
496.66	86.75
496.877	95.75
497.094	87.75
497.312	85.75
497.529	92.75
497.746	100.75
497.963	90.75
498.181	91.75
498.398	110.75
498.615	113.75
498.832	96.75
499.049	85.75
499.267	86.75
499.484	87.75
499.701	78.75
499.918	96.75
500.135	87.75
500.352	96.75
500.569	88.75
500.786	102.75
501.003	83.75
501.22	88.75
501.437	98.75
501.654	84.75
501.871	97.75
502.088	90.75
502.305	106.75
502.522	92.75
502.739	94.75
502.956	91.75
503.172	82.75
503.389	86.75
503.606	101.75
503.823	91.75
504.04	98.75
504.256	101.75
504.473	84.75
504.69	81.75
504.907	77.75
505.123	76.75
505.34	96.75
505.557	97.75
505.773	97.75
505.99	79.75
506.207	87.75
506.423	90.75
506.64	105.75
506.856	89.75
507.073	75.75
507.289	86.75
507.506	91.75
507.722	101.75
507.939	87.75
508.155	86.75
508.372	86.75
508.588	92.75
508.805	97.75
509.021	97.75
509.238	100.75
509.454	103.75
509.67	92.75
509.887	97.75
510.103	112.75
510.319	196.75
510.536	679.75
510.752	1963.75
510.968	546.75
511.184	149.75
511.401	102.75
511.617	111.75
511.833	87.75
512.049	89.75
512.265	98.75
512.481	89.75
512.698	92.75
512.914	95.75
513.13	78.75
513.346	87.75
513.562	79.75
513.778	93.75
513.994	93.75
514.21	100.75
514.426	100.75
514.642	108.75
514.858	96.75
515.074	144.75
515.29	373.75
515.506	1100.75
515.721	414.75
515.937	107.75
516.153	103.75
516.369	108.75
516.585	90.75
516.801	87.75
517.016	100.75
