Data from Uncirc_1990_H10_HRD10591_00047.txt Node
Date: Wed Jan 03 11:54:01 EST 2024
User: Yrep
Spectrometer: HR+D1059
Trigger mode: 1
Integration Time (sec): 1.000000E-1
Scans to average: 1
Electric dark correction enabled: true
Nonlinearity correction enabled: false
Boxcar width: 0
XAxis mode: Wavelengths
Number of Pixels in Spectrum: 2048
>>>>>Begin Spectral Data<<<<<
223.165	-16.81
223.4	-16.81
223.635	-16.81
223.869	-16.81
224.104	-25.81
224.338	-11.81
224.573	-6.81
224.808	-21.81
225.042	1.19
225.277	-9.81
225.511	-14.81
225.746	8.19
225.98	0.19
226.215	21.19
226.449	23.19
226.683	16.19
226.918	32.19
227.152	22.19
227.387	29.19
227.621	45.19
227.856	36.19
228.09	37.19
228.324	42.19
228.559	63.19
228.793	156.19
229.027	442.19
229.262	533.19
229.496	578.19
229.73	793.19
229.964	802.19
230.199	548.19
230.433	462.19
230.667	481.19
230.901	457.19
231.136	434.19
231.37	431.19
231.604	468.19
231.838	468.19
232.072	465.19
232.306	454.19
232.541	472.19
232.775	486.19
233.009	477.19
233.243	465.19
233.477	502.19
233.711	484.19
233.945	502.19
234.179	532.19
234.413	500.19
234.647	508.19
234.881	507.19
235.115	506.19
235.349	560.19
235.583	550.19
235.817	577.19
236.051	632.19
236.285	588.19
236.519	610.19
236.753	692.19
236.987	880.19
237.221	1334.19
237.455	1462.19
237.689	896.19
237.922	724.19
238.156	705.19
238.39	668.19
238.624	666.19
238.858	649.19
239.091	654.19
239.325	665.19
239.559	692.19
239.793	717.19
240.027	777.19
240.26	923.19
240.494	952.19
240.728	941.19
240.961	890.19
241.195	835.19
241.429	808.19
241.662	776.19
241.896	804.19
242.13	803.19
242.363	765.19
242.597	826.19
242.83	834.19
243.064	788.19
243.298	836.19
243.531	833.19
243.765	850.19
243.998	832.19
244.232	884.19
244.465	923.19
244.699	904.19
244.932	914.19
245.166	916.19
245.399	933.19
245.633	887.19
245.866	915.19
246.099	948.19
246.333	942.19
246.566	953.19
246.8	970.19
247.033	1025.19
247.266	1053.19
247.5	1083.19
247.733	1144.19
247.966	1172.19
248.2	1132.19
248.433	1164.19
248.666	1203.19
248.899	1351.19
249.133	1442.19
249.366	1439.19
249.599	1296.19
249.832	1212.19
250.066	1210.19
250.299	1245.19
250.532	1309.19
250.765	1550.19
250.998	1674.19
251.231	1644.19
251.465	1501.19
251.698	1432.19
251.931	1437.19
252.164	1424.19
252.397	1430.19
252.63	1464.19
252.863	1571.19
253.096	1677.19
253.329	1767.19
253.562	1654.19
253.795	1592.19
254.028	1584.19
254.261	1622.19
254.494	1846.19
254.727	2122.19
254.96	2193.19
255.193	1949.19
255.426	1723.19
255.659	1659.19
255.892	1596.19
256.124	1537.19
256.357	1564.19
256.59	1538.19
256.823	1531.19
257.056	1537.19
257.289	1538.19
257.521	1546.19
257.754	1548.19
257.987	1526.19
258.22	1528.19
258.452	1550.19
258.685	1596.19
258.918	1565.19
259.151	1618.19
259.383	1702.19
259.616	1709.19
259.849	1748.19
260.081	1894.19
260.314	2065.19
260.547	1985.19
260.779	1870.19
261.012	1771.19
261.244	1773.19
261.477	1729.19
261.71	1650.19
261.942	1776.19
262.175	1763.19
262.407	1738.19
262.64	1646.19
262.872	1647.19
263.105	1638.19
263.337	1662.19
263.57	1646.19
263.802	1674.19
264.035	1680.19
264.267	1692.19
264.499	1676.19
264.732	1719.19
264.964	1718.19
265.197	1750.19
265.429	1765.19
265.661	1765.19
265.894	1742.19
266.126	1736.19
266.358	1785.19
266.591	1803.19
266.823	1847.19
267.055	1900.19
267.287	1860.19
267.52	1837.19
267.752	1852.19
267.984	1860.19
268.216	1880.19
268.448	1957.19
268.681	2013.19
268.913	2124.19
269.145	2316.19
269.377	2417.19
269.609	2279.19
269.841	2249.19
270.073	2415.19
270.306	2656.19
270.538	2833.19
270.77	2641.19
271.002	2524.19
271.234	2474.19
271.466	2616.19
271.698	2734.19
271.93	2754.19
272.162	2750.19
272.394	2658.19
272.626	2526.19
272.858	2407.19
273.09	2318.19
273.322	2254.19
273.553	2227.19
273.785	2258.19
274.017	2263.19
274.249	2288.19
274.481	2266.19
274.713	2255.19
274.945	2322.19
275.176	2266.19
275.408	2280.19
275.64	2229.19
275.872	2292.19
276.104	2299.19
276.335	2331.19
276.567	2407.19
276.799	2514.19
277.031	2736.19
277.262	2838.19
277.494	2757.19
277.726	2600.19
277.957	2518.19
278.189	2451.19
278.421	2397.19
278.652	2380.19
278.884	2385.19
279.115	2318.19
279.347	2365.19
279.579	2372.19
279.81	2353.19
280.042	2365.19
280.273	2390.19
280.505	2371.19
280.736	2429.19
280.968	2433.19
281.199	2425.19
281.431	2457.19
281.662	2489.19
281.894	2441.19
282.125	2526.19
282.356	2653.19
282.588	2769.19
282.819	2630.19
283.051	2520.19
283.282	2501.19
283.513	2600.19
283.745	2592.19
283.976	2660.19
284.207	2644.19
284.439	2608.19
284.67	2645.19
284.901	2619.19
285.132	2645.19
285.364	2622.19
285.595	2666.19
285.826	2633.19
286.057	2669.19
286.288	2645.19
286.52	2692.19
286.751	2682.19
286.982	2716.19
287.213	2708.19
287.444	2740.19
287.675	2873.19
287.906	2907.19
288.138	2941.19
288.369	2897.19
288.6	2885.19
288.831	2859.19
289.062	2849.19
289.293	2852.19
289.524	2849.19
289.755	2794.19
289.986	2819.19
290.217	2842.19
290.448	2802.19
290.679	2805.19
290.91	2844.19
291.141	2833.19
291.371	2842.19
291.602	2848.19
291.833	2804.19
292.064	2803.19
292.295	2825.19
292.526	2840.19
292.757	2858.19
292.987	2814.19
293.218	2762.19
293.449	2877.19
293.68	2863.19
293.91	2871.19
294.141	2780.19
294.372	2830.19
294.603	2868.19
294.833	2828.19
295.064	2885.19
295.295	2873.19
295.525	2930.19
295.756	2897.19
295.987	3033.19
296.217	3117.19
296.448	3070.19
296.679	2990.19
296.909	2927.19
297.14	2974.19
297.37	3003.19
297.601	3036.19
297.831	3084.19
298.062	3078.19
298.292	3094.19
298.523	3072.19
298.753	3086.19
298.984	3086.19
299.214	3080.19
299.445	3084.19
299.675	3091.19
299.905	3153.19
300.136	3145.19
300.366	3178.19
300.597	3220.19
300.827	3253.19
301.057	3339.19
301.288	3382.19
301.518	3349.19
301.748	3382.19
301.979	3466.19
302.209	3388.19
302.439	3407.19
302.669	3346.19
302.9	3344.19
303.13	3276.19
303.36	3350.19
303.59	3343.19
303.82	3423.19
304.051	3380.19
304.281	3290.19
304.511	3250.19
304.741	3326.19
304.971	3333.19
305.201	3245.19
305.431	3269.19
305.661	3258.19
305.891	3189.19
306.121	3276.19
306.352	3363.19
306.582	3284.19
306.812	3220.19
307.042	3289.19
307.272	3292.19
307.502	3257.19
307.731	3281.19
307.961	3272.19
308.191	3309.19
308.421	3262.19
308.651	3395.19
308.881	3303.19
309.111	3368.19
309.341	3338.19
309.571	3440.19
309.8	3493.19
310.03	3551.19
310.26	3532.19
310.49	3575.19
310.72	3678.19
310.949	3756.19
311.179	3684.19
311.409	3640.19
311.639	3624.19
311.868	3662.19
312.098	3686.19
312.328	3743.19
312.557	3801.19
312.787	3853.19
313.017	3816.19
313.246	3732.19
313.476	3719.19
313.706	3761.19
313.935	3816.19
314.165	3897.19
314.394	3967.19
314.624	3892.19
314.853	3788.19
315.083	3781.19
315.312	3772.19
315.542	3777.19
315.771	3699.19
316.001	3695.19
316.23	3622.19
316.46	3640.19
316.689	3666.19
316.919	3741.19
317.148	3727.19
317.377	3755.19
317.607	3683.19
317.836	3747.19
318.065	3627.19
318.295	3670.19
318.524	3716.19
318.753	3597.19
318.983	3629.19
319.212	3632.19
319.441	3747.19
319.67	3665.19
319.9	3691.19
320.129	3696.19
320.358	3731.19
320.587	3740.19
320.816	3815.19
321.046	3876.19
321.275	3762.19
321.504	3837.19
321.733	3828.19
321.962	3921.19
322.191	3983.19
322.42	4037.19
322.649	4111.19
322.878	4174.19
323.108	4220.19
323.337	4445.19
323.566	4597.19
323.795	4848.19
324.024	5461.19
324.253	6937.19
324.482	10369.19
324.71	14809.19
324.939	15622.19
325.168	12182.19
325.397	6379.19
325.626	5188.19
325.855	4822.19
326.084	4666.19
326.313	4682.19
326.542	4843.19
326.77	5378.19
326.999	6744.19
327.228	9716.19
327.457	13863.19
327.686	13079.19
327.914	7147.19
328.143	5649.19
328.372	5243.19
328.6	5071.19
328.829	5033.19
329.058	5214.19
329.287	5114.19
329.515	4830.19
329.744	4684.19
329.972	4721.19
330.201	4832.19
330.43	4988.19
330.658	5276.19
330.887	5537.19
331.115	5189.19
331.344	4891.19
331.572	4813.19
331.801	4924.19
332.03	4883.19
332.258	4828.19
332.486	4920.19
332.715	5012.19
332.943	5083.19
333.172	5240.19
333.4	5397.19
333.629	5593.19
333.857	5571.19
334.085	5454.19
334.314	5446.19
334.542	5312.19
334.771	5320.19
334.999	5284.19
335.227	5152.19
335.455	5137.19
335.684	4974.19
335.912	4926.19
336.14	4873.19
336.369	4908.19
336.597	4927.19
336.825	4895.19
337.053	4842.19
337.281	4811.19
337.51	4723.19
337.738	4760.19
337.966	4615.19
338.194	4630.19
338.422	4609.19
338.65	4537.19
338.878	4574.19
339.106	4508.19
339.334	4523.19
339.562	4400.19
339.79	4390.19
340.018	4376.19
340.246	4362.19
340.474	4429.19
340.702	4444.19
340.93	4382.19
341.158	4394.19
341.386	4370.19
341.614	4377.19
341.842	4309.19
342.07	4307.19
342.298	4290.19
342.526	4295.19
342.754	4249.19
342.981	4340.19
343.209	4410.19
343.437	4608.19
343.665	4894.19
343.893	5140.19
344.12	5178.19
344.348	4952.19
344.576	4772.19
344.804	4642.19
345.031	4604.19
345.259	4513.19
345.487	4447.19
345.714	4332.19
345.942	4261.19
346.17	4198.19
346.397	4204.19
346.625	4189.19
346.853	4125.19
347.08	4131.19
347.308	4220.19
347.535	4268.19
347.763	4382.19
347.99	4203.19
348.218	4241.19
348.445	4313.19
348.673	4197.19
348.9	4115.19
349.128	4118.19
349.355	4070.19
349.583	4052.19
349.81	4074.19
350.037	4008.19
350.265	4009.19
350.492	4083.19
350.72	3981.19
350.947	4097.19
351.174	4096.19
351.402	4207.19
351.629	4118.19
351.856	4165.19
352.083	4189.19
352.311	4175.19
352.538	4181.19
352.765	4158.19
352.992	4116.19
353.22	4052.19
353.447	4060.19
353.674	4010.19
353.901	3927.19
354.128	3914.19
354.355	3924.19
354.583	3958.19
354.81	3940.19
355.037	3933.19
355.264	3943.19
355.491	3980.19
355.718	3922.19
355.945	3976.19
356.172	3920.19
356.399	3975.19
356.626	3925.19
356.853	3947.19
357.08	3925.19
357.307	3978.19
357.534	3938.19
357.761	3997.19
357.988	3932.19
358.215	3961.19
358.441	3959.19
358.668	3997.19
358.895	3993.19
359.122	3996.19
359.349	4095.19
359.576	4229.19
359.802	4368.19
360.029	4438.19
360.256	4504.19
360.483	4315.19
360.709	4170.19
360.936	4140.19
361.163	4131.19
361.39	4199.19
361.616	4136.19
361.843	4144.19
362.07	4158.19
362.296	4157.19
362.523	4133.19
362.749	4140.19
362.976	4096.19
363.203	4082.19
363.429	4002.19
363.656	4107.19
363.882	4082.19
364.109	3974.19
364.335	4003.19
364.562	4015.19
364.788	4034.19
365.015	3984.19
365.241	3985.19
365.468	4033.19
365.694	4004.19
365.92	4038.19
366.147	4004.19
366.373	4053.19
366.599	4018.19
366.826	3934.19
367.052	4012.19
367.278	4036.19
367.505	3998.19
367.731	4067.19
367.957	4067.19
368.184	4062.19
368.41	4221.19
368.636	4228.19
368.862	4195.19
369.089	4175.19
369.315	4124.19
369.541	4076.19
369.767	4113.19
369.993	4136.19
370.219	4157.19
370.445	4125.19
370.672	4235.19
370.898	4237.19
371.124	4338.19
371.35	4256.19
371.576	4288.19
371.802	4232.19
372.028	4271.19
372.254	4275.19
372.48	4345.19
372.706	4439.19
372.932	4481.19
373.158	4420.19
373.384	4389.19
373.61	4354.19
373.835	4330.19
374.061	4335.19
374.287	4426.19
374.513	4470.19
374.739	4630.19
374.965	4733.19
375.191	4738.19
375.416	4678.19
375.642	4593.19
375.868	4506.19
376.094	4362.19
376.319	4329.19
376.545	4341.19
376.771	4366.19
376.997	4312.19
377.222	4392.19
377.448	4286.19
377.674	4330.19
377.899	4298.19
378.125	4293.19
378.35	4241.19
378.576	4260.19
378.802	4238.19
379.027	4237.19
379.253	4273.19
379.478	4261.19
379.704	4277.19
379.929	4306.19
380.155	4234.19
380.38	4291.19
380.606	4293.19
380.831	4304.19
381.057	4312.19
381.282	4301.19
381.507	4330.19
381.733	4382.19
381.958	4385.19
382.184	4539.19
382.409	4515.19
382.634	4562.19
382.86	4512.19
383.085	4630.19
383.31	4649.19
383.535	4770.19
383.761	4785.19
383.986	4824.19
384.211	4941.19
384.436	4982.19
384.662	5039.19
384.887	5140.19
385.112	5141.19
385.337	5192.19
385.562	5174.19
385.787	5203.19
386.013	5277.19
386.238	5280.19
386.463	5256.19
386.688	5275.19
386.913	5156.19
387.138	5186.19
387.363	5140.19
387.588	5044.19
387.813	5186.19
388.038	5112.19
388.263	5155.19
388.488	5128.19
388.713	5156.19
388.938	5135.19
389.163	5109.19
389.387	5099.19
389.612	5005.19
389.837	5061.19
390.062	5070.19
390.287	5118.19
390.512	5059.19
390.736	5112.19
390.961	5274.19
391.186	5340.19
391.411	5477.19
391.636	5588.19
391.86	5710.19
392.085	5798.19
392.31	5683.19
392.534	5599.19
392.759	5446.19
392.984	5435.19
393.208	5355.19
393.433	5361.19
393.658	5381.19
393.882	5370.19
394.107	5262.19
394.331	5454.19
394.556	5391.19
394.78	5460.19
395.005	5434.19
395.229	5509.19
395.454	5784.19
395.678	5824.19
395.903	5834.19
396.127	5827.19
396.352	5655.19
396.576	5434.19
396.801	5405.19
397.025	5524.19
397.249	5572.19
397.474	5807.19
397.698	5797.19
397.922	5949.19
398.147	6073.19
398.371	6160.19
398.595	6221.19
398.82	6586.19
399.044	7072.19
399.268	7881.19
399.492	8866.19
399.717	9512.19
399.941	9289.19
400.165	8688.19
400.389	7925.19
400.613	7214.19
400.837	6834.19
401.062	6706.19
401.286	6571.19
401.51	6477.19
401.734	6471.19
401.958	6610.19
402.182	6709.19
402.406	6877.19
402.63	6902.19
402.854	6948.19
403.078	7066.19
403.302	7086.19
403.526	7240.19
403.75	7380.19
403.974	7360.19
404.198	7356.19
404.422	7481.19
404.645	7354.19
404.869	7293.19
405.093	7438.19
405.317	7535.19
405.541	7493.19
405.765	7247.19
405.988	7176.19
406.212	7336.19
406.436	7455.19
406.66	7638.19
406.883	7644.19
407.107	8293.19
407.331	8733.19
407.555	9348.19
407.778	8922.19
408.002	8214.19
408.226	7877.19
408.449	7710.19
408.673	7560.19
408.896	7837.19
409.12	7890.19
409.344	7533.19
409.567	7120.19
409.791	7074.19
410.014	6996.19
410.238	6969.19
410.461	7020.19
410.685	6953.19
410.908	7090.19
411.132	7347.19
411.355	7341.19
411.578	6920.19
411.802	6732.19
412.025	6703.19
412.249	6803.19
412.472	6836.19
412.695	6720.19
412.919	6588.19
413.142	6504.19
413.365	6460.19
413.589	6429.19
413.812	6324.19
414.035	6232.19
414.258	6280.19
414.482	6391.19
414.705	6419.19
414.928	6375.19
415.151	6388.19
415.374	6365.19
415.597	6366.19
415.821	6265.19
416.044	6196.19
416.267	6208.19
416.49	6199.19
416.713	6214.19
416.936	6335.19
417.159	6301.19
417.382	6314.19
417.605	6324.19
417.828	6428.19
418.051	6594.19
418.274	6517.19
418.497	6375.19
418.72	6571.19
418.943	6441.19
419.166	6933.19
419.389	7208.19
419.611	7185.19
419.834	6893.19
420.057	6763.19
420.28	6570.19
420.503	6410.19
420.726	6417.19
420.948	6536.19
421.171	7016.19
421.394	6966.19
421.617	6562.19
421.839	6465.19
422.062	6547.19
422.285	6759.19
422.507	7428.19
422.73	7937.19
422.953	7380.19
423.175	6966.19
423.398	7037.19
423.621	6937.19
423.843	7241.19
424.066	7181.19
424.288	7097.19
424.511	7324.19
424.733	7734.19
424.956	8170.19
425.178	7693.19
425.401	7821.19
425.623	7716.19
425.846	6801.19
426.068	6666.19
426.291	6638.19
426.513	6547.19
426.735	6740.19
426.958	7092.19
427.18	7778.19
427.402	8928.19
427.625	8934.19
427.847	7534.19
428.069	6752.19
428.292	6370.19
428.514	6048.19
428.736	5965.19
428.958	6079.19
429.181	5812.19
429.403	5781.19
429.625	5935.19
429.847	6281.19
430.069	6773.19
430.292	6357.19
430.514	5871.19
430.736	5847.19
430.958	5793.19
431.18	5613.19
431.402	5668.19
431.624	5594.19
431.846	5700.19
432.068	5739.19
432.29	5840.19
432.512	5676.19
432.734	5869.19
432.956	5762.19
433.178	5811.19
433.4	5832.19
433.622	5836.19
433.844	5774.19
434.066	5749.19
434.287	5910.19
434.509	6094.19
434.731	6341.19
434.953	6473.19
435.175	6552.19
435.397	6622.19
435.618	6578.19
435.84	7044.19
436.062	7746.19
436.284	7722.19
436.505	6562.19
436.727	6162.19
436.949	5948.19
437.17	5858.19
437.392	5773.19
437.614	5891.19
437.835	6261.19
438.057	7239.19
438.278	7842.19
438.5	7850.19
438.721	8630.19
438.943	7598.19
439.165	6415.19
439.386	6199.19
439.608	6226.19
439.829	6360.19
440.05	6675.19
440.272	6984.19
440.493	6450.19
440.715	6147.19
440.936	6031.19
441.158	6129.19
441.379	6262.19
441.6	6582.19
441.822	6799.19
442.043	7255.19
442.264	8026.19
442.486	7748.19
442.707	6932.19
442.928	6800.19
443.149	6860.19
443.371	7056.19
443.592	7669.19
443.813	8632.19
444.034	8529.19
444.255	7453.19
444.476	7356.19
444.698	7491.19
444.919	7600.19
445.14	7391.19
445.361	7241.19
445.582	7378.19
445.803	7900.19
446.024	8517.19
446.245	8179.19
446.466	7357.19
446.687	6466.19
446.908	6114.19
447.129	5828.19
447.35	5678.19
447.571	5699.19
447.792	5490.19
448.013	5723.19
448.234	5812.19
448.455	6497.19
448.675	7626.19
448.896	8153.19
449.117	6699.19
449.338	6942.19
449.559	8274.19
449.779	8335.19
450	6447.19
450.221	5725.19
450.442	5510.19
450.662	5467.19
450.883	5548.19
451.104	5661.19
451.324	5459.19
451.545	5302.19
451.766	5205.19
451.986	5116.19
452.207	5048.19
452.428	5038.19
452.648	5112.19
452.869	5038.19
453.089	5178.19
453.31	5324.19
453.53	5050.19
453.751	5081.19
453.971	5048.19
454.192	5132.19
454.412	4986.19
454.633	4924.19
454.853	4955.19
455.073	4927.19
455.294	5314.19
455.514	5847.19
455.734	5329.19
455.955	4789.19
456.175	4700.19
456.395	4667.19
456.616	4567.19
456.836	4660.19
457.056	4662.19
457.276	4509.19
457.497	4718.19
457.717	4649.19
457.937	4821.19
458.157	4812.19
458.377	5000.19
458.598	5210.19
458.818	5892.19
459.038	6655.19
459.258	6506.19
459.478	5888.19
459.698	5770.19
459.918	5912.19
460.138	6056.19
460.358	6205.19
460.578	6264.19
460.798	6376.19
461.018	6325.19
461.238	6223.19
461.458	6149.19
461.678	6125.19
461.898	6291.19
462.118	6338.19
462.338	6690.19
462.558	6866.19
462.777	7148.19
462.997	7704.19
463.217	8036.19
463.437	7863.19
463.657	7294.19
463.876	7168.19
464.096	7178.19
464.316	7100.19
464.536	7172.19
464.755	6835.19
464.975	6778.19
465.195	6874.19
465.414	6804.19
465.634	6142.19
465.854	5820.19
466.073	5642.19
466.293	5510.19
466.512	5346.19
466.732	5262.19
466.951	5205.19
467.171	5216.19
467.391	5257.19
467.61	5324.19
467.829	5323.19
468.049	5185.19
468.268	5032.19
468.488	4956.19
468.707	4991.19
468.927	4961.19
469.146	4963.19
469.365	4996.19
469.585	5057.19
469.804	5262.19
470.023	5425.19
470.243	5397.19
470.462	5403.19
470.681	5597.19
470.901	5449.19
471.12	5366.19
471.339	5309.19
471.558	5233.19
471.777	5125.19
471.997	5047.19
472.216	5020.19
472.435	5030.19
472.654	4973.19
472.873	4885.19
473.092	4966.19
473.311	4893.19
473.53	5044.19
473.749	5123.19
473.968	5604.19
474.187	6584.19
474.406	6138.19
474.625	5301.19
474.844	5064.19
475.063	4988.19
475.282	5060.19
475.501	5077.19
475.72	5077.19
475.939	5118.19
476.158	5179.19
476.377	5170.19
476.596	5153.19
476.814	5307.19
477.033	5327.19
477.252	5388.19
477.471	5550.19
477.69	5658.19
477.908	5808.19
478.127	5964.19
478.346	5889.19
478.564	6018.19
478.783	6148.19
479.002	6274.19
479.22	6276.19
479.439	6422.19
479.658	6397.19
479.876	6520.19
480.095	6736.19
480.313	7158.19
480.532	6912.19
480.751	6831.19
480.969	6707.19
481.188	6682.19
481.406	6485.19
481.624	6264.19
481.843	6069.19
482.061	6013.19
482.28	5939.19
482.498	5870.19
482.717	5837.19
482.935	5838.19
483.153	5777.19
483.372	5814.19
483.59	5865.19
483.808	5821.19
484.027	5828.19
484.245	5848.19
484.463	5905.19
484.681	5942.19
484.9	5989.19
485.118	6054.19
485.336	6147.19
485.554	6152.19
485.772	6260.19
485.99	6205.19
486.209	6286.19
486.427	6306.19
486.645	6321.19
486.863	6500.19
487.081	6330.19
487.299	6287.19
487.517	6283.19
487.735	6284.19
487.953	6208.19
