Data from Uncirc_1990_H10_HRD10591_00099.txt Node
Date: Wed Jan 03 11:54:11 EST 2024
User: Yrep
Spectrometer: HR+D1059
Trigger mode: 1
Integration Time (sec): 1.000000E-1
Scans to average: 1
Electric dark correction enabled: true
Nonlinearity correction enabled: false
Boxcar width: 0
XAxis mode: Wavelengths
Number of Pixels in Spectrum: 2048
>>>>>Begin Spectral Data<<<<<
223.165	-25.12
223.4	-25.12
223.635	-25.12
223.869	-21.12
224.104	-8.12
224.338	-25.12
224.573	-8.12
224.808	-12.12
225.042	-16.12
225.277	-0.12
225.511	-1.12
225.746	0.88
225.98	7.88
226.215	23.88
226.449	6.88
226.683	25.88
226.918	29.88
227.152	21.88
227.387	35.88
227.621	37.88
227.856	39.88
228.09	50.88
228.324	52.88
228.559	56.88
228.793	62.88
229.027	66.88
229.262	66.88
229.496	74.88
229.73	76.88
229.964	98.88
230.199	92.88
230.433	77.88
230.667	77.88
230.901	70.88
231.136	75.88
231.37	87.88
231.604	86.88
231.838	96.88
232.072	85.88
232.306	82.88
232.541	96.88
232.775	71.88
233.009	89.88
233.243	81.88
233.477	72.88
233.711	77.88
233.945	91.88
234.179	76.88
234.413	81.88
234.647	83.88
234.881	89.88
235.115	83.88
235.349	73.88
235.583	95.88
235.817	86.88
236.051	85.88
236.285	78.88
236.519	70.88
236.753	88.88
236.987	81.88
237.221	73.88
237.455	92.88
237.689	99.88
237.922	82.88
238.156	86.88
238.39	88.88
238.624	102.88
238.858	71.88
239.091	81.88
239.325	85.88
239.559	82.88
239.793	94.88
240.027	93.88
240.26	73.88
240.494	72.88
240.728	77.88
240.961	96.88
241.195	83.88
241.429	79.88
241.662	88.88
241.896	82.88
242.13	78.88
242.363	87.88
242.597	84.88
242.83	70.88
243.064	86.88
243.298	75.88
243.531	89.88
243.765	95.88
243.998	83.88
244.232	82.88
244.465	88.88
244.699	70.88
244.932	70.88
245.166	77.88
245.399	88.88
245.633	75.88
245.866	85.88
246.099	81.88
246.333	81.88
246.566	91.88
246.8	81.88
247.033	86.88
247.266	87.88
247.5	70.88
247.733	69.88
247.966	73.88
248.2	85.88
248.433	83.88
248.666	83.88
248.899	93.88
249.133	88.88
249.366	85.88
249.599	105.88
249.832	82.88
250.066	96.88
250.299	77.88
250.532	80.88
250.765	74.88
250.998	75.88
251.231	87.88
251.465	83.88
251.698	87.88
251.931	75.88
252.164	90.88
252.397	83.88
252.63	87.88
252.863	92.88
253.096	90.88
253.329	79.88
253.562	93.88
253.795	78.88
254.028	80.88
254.261	81.88
254.494	89.88
254.727	80.88
254.96	82.88
255.193	73.88
255.426	74.88
255.659	88.88
255.892	73.88
256.124	87.88
256.357	77.88
256.59	83.88
256.823	85.88
257.056	96.88
257.289	98.88
257.521	83.88
257.754	75.88
257.987	85.88
258.22	69.88
258.452	62.88
258.685	95.88
258.918	93.88
259.151	86.88
259.383	94.88
259.616	69.88
259.849	81.88
260.081	97.88
260.314	88.88
260.547	84.88
260.779	93.88
261.012	90.88
261.244	97.88
261.477	77.88
261.71	117.88
261.942	123.88
262.175	111.88
262.407	85.88
262.64	82.88
262.872	79.88
263.105	82.88
263.337	81.88
263.57	95.88
263.802	88.88
264.035	93.88
264.267	85.88
264.499	93.88
264.732	81.88
264.964	88.88
265.197	84.88
265.429	79.88
265.661	77.88
265.894	92.88
266.126	93.88
266.358	86.88
266.591	95.88
266.823	99.88
267.055	94.88
267.287	91.88
267.52	89.88
267.752	77.88
267.984	102.88
268.216	87.88
268.448	87.88
268.681	99.88
268.913	93.88
269.145	96.88
269.377	84.88
269.609	87.88
269.841	95.88
270.073	88.88
270.306	77.88
270.538	85.88
270.77	87.88
271.002	94.88
271.234	84.88
271.466	98.88
271.698	98.88
271.93	92.88
272.162	93.88
272.394	87.88
272.626	92.88
272.858	83.88
273.09	84.88
273.322	78.88
273.553	86.88
273.785	75.88
274.017	84.88
274.249	93.88
274.481	87.88
274.713	86.88
274.945	94.88
275.176	93.88
275.408	98.88
275.64	88.88
275.872	89.88
276.104	77.88
276.335	87.88
276.567	103.88
276.799	113.88
277.031	94.88
277.262	90.88
277.494	101.88
277.726	88.88
277.957	94.88
278.189	93.88
278.421	84.88
278.652	99.88
278.884	89.88
279.115	88.88
279.347	73.88
279.579	73.88
279.81	84.88
280.042	100.88
280.273	99.88
280.505	88.88
280.736	81.88
280.968	91.88
281.199	87.88
281.431	82.88
281.662	82.88
281.894	89.88
282.125	98.88
282.356	111.88
282.588	137.88
282.819	121.88
283.051	93.88
283.282	89.88
283.513	91.88
283.745	88.88
283.976	78.88
284.207	91.88
284.439	89.88
284.67	83.88
284.901	95.88
285.132	81.88
285.364	94.88
285.595	82.88
285.826	79.88
286.057	82.88
286.288	86.88
286.52	91.88
286.751	87.88
286.982	87.88
287.213	81.88
287.444	73.88
287.675	94.88
287.906	83.88
288.138	95.88
288.369	93.88
288.6	100.88
288.831	89.88
289.062	87.88
289.293	88.88
289.524	89.88
289.755	90.88
289.986	81.88
290.217	80.88
290.448	95.88
290.679	83.88
290.91	94.88
291.141	93.88
291.371	99.88
291.602	87.88
291.833	82.88
292.064	100.88
292.295	85.88
292.526	94.88
292.757	107.88
292.987	86.88
293.218	88.88
293.449	83.88
293.68	94.88
293.91	93.88
294.141	90.88
294.372	96.88
294.603	84.88
294.833	93.88
295.064	95.88
295.295	84.88
295.525	91.88
295.756	103.88
295.987	122.88
296.217	139.88
296.448	130.88
296.679	98.88
296.909	92.88
297.14	87.88
297.37	86.88
297.601	84.88
297.831	89.88
298.062	94.88
298.292	82.88
298.523	99.88
298.753	73.88
298.984	101.88
299.214	83.88
299.445	91.88
299.675	101.88
299.905	81.88
300.136	95.88
300.366	94.88
300.597	88.88
300.827	101.88
301.057	94.88
301.288	91.88
301.518	95.88
301.748	87.88
301.979	106.88
302.209	90.88
302.439	86.88
302.669	99.88
302.9	87.88
303.13	93.88
303.36	111.88
303.59	106.88
303.82	97.88
304.051	99.88
304.281	92.88
304.511	106.88
304.741	93.88
304.971	97.88
305.201	96.88
305.431	96.88
305.661	114.88
305.891	95.88
306.121	104.88
306.352	107.88
306.582	102.88
306.812	125.88
307.042	97.88
307.272	97.88
307.502	100.88
307.731	91.88
307.961	94.88
308.191	91.88
308.421	82.88
308.651	96.88
308.881	93.88
309.111	90.88
309.341	85.88
309.571	95.88
309.8	88.88
310.03	104.88
310.26	93.88
310.49	98.88
310.72	85.88
310.949	89.88
311.179	89.88
311.409	104.88
311.639	97.88
311.868	105.88
312.098	111.88
312.328	90.88
312.557	119.88
312.787	105.88
313.017	107.88
313.246	88.88
313.476	91.88
313.706	113.88
313.935	100.88
314.165	93.88
314.394	102.88
314.624	105.88
314.853	103.88
315.083	82.88
315.312	79.88
315.542	95.88
315.771	95.88
316.001	95.88
316.23	79.88
316.46	104.88
316.689	89.88
316.919	90.88
317.148	86.88
317.377	101.88
317.607	110.88
317.836	94.88
318.065	99.88
318.295	92.88
318.524	90.88
318.753	94.88
318.983	94.88
319.212	96.88
319.441	114.88
319.67	122.88
319.9	98.88
320.129	96.88
320.358	103.88
320.587	88.88
320.816	108.88
321.046	116.88
321.275	119.88
321.504	89.88
321.733	104.88
321.962	87.88
322.191	104.88
322.42	105.88
322.649	122.88
322.878	123.88
323.108	123.88
323.337	130.88
323.566	145.88
323.795	145.88
324.024	221.88
324.253	434.88
324.482	877.88
324.71	1853.88
324.939	2531.88
325.168	938.88
325.397	265.88
325.626	170.88
325.855	137.88
326.084	133.88
326.313	134.88
326.542	152.88
326.77	222.88
326.999	484.88
327.228	1039.88
327.457	1932.88
327.686	1538.88
327.914	389.88
328.143	209.88
328.372	141.88
328.6	129.88
328.829	125.88
329.058	120.88
329.287	145.88
329.515	116.88
329.744	104.88
329.972	117.88
330.201	105.88
330.43	125.88
330.658	120.88
330.887	125.88
331.115	135.88
331.344	100.88
331.572	114.88
331.801	113.88
332.03	99.88
332.258	99.88
332.486	96.88
332.715	91.88
332.943	94.88
333.172	101.88
333.4	95.88
333.629	106.88
333.857	119.88
334.085	115.88
334.314	114.88
334.542	133.88
334.771	127.88
334.999	119.88
335.227	89.88
335.455	106.88
335.684	97.88
335.912	102.88
336.14	90.88
336.369	104.88
336.597	98.88
336.825	107.88
337.053	92.88
337.281	95.88
337.51	107.88
337.738	107.88
337.966	96.88
338.194	103.88
338.422	88.88
338.65	84.88
338.878	97.88
339.106	94.88
339.334	118.88
339.562	80.88
339.79	79.88
340.018	107.88
340.246	91.88
340.474	90.88
340.702	98.88
340.93	100.88
341.158	100.88
341.386	90.88
341.614	100.88
341.842	99.88
342.07	98.88
342.298	90.88
342.526	93.88
342.754	91.88
342.981	88.88
343.209	85.88
343.437	100.88
343.665	94.88
343.893	88.88
344.12	98.88
344.348	95.88
344.576	95.88
344.804	88.88
345.031	97.88
345.259	114.88
345.487	102.88
345.714	103.88
345.942	78.88
346.17	112.88
346.397	89.88
346.625	101.88
346.853	107.88
347.08	80.88
347.308	99.88
347.535	106.88
347.763	97.88
347.99	107.88
348.218	102.88
348.445	108.88
348.673	104.88
348.9	99.88
349.128	105.88
349.355	103.88
349.583	105.88
349.81	90.88
350.037	88.88
350.265	92.88
350.492	87.88
350.72	90.88
350.947	105.88
351.174	105.88
351.402	96.88
351.629	99.88
351.856	111.88
352.083	101.88
352.311	106.88
352.538	102.88
352.765	117.88
352.992	130.88
353.22	120.88
353.447	107.88
353.674	104.88
353.901	96.88
354.128	91.88
354.355	86.88
354.583	105.88
354.81	94.88
355.037	98.88
355.264	111.88
355.491	89.88
355.718	99.88
355.945	98.88
356.172	84.88
356.399	91.88
356.626	97.88
356.853	99.88
357.08	89.88
357.307	88.88
357.534	103.88
357.761	96.88
357.988	99.88
358.215	72.88
358.441	98.88
358.668	84.88
358.895	94.88
359.122	93.88
359.349	104.88
359.576	93.88
359.802	108.88
360.029	95.88
360.256	110.88
360.483	111.88
360.709	85.88
360.936	90.88
361.163	90.88
361.39	95.88
361.616	85.88
361.843	89.88
362.07	97.88
362.296	89.88
362.523	98.88
362.749	95.88
362.976	96.88
363.203	96.88
363.429	89.88
363.656	95.88
363.882	93.88
364.109	106.88
364.335	83.88
364.562	89.88
364.788	90.88
365.015	91.88
365.241	97.88
365.468	110.88
365.694	105.88
365.92	76.88
366.147	107.88
366.373	90.88
366.599	97.88
366.826	99.88
367.052	90.88
367.278	94.88
367.505	78.88
367.731	93.88
367.957	84.88
368.184	95.88
368.41	87.88
368.636	126.88
368.862	119.88
369.089	107.88
369.315	95.88
369.541	102.88
369.767	99.88
369.993	87.88
370.219	80.88
370.445	96.88
370.672	106.88
370.898	89.88
371.124	91.88
371.35	82.88
371.576	99.88
371.802	86.88
372.028	87.88
372.254	82.88
372.48	89.88
372.706	94.88
372.932	84.88
373.158	94.88
373.384	96.88
373.61	103.88
373.835	97.88
374.061	88.88
374.287	97.88
374.513	98.88
374.739	75.88
374.965	87.88
375.191	99.88
375.416	80.88
375.642	86.88
375.868	102.88
376.094	101.88
376.319	94.88
376.545	98.88
376.771	90.88
376.997	97.88
377.222	98.88
377.448	101.88
377.674	78.88
377.899	91.88
378.125	87.88
378.35	94.88
378.576	86.88
378.802	81.88
379.027	95.88
379.253	99.88
379.478	78.88
379.704	94.88
379.929	91.88
380.155	91.88
380.38	101.88
380.606	93.88
380.831	86.88
381.057	96.88
381.282	103.88
381.507	95.88
381.733	84.88
381.958	93.88
382.184	95.88
382.409	92.88
382.634	101.88
382.86	109.88
383.085	97.88
383.31	107.88
383.535	99.88
383.761	99.88
383.986	96.88
384.211	88.88
384.436	83.88
384.662	95.88
384.887	94.88
385.112	102.88
385.337	110.88
385.562	85.88
385.787	84.88
386.013	97.88
386.238	102.88
386.463	104.88
386.688	102.88
386.913	108.88
387.138	96.88
387.363	95.88
387.588	107.88
387.813	95.88
388.038	111.88
388.263	110.88
388.488	98.88
388.713	86.88
388.938	91.88
389.163	113.88
389.387	107.88
389.612	100.88
389.837	107.88
390.062	92.88
390.287	93.88
390.512	95.88
390.736	104.88
390.961	104.88
391.186	94.88
391.411	91.88
391.636	98.88
391.86	89.88
392.085	98.88
392.31	69.88
392.534	82.88
392.759	85.88
392.984	93.88
393.208	98.88
393.433	90.88
393.658	93.88
393.882	71.88
394.107	69.88
394.331	78.88
394.556	73.88
394.78	100.88
395.005	91.88
395.229	73.88
395.454	98.88
395.678	89.88
395.903	94.88
396.127	89.88
396.352	87.88
396.576	90.88
396.801	94.88
397.025	95.88
397.249	93.88
397.474	79.88
397.698	90.88
397.922	72.88
398.147	78.88
398.371	83.88
398.595	95.88
398.82	93.88
399.044	83.88
399.268	101.88
399.492	86.88
399.717	83.88
399.941	88.88
400.165	91.88
400.389	92.88
400.613	85.88
400.837	83.88
401.062	93.88
401.286	78.88
401.51	101.88
401.734	96.88
401.958	115.88
402.182	125.88
402.406	164.88
402.63	119.88
402.854	113.88
403.078	84.88
403.302	95.88
403.526	89.88
403.75	84.88
403.974	74.88
404.198	89.88
404.422	89.88
404.645	93.88
404.869	80.88
405.093	95.88
405.317	102.88
405.541	99.88
405.765	97.88
405.988	107.88
406.212	162.88
406.436	214.88
406.66	157.88
406.883	104.88
407.107	102.88
407.331	102.88
407.555	100.88
407.778	90.88
408.002	85.88
408.226	98.88
408.449	91.88
408.673	92.88
408.896	101.88
409.12	104.88
409.344	106.88
409.567	104.88
409.791	93.88
410.014	95.88
410.238	107.88
410.461	80.88
410.685	95.88
410.908	115.88
411.132	106.88
411.355	101.88
411.578	86.88
411.802	87.88
412.025	94.88
412.249	101.88
412.472	97.88
412.695	87.88
412.919	96.88
413.142	79.88
413.365	102.88
413.589	101.88
413.812	93.88
414.035	92.88
414.258	98.88
414.482	93.88
414.705	104.88
414.928	82.88
415.151	80.88
415.374	106.88
415.597	101.88
415.821	89.88
416.044	106.88
416.267	81.88
416.49	88.88
416.713	91.88
416.936	90.88
417.159	79.88
417.382	86.88
417.605	81.88
417.828	102.88
418.051	86.88
418.274	100.88
418.497	87.88
418.72	95.88
418.943	90.88
419.166	90.88
419.389	96.88
419.611	86.88
419.834	73.88
420.057	78.88
420.28	92.88
420.503	95.88
420.726	100.88
420.948	99.88
421.171	86.88
421.394	91.88
421.617	93.88
421.839	86.88
422.062	105.88
422.285	111.88
422.507	110.88
422.73	111.88
422.953	98.88
423.175	70.88
423.398	86.88
423.621	95.88
423.843	85.88
424.066	77.88
424.288	102.88
424.511	95.88
424.733	104.88
424.956	95.88
425.178	96.88
425.401	103.88
425.623	96.88
425.846	93.88
426.068	77.88
426.291	99.88
426.513	91.88
426.735	93.88
426.958	95.88
427.18	103.88
427.402	139.88
427.625	166.88
427.847	143.88
428.069	123.88
428.292	96.88
428.514	70.88
428.736	87.88
428.958	71.88
429.181	85.88
429.403	105.88
429.625	73.88
429.847	94.88
430.069	110.88
430.292	107.88
430.514	95.88
430.736	96.88
430.958	92.88
431.18	86.88
431.402	94.88
431.624	82.88
431.846	80.88
432.068	97.88
432.29	85.88
432.512	100.88
432.734	91.88
432.956	91.88
433.178	108.88
433.4	105.88
433.622	102.88
433.844	85.88
434.066	98.88
434.287	109.88
434.509	101.88
434.731	80.88
434.953	104.88
435.175	89.88
435.397	88.88
435.618	84.88
435.84	111.88
436.062	125.88
436.284	114.88
436.505	103.88
436.727	105.88
436.949	87.88
437.17	93.88
437.392	80.88
437.614	111.88
437.835	104.88
438.057	118.88
438.278	120.88
438.5	103.88
438.721	122.88
438.943	103.88
439.165	101.88
439.386	87.88
439.608	89.88
439.829	112.88
440.05	134.88
440.272	136.88
440.493	93.88
440.715	91.88
440.936	101.88
441.158	87.88
441.379	86.88
441.6	99.88
441.822	91.88
442.043	100.88
442.264	96.88
442.486	99.88
442.707	71.88
442.928	107.88
443.149	134.88
443.371	141.88
443.592	122.88
443.813	121.88
444.034	109.88
444.255	101.88
444.476	98.88
444.698	88.88
444.919	84.88
445.14	141.88
445.361	125.88
445.582	127.88
445.803	146.88
446.024	143.88
446.245	124.88
446.466	107.88
446.687	96.88
446.908	94.88
447.129	91.88
447.35	97.88
447.571	99.88
447.792	103.88
448.013	100.88
448.234	110.88
448.455	95.88
448.675	116.88
448.896	115.88
449.117	89.88
449.338	102.88
449.559	134.88
449.779	149.88
450	107.88
450.221	79.88
450.442	91.88
450.662	102.88
450.883	95.88
451.104	114.88
451.324	91.88
451.545	77.88
451.766	80.88
451.986	93.88
452.207	95.88
452.428	98.88
452.648	119.88
452.869	122.88
453.089	109.88
453.31	106.88
453.53	89.88
453.751	108.88
453.971	100.88
454.192	121.88
454.412	77.88
454.633	105.88
454.853	95.88
455.073	98.88
455.294	86.88
455.514	99.88
455.734	91.88
455.955	102.88
456.175	90.88
456.395	95.88
456.616	93.88
456.836	77.88
457.056	89.88
457.276	77.88
457.497	81.88
457.717	95.88
457.937	80.88
458.157	90.88
458.377	88.88
458.598	100.88
458.818	157.88
459.038	149.88
459.258	114.88
459.478	96.88
459.698	96.88
459.918	106.88
460.138	88.88
460.358	99.88
460.578	87.88
460.798	93.88
461.018	94.88
461.238	85.88
461.458	89.88
461.678	83.88
461.898	100.88
462.118	84.88
462.338	80.88
462.558	89.88
462.777	87.88
462.997	90.88
463.217	83.88
463.437	97.88
463.657	91.88
463.876	101.88
464.096	90.88
464.316	98.88
464.536	106.88
464.755	93.88
464.975	111.88
465.195	145.88
465.414	161.88
465.634	87.88
465.854	94.88
466.073	93.88
466.293	99.88
466.512	104.88
466.732	93.88
466.951	95.88
467.171	103.88
467.391	99.88
467.61	107.88
467.829	91.88
468.049	110.88
468.268	98.88
468.488	89.88
468.707	91.88
468.927	83.88
469.146	93.88
469.365	93.88
469.585	101.88
469.804	86.88
470.023	105.88
470.243	82.88
470.462	97.88
470.681	109.88
470.901	80.88
471.12	91.88
471.339	88.88
471.558	89.88
471.777	94.88
471.997	101.88
472.216	109.88
472.435	151.88
472.654	100.88
472.873	102.88
473.092	104.88
473.311	103.88
473.53	92.88
473.749	98.88
473.968	102.88
474.187	99.88
474.406	103.88
474.625	86.88
474.844	89.88
475.063	105.88
475.282	96.88
475.501	101.88
475.72	93.88
475.939	95.88
476.158	79.88
476.377	86.88
476.596	97.88
476.814	95.88
477.033	100.88
477.252	74.88
477.471	74.88
477.69	98.88
477.908	88.88
478.127	77.88
478.346	100.88
478.564	79.88
478.783	105.88
479.002	82.88
479.22	87.88
479.439	98.88
479.658	94.88
479.876	98.88
480.095	102.88
480.313	89.88
480.532	98.88
480.751	87.88
480.969	119.88
481.188	195.88
481.406	150.88
481.624	93.88
481.843	95.88
482.061	89.88
482.28	90.88
482.498	101.88
482.717	86.88
482.935	93.88
483.153	88.88
483.372	90.88
483.59	88.88
483.808	80.88
484.027	87.88
484.245	85.88
484.463	99.88
484.681	109.88
484.9	98.88
485.118	91.88
485.336	93.88
485.554	102.88
485.772	101.88
485.99	103.88
486.209	110.88
486.427	93.88
486.645	107.88
486.863	117.88
487.081	95.88
487.299	118.88
487.517	103.88
487.735	101.88
487.953	89.88
488.171	94.88
488.389	89.88
488.607	107.88
488.825	93.88
489.043	97.88
489.261	88.88
489.479	93.88
489.696	94.88
489.914	90.88
490.132	89.88
490.35	96.88
490.568	71.88
490.786	103.88
491.003	75.88
491.221	92.88
491.439	98.88
491.657	93.88
491.874	92.88
492.092	99.88
492.31	100.88
492.527	92.88
492.745	106.88
492.963	93.88
493.18	89.88
493.398	87.88
493.615	99.88
493.833	106.88
494.05	92.88
494.268	95.88
494.485	106.88
494.703	88.88
494.92	90.88
495.138	84.88
495.355	90.88
495.573	100.88
495.79	91.88
496.008	90.88
496.225	88.88
496.442	84.88
496.66	95.88
496.877	112.88
497.094	99.88
497.312	98.88
497.529	80.88
497.746	83.88
497.963	89.88
498.181	102.88
498.398	97.88
498.615	101.88
498.832	106.88
499.049	108.88
499.267	85.88
499.484	98.88
499.701	87.88
499.918	93.88
500.135	98.88
500.352	87.88
500.569	83.88
500.786	92.88
501.003	78.88
501.22	81.88
501.437	105.88
501.654	94.88
501.871	110.88
502.088	88.88
502.305	95.88
502.522	89.88
502.739	91.88
502.956	77.88
503.172	84.88
503.389	94.88
503.606	106.88
503.823	102.88
504.04	96.88
504.256	90.88
504.473	80.88
504.69	89.88
504.907	105.88
505.123	93.88
505.34	96.88
505.557	96.88
505.773	94.88
505.99	92.88
506.207	96.88
506.423	80.88
506.64	82.88
506.856	96.88
507.073	107.88
507.289	96.88
507.506	97.88
507.722	105.88
507.939	87.88
508.155	104.88
508.372	93.88
508.588	90.88
508.805	93.88
509.021	107.88
509.238	101.88
509.454	96.88
509.67	103.88
509.887	112.88
510.103	115.88
510.319	218.88
510.536	782.88
510.752	2413.88
510.968	689.88
511.184	161.88
511.401	105.88
511.617	87.88
511.833	76.88
512.049	89.88
512.265	90.88
512.481	86.88
512.698	92.88
512.914	97.88
513.13	84.88
513.346	106.88
513.562	92.88
513.778	95.88
513.994	94.88
514.21	99.88
514.426	118.88
514.642	121.88
