Data from Uncirc_1990_H10_HRD10591_00044.txt Node
Date: Wed Jan 03 11:54:00 EST 2024
User: Yrep
Spectrometer: HR+D1059
Trigger mode: 1
Integration Time (sec): 1.000000E-1
Scans to average: 1
Electric dark correction enabled: true
Nonlinearity correction enabled: false
Boxcar width: 0
XAxis mode: Wavelengths
Number of Pixels in Spectrum: 2048
>>>>>Begin Spectral Data<<<<<
223.165	-14.25
223.4	-14.25
223.635	-14.25
223.869	-33.25
224.104	-22.25
224.338	-18.25
224.573	-16.25
224.808	-4.25
225.042	-8.25
225.277	-2.25
225.511	-1.25
225.746	0.75
225.98	-4.25
226.215	14.75
226.449	21.75
226.683	13.75
226.918	31.75
227.152	41.75
227.387	39.75
227.621	39.75
227.856	47.75
228.09	52.75
228.324	57.75
228.559	54.75
228.793	54.75
229.027	57.75
229.262	75.75
229.496	58.75
229.73	91.75
229.964	81.75
230.199	59.75
230.433	84.75
230.667	97.75
230.901	82.75
231.136	83.75
231.37	78.75
231.604	75.75
231.838	85.75
232.072	79.75
232.306	86.75
232.541	86.75
232.775	78.75
233.009	73.75
233.243	83.75
233.477	79.75
233.711	91.75
233.945	89.75
234.179	76.75
234.413	67.75
234.647	99.75
234.881	63.75
235.115	69.75
235.349	60.75
235.583	72.75
235.817	66.75
236.051	96.75
236.285	79.75
236.519	60.75
236.753	89.75
236.987	82.75
237.221	90.75
237.455	75.75
237.689	84.75
237.922	83.75
238.156	66.75
238.39	79.75
238.624	86.75
238.858	89.75
239.091	78.75
239.325	75.75
239.559	64.75
239.793	73.75
240.027	84.75
240.26	78.75
240.494	79.75
240.728	76.75
240.961	85.75
241.195	83.75
241.429	82.75
241.662	88.75
241.896	86.75
242.13	81.75
242.363	81.75
242.597	84.75
242.83	59.75
243.064	70.75
243.298	66.75
243.531	79.75
243.765	80.75
243.998	91.75
244.232	98.75
244.465	77.75
244.699	84.75
244.932	71.75
245.166	84.75
245.399	88.75
245.633	88.75
245.866	67.75
246.099	66.75
246.333	94.75
246.566	75.75
246.8	76.75
247.033	78.75
247.266	70.75
247.5	77.75
247.733	71.75
247.966	79.75
248.2	83.75
248.433	84.75
248.666	68.75
248.899	97.75
249.133	77.75
249.366	89.75
249.599	95.75
249.832	83.75
250.066	70.75
250.299	76.75
250.532	71.75
250.765	73.75
250.998	97.75
251.231	76.75
251.465	75.75
251.698	92.75
251.931	67.75
252.164	89.75
252.397	81.75
252.63	96.75
252.863	70.75
253.096	77.75
253.329	82.75
253.562	88.75
253.795	80.75
254.028	87.75
254.261	73.75
254.494	84.75
254.727	85.75
254.96	76.75
255.193	75.75
255.426	85.75
255.659	83.75
255.892	70.75
256.124	96.75
256.357	93.75
256.59	88.75
256.823	77.75
257.056	79.75
257.289	80.75
257.521	90.75
257.754	85.75
257.987	75.75
258.22	100.75
258.452	91.75
258.685	91.75
258.918	75.75
259.151	69.75
259.383	81.75
259.616	72.75
259.849	79.75
260.081	75.75
260.314	77.75
260.547	82.75
260.779	83.75
261.012	80.75
261.244	94.75
261.477	87.75
261.71	80.75
261.942	91.75
262.175	110.75
262.407	90.75
262.64	67.75
262.872	84.75
263.105	83.75
263.337	81.75
263.57	83.75
263.802	85.75
264.035	85.75
264.267	93.75
264.499	86.75
264.732	89.75
264.964	89.75
265.197	92.75
265.429	81.75
265.661	94.75
265.894	97.75
266.126	90.75
266.358	85.75
266.591	89.75
266.823	84.75
267.055	67.75
267.287	89.75
267.52	96.75
267.752	83.75
267.984	99.75
268.216	94.75
268.448	81.75
268.681	81.75
268.913	85.75
269.145	79.75
269.377	89.75
269.609	87.75
269.841	78.75
270.073	81.75
270.306	90.75
270.538	85.75
270.77	87.75
271.002	90.75
271.234	72.75
271.466	87.75
271.698	100.75
271.93	91.75
272.162	101.75
272.394	86.75
272.626	94.75
272.858	88.75
273.09	71.75
273.322	79.75
273.553	83.75
273.785	82.75
274.017	72.75
274.249	75.75
274.481	82.75
274.713	91.75
274.945	85.75
275.176	75.75
275.408	77.75
275.64	83.75
275.872	83.75
276.104	81.75
276.335	105.75
276.567	97.75
276.799	100.75
277.031	96.75
277.262	83.75
277.494	79.75
277.726	88.75
277.957	91.75
278.189	88.75
278.421	101.75
278.652	83.75
278.884	103.75
279.115	85.75
279.347	97.75
279.579	91.75
279.81	86.75
280.042	92.75
280.273	77.75
280.505	79.75
280.736	89.75
280.968	81.75
281.199	83.75
281.431	86.75
281.662	94.75
281.894	97.75
282.125	82.75
282.356	112.75
282.588	137.75
282.819	91.75
283.051	87.75
283.282	84.75
283.513	82.75
283.745	75.75
283.976	88.75
284.207	93.75
284.439	79.75
284.67	89.75
284.901	93.75
285.132	95.75
285.364	80.75
285.595	99.75
285.826	85.75
286.057	92.75
286.288	80.75
286.52	80.75
286.751	97.75
286.982	80.75
287.213	89.75
287.444	91.75
287.675	97.75
287.906	95.75
288.138	95.75
288.369	94.75
288.6	93.75
288.831	85.75
289.062	92.75
289.293	85.75
289.524	87.75
289.755	98.75
289.986	87.75
290.217	92.75
290.448	94.75
290.679	94.75
290.91	85.75
291.141	87.75
291.371	93.75
291.602	84.75
291.833	97.75
292.064	98.75
292.295	83.75
292.526	84.75
292.757	92.75
292.987	97.75
293.218	97.75
293.449	94.75
293.68	77.75
293.91	99.75
294.141	69.75
294.372	103.75
294.603	99.75
294.833	94.75
295.064	94.75
295.295	70.75
295.525	87.75
295.756	94.75
295.987	121.75
296.217	128.75
296.448	147.75
296.679	89.75
296.909	104.75
297.14	80.75
297.37	100.75
297.601	98.75
297.831	93.75
298.062	84.75
298.292	107.75
298.523	84.75
298.753	88.75
298.984	92.75
299.214	90.75
299.445	90.75
299.675	103.75
299.905	109.75
300.136	96.75
300.366	96.75
300.597	96.75
300.827	95.75
301.057	104.75
301.288	114.75
301.518	99.75
301.748	94.75
301.979	105.75
302.209	87.75
302.439	94.75
302.669	92.75
302.9	89.75
303.13	94.75
303.36	102.75
303.59	92.75
303.82	115.75
304.051	86.75
304.281	91.75
304.511	103.75
304.741	96.75
304.971	87.75
305.201	107.75
305.431	83.75
305.661	98.75
305.891	88.75
306.121	97.75
306.352	101.75
306.582	89.75
306.812	106.75
307.042	89.75
307.272	95.75
307.502	96.75
307.731	95.75
307.961	86.75
308.191	103.75
308.421	94.75
308.651	89.75
308.881	100.75
309.111	88.75
309.341	91.75
309.571	91.75
309.8	101.75
310.03	100.75
310.26	97.75
310.49	91.75
310.72	92.75
310.949	104.75
311.179	105.75
311.409	93.75
311.639	113.75
311.868	96.75
312.098	101.75
312.328	85.75
312.557	98.75
312.787	101.75
313.017	94.75
313.246	97.75
313.476	101.75
313.706	90.75
313.935	88.75
314.165	111.75
314.394	93.75
314.624	108.75
314.853	100.75
315.083	75.75
315.312	83.75
315.542	93.75
315.771	100.75
316.001	87.75
316.23	89.75
316.46	98.75
316.689	91.75
316.919	95.75
317.148	91.75
317.377	100.75
317.607	99.75
317.836	96.75
318.065	94.75
318.295	103.75
318.524	99.75
318.753	94.75
318.983	99.75
319.212	98.75
319.441	97.75
319.67	89.75
319.9	101.75
320.129	90.75
320.358	93.75
320.587	81.75
320.816	97.75
321.046	110.75
321.275	103.75
321.504	99.75
321.733	93.75
321.962	87.75
322.191	102.75
322.42	115.75
322.649	114.75
322.878	108.75
323.108	111.75
323.337	130.75
323.566	132.75
323.795	161.75
324.024	186.75
324.253	363.75
324.482	779.75
324.71	1580.75
324.939	2146.75
325.168	789.75
325.397	216.75
325.626	143.75
325.855	122.75
326.084	116.75
326.313	145.75
326.542	159.75
326.77	238.75
326.999	416.75
327.228	876.75
327.457	1637.75
327.686	1281.75
327.914	347.75
328.143	185.75
328.372	145.75
328.6	118.75
328.829	120.75
329.058	120.75
329.287	118.75
329.515	99.75
329.744	126.75
329.972	89.75
330.201	114.75
330.43	101.75
330.658	115.75
330.887	122.75
331.115	105.75
331.344	103.75
331.572	99.75
331.801	101.75
332.03	92.75
332.258	99.75
332.486	105.75
332.715	92.75
332.943	91.75
333.172	96.75
333.4	97.75
333.629	105.75
333.857	120.75
334.085	112.75
334.314	99.75
334.542	89.75
334.771	102.75
334.999	105.75
335.227	91.75
335.455	102.75
335.684	85.75
335.912	104.75
336.14	108.75
336.369	107.75
336.597	100.75
336.825	99.75
337.053	92.75
337.281	96.75
337.51	92.75
337.738	93.75
337.966	89.75
338.194	102.75
338.422	91.75
338.65	101.75
338.878	90.75
339.106	111.75
339.334	91.75
339.562	98.75
339.79	100.75
340.018	98.75
340.246	91.75
340.474	91.75
340.702	94.75
340.93	92.75
341.158	87.75
341.386	96.75
341.614	93.75
341.842	94.75
342.07	102.75
342.298	99.75
342.526	98.75
342.754	112.75
342.981	89.75
343.209	93.75
343.437	94.75
343.665	104.75
343.893	89.75
344.12	92.75
344.348	93.75
344.576	76.75
344.804	90.75
345.031	94.75
345.259	92.75
345.487	80.75
345.714	102.75
345.942	87.75
346.17	102.75
346.397	83.75
346.625	93.75
346.853	95.75
347.08	101.75
347.308	96.75
347.535	95.75
347.763	91.75
347.99	102.75
348.218	97.75
348.445	105.75
348.673	107.75
348.9	108.75
349.128	104.75
349.355	97.75
349.583	83.75
349.81	90.75
350.037	101.75
350.265	105.75
350.492	93.75
350.72	109.75
350.947	96.75
351.174	97.75
351.402	117.75
351.629	87.75
351.856	93.75
352.083	103.75
352.311	98.75
352.538	109.75
352.765	95.75
352.992	109.75
353.22	120.75
353.447	105.75
353.674	95.75
353.901	88.75
354.128	108.75
354.355	98.75
354.583	87.75
354.81	101.75
355.037	105.75
355.264	92.75
355.491	102.75
355.718	92.75
355.945	98.75
356.172	89.75
356.399	95.75
356.626	93.75
356.853	89.75
357.08	97.75
357.307	85.75
357.534	87.75
357.761	90.75
357.988	97.75
358.215	100.75
358.441	95.75
358.668	87.75
358.895	86.75
359.122	87.75
359.349	90.75
359.576	108.75
359.802	101.75
360.029	105.75
360.256	119.75
360.483	98.75
360.709	89.75
360.936	94.75
361.163	100.75
361.39	90.75
361.616	90.75
361.843	86.75
362.07	93.75
362.296	99.75
362.523	91.75
362.749	81.75
362.976	95.75
363.203	108.75
363.429	100.75
363.656	88.75
363.882	96.75
364.109	84.75
364.335	86.75
364.562	102.75
364.788	97.75
365.015	101.75
365.241	99.75
365.468	104.75
365.694	97.75
365.92	109.75
366.147	109.75
366.373	79.75
366.599	85.75
366.826	109.75
367.052	98.75
367.278	84.75
367.505	92.75
367.731	99.75
367.957	94.75
368.184	86.75
368.41	93.75
368.636	104.75
368.862	111.75
369.089	112.75
369.315	91.75
369.541	85.75
369.767	83.75
369.993	84.75
370.219	87.75
370.445	83.75
370.672	87.75
370.898	98.75
371.124	88.75
371.35	94.75
371.576	71.75
371.802	79.75
372.028	65.75
372.254	92.75
372.48	104.75
372.706	87.75
372.932	79.75
373.158	84.75
373.384	90.75
373.61	104.75
373.835	84.75
374.061	97.75
374.287	98.75
374.513	97.75
374.739	94.75
374.965	99.75
375.191	86.75
375.416	101.75
375.642	84.75
375.868	96.75
376.094	89.75
376.319	98.75
376.545	89.75
376.771	97.75
376.997	88.75
377.222	94.75
377.448	87.75
377.674	92.75
377.899	93.75
378.125	88.75
378.35	85.75
378.576	95.75
378.802	86.75
379.027	84.75
379.253	102.75
379.478	86.75
379.704	92.75
379.929	95.75
380.155	106.75
380.38	89.75
380.606	93.75
380.831	96.75
381.057	95.75
381.282	113.75
381.507	95.75
381.733	94.75
381.958	92.75
382.184	85.75
382.409	85.75
382.634	90.75
382.86	96.75
383.085	107.75
383.31	107.75
383.535	98.75
383.761	92.75
383.986	110.75
384.211	96.75
384.436	81.75
384.662	99.75
384.887	100.75
385.112	110.75
385.337	111.75
385.562	97.75
385.787	96.75
386.013	90.75
386.238	114.75
386.463	111.75
386.688	104.75
386.913	102.75
387.138	97.75
387.363	97.75
387.588	109.75
387.813	92.75
388.038	111.75
388.263	115.75
388.488	98.75
388.713	95.75
388.938	96.75
389.163	103.75
389.387	94.75
389.612	103.75
389.837	89.75
390.062	98.75
390.287	88.75
390.512	94.75
390.736	77.75
390.961	94.75
391.186	97.75
391.411	94.75
391.636	111.75
391.86	88.75
392.085	80.75
392.31	71.75
392.534	101.75
392.759	92.75
392.984	77.75
393.208	97.75
393.433	79.75
393.658	89.75
393.882	85.75
394.107	79.75
394.331	96.75
394.556	92.75
394.78	88.75
395.005	97.75
395.229	99.75
395.454	97.75
395.678	76.75
395.903	93.75
396.127	95.75
396.352	96.75
396.576	80.75
396.801	92.75
397.025	92.75
397.249	76.75
397.474	82.75
397.698	87.75
397.922	87.75
398.147	84.75
398.371	77.75
398.595	80.75
398.82	86.75
399.044	59.75
399.268	90.75
399.492	86.75
399.717	96.75
399.941	83.75
400.165	90.75
400.389	91.75
400.613	101.75
400.837	84.75
401.062	89.75
401.286	84.75
401.51	93.75
401.734	83.75
401.958	98.75
402.182	124.75
402.406	135.75
402.63	107.75
402.854	103.75
403.078	83.75
403.302	80.75
403.526	79.75
403.75	88.75
403.974	88.75
404.198	76.75
404.422	88.75
404.645	86.75
404.869	96.75
405.093	93.75
405.317	102.75
405.541	90.75
405.765	96.75
405.988	103.75
406.212	149.75
406.436	193.75
406.66	133.75
406.883	92.75
407.107	90.75
407.331	94.75
407.555	100.75
407.778	94.75
408.002	100.75
408.226	94.75
408.449	99.75
408.673	99.75
408.896	95.75
409.12	82.75
409.344	108.75
409.567	89.75
409.791	91.75
410.014	100.75
410.238	108.75
410.461	85.75
410.685	91.75
410.908	94.75
411.132	95.75
411.355	99.75
411.578	94.75
411.802	81.75
412.025	99.75
412.249	89.75
412.472	75.75
412.695	99.75
412.919	99.75
413.142	92.75
413.365	102.75
413.589	82.75
413.812	99.75
414.035	83.75
414.258	105.75
414.482	99.75
414.705	93.75
414.928	97.75
415.151	81.75
415.374	95.75
415.597	83.75
415.821	87.75
416.044	87.75
416.267	91.75
416.49	88.75
416.713	97.75
416.936	92.75
417.159	79.75
417.382	84.75
417.605	88.75
417.828	87.75
418.051	95.75
418.274	99.75
418.497	97.75
418.72	99.75
418.943	83.75
419.166	94.75
419.389	87.75
419.611	92.75
419.834	101.75
420.057	101.75
420.28	86.75
420.503	86.75
420.726	78.75
420.948	83.75
421.171	82.75
421.394	94.75
421.617	84.75
421.839	93.75
422.062	81.75
422.285	86.75
422.507	88.75
422.73	115.75
422.953	94.75
423.175	85.75
423.398	92.75
423.621	92.75
423.843	85.75
424.066	87.75
424.288	82.75
424.511	85.75
424.733	88.75
424.956	107.75
425.178	91.75
425.401	96.75
425.623	101.75
425.846	87.75
426.068	81.75
426.291	81.75
426.513	74.75
426.735	97.75
426.958	87.75
427.18	105.75
427.402	117.75
427.625	137.75
427.847	124.75
428.069	107.75
428.292	91.75
428.514	92.75
428.736	68.75
428.958	83.75
429.181	93.75
429.403	84.75
429.625	79.75
429.847	90.75
430.069	87.75
430.292	89.75
430.514	78.75
430.736	81.75
430.958	80.75
431.18	87.75
431.402	92.75
431.624	73.75
431.846	95.75
432.068	84.75
432.29	87.75
432.512	98.75
432.734	104.75
432.956	95.75
433.178	108.75
433.4	81.75
433.622	87.75
433.844	95.75
434.066	93.75
434.287	90.75
434.509	105.75
434.731	94.75
434.953	75.75
435.175	92.75
435.397	81.75
435.618	80.75
435.84	110.75
436.062	125.75
436.284	100.75
436.505	93.75
436.727	87.75
436.949	108.75
437.17	82.75
437.392	77.75
437.614	95.75
437.835	97.75
438.057	101.75
438.278	96.75
438.5	104.75
438.721	125.75
438.943	97.75
439.165	96.75
439.386	84.75
439.608	94.75
439.829	100.75
440.05	112.75
440.272	119.75
440.493	89.75
440.715	80.75
440.936	87.75
441.158	89.75
441.379	81.75
441.6	94.75
441.822	78.75
442.043	91.75
442.264	82.75
442.486	94.75
442.707	100.75
442.928	110.75
443.149	123.75
443.371	119.75
443.592	105.75
443.813	112.75
444.034	91.75
444.255	92.75
444.476	85.75
444.698	83.75
444.919	89.75
445.14	124.75
445.361	120.75
445.582	118.75
445.803	139.75
446.024	129.75
446.245	118.75
446.466	104.75
446.687	86.75
446.908	99.75
447.129	87.75
447.35	107.75
447.571	80.75
447.792	94.75
448.013	103.75
448.234	101.75
448.455	105.75
448.675	105.75
448.896	105.75
449.117	93.75
449.338	102.75
449.559	121.75
449.779	127.75
450	100.75
450.221	84.75
450.442	91.75
450.662	98.75
450.883	109.75
451.104	94.75
451.324	109.75
451.545	77.75
451.766	89.75
451.986	98.75
452.207	81.75
452.428	85.75
452.648	98.75
452.869	88.75
453.089	84.75
453.31	101.75
453.53	96.75
453.751	80.75
453.971	104.75
454.192	103.75
454.412	102.75
454.633	77.75
454.853	87.75
455.073	94.75
455.294	83.75
455.514	90.75
455.734	76.75
455.955	91.75
456.175	90.75
456.395	82.75
456.616	90.75
456.836	87.75
457.056	87.75
457.276	91.75
457.497	83.75
457.717	97.75
457.937	93.75
458.157	89.75
458.377	99.75
458.598	103.75
458.818	156.75
459.038	140.75
459.258	113.75
459.478	88.75
459.698	84.75
459.918	86.75
460.138	83.75
460.358	79.75
460.578	92.75
460.798	88.75
461.018	95.75
461.238	86.75
461.458	81.75
461.678	89.75
461.898	77.75
462.118	96.75
462.338	80.75
462.558	90.75
462.777	80.75
462.997	84.75
463.217	79.75
463.437	100.75
463.657	72.75
463.876	94.75
464.096	95.75
464.316	88.75
464.536	104.75
464.755	101.75
464.975	100.75
465.195	153.75
465.414	146.75
465.634	96.75
465.854	95.75
466.073	91.75
466.293	75.75
466.512	83.75
466.732	91.75
466.951	89.75
467.171	97.75
467.391	95.75
467.61	85.75
467.829	86.75
468.049	87.75
468.268	79.75
468.488	78.75
468.707	87.75
468.927	76.75
469.146	86.75
469.365	90.75
469.585	92.75
469.804	88.75
470.023	86.75
470.243	84.75
470.462	96.75
470.681	101.75
470.901	81.75
471.12	77.75
471.339	84.75
471.558	86.75
471.777	73.75
471.997	91.75
472.216	92.75
472.435	105.75
472.654	90.75
472.873	83.75
473.092	85.75
473.311	87.75
473.53	85.75
473.749	92.75
473.968	85.75
474.187	102.75
474.406	95.75
474.625	91.75
474.844	97.75
475.063	70.75
475.282	83.75
475.501	85.75
475.72	84.75
475.939	103.75
476.158	81.75
476.377	82.75
476.596	103.75
476.814	76.75
477.033	92.75
477.252	90.75
477.471	75.75
477.69	95.75
477.908	92.75
478.127	82.75
478.346	88.75
478.564	70.75
478.783	87.75
479.002	86.75
479.22	85.75
479.439	92.75
479.658	99.75
479.876	90.75
480.095	90.75
480.313	91.75
480.532	92.75
480.751	86.75
480.969	82.75
481.188	99.75
481.406	82.75
481.624	83.75
481.843	96.75
482.061	85.75
482.28	88.75
482.498	82.75
482.717	100.75
482.935	87.75
483.153	78.75
483.372	102.75
483.59	95.75
483.808	80.75
484.027	82.75
484.245	100.75
484.463	88.75
484.681	97.75
484.9	82.75
485.118	91.75
485.336	86.75
485.554	88.75
485.772	96.75
485.99	104.75
486.209	84.75
486.427	110.75
486.645	111.75
486.863	102.75
487.081	108.75
487.299	91.75
487.517	100.75
487.735	88.75
487.953	96.75
488.171	92.75
488.389	94.75
488.607	98.75
488.825	100.75
489.043	90.75
489.261	94.75
489.479	93.75
489.696	77.75
489.914	97.75
490.132	92.75
490.35	87.75
490.568	93.75
490.786	86.75
491.003	79.75
491.221	100.75
491.439	81.75
491.657	85.75
491.874	100.75
492.092	93.75
492.31	106.75
492.527	91.75
492.745	91.75
492.963	96.75
493.18	96.75
493.398	113.75
493.615	101.75
493.833	92.75
494.05	89.75
494.268	85.75
494.485	78.75
494.703	92.75
494.92	93.75
495.138	87.75
495.355	79.75
495.573	100.75
495.79	83.75
496.008	92.75
496.225	83.75
496.442	80.75
496.66	101.75
496.877	91.75
497.094	87.75
497.312	97.75
497.529	95.75
497.746	80.75
497.963	104.75
498.181	88.75
498.398	103.75
498.615	108.75
498.832	112.75
499.049	89.75
499.267	99.75
499.484	96.75
499.701	99.75
499.918	94.75
500.135	92.75
500.352	103.75
500.569	83.75
500.786	89.75
501.003	93.75
501.22	86.75
501.437	102.75
501.654	91.75
501.871	100.75
502.088	80.75
502.305	81.75
502.522	97.75
502.739	97.75
502.956	96.75
503.172	97.75
503.389	86.75
503.606	88.75
503.823	98.75
504.04	83.75
504.256	87.75
504.473	82.75
504.69	102.75
504.907	85.75
505.123	97.75
505.34	98.75
505.557	82.75
505.773	77.75
505.99	91.75
506.207	101.75
506.423	87.75
506.64	92.75
506.856	95.75
507.073	101.75
507.289	107.75
507.506	106.75
507.722	100.75
507.939	97.75
508.155	84.75
508.372	91.75
508.588	110.75
508.805	85.75
509.021	83.75
509.238	111.75
509.454	115.75
509.67	91.75
509.887	100.75
510.103	127.75
510.319	206.75
510.536	688.75
510.752	2112.75
510.968	593.75
511.184	135.75
511.401	109.75
511.617	106.75
511.833	85.75
512.049	95.75
512.265	91.75
512.481	89.75
512.698	73.75
512.914	101.75
513.13	104.75
513.346	89.75
513.562	94.75
513.778	98.75
513.994	88.75
514.21	100.75
514.426	109.75
514.642	121.75
514.858	96.75
515.074	149.75
515.29	400.75
515.506	1234.75
515.721	466.75
