Data from Uncirc_1990_H10_HRD10591_00024.txt Node
Date: Wed Jan 03 11:53:56 EST 2024
User: Yrep
Spectrometer: HR+D1059
Trigger mode: 1
Integration Time (sec): 1.000000E-1
Scans to average: 1
Electric dark correction enabled: true
Nonlinearity correction enabled: false
Boxcar width: 0
XAxis mode: Wavelengths
Number of Pixels in Spectrum: 2048
>>>>>Begin Spectral Data<<<<<
223.165	-15.25
223.4	-15.25
223.635	-15.25
223.869	-25.25
224.104	-27.25
224.338	-10.25
224.573	-11.25
224.808	4.75
225.042	-14.25
225.277	-7.25
225.511	14.75
225.746	5.75
225.98	2.75
226.215	4.75
226.449	4.75
226.683	16.75
226.918	14.75
227.152	41.75
227.387	32.75
227.621	36.75
227.856	36.75
228.09	31.75
228.324	55.75
228.559	56.75
228.793	73.75
229.027	65.75
229.262	60.75
229.496	63.75
229.73	93.75
229.964	79.75
230.199	57.75
230.433	66.75
230.667	73.75
230.901	78.75
231.136	72.75
231.37	82.75
231.604	82.75
231.838	67.75
232.072	75.75
232.306	80.75
232.541	76.75
232.775	83.75
233.009	70.75
233.243	94.75
233.477	85.75
233.711	83.75
233.945	72.75
234.179	75.75
234.413	65.75
234.647	74.75
234.881	68.75
235.115	76.75
235.349	100.75
235.583	82.75
235.817	77.75
236.051	78.75
236.285	82.75
236.519	64.75
236.753	73.75
236.987	74.75
237.221	77.75
237.455	78.75
237.689	77.75
237.922	68.75
238.156	77.75
238.39	66.75
238.624	80.75
238.858	79.75
239.091	78.75
239.325	86.75
239.559	77.75
239.793	77.75
240.027	65.75
240.26	86.75
240.494	61.75
240.728	66.75
240.961	83.75
241.195	68.75
241.429	78.75
241.662	78.75
241.896	75.75
242.13	80.75
242.363	75.75
242.597	73.75
242.83	70.75
243.064	72.75
243.298	84.75
243.531	88.75
243.765	81.75
243.998	74.75
244.232	64.75
244.465	76.75
244.699	66.75
244.932	76.75
245.166	67.75
245.399	78.75
245.633	74.75
245.866	72.75
246.099	75.75
246.333	79.75
246.566	72.75
246.8	85.75
247.033	74.75
247.266	78.75
247.5	79.75
247.733	85.75
247.966	73.75
248.2	62.75
248.433	61.75
248.666	78.75
248.899	80.75
249.133	79.75
249.366	94.75
249.599	84.75
249.832	70.75
250.066	75.75
250.299	78.75
250.532	81.75
250.765	84.75
250.998	73.75
251.231	82.75
251.465	89.75
251.698	81.75
251.931	77.75
252.164	82.75
252.397	64.75
252.63	68.75
252.863	74.75
253.096	74.75
253.329	96.75
253.562	76.75
253.795	73.75
254.028	73.75
254.261	65.75
254.494	88.75
254.727	86.75
254.96	76.75
255.193	75.75
255.426	90.75
255.659	92.75
255.892	89.75
256.124	78.75
256.357	66.75
256.59	68.75
256.823	84.75
257.056	81.75
257.289	87.75
257.521	86.75
257.754	76.75
257.987	87.75
258.22	93.75
258.452	92.75
258.685	71.75
258.918	78.75
259.151	74.75
259.383	83.75
259.616	74.75
259.849	89.75
260.081	74.75
260.314	81.75
260.547	79.75
260.779	89.75
261.012	89.75
261.244	89.75
261.477	85.75
261.71	87.75
261.942	101.75
262.175	104.75
262.407	83.75
262.64	77.75
262.872	80.75
263.105	68.75
263.337	86.75
263.57	75.75
263.802	95.75
264.035	90.75
264.267	74.75
264.499	84.75
264.732	63.75
264.964	72.75
265.197	76.75
265.429	88.75
265.661	90.75
265.894	84.75
266.126	82.75
266.358	91.75
266.591	72.75
266.823	76.75
267.055	78.75
267.287	82.75
267.52	72.75
267.752	82.75
267.984	75.75
268.216	74.75
268.448	83.75
268.681	80.75
268.913	79.75
269.145	69.75
269.377	75.75
269.609	80.75
269.841	81.75
270.073	68.75
270.306	92.75
270.538	79.75
270.77	72.75
271.002	73.75
271.234	79.75
271.466	91.75
271.698	73.75
271.93	89.75
272.162	83.75
272.394	93.75
272.626	67.75
272.858	75.75
273.09	81.75
273.322	88.75
273.553	83.75
273.785	101.75
274.017	89.75
274.249	89.75
274.481	77.75
274.713	88.75
274.945	83.75
275.176	85.75
275.408	80.75
275.64	85.75
275.872	61.75
276.104	74.75
276.335	98.75
276.567	92.75
276.799	93.75
277.031	88.75
277.262	88.75
277.494	91.75
277.726	91.75
277.957	89.75
278.189	87.75
278.421	75.75
278.652	90.75
278.884	79.75
279.115	82.75
279.347	80.75
279.579	91.75
279.81	82.75
280.042	86.75
280.273	91.75
280.505	87.75
280.736	89.75
280.968	83.75
281.199	88.75
281.431	69.75
281.662	74.75
281.894	75.75
282.125	87.75
282.356	107.75
282.588	126.75
282.819	106.75
283.051	82.75
283.282	87.75
283.513	86.75
283.745	92.75
283.976	63.75
284.207	78.75
284.439	86.75
284.67	85.75
284.901	86.75
285.132	85.75
285.364	87.75
285.595	90.75
285.826	86.75
286.057	81.75
286.288	90.75
286.52	104.75
286.751	83.75
286.982	92.75
287.213	84.75
287.444	83.75
287.675	93.75
287.906	79.75
288.138	84.75
288.369	92.75
288.6	95.75
288.831	96.75
289.062	86.75
289.293	88.75
289.524	82.75
289.755	90.75
289.986	80.75
290.217	79.75
290.448	74.75
290.679	82.75
290.91	88.75
291.141	80.75
291.371	83.75
291.602	92.75
291.833	79.75
292.064	80.75
292.295	74.75
292.526	84.75
292.757	83.75
292.987	84.75
293.218	85.75
293.449	78.75
293.68	88.75
293.91	79.75
294.141	90.75
294.372	78.75
294.603	93.75
294.833	72.75
295.064	66.75
295.295	69.75
295.525	80.75
295.756	88.75
295.987	103.75
296.217	142.75
296.448	123.75
296.679	83.75
296.909	82.75
297.14	94.75
297.37	70.75
297.601	93.75
297.831	82.75
298.062	96.75
298.292	92.75
298.523	87.75
298.753	92.75
298.984	88.75
299.214	75.75
299.445	84.75
299.675	88.75
299.905	100.75
300.136	87.75
300.366	98.75
300.597	95.75
300.827	85.75
301.057	81.75
301.288	87.75
301.518	74.75
301.748	83.75
301.979	99.75
302.209	83.75
302.439	85.75
302.669	80.75
302.9	90.75
303.13	102.75
303.36	93.75
303.59	84.75
303.82	108.75
304.051	97.75
304.281	94.75
304.511	105.75
304.741	74.75
304.971	80.75
305.201	87.75
305.431	109.75
305.661	83.75
305.891	92.75
306.121	93.75
306.352	80.75
306.582	99.75
306.812	85.75
307.042	97.75
307.272	95.75
307.502	107.75
307.731	72.75
307.961	75.75
308.191	92.75
308.421	99.75
308.651	92.75
308.881	84.75
309.111	78.75
309.341	90.75
309.571	92.75
309.8	84.75
310.03	99.75
310.26	95.75
310.49	92.75
310.72	99.75
310.949	96.75
311.179	97.75
311.409	83.75
311.639	99.75
311.868	107.75
312.098	90.75
312.328	93.75
312.557	76.75
312.787	92.75
313.017	93.75
313.246	82.75
313.476	90.75
313.706	91.75
313.935	98.75
314.165	88.75
314.394	86.75
314.624	106.75
314.853	87.75
315.083	84.75
315.312	91.75
315.542	102.75
315.771	98.75
316.001	98.75
316.23	92.75
316.46	81.75
316.689	90.75
316.919	85.75
317.148	101.75
317.377	83.75
317.607	80.75
317.836	94.75
318.065	83.75
318.295	90.75
318.524	86.75
318.753	84.75
318.983	90.75
319.212	97.75
319.441	119.75
319.67	101.75
319.9	79.75
320.129	88.75
320.358	96.75
320.587	91.75
320.816	82.75
321.046	98.75
321.275	93.75
321.504	91.75
321.733	90.75
321.962	94.75
322.191	91.75
322.42	102.75
322.649	109.75
322.878	102.75
323.108	109.75
323.337	116.75
323.566	130.75
323.795	139.75
324.024	195.75
324.253	357.75
324.482	753.75
324.71	1572.75
324.939	2058.75
325.168	745.75
325.397	221.75
325.626	136.75
325.855	124.75
326.084	122.75
326.313	106.75
326.542	142.75
326.77	204.75
326.999	422.75
327.228	895.75
327.457	1591.75
327.686	1262.75
327.914	344.75
328.143	174.75
328.372	140.75
328.6	99.75
328.829	112.75
329.058	103.75
329.287	114.75
329.515	105.75
329.744	99.75
329.972	99.75
330.201	97.75
330.43	112.75
330.658	113.75
330.887	120.75
331.115	109.75
331.344	106.75
331.572	101.75
331.801	113.75
332.03	108.75
332.258	94.75
332.486	82.75
332.715	89.75
332.943	75.75
333.172	97.75
333.4	109.75
333.629	91.75
333.857	110.75
334.085	85.75
334.314	97.75
334.542	97.75
334.771	95.75
334.999	91.75
335.227	93.75
335.455	95.75
335.684	82.75
335.912	97.75
336.14	88.75
336.369	105.75
336.597	86.75
336.825	87.75
337.053	84.75
337.281	83.75
337.51	82.75
337.738	79.75
337.966	91.75
338.194	83.75
338.422	84.75
338.65	85.75
338.878	81.75
339.106	77.75
339.334	92.75
339.562	94.75
339.79	83.75
340.018	80.75
340.246	97.75
340.474	86.75
340.702	94.75
340.93	86.75
341.158	86.75
341.386	88.75
341.614	107.75
341.842	91.75
342.07	93.75
342.298	79.75
342.526	77.75
342.754	74.75
342.981	105.75
343.209	76.75
343.437	81.75
343.665	82.75
343.893	77.75
344.12	89.75
344.348	87.75
344.576	100.75
344.804	92.75
345.031	92.75
345.259	89.75
345.487	91.75
345.714	78.75
345.942	85.75
346.17	85.75
346.397	81.75
346.625	85.75
346.853	86.75
347.08	85.75
347.308	94.75
347.535	89.75
347.763	92.75
347.99	86.75
348.218	97.75
348.445	101.75
348.673	83.75
348.9	91.75
349.128	88.75
349.355	91.75
349.583	83.75
349.81	100.75
350.037	69.75
350.265	80.75
350.492	76.75
350.72	103.75
350.947	98.75
351.174	98.75
351.402	117.75
351.629	106.75
351.856	93.75
352.083	90.75
352.311	101.75
352.538	104.75
352.765	99.75
352.992	104.75
353.22	104.75
353.447	94.75
353.674	91.75
353.901	100.75
354.128	86.75
354.355	85.75
354.583	88.75
354.81	94.75
355.037	89.75
355.264	101.75
355.491	85.75
355.718	95.75
355.945	78.75
356.172	108.75
356.399	85.75
356.626	90.75
356.853	93.75
357.08	91.75
357.307	78.75
357.534	88.75
357.761	98.75
357.988	90.75
358.215	102.75
358.441	89.75
358.668	96.75
358.895	78.75
359.122	82.75
359.349	92.75
359.576	103.75
359.802	88.75
360.029	110.75
360.256	100.75
360.483	90.75
360.709	85.75
360.936	85.75
361.163	97.75
361.39	102.75
361.616	83.75
361.843	80.75
362.07	95.75
362.296	87.75
362.523	87.75
362.749	92.75
362.976	96.75
363.203	88.75
363.429	89.75
363.656	89.75
363.882	85.75
364.109	101.75
364.335	76.75
364.562	86.75
364.788	80.75
365.015	95.75
365.241	94.75
365.468	100.75
365.694	88.75
365.92	92.75
366.147	86.75
366.373	96.75
366.599	96.75
366.826	83.75
367.052	77.75
367.278	85.75
367.505	83.75
367.731	83.75
367.957	93.75
368.184	88.75
368.41	91.75
368.636	100.75
368.862	93.75
369.089	108.75
369.315	102.75
369.541	79.75
369.767	85.75
369.993	94.75
370.219	87.75
370.445	86.75
370.672	92.75
370.898	85.75
371.124	88.75
371.35	98.75
371.576	77.75
371.802	67.75
372.028	85.75
372.254	84.75
372.48	80.75
372.706	72.75
372.932	77.75
373.158	94.75
373.384	79.75
373.61	83.75
373.835	77.75
374.061	90.75
374.287	76.75
374.513	76.75
374.739	86.75
374.965	90.75
375.191	87.75
375.416	107.75
375.642	81.75
375.868	82.75
376.094	91.75
376.319	83.75
376.545	90.75
376.771	98.75
376.997	72.75
377.222	78.75
377.448	88.75
377.674	92.75
377.899	92.75
378.125	86.75
378.35	84.75
378.576	88.75
378.802	87.75
379.027	103.75
379.253	81.75
379.478	91.75
379.704	93.75
379.929	98.75
380.155	93.75
380.38	88.75
380.606	92.75
380.831	101.75
381.057	102.75
381.282	85.75
381.507	96.75
381.733	97.75
381.958	94.75
382.184	101.75
382.409	96.75
382.634	85.75
382.86	106.75
383.085	107.75
383.31	92.75
383.535	113.75
383.761	80.75
383.986	94.75
384.211	93.75
384.436	80.75
384.662	94.75
384.887	95.75
385.112	102.75
385.337	98.75
385.562	83.75
385.787	99.75
386.013	109.75
386.238	117.75
386.463	108.75
386.688	95.75
386.913	113.75
387.138	85.75
387.363	101.75
387.588	99.75
387.813	97.75
388.038	95.75
388.263	106.75
388.488	102.75
388.713	99.75
388.938	85.75
389.163	110.75
389.387	67.75
389.612	86.75
389.837	88.75
390.062	83.75
390.287	96.75
390.512	73.75
390.736	94.75
390.961	92.75
391.186	71.75
391.411	90.75
391.636	102.75
391.86	88.75
392.085	68.75
392.31	93.75
392.534	107.75
392.759	90.75
392.984	90.75
393.208	93.75
393.433	94.75
393.658	91.75
393.882	95.75
394.107	83.75
394.331	82.75
394.556	84.75
394.78	86.75
395.005	76.75
395.229	76.75
395.454	77.75
395.678	65.75
395.903	88.75
396.127	83.75
396.352	92.75
396.576	80.75
396.801	90.75
397.025	82.75
397.249	72.75
397.474	91.75
397.698	83.75
397.922	89.75
398.147	87.75
398.371	74.75
398.595	84.75
398.82	96.75
399.044	96.75
399.268	76.75
399.492	79.75
399.717	77.75
399.941	95.75
400.165	96.75
400.389	86.75
400.613	100.75
400.837	79.75
401.062	89.75
401.286	101.75
401.51	77.75
401.734	79.75
401.958	94.75
402.182	108.75
402.406	164.75
402.63	109.75
402.854	93.75
403.078	91.75
403.302	89.75
403.526	75.75
403.75	88.75
403.974	93.75
404.198	74.75
404.422	90.75
404.645	67.75
404.869	89.75
405.093	91.75
405.317	112.75
405.541	96.75
405.765	106.75
405.988	126.75
406.212	154.75
406.436	196.75
406.66	126.75
406.883	96.75
407.107	76.75
407.331	77.75
407.555	86.75
407.778	97.75
408.002	91.75
408.226	79.75
408.449	76.75
408.673	73.75
408.896	93.75
409.12	100.75
409.344	86.75
409.567	79.75
409.791	78.75
410.014	102.75
410.238	103.75
410.461	88.75
410.685	94.75
410.908	84.75
411.132	98.75
411.355	89.75
411.578	83.75
411.802	86.75
412.025	66.75
412.249	93.75
412.472	81.75
412.695	86.75
412.919	88.75
413.142	81.75
413.365	90.75
413.589	94.75
413.812	77.75
414.035	90.75
414.258	86.75
414.482	95.75
414.705	81.75
414.928	86.75
415.151	80.75
415.374	97.75
415.597	104.75
415.821	74.75
416.044	92.75
416.267	93.75
416.49	87.75
416.713	76.75
416.936	99.75
417.159	87.75
417.382	72.75
417.605	76.75
417.828	87.75
418.051	79.75
418.274	98.75
418.497	74.75
418.72	84.75
418.943	81.75
419.166	72.75
419.389	93.75
419.611	93.75
419.834	87.75
420.057	87.75
420.28	75.75
420.503	79.75
420.726	84.75
420.948	90.75
421.171	83.75
421.394	83.75
421.617	88.75
421.839	83.75
422.062	69.75
422.285	96.75
422.507	97.75
422.73	95.75
422.953	95.75
423.175	92.75
423.398	80.75
423.621	96.75
423.843	93.75
424.066	88.75
424.288	90.75
424.511	88.75
424.733	94.75
424.956	95.75
425.178	96.75
425.401	99.75
425.623	102.75
425.846	93.75
426.068	85.75
426.291	93.75
426.513	90.75
426.735	89.75
426.958	91.75
427.18	101.75
427.402	120.75
427.625	153.75
427.847	110.75
428.069	92.75
428.292	85.75
428.514	91.75
428.736	77.75
428.958	76.75
429.181	81.75
429.403	90.75
429.625	91.75
429.847	76.75
430.069	100.75
430.292	92.75
430.514	85.75
430.736	78.75
430.958	84.75
431.18	72.75
431.402	60.75
431.624	95.75
431.846	80.75
432.068	86.75
432.29	91.75
432.512	89.75
432.734	82.75
432.956	96.75
433.178	79.75
433.4	97.75
433.622	97.75
433.844	97.75
434.066	74.75
434.287	86.75
434.509	88.75
434.731	84.75
434.953	78.75
435.175	93.75
435.397	85.75
435.618	92.75
435.84	91.75
436.062	115.75
436.284	94.75
436.505	102.75
436.727	96.75
436.949	86.75
437.17	95.75
437.392	77.75
437.614	84.75
437.835	112.75
438.057	113.75
438.278	101.75
438.5	101.75
438.721	116.75
438.943	98.75
439.165	85.75
439.386	78.75
439.608	85.75
439.829	106.75
440.05	116.75
440.272	120.75
440.493	105.75
440.715	95.75
440.936	91.75
441.158	86.75
441.379	80.75
441.6	90.75
441.822	96.75
442.043	90.75
442.264	92.75
442.486	86.75
442.707	90.75
442.928	97.75
443.149	121.75
443.371	112.75
443.592	90.75
443.813	90.75
444.034	101.75
444.255	91.75
444.476	101.75
444.698	90.75
444.919	82.75
445.14	135.75
445.361	129.75
445.582	98.75
445.803	134.75
446.024	110.75
446.245	124.75
446.466	111.75
446.687	92.75
446.908	71.75
447.129	92.75
447.35	93.75
447.571	76.75
447.792	88.75
448.013	84.75
448.234	95.75
448.455	118.75
448.675	111.75
448.896	113.75
449.117	100.75
449.338	110.75
449.559	123.75
449.779	115.75
450	88.75
450.221	91.75
450.442	85.75
450.662	80.75
450.883	108.75
451.104	121.75
451.324	96.75
451.545	80.75
451.766	92.75
451.986	90.75
452.207	92.75
452.428	80.75
452.648	83.75
452.869	102.75
453.089	103.75
453.31	98.75
453.53	88.75
453.751	85.75
453.971	91.75
454.192	108.75
454.412	97.75
454.633	92.75
454.853	75.75
455.073	85.75
455.294	82.75
455.514	95.75
455.734	80.75
455.955	85.75
456.175	74.75
456.395	79.75
456.616	90.75
456.836	86.75
457.056	84.75
457.276	85.75
457.497	81.75
457.717	80.75
457.937	80.75
458.157	98.75
458.377	89.75
458.598	106.75
458.818	139.75
459.038	130.75
459.258	116.75
459.478	90.75
459.698	69.75
459.918	85.75
460.138	80.75
460.358	85.75
460.578	92.75
460.798	100.75
461.018	92.75
461.238	95.75
461.458	76.75
461.678	74.75
461.898	76.75
462.118	77.75
462.338	101.75
462.558	82.75
462.777	86.75
462.997	86.75
463.217	86.75
463.437	82.75
463.657	78.75
463.876	93.75
464.096	76.75
464.316	82.75
464.536	90.75
464.755	100.75
464.975	92.75
465.195	150.75
465.414	128.75
465.634	101.75
465.854	80.75
466.073	78.75
466.293	85.75
466.512	60.75
466.732	78.75
466.951	71.75
467.171	78.75
467.391	82.75
467.61	84.75
467.829	89.75
468.049	93.75
468.268	83.75
468.488	84.75
468.707	94.75
468.927	74.75
469.146	64.75
469.365	84.75
469.585	86.75
469.804	90.75
470.023	98.75
470.243	90.75
470.462	106.75
470.681	112.75
470.901	92.75
471.12	79.75
471.339	91.75
471.558	85.75
471.777	92.75
471.997	85.75
472.216	100.75
472.435	95.75
472.654	75.75
472.873	75.75
473.092	94.75
473.311	79.75
473.53	86.75
473.749	98.75
473.968	85.75
474.187	108.75
474.406	85.75
474.625	85.75
474.844	76.75
475.063	86.75
475.282	85.75
475.501	97.75
475.72	76.75
475.939	90.75
476.158	73.75
476.377	95.75
476.596	101.75
476.814	76.75
477.033	78.75
477.252	71.75
477.471	76.75
477.69	101.75
477.908	85.75
478.127	91.75
478.346	98.75
478.564	84.75
478.783	87.75
479.002	88.75
479.22	100.75
479.439	84.75
479.658	92.75
479.876	80.75
480.095	94.75
480.313	99.75
480.532	91.75
480.751	85.75
480.969	82.75
481.188	89.75
481.406	85.75
481.624	82.75
481.843	90.75
482.061	84.75
482.28	88.75
482.498	66.75
482.717	106.75
482.935	88.75
483.153	82.75
483.372	89.75
483.59	84.75
483.808	94.75
484.027	84.75
484.245	101.75
484.463	86.75
484.681	111.75
484.9	98.75
485.118	86.75
485.336	82.75
485.554	90.75
485.772	97.75
485.99	113.75
486.209	93.75
486.427	93.75
486.645	105.75
486.863	95.75
487.081	112.75
487.299	106.75
487.517	74.75
487.735	98.75
487.953	80.75
488.171	92.75
488.389	101.75
488.607	102.75
488.825	78.75
489.043	95.75
489.261	101.75
489.479	80.75
489.696	83.75
489.914	100.75
490.132	84.75
490.35	84.75
490.568	94.75
490.786	86.75
491.003	87.75
491.221	82.75
491.439	81.75
491.657	90.75
491.874	88.75
492.092	90.75
492.31	82.75
492.527	80.75
492.745	90.75
492.963	95.75
493.18	94.75
493.398	94.75
493.615	105.75
493.833	96.75
494.05	93.75
494.268	81.75
494.485	86.75
494.703	93.75
494.92	94.75
495.138	85.75
495.355	89.75
495.573	90.75
495.79	91.75
496.008	99.75
496.225	78.75
496.442	86.75
496.66	90.75
496.877	92.75
497.094	82.75
497.312	96.75
497.529	86.75
497.746	82.75
497.963	91.75
498.181	93.75
498.398	89.75
498.615	105.75
498.832	102.75
499.049	97.75
499.267	85.75
499.484	88.75
499.701	90.75
499.918	91.75
500.135	88.75
500.352	82.75
500.569	94.75
500.786	84.75
501.003	94.75
501.22	79.75
501.437	94.75
501.654	90.75
501.871	109.75
502.088	92.75
502.305	91.75
502.522	76.75
502.739	98.75
502.956	95.75
503.172	85.75
503.389	86.75
503.606	108.75
503.823	96.75
504.04	69.75
504.256	95.75
504.473	82.75
504.69	81.75
504.907	74.75
505.123	96.75
505.34	102.75
505.557	108.75
505.773	105.75
505.99	83.75
506.207	82.75
506.423	106.75
506.64	92.75
506.856	88.75
507.073	94.75
507.289	104.75
507.506	94.75
507.722	101.75
507.939	97.75
508.155	100.75
508.372	85.75
508.588	91.75
508.805	84.75
509.021	80.75
509.238	97.75
509.454	80.75
509.67	110.75
509.887	114.75
510.103	117.75
510.319	218.75
510.536	685.75
510.752	2208.75
510.968	606.75
511.184	138.75
511.401	96.75
511.617	86.75
511.833	85.75
512.049	100.75
512.265	101.75
512.481	98.75
512.698	91.75
512.914	98.75
513.13	91.75
513.346	88.75
513.562	98.75
513.778	89.75
513.994	93.75
514.21	103.75
514.426	106.75
514.642	132.75
514.858	127.75
515.074	166.75
515.29	410.75
515.506	1305.75
515.721	476.75
515.937	142.75
516.153	103.75
516.369	102.75
516.585	84.75
516.801	90.75
517.016	93.75
