Data from Uncirc_1990_H10_HRD10591_00053.txt Node
Date: Wed Jan 03 11:54:02 EST 2024
User: Yrep
Spectrometer: HR+D1059
Trigger mode: 1
Integration Time (sec): 1.000000E-1
Scans to average: 1
Electric dark correction enabled: true
Nonlinearity correction enabled: false
Boxcar width: 0
XAxis mode: Wavelengths
Number of Pixels in Spectrum: 2048
>>>>>Begin Spectral Data<<<<<
223.165	-22.31
223.4	-22.31
223.635	-22.31
223.869	-22.31
224.104	-25.31
224.338	-21.31
224.573	-20.31
224.808	-4.31
225.042	-6.31
225.277	-9.31
225.511	6.69
225.746	25.69
225.98	10.69
226.215	21.69
226.449	16.69
226.683	16.69
226.918	12.69
227.152	20.69
227.387	25.69
227.621	32.69
227.856	37.69
228.09	33.69
228.324	48.69
228.559	42.69
228.793	49.69
229.027	71.69
229.262	59.69
229.496	61.69
229.73	79.69
229.964	77.69
230.199	69.69
230.433	78.69
230.667	75.69
230.901	70.69
231.136	81.69
231.37	88.69
231.604	82.69
231.838	80.69
232.072	79.69
232.306	87.69
232.541	77.69
232.775	77.69
233.009	81.69
233.243	89.69
233.477	84.69
233.711	86.69
233.945	87.69
234.179	94.69
234.413	81.69
234.647	82.69
234.881	67.69
235.115	71.69
235.349	78.69
235.583	71.69
235.817	87.69
236.051	81.69
236.285	83.69
236.519	75.69
236.753	69.69
236.987	79.69
237.221	88.69
237.455	77.69
237.689	84.69
237.922	85.69
238.156	83.69
238.39	72.69
238.624	73.69
238.858	66.69
239.091	80.69
239.325	79.69
239.559	71.69
239.793	85.69
240.027	83.69
240.26	84.69
240.494	88.69
240.728	89.69
240.961	90.69
241.195	83.69
241.429	78.69
241.662	67.69
241.896	91.69
242.13	75.69
242.363	79.69
242.597	68.69
242.83	91.69
243.064	80.69
243.298	80.69
243.531	88.69
243.765	70.69
243.998	76.69
244.232	79.69
244.465	79.69
244.699	73.69
244.932	70.69
245.166	69.69
245.399	88.69
245.633	71.69
245.866	68.69
246.099	82.69
246.333	95.69
246.566	73.69
246.8	89.69
247.033	69.69
247.266	72.69
247.5	64.69
247.733	84.69
247.966	77.69
248.2	81.69
248.433	80.69
248.666	79.69
248.899	85.69
249.133	89.69
249.366	98.69
249.599	104.69
249.832	91.69
250.066	77.69
250.299	85.69
250.532	95.69
250.765	79.69
250.998	81.69
251.231	84.69
251.465	89.69
251.698	86.69
251.931	77.69
252.164	78.69
252.397	64.69
252.63	64.69
252.863	90.69
253.096	77.69
253.329	75.69
253.562	80.69
253.795	80.69
254.028	84.69
254.261	88.69
254.494	81.69
254.727	96.69
254.96	97.69
255.193	91.69
255.426	79.69
255.659	83.69
255.892	80.69
256.124	88.69
256.357	71.69
256.59	81.69
256.823	89.69
257.056	83.69
257.289	79.69
257.521	88.69
257.754	101.69
257.987	89.69
258.22	88.69
258.452	86.69
258.685	80.69
258.918	87.69
259.151	89.69
259.383	80.69
259.616	98.69
259.849	85.69
260.081	84.69
260.314	85.69
260.547	102.69
260.779	83.69
261.012	80.69
261.244	95.69
261.477	78.69
261.71	87.69
261.942	108.69
262.175	117.69
262.407	97.69
262.64	75.69
262.872	78.69
263.105	92.69
263.337	77.69
263.57	91.69
263.802	85.69
264.035	78.69
264.267	91.69
264.499	80.69
264.732	79.69
264.964	86.69
265.197	85.69
265.429	95.69
265.661	78.69
265.894	89.69
266.126	68.69
266.358	68.69
266.591	77.69
266.823	79.69
267.055	92.69
267.287	80.69
267.52	83.69
267.752	86.69
267.984	76.69
268.216	87.69
268.448	80.69
268.681	92.69
268.913	102.69
269.145	77.69
269.377	94.69
269.609	77.69
269.841	85.69
270.073	85.69
270.306	87.69
270.538	78.69
270.77	87.69
271.002	78.69
271.234	75.69
271.466	92.69
271.698	69.69
271.93	92.69
272.162	87.69
272.394	86.69
272.626	86.69
272.858	85.69
273.09	87.69
273.322	83.69
273.553	78.69
273.785	95.69
274.017	71.69
274.249	75.69
274.481	83.69
274.713	82.69
274.945	97.69
275.176	87.69
275.408	87.69
275.64	95.69
275.872	87.69
276.104	93.69
276.335	98.69
276.567	108.69
276.799	102.69
277.031	105.69
277.262	91.69
277.494	83.69
277.726	92.69
277.957	81.69
278.189	88.69
278.421	70.69
278.652	81.69
278.884	87.69
279.115	91.69
279.347	96.69
279.579	81.69
279.81	72.69
280.042	83.69
280.273	86.69
280.505	98.69
280.736	91.69
280.968	95.69
281.199	100.69
281.431	96.69
281.662	88.69
281.894	91.69
282.125	101.69
282.356	102.69
282.588	119.69
282.819	99.69
283.051	80.69
283.282	85.69
283.513	89.69
283.745	100.69
283.976	88.69
284.207	83.69
284.439	99.69
284.67	96.69
284.901	90.69
285.132	87.69
285.364	95.69
285.595	92.69
285.826	79.69
286.057	100.69
286.288	73.69
286.52	79.69
286.751	95.69
286.982	78.69
287.213	78.69
287.444	97.69
287.675	82.69
287.906	77.69
288.138	80.69
288.369	101.69
288.6	93.69
288.831	105.69
289.062	108.69
289.293	85.69
289.524	69.69
289.755	82.69
289.986	92.69
290.217	99.69
290.448	93.69
290.679	89.69
290.91	93.69
291.141	83.69
291.371	71.69
291.602	83.69
291.833	94.69
292.064	92.69
292.295	95.69
292.526	102.69
292.757	87.69
292.987	75.69
293.218	87.69
293.449	83.69
293.68	85.69
293.91	88.69
294.141	88.69
294.372	89.69
294.603	88.69
294.833	86.69
295.064	73.69
295.295	89.69
295.525	76.69
295.756	92.69
295.987	117.69
296.217	132.69
296.448	113.69
296.679	100.69
296.909	95.69
297.14	90.69
297.37	94.69
297.601	96.69
297.831	76.69
298.062	90.69
298.292	101.69
298.523	95.69
298.753	87.69
298.984	93.69
299.214	85.69
299.445	89.69
299.675	100.69
299.905	86.69
300.136	86.69
300.366	80.69
300.597	87.69
300.827	94.69
301.057	106.69
301.288	113.69
301.518	94.69
301.748	111.69
301.979	106.69
302.209	89.69
302.439	91.69
302.669	76.69
302.9	75.69
303.13	95.69
303.36	87.69
303.59	114.69
303.82	97.69
304.051	80.69
304.281	83.69
304.511	96.69
304.741	87.69
304.971	89.69
305.201	94.69
305.431	101.69
305.661	88.69
305.891	79.69
306.121	94.69
306.352	87.69
306.582	112.69
306.812	89.69
307.042	84.69
307.272	95.69
307.502	93.69
307.731	84.69
307.961	96.69
308.191	99.69
308.421	85.69
308.651	88.69
308.881	100.69
309.111	94.69
309.341	88.69
309.571	100.69
309.8	88.69
310.03	97.69
310.26	97.69
310.49	93.69
310.72	103.69
310.949	107.69
311.179	103.69
311.409	83.69
311.639	104.69
311.868	74.69
312.098	97.69
312.328	87.69
312.557	97.69
312.787	87.69
313.017	106.69
313.246	104.69
313.476	96.69
313.706	96.69
313.935	89.69
314.165	98.69
314.394	103.69
314.624	90.69
314.853	99.69
315.083	97.69
315.312	101.69
315.542	88.69
315.771	80.69
316.001	84.69
316.23	84.69
316.46	99.69
316.689	101.69
316.919	95.69
317.148	104.69
317.377	104.69
317.607	88.69
317.836	92.69
318.065	99.69
318.295	83.69
318.524	99.69
318.753	91.69
318.983	96.69
319.212	102.69
319.441	103.69
319.67	107.69
319.9	75.69
320.129	77.69
320.358	84.69
320.587	91.69
320.816	93.69
321.046	97.69
321.275	98.69
321.504	94.69
321.733	98.69
321.962	83.69
322.191	100.69
322.42	103.69
322.649	115.69
322.878	100.69
323.108	109.69
323.337	129.69
323.566	120.69
323.795	148.69
324.024	205.69
324.253	364.69
324.482	745.69
324.71	1568.69
324.939	2035.69
325.168	743.69
325.397	226.69
325.626	156.69
325.855	115.69
326.084	108.69
326.313	131.69
326.542	142.69
326.77	229.69
326.999	400.69
327.228	819.69
327.457	1551.69
327.686	1237.69
327.914	343.69
328.143	170.69
328.372	139.69
328.6	98.69
328.829	114.69
329.058	130.69
329.287	124.69
329.515	103.69
329.744	106.69
329.972	92.69
330.201	108.69
330.43	107.69
330.658	133.69
330.887	134.69
331.115	112.69
331.344	93.69
331.572	100.69
331.801	109.69
332.03	107.69
332.258	90.69
332.486	96.69
332.715	99.69
332.943	87.69
333.172	92.69
333.4	104.69
333.629	92.69
333.857	97.69
334.085	87.69
334.314	94.69
334.542	111.69
334.771	94.69
334.999	101.69
335.227	86.69
335.455	80.69
335.684	93.69
335.912	102.69
336.14	103.69
336.369	93.69
336.597	96.69
336.825	109.69
337.053	83.69
337.281	84.69
337.51	90.69
337.738	84.69
337.966	74.69
338.194	103.69
338.422	97.69
338.65	97.69
338.878	95.69
339.106	92.69
339.334	81.69
339.562	79.69
339.79	86.69
340.018	91.69
340.246	79.69
340.474	87.69
340.702	88.69
340.93	99.69
341.158	106.69
341.386	91.69
341.614	92.69
341.842	95.69
342.07	81.69
342.298	84.69
342.526	73.69
342.754	97.69
342.981	87.69
343.209	85.69
343.437	107.69
343.665	96.69
343.893	87.69
344.12	81.69
344.348	80.69
344.576	89.69
344.804	81.69
345.031	97.69
345.259	99.69
345.487	93.69
345.714	88.69
345.942	92.69
346.17	92.69
346.397	85.69
346.625	94.69
346.853	89.69
347.08	84.69
347.308	91.69
347.535	109.69
347.763	95.69
347.99	89.69
348.218	92.69
348.445	101.69
348.673	110.69
348.9	96.69
349.128	114.69
349.355	96.69
349.583	103.69
349.81	91.69
350.037	104.69
350.265	96.69
350.492	89.69
350.72	84.69
350.947	99.69
351.174	105.69
351.402	104.69
351.629	94.69
351.856	104.69
352.083	91.69
352.311	104.69
352.538	95.69
352.765	126.69
352.992	128.69
353.22	118.69
353.447	102.69
353.674	96.69
353.901	94.69
354.128	88.69
354.355	101.69
354.583	95.69
354.81	89.69
355.037	97.69
355.264	96.69
355.491	91.69
355.718	113.69
355.945	108.69
356.172	97.69
356.399	98.69
356.626	105.69
356.853	99.69
357.08	98.69
357.307	107.69
357.534	96.69
357.761	86.69
357.988	103.69
358.215	91.69
358.441	84.69
358.668	98.69
358.895	106.69
359.122	88.69
359.349	88.69
359.576	83.69
359.802	86.69
360.029	103.69
360.256	109.69
360.483	103.69
360.709	86.69
360.936	100.69
361.163	91.69
361.39	105.69
361.616	87.69
361.843	83.69
362.07	81.69
362.296	101.69
362.523	112.69
362.749	95.69
362.976	94.69
363.203	93.69
363.429	96.69
363.656	101.69
363.882	80.69
364.109	95.69
364.335	94.69
364.562	98.69
364.788	84.69
365.015	100.69
365.241	87.69
365.468	103.69
365.694	108.69
365.92	77.69
366.147	79.69
366.373	94.69
366.599	106.69
366.826	88.69
367.052	84.69
367.278	87.69
367.505	96.69
367.731	103.69
367.957	84.69
368.184	94.69
368.41	118.69
368.636	101.69
368.862	107.69
369.089	102.69
369.315	89.69
369.541	78.69
369.767	80.69
369.993	88.69
370.219	94.69
370.445	81.69
370.672	90.69
370.898	81.69
371.124	95.69
371.35	81.69
371.576	90.69
371.802	85.69
372.028	81.69
372.254	93.69
372.48	84.69
372.706	83.69
372.932	89.69
373.158	90.69
373.384	81.69
373.61	81.69
373.835	100.69
374.061	84.69
374.287	106.69
374.513	84.69
374.739	96.69
374.965	94.69
375.191	88.69
375.416	91.69
375.642	98.69
375.868	85.69
376.094	84.69
376.319	88.69
376.545	92.69
376.771	70.69
376.997	95.69
377.222	87.69
377.448	86.69
377.674	88.69
377.899	86.69
378.125	77.69
378.35	87.69
378.576	95.69
378.802	109.69
379.027	92.69
379.253	91.69
379.478	74.69
379.704	93.69
379.929	91.69
380.155	99.69
380.38	94.69
380.606	91.69
380.831	99.69
381.057	96.69
381.282	102.69
381.507	93.69
381.733	104.69
381.958	111.69
382.184	95.69
382.409	86.69
382.634	104.69
382.86	110.69
383.085	109.69
383.31	109.69
383.535	95.69
383.761	92.69
383.986	99.69
384.211	86.69
384.436	109.69
384.662	102.69
384.887	109.69
385.112	103.69
385.337	102.69
385.562	94.69
385.787	86.69
386.013	95.69
386.238	113.69
386.463	104.69
386.688	105.69
386.913	105.69
387.138	102.69
387.363	100.69
387.588	94.69
387.813	105.69
388.038	98.69
388.263	98.69
388.488	101.69
388.713	101.69
388.938	87.69
389.163	97.69
389.387	105.69
389.612	100.69
389.837	95.69
390.062	99.69
390.287	94.69
390.512	104.69
390.736	91.69
390.961	93.69
391.186	94.69
391.411	80.69
391.636	96.69
391.86	85.69
392.085	85.69
392.31	87.69
392.534	76.69
392.759	89.69
392.984	86.69
393.208	84.69
393.433	93.69
393.658	86.69
393.882	80.69
394.107	66.69
394.331	78.69
394.556	82.69
394.78	80.69
395.005	93.69
395.229	83.69
395.454	101.69
395.678	83.69
395.903	99.69
396.127	92.69
396.352	93.69
396.576	80.69
396.801	91.69
397.025	88.69
397.249	83.69
397.474	80.69
397.698	79.69
397.922	69.69
398.147	85.69
398.371	79.69
398.595	90.69
398.82	80.69
399.044	87.69
399.268	85.69
399.492	85.69
399.717	98.69
399.941	88.69
400.165	104.69
400.389	97.69
400.613	81.69
400.837	68.69
401.062	88.69
401.286	85.69
401.51	93.69
401.734	92.69
401.958	91.69
402.182	119.69
402.406	155.69
402.63	128.69
402.854	85.69
403.078	93.69
403.302	78.69
403.526	84.69
403.75	84.69
403.974	85.69
404.198	83.69
404.422	82.69
404.645	88.69
404.869	100.69
405.093	101.69
405.317	96.69
405.541	95.69
405.765	84.69
405.988	110.69
406.212	164.69
406.436	193.69
406.66	129.69
406.883	86.69
407.107	96.69
407.331	96.69
407.555	94.69
407.778	92.69
408.002	88.69
408.226	99.69
408.449	79.69
408.673	93.69
408.896	99.69
409.12	84.69
409.344	90.69
409.567	83.69
409.791	82.69
410.014	86.69
410.238	98.69
410.461	94.69
410.685	99.69
410.908	101.69
411.132	104.69
411.355	105.69
411.578	87.69
411.802	94.69
412.025	88.69
412.249	85.69
412.472	98.69
412.695	93.69
412.919	91.69
413.142	92.69
413.365	95.69
413.589	88.69
413.812	92.69
414.035	104.69
414.258	98.69
414.482	98.69
414.705	91.69
414.928	89.69
415.151	90.69
415.374	95.69
415.597	84.69
415.821	85.69
416.044	103.69
416.267	102.69
416.49	76.69
416.713	83.69
416.936	92.69
417.159	79.69
417.382	85.69
417.605	84.69
417.828	108.69
418.051	100.69
418.274	92.69
418.497	92.69
418.72	87.69
418.943	98.69
419.166	87.69
419.389	84.69
419.611	85.69
419.834	73.69
420.057	93.69
420.28	88.69
420.503	91.69
420.726	104.69
420.948	101.69
421.171	81.69
421.394	94.69
421.617	91.69
421.839	104.69
422.062	92.69
422.285	91.69
422.507	108.69
422.73	97.69
422.953	89.69
423.175	88.69
423.398	88.69
423.621	84.69
423.843	87.69
424.066	96.69
424.288	89.69
424.511	101.69
424.733	85.69
424.956	110.69
425.178	94.69
425.401	102.69
425.623	89.69
425.846	96.69
426.068	96.69
426.291	100.69
426.513	92.69
426.735	91.69
426.958	91.69
427.18	105.69
427.402	124.69
427.625	156.69
427.847	123.69
428.069	99.69
428.292	77.69
428.514	81.69
428.736	85.69
428.958	83.69
429.181	84.69
429.403	84.69
429.625	92.69
429.847	99.69
430.069	95.69
430.292	98.69
430.514	79.69
430.736	83.69
430.958	79.69
431.18	75.69
431.402	92.69
431.624	91.69
431.846	89.69
432.068	86.69
432.29	86.69
432.512	85.69
432.734	94.69
432.956	86.69
433.178	101.69
433.4	96.69
433.622	81.69
433.844	91.69
434.066	92.69
434.287	115.69
434.509	85.69
434.731	91.69
434.953	82.69
435.175	84.69
435.397	88.69
435.618	89.69
435.84	110.69
436.062	106.69
436.284	103.69
436.505	104.69
436.727	99.69
436.949	91.69
437.17	87.69
437.392	86.69
437.614	83.69
437.835	111.69
438.057	124.69
438.278	119.69
438.5	112.69
438.721	111.69
438.943	110.69
439.165	105.69
439.386	97.69
439.608	100.69
439.829	105.69
440.05	119.69
440.272	134.69
440.493	101.69
440.715	94.69
440.936	97.69
441.158	86.69
441.379	88.69
441.6	81.69
441.822	111.69
442.043	101.69
442.264	116.69
442.486	102.69
442.707	96.69
442.928	113.69
443.149	128.69
443.371	125.69
443.592	101.69
443.813	104.69
444.034	115.69
444.255	81.69
444.476	96.69
444.698	89.69
444.919	87.69
445.14	136.69
445.361	129.69
445.582	109.69
445.803	123.69
446.024	131.69
446.245	124.69
446.466	102.69
446.687	77.69
446.908	89.69
447.129	80.69
447.35	80.69
447.571	94.69
447.792	88.69
448.013	96.69
448.234	98.69
448.455	105.69
448.675	111.69
448.896	137.69
449.117	97.69
449.338	109.69
449.559	130.69
449.779	119.69
450	86.69
450.221	83.69
450.442	67.69
450.662	86.69
450.883	91.69
451.104	108.69
451.324	104.69
451.545	87.69
451.766	88.69
451.986	87.69
452.207	93.69
452.428	89.69
452.648	97.69
452.869	119.69
453.089	105.69
453.31	128.69
453.53	95.69
453.751	86.69
453.971	94.69
454.192	92.69
454.412	89.69
454.633	86.69
454.853	83.69
455.073	81.69
455.294	76.69
455.514	103.69
455.734	96.69
455.955	93.69
456.175	87.69
456.395	83.69
456.616	86.69
456.836	84.69
457.056	97.69
457.276	83.69
457.497	82.69
457.717	91.69
457.937	86.69
458.157	79.69
458.377	91.69
458.598	99.69
458.818	133.69
459.038	148.69
459.258	115.69
459.478	87.69
459.698	81.69
459.918	78.69
460.138	87.69
460.358	88.69
460.578	81.69
460.798	80.69
461.018	79.69
461.238	89.69
461.458	83.69
461.678	91.69
461.898	93.69
462.118	76.69
462.338	84.69
462.558	75.69
462.777	85.69
462.997	94.69
463.217	107.69
463.437	66.69
463.657	69.69
463.876	75.69
464.096	92.69
464.316	91.69
464.536	86.69
464.755	86.69
464.975	98.69
465.195	150.69
465.414	142.69
465.634	88.69
465.854	87.69
466.073	84.69
466.293	80.69
466.512	99.69
466.732	103.69
466.951	93.69
467.171	79.69
467.391	95.69
467.61	87.69
467.829	114.69
468.049	93.69
468.268	98.69
468.488	91.69
468.707	96.69
468.927	89.69
469.146	89.69
469.365	95.69
469.585	100.69
469.804	101.69
470.023	88.69
470.243	79.69
470.462	93.69
470.681	107.69
470.901	99.69
471.12	85.69
471.339	89.69
471.558	80.69
471.777	83.69
471.997	75.69
472.216	95.69
472.435	98.69
472.654	98.69
472.873	82.69
473.092	93.69
473.311	88.69
473.53	80.69
473.749	87.69
473.968	92.69
474.187	106.69
474.406	88.69
474.625	86.69
474.844	92.69
475.063	85.69
475.282	79.69
475.501	81.69
475.72	93.69
475.939	81.69
476.158	101.69
476.377	97.69
476.596	93.69
476.814	93.69
477.033	94.69
477.252	82.69
477.471	100.69
477.69	89.69
477.908	81.69
478.127	93.69
478.346	93.69
478.564	96.69
478.783	104.69
479.002	97.69
479.22	77.69
479.439	92.69
479.658	108.69
479.876	102.69
480.095	91.69
480.313	84.69
480.532	93.69
480.751	72.69
480.969	93.69
481.188	108.69
481.406	105.69
481.624	89.69
481.843	93.69
482.061	93.69
482.28	86.69
482.498	94.69
482.717	88.69
482.935	88.69
483.153	98.69
483.372	78.69
483.59	89.69
483.808	88.69
484.027	101.69
484.245	96.69
484.463	106.69
484.681	95.69
484.9	91.69
485.118	76.69
485.336	103.69
485.554	108.69
485.772	99.69
485.99	99.69
486.209	103.69
486.427	108.69
486.645	101.69
486.863	111.69
487.081	103.69
487.299	94.69
487.517	95.69
487.735	80.69
487.953	105.69
488.171	92.69
488.389	101.69
488.607	91.69
488.825	82.69
489.043	81.69
489.261	88.69
489.479	108.69
489.696	100.69
489.914	94.69
490.132	97.69
490.35	83.69
490.568	77.69
490.786	87.69
491.003	97.69
491.221	94.69
491.439	84.69
491.657	93.69
491.874	88.69
492.092	94.69
492.31	98.69
492.527	92.69
492.745	102.69
492.963	91.69
493.18	95.69
493.398	88.69
493.615	97.69
493.833	93.69
494.05	89.69
494.268	80.69
494.485	91.69
494.703	88.69
494.92	86.69
495.138	93.69
495.355	91.69
495.573	91.69
495.79	91.69
496.008	102.69
496.225	105.69
496.442	88.69
496.66	97.69
496.877	84.69
497.094	86.69
497.312	89.69
497.529	96.69
497.746	93.69
497.963	96.69
498.181	93.69
498.398	88.69
498.615	93.69
498.832	101.69
499.049	103.69
499.267	93.69
499.484	86.69
499.701	91.69
499.918	88.69
500.135	84.69
500.352	89.69
500.569	102.69
500.786	75.69
501.003	86.69
501.22	82.69
501.437	99.69
501.654	93.69
501.871	91.69
502.088	88.69
502.305	89.69
502.522	93.69
502.739	91.69
502.956	91.69
503.172	85.69
503.389	84.69
503.606	103.69
503.823	110.69
504.04	104.69
504.256	100.69
504.473	90.69
504.69	98.69
504.907	98.69
505.123	86.69
505.34	98.69
505.557	84.69
505.773	99.69
505.99	77.69
506.207	99.69
506.423	101.69
506.64	87.69
506.856	99.69
507.073	95.69
507.289	97.69
507.506	101.69
507.722	120.69
507.939	107.69
508.155	84.69
508.372	89.69
508.588	88.69
508.805	91.69
509.021	81.69
509.238	96.69
509.454	100.69
509.67	114.69
509.887	104.69
510.103	137.69
510.319	199.69
510.536	704.69
510.752	2214.69
510.968	595.69
511.184	134.69
511.401	111.69
511.617	106.69
511.833	92.69
512.049	91.69
512.265	92.69
512.481	91.69
512.698	88.69
512.914	79.69
513.13	95.69
513.346	99.69
513.562	93.69
513.778	100.69
513.994	94.69
514.21	103.69
514.426	129.69
514.642	123.69
514.858	124.69
515.074	159.69
515.29	384.69
515.506	1311.69
515.721	492.69
