Data from Uncirc_1990_H10_HRD10591_00082.txt Node
Date: Wed Jan 03 11:54:08 EST 2024
User: Yrep
Spectrometer: HR+D1059
Trigger mode: 1
Integration Time (sec): 1.000000E-1
Scans to average: 1
Electric dark correction enabled: true
Nonlinearity correction enabled: false
Boxcar width: 0
XAxis mode: Wavelengths
Number of Pixels in Spectrum: 2048
>>>>>Begin Spectral Data<<<<<
223.165	-24.81
223.4	-24.81
223.635	-24.81
223.869	-16.81
224.104	-25.81
224.338	-24.81
224.573	-10.81
224.808	-7.81
225.042	4.19
225.277	-1.81
225.511	-7.81
225.746	10.19
225.98	-0.81
226.215	12.19
226.449	20.19
226.683	18.19
226.918	34.19
227.152	22.19
227.387	24.19
227.621	40.19
227.856	46.19
228.09	54.19
228.324	48.19
228.559	64.19
228.793	55.19
229.027	52.19
229.262	71.19
229.496	71.19
229.73	81.19
229.964	83.19
230.199	72.19
230.433	87.19
230.667	71.19
230.901	74.19
231.136	81.19
231.37	73.19
231.604	73.19
231.838	70.19
232.072	80.19
232.306	85.19
232.541	85.19
232.775	74.19
233.009	78.19
233.243	78.19
233.477	99.19
233.711	88.19
233.945	72.19
234.179	68.19
234.413	96.19
234.647	80.19
234.881	92.19
235.115	74.19
235.349	82.19
235.583	93.19
235.817	87.19
236.051	63.19
236.285	96.19
236.519	81.19
236.753	72.19
236.987	69.19
237.221	87.19
237.455	86.19
237.689	79.19
237.922	78.19
238.156	72.19
238.39	89.19
238.624	74.19
238.858	76.19
239.091	76.19
239.325	73.19
239.559	77.19
239.793	84.19
240.027	81.19
240.26	76.19
240.494	73.19
240.728	65.19
240.961	78.19
241.195	78.19
241.429	74.19
241.662	72.19
241.896	82.19
242.13	95.19
242.363	77.19
242.597	79.19
242.83	63.19
243.064	66.19
243.298	65.19
243.531	77.19
243.765	86.19
243.998	79.19
244.232	89.19
244.465	77.19
244.699	87.19
244.932	80.19
245.166	92.19
245.399	78.19
245.633	73.19
245.866	73.19
246.099	68.19
246.333	83.19
246.566	80.19
246.8	89.19
247.033	72.19
247.266	62.19
247.5	77.19
247.733	77.19
247.966	81.19
248.2	79.19
248.433	77.19
248.666	94.19
248.899	89.19
249.133	88.19
249.366	112.19
249.599	90.19
249.832	96.19
250.066	77.19
250.299	79.19
250.532	75.19
250.765	75.19
250.998	83.19
251.231	86.19
251.465	86.19
251.698	78.19
251.931	88.19
252.164	83.19
252.397	86.19
252.63	88.19
252.863	77.19
253.096	86.19
253.329	91.19
253.562	72.19
253.795	68.19
254.028	81.19
254.261	73.19
254.494	88.19
254.727	85.19
254.96	80.19
255.193	65.19
255.426	78.19
255.659	84.19
255.892	84.19
256.124	71.19
256.357	89.19
256.59	86.19
256.823	84.19
257.056	80.19
257.289	87.19
257.521	89.19
257.754	89.19
257.987	86.19
258.22	88.19
258.452	73.19
258.685	91.19
258.918	80.19
259.151	82.19
259.383	77.19
259.616	82.19
259.849	88.19
260.081	105.19
260.314	104.19
260.547	90.19
260.779	82.19
261.012	82.19
261.244	93.19
261.477	74.19
261.71	90.19
261.942	110.19
262.175	123.19
262.407	82.19
262.64	83.19
262.872	113.19
263.105	95.19
263.337	71.19
263.57	92.19
263.802	92.19
264.035	90.19
264.267	88.19
264.499	85.19
264.732	81.19
264.964	87.19
265.197	83.19
265.429	77.19
265.661	82.19
265.894	89.19
266.126	87.19
266.358	81.19
266.591	82.19
266.823	93.19
267.055	86.19
267.287	85.19
267.52	74.19
267.752	88.19
267.984	92.19
268.216	86.19
268.448	74.19
268.681	93.19
268.913	87.19
269.145	78.19
269.377	84.19
269.609	81.19
269.841	84.19
270.073	83.19
270.306	91.19
270.538	89.19
270.77	79.19
271.002	101.19
271.234	78.19
271.466	103.19
271.698	88.19
271.93	88.19
272.162	85.19
272.394	85.19
272.626	96.19
272.858	98.19
273.09	84.19
273.322	91.19
273.553	97.19
273.785	82.19
274.017	87.19
274.249	105.19
274.481	89.19
274.713	77.19
274.945	88.19
275.176	97.19
275.408	79.19
275.64	89.19
275.872	96.19
276.104	96.19
276.335	97.19
276.567	87.19
276.799	92.19
277.031	101.19
277.262	101.19
277.494	87.19
277.726	82.19
277.957	83.19
278.189	97.19
278.421	88.19
278.652	81.19
278.884	95.19
279.115	97.19
279.347	86.19
279.579	83.19
279.81	74.19
280.042	69.19
280.273	100.19
280.505	80.19
280.736	90.19
280.968	90.19
281.199	81.19
281.431	78.19
281.662	94.19
281.894	84.19
282.125	88.19
282.356	122.19
282.588	142.19
282.819	116.19
283.051	88.19
283.282	79.19
283.513	92.19
283.745	103.19
283.976	69.19
284.207	88.19
284.439	99.19
284.67	88.19
284.901	95.19
285.132	84.19
285.364	89.19
285.595	86.19
285.826	78.19
286.057	86.19
286.288	77.19
286.52	82.19
286.751	93.19
286.982	91.19
287.213	90.19
287.444	100.19
287.675	88.19
287.906	96.19
288.138	99.19
288.369	101.19
288.6	90.19
288.831	85.19
289.062	70.19
289.293	78.19
289.524	82.19
289.755	105.19
289.986	94.19
290.217	84.19
290.448	80.19
290.679	92.19
290.91	79.19
291.141	87.19
291.371	84.19
291.602	80.19
291.833	94.19
292.064	96.19
292.295	95.19
292.526	98.19
292.757	98.19
292.987	96.19
293.218	93.19
293.449	94.19
293.68	89.19
293.91	72.19
294.141	89.19
294.372	73.19
294.603	87.19
294.833	96.19
295.064	81.19
295.295	89.19
295.525	110.19
295.756	95.19
295.987	114.19
296.217	138.19
296.448	129.19
296.679	97.19
296.909	85.19
297.14	86.19
297.37	94.19
297.601	91.19
297.831	94.19
298.062	89.19
298.292	89.19
298.523	84.19
298.753	86.19
298.984	85.19
299.214	99.19
299.445	89.19
299.675	114.19
299.905	103.19
300.136	82.19
300.366	95.19
300.597	81.19
300.827	92.19
301.057	101.19
301.288	101.19
301.518	90.19
301.748	101.19
301.979	105.19
302.209	73.19
302.439	100.19
302.669	85.19
302.9	85.19
303.13	84.19
303.36	107.19
303.59	98.19
303.82	98.19
304.051	97.19
304.281	98.19
304.511	103.19
304.741	93.19
304.971	84.19
305.201	76.19
305.431	102.19
305.661	90.19
305.891	96.19
306.121	94.19
306.352	102.19
306.582	121.19
306.812	98.19
307.042	95.19
307.272	90.19
307.502	112.19
307.731	84.19
307.961	85.19
308.191	97.19
308.421	84.19
308.651	89.19
308.881	101.19
309.111	96.19
309.341	101.19
309.571	94.19
309.8	98.19
310.03	95.19
310.26	84.19
310.49	97.19
310.72	97.19
310.949	111.19
311.179	104.19
311.409	103.19
311.639	112.19
311.868	101.19
312.098	83.19
312.328	88.19
312.557	96.19
312.787	110.19
313.017	95.19
313.246	102.19
313.476	90.19
313.706	101.19
313.935	92.19
314.165	100.19
314.394	105.19
314.624	85.19
314.853	98.19
315.083	96.19
315.312	93.19
315.542	103.19
315.771	85.19
316.001	95.19
316.23	89.19
316.46	92.19
316.689	96.19
316.919	90.19
317.148	93.19
317.377	97.19
317.607	97.19
317.836	105.19
318.065	100.19
318.295	90.19
318.524	97.19
318.753	110.19
318.983	89.19
319.212	105.19
319.441	105.19
319.67	103.19
319.9	109.19
320.129	104.19
320.358	90.19
320.587	101.19
320.816	95.19
321.046	97.19
321.275	99.19
321.504	103.19
321.733	90.19
321.962	104.19
322.191	114.19
322.42	97.19
322.649	126.19
322.878	118.19
323.108	115.19
323.337	141.19
323.566	126.19
323.795	172.19
324.024	215.19
324.253	425.19
324.482	917.19
324.71	1905.19
324.939	2612.19
325.168	928.19
325.397	260.19
325.626	161.19
325.855	135.19
326.084	116.19
326.313	136.19
326.542	170.19
326.77	249.19
326.999	506.19
327.228	1049.19
327.457	1964.19
327.686	1584.19
327.914	428.19
328.143	208.19
328.372	138.19
328.6	137.19
328.829	124.19
329.058	136.19
329.287	130.19
329.515	107.19
329.744	119.19
329.972	99.19
330.201	119.19
330.43	145.19
330.658	126.19
330.887	145.19
331.115	127.19
331.344	102.19
331.572	92.19
331.801	115.19
332.03	102.19
332.258	104.19
332.486	100.19
332.715	102.19
332.943	92.19
333.172	92.19
333.4	92.19
333.629	106.19
333.857	111.19
334.085	116.19
334.314	106.19
334.542	122.19
334.771	112.19
334.999	89.19
335.227	109.19
335.455	103.19
335.684	108.19
335.912	93.19
336.14	88.19
336.369	99.19
336.597	114.19
336.825	104.19
337.053	89.19
337.281	99.19
337.51	82.19
337.738	102.19
337.966	94.19
338.194	94.19
338.422	97.19
338.65	104.19
338.878	95.19
339.106	89.19
339.334	104.19
339.562	95.19
339.79	88.19
340.018	79.19
340.246	98.19
340.474	86.19
340.702	105.19
340.93	94.19
341.158	88.19
341.386	97.19
341.614	81.19
341.842	104.19
342.07	91.19
342.298	99.19
342.526	80.19
342.754	71.19
342.981	80.19
343.209	84.19
343.437	94.19
343.665	97.19
343.893	102.19
344.12	94.19
344.348	87.19
344.576	90.19
344.804	90.19
345.031	101.19
345.259	102.19
345.487	97.19
345.714	100.19
345.942	103.19
346.17	102.19
346.397	99.19
346.625	87.19
346.853	97.19
347.08	93.19
347.308	92.19
347.535	93.19
347.763	94.19
347.99	95.19
348.218	97.19
348.445	106.19
348.673	98.19
348.9	94.19
349.128	105.19
349.355	79.19
349.583	96.19
349.81	104.19
350.037	103.19
350.265	81.19
350.492	98.19
350.72	97.19
350.947	105.19
351.174	126.19
351.402	111.19
351.629	109.19
351.856	101.19
352.083	97.19
352.311	127.19
352.538	111.19
352.765	121.19
352.992	111.19
353.22	107.19
353.447	108.19
353.674	98.19
353.901	96.19
354.128	94.19
354.355	103.19
354.583	96.19
354.81	105.19
355.037	94.19
355.264	110.19
355.491	94.19
355.718	104.19
355.945	103.19
356.172	101.19
356.399	95.19
356.626	115.19
356.853	97.19
357.08	92.19
357.307	93.19
357.534	98.19
357.761	82.19
357.988	92.19
358.215	99.19
358.441	90.19
358.668	84.19
358.895	93.19
359.122	87.19
359.349	96.19
359.576	92.19
359.802	94.19
360.029	111.19
360.256	101.19
360.483	83.19
360.709	93.19
360.936	89.19
361.163	95.19
361.39	99.19
361.616	104.19
361.843	96.19
362.07	103.19
362.296	98.19
362.523	96.19
362.749	93.19
362.976	93.19
363.203	89.19
363.429	102.19
363.656	96.19
363.882	94.19
364.109	82.19
364.335	98.19
364.562	95.19
364.788	96.19
365.015	92.19
365.241	91.19
365.468	120.19
365.694	114.19
365.92	99.19
366.147	90.19
366.373	94.19
366.599	76.19
366.826	90.19
367.052	89.19
367.278	92.19
367.505	96.19
367.731	92.19
367.957	98.19
368.184	108.19
368.41	102.19
368.636	123.19
368.862	113.19
369.089	105.19
369.315	91.19
369.541	94.19
369.767	89.19
369.993	101.19
370.219	89.19
370.445	88.19
370.672	76.19
370.898	83.19
371.124	84.19
371.35	79.19
371.576	90.19
371.802	71.19
372.028	96.19
372.254	93.19
372.48	90.19
372.706	94.19
372.932	83.19
373.158	89.19
373.384	105.19
373.61	94.19
373.835	97.19
374.061	104.19
374.287	82.19
374.513	94.19
374.739	89.19
374.965	100.19
375.191	80.19
375.416	96.19
375.642	89.19
375.868	101.19
376.094	90.19
376.319	86.19
376.545	98.19
376.771	92.19
376.997	94.19
377.222	84.19
377.448	105.19
377.674	79.19
377.899	98.19
378.125	97.19
378.35	94.19
378.576	89.19
378.802	98.19
379.027	94.19
379.253	97.19
379.478	95.19
379.704	89.19
379.929	99.19
380.155	107.19
380.38	89.19
380.606	84.19
380.831	89.19
381.057	71.19
381.282	93.19
381.507	95.19
381.733	104.19
381.958	98.19
382.184	84.19
382.409	98.19
382.634	94.19
382.86	79.19
383.085	100.19
383.31	102.19
383.535	106.19
383.761	91.19
383.986	92.19
384.211	104.19
384.436	101.19
384.662	98.19
384.887	98.19
385.112	97.19
385.337	105.19
385.562	96.19
385.787	104.19
386.013	96.19
386.238	101.19
386.463	102.19
386.688	113.19
386.913	98.19
387.138	102.19
387.363	103.19
387.588	102.19
387.813	101.19
388.038	93.19
388.263	110.19
388.488	108.19
388.713	103.19
388.938	88.19
389.163	104.19
389.387	96.19
389.612	105.19
389.837	88.19
390.062	97.19
390.287	97.19
390.512	101.19
390.736	102.19
390.961	99.19
391.186	99.19
391.411	92.19
391.636	85.19
391.86	80.19
392.085	76.19
392.31	87.19
392.534	93.19
392.759	85.19
392.984	99.19
393.208	94.19
393.433	91.19
393.658	105.19
393.882	101.19
394.107	91.19
394.331	92.19
394.556	78.19
394.78	94.19
395.005	82.19
395.229	93.19
395.454	96.19
395.678	64.19
395.903	92.19
396.127	90.19
396.352	94.19
396.576	89.19
396.801	94.19
397.025	78.19
397.249	85.19
397.474	115.19
397.698	84.19
397.922	94.19
398.147	89.19
398.371	92.19
398.595	92.19
398.82	80.19
399.044	98.19
399.268	86.19
399.492	94.19
399.717	101.19
399.941	93.19
400.165	106.19
400.389	89.19
400.613	88.19
400.837	93.19
401.062	84.19
401.286	92.19
401.51	76.19
401.734	83.19
401.958	102.19
402.182	127.19
402.406	162.19
402.63	109.19
402.854	98.19
403.078	104.19
403.302	94.19
403.526	87.19
403.75	88.19
403.974	96.19
404.198	86.19
404.422	79.19
404.645	97.19
404.869	97.19
405.093	87.19
405.317	101.19
405.541	100.19
405.765	99.19
405.988	124.19
406.212	174.19
406.436	231.19
406.66	136.19
406.883	82.19
407.107	81.19
407.331	100.19
407.555	110.19
407.778	96.19
408.002	97.19
408.226	90.19
408.449	96.19
408.673	77.19
408.896	94.19
409.12	96.19
409.344	92.19
409.567	90.19
409.791	73.19
410.014	94.19
410.238	91.19
410.461	89.19
410.685	94.19
410.908	86.19
411.132	100.19
411.355	92.19
411.578	95.19
411.802	86.19
412.025	98.19
412.249	92.19
412.472	92.19
412.695	90.19
412.919	94.19
413.142	86.19
413.365	92.19
413.589	83.19
413.812	82.19
414.035	86.19
414.258	80.19
414.482	91.19
414.705	98.19
414.928	104.19
415.151	92.19
415.374	100.19
415.597	97.19
415.821	84.19
416.044	80.19
416.267	83.19
416.49	85.19
416.713	88.19
416.936	73.19
417.159	97.19
417.382	88.19
417.605	94.19
417.828	82.19
418.051	103.19
418.274	77.19
418.497	90.19
418.72	88.19
418.943	82.19
419.166	89.19
419.389	92.19
419.611	94.19
419.834	86.19
420.057	90.19
420.28	81.19
420.503	101.19
420.726	102.19
420.948	88.19
421.171	94.19
421.394	103.19
421.617	90.19
421.839	86.19
422.062	97.19
422.285	83.19
422.507	104.19
422.73	90.19
422.953	101.19
423.175	89.19
423.398	89.19
423.621	98.19
423.843	96.19
424.066	85.19
424.288	85.19
424.511	95.19
424.733	106.19
424.956	110.19
425.178	96.19
425.401	108.19
425.623	94.19
425.846	97.19
426.068	89.19
426.291	100.19
426.513	108.19
426.735	97.19
426.958	107.19
427.18	116.19
427.402	132.19
427.625	168.19
427.847	120.19
428.069	115.19
428.292	88.19
428.514	102.19
428.736	90.19
428.958	78.19
429.181	96.19
429.403	86.19
429.625	88.19
429.847	80.19
430.069	101.19
430.292	92.19
430.514	92.19
430.736	90.19
430.958	83.19
431.18	89.19
431.402	87.19
431.624	83.19
431.846	82.19
432.068	90.19
432.29	96.19
432.512	87.19
432.734	88.19
432.956	85.19
433.178	106.19
433.4	96.19
433.622	96.19
433.844	90.19
434.066	104.19
434.287	95.19
434.509	85.19
434.731	91.19
434.953	94.19
435.175	94.19
435.397	89.19
435.618	102.19
435.84	96.19
436.062	123.19
436.284	96.19
436.505	99.19
436.727	98.19
436.949	101.19
437.17	92.19
437.392	79.19
437.614	103.19
437.835	106.19
438.057	110.19
438.278	106.19
438.5	106.19
438.721	127.19
438.943	105.19
439.165	90.19
439.386	100.19
439.608	95.19
439.829	109.19
440.05	136.19
440.272	162.19
440.493	109.19
440.715	89.19
440.936	85.19
441.158	100.19
441.379	85.19
441.6	93.19
441.822	101.19
442.043	104.19
442.264	92.19
442.486	112.19
442.707	84.19
442.928	106.19
443.149	133.19
443.371	134.19
443.592	105.19
443.813	120.19
444.034	96.19
444.255	89.19
444.476	102.19
444.698	87.19
444.919	86.19
445.14	124.19
445.361	115.19
445.582	106.19
445.803	140.19
446.024	142.19
446.245	143.19
446.466	121.19
446.687	93.19
446.908	87.19
447.129	103.19
447.35	84.19
447.571	107.19
447.792	105.19
448.013	112.19
448.234	115.19
448.455	100.19
448.675	115.19
448.896	117.19
449.117	98.19
449.338	98.19
449.559	131.19
449.779	122.19
450	89.19
450.221	85.19
450.442	80.19
450.662	98.19
450.883	98.19
451.104	105.19
451.324	103.19
451.545	99.19
451.766	73.19
451.986	83.19
452.207	94.19
452.428	85.19
452.648	93.19
452.869	107.19
453.089	119.19
453.31	129.19
453.53	105.19
453.751	94.19
453.971	96.19
454.192	110.19
454.412	86.19
454.633	76.19
454.853	79.19
455.073	72.19
455.294	77.19
455.514	102.19
455.734	89.19
455.955	84.19
456.175	85.19
456.395	83.19
456.616	96.19
456.836	73.19
457.056	92.19
457.276	83.19
457.497	83.19
457.717	83.19
457.937	84.19
458.157	93.19
458.377	103.19
458.598	110.19
458.818	143.19
459.038	166.19
459.258	122.19
459.478	88.19
459.698	74.19
459.918	95.19
460.138	84.19
460.358	84.19
460.578	80.19
460.798	104.19
461.018	90.19
461.238	83.19
461.458	97.19
461.678	92.19
461.898	87.19
462.118	92.19
462.338	78.19
462.558	97.19
462.777	83.19
462.997	73.19
463.217	76.19
463.437	89.19
463.657	96.19
463.876	90.19
464.096	84.19
464.316	97.19
464.536	100.19
464.755	101.19
464.975	99.19
465.195	158.19
465.414	152.19
465.634	86.19
465.854	90.19
466.073	92.19
466.293	82.19
466.512	90.19
466.732	94.19
466.951	85.19
467.171	112.19
467.391	103.19
467.61	100.19
467.829	96.19
468.049	93.19
468.268	89.19
468.488	89.19
468.707	98.19
468.927	78.19
469.146	91.19
469.365	99.19
469.585	80.19
469.804	94.19
470.023	94.19
470.243	93.19
470.462	97.19
470.681	110.19
470.901	108.19
471.12	92.19
471.339	90.19
471.558	87.19
471.777	83.19
471.997	103.19
472.216	106.19
472.435	129.19
472.654	95.19
472.873	87.19
473.092	78.19
473.311	88.19
473.53	86.19
473.749	106.19
473.968	96.19
474.187	100.19
474.406	105.19
474.625	88.19
474.844	96.19
475.063	85.19
475.282	92.19
475.501	82.19
475.72	95.19
475.939	82.19
476.158	84.19
476.377	105.19
476.596	85.19
476.814	101.19
477.033	102.19
477.252	93.19
477.471	88.19
477.69	99.19
477.908	91.19
478.127	93.19
478.346	86.19
478.564	101.19
478.783	79.19
479.002	98.19
479.22	93.19
479.439	89.19
479.658	98.19
479.876	106.19
480.095	82.19
480.313	82.19
480.532	97.19
480.751	92.19
480.969	94.19
481.188	154.19
481.406	138.19
481.624	101.19
481.843	82.19
482.061	95.19
482.28	97.19
482.498	96.19
482.717	92.19
482.935	84.19
483.153	84.19
483.372	79.19
483.59	101.19
483.808	88.19
484.027	89.19
484.245	95.19
484.463	107.19
484.681	103.19
484.9	104.19
485.118	96.19
485.336	88.19
485.554	88.19
485.772	94.19
485.99	118.19
486.209	101.19
486.427	104.19
486.645	118.19
486.863	116.19
487.081	98.19
487.299	113.19
487.517	80.19
487.735	91.19
487.953	86.19
488.171	81.19
488.389	88.19
488.607	95.19
488.825	103.19
489.043	79.19
489.261	95.19
489.479	83.19
489.696	88.19
489.914	88.19
490.132	85.19
490.35	80.19
490.568	101.19
490.786	89.19
491.003	90.19
491.221	92.19
491.439	87.19
491.657	102.19
491.874	96.19
492.092	89.19
492.31	112.19
492.527	90.19
492.745	86.19
492.963	87.19
493.18	97.19
493.398	105.19
493.615	84.19
493.833	95.19
494.05	92.19
494.268	81.19
494.485	82.19
494.703	81.19
494.92	97.19
495.138	100.19
495.355	95.19
495.573	87.19
495.79	92.19
496.008	84.19
496.225	88.19
496.442	92.19
496.66	99.19
496.877	73.19
497.094	88.19
497.312	77.19
497.529	92.19
497.746	98.19
497.963	108.19
498.181	87.19
498.398	102.19
498.615	102.19
498.832	115.19
499.049	92.19
499.267	102.19
499.484	101.19
499.701	106.19
499.918	104.19
500.135	110.19
500.352	91.19
500.569	94.19
500.786	87.19
501.003	90.19
501.22	99.19
501.437	86.19
501.654	110.19
501.871	109.19
502.088	95.19
502.305	91.19
502.522	94.19
502.739	93.19
502.956	82.19
503.172	100.19
503.389	95.19
503.606	101.19
503.823	98.19
504.04	97.19
504.256	105.19
504.473	93.19
504.69	69.19
504.907	80.19
505.123	96.19
505.34	84.19
505.557	84.19
505.773	94.19
505.99	77.19
506.207	91.19
506.423	92.19
506.64	86.19
506.856	81.19
507.073	94.19
507.289	100.19
507.506	105.19
507.722	121.19
507.939	112.19
508.155	84.19
508.372	83.19
508.588	92.19
508.805	97.19
509.021	109.19
509.238	106.19
509.454	97.19
509.67	114.19
509.887	116.19
510.103	102.19
510.319	201.19
510.536	770.19
510.752	2625.19
510.968	716.19
511.184	181.19
511.401	108.19
511.617	100.19
511.833	88.19
512.049	97.19
512.265	104.19
512.481	102.19
512.698	97.19
512.914	84.19
513.13	92.19
513.346	92.19
513.562	100.19
513.778	101.19
513.994	74.19
514.21	90.19
514.426	109.19
514.642	133.19
514.858	133.19
