Data from Uncirc_1990_H10_HRD10591_00050.txt Node
Date: Wed Jan 03 11:54:01 EST 2024
User: Yrep
Spectrometer: HR+D1059
Trigger mode: 1
Integration Time (sec): 1.000000E-1
Scans to average: 1
Electric dark correction enabled: true
Nonlinearity correction enabled: false
Boxcar width: 0
XAxis mode: Wavelengths
Number of Pixels in Spectrum: 2048
>>>>>Begin Spectral Data<<<<<
223.165	-15.25
223.4	-15.25
223.635	-15.25
223.869	-28.25
224.104	-17.25
224.338	-7.25
224.573	-15.25
224.808	-10.25
225.042	-7.25
225.277	-2.25
225.511	-9.25
225.746	4.75
225.98	6.75
226.215	10.75
226.449	20.75
226.683	21.75
226.918	19.75
227.152	27.75
227.387	36.75
227.621	27.75
227.856	42.75
228.09	43.75
228.324	51.75
228.559	45.75
228.793	47.75
229.027	55.75
229.262	66.75
229.496	67.75
229.73	77.75
229.964	73.75
230.199	64.75
230.433	70.75
230.667	70.75
230.901	74.75
231.136	65.75
231.37	73.75
231.604	90.75
231.838	71.75
232.072	75.75
232.306	81.75
232.541	83.75
232.775	78.75
233.009	87.75
233.243	78.75
233.477	80.75
233.711	74.75
233.945	75.75
234.179	73.75
234.413	61.75
234.647	87.75
234.881	71.75
235.115	81.75
235.349	67.75
235.583	75.75
235.817	71.75
236.051	70.75
236.285	73.75
236.519	86.75
236.753	67.75
236.987	71.75
237.221	70.75
237.455	90.75
237.689	66.75
237.922	75.75
238.156	75.75
238.39	81.75
238.624	79.75
238.858	76.75
239.091	73.75
239.325	79.75
239.559	77.75
239.793	79.75
240.027	68.75
240.26	71.75
240.494	71.75
240.728	79.75
240.961	66.75
241.195	75.75
241.429	73.75
241.662	75.75
241.896	68.75
242.13	65.75
242.363	64.75
242.597	63.75
242.83	68.75
243.064	78.75
243.298	86.75
243.531	73.75
243.765	64.75
243.998	75.75
244.232	63.75
244.465	79.75
244.699	73.75
244.932	87.75
245.166	70.75
245.399	64.75
245.633	72.75
245.866	75.75
246.099	69.75
246.333	67.75
246.566	67.75
246.8	79.75
247.033	56.75
247.266	87.75
247.5	80.75
247.733	75.75
247.966	72.75
248.2	71.75
248.433	75.75
248.666	61.75
248.899	74.75
249.133	75.75
249.366	88.75
249.599	89.75
249.832	69.75
250.066	68.75
250.299	88.75
250.532	89.75
250.765	84.75
250.998	73.75
251.231	97.75
251.465	75.75
251.698	66.75
251.931	83.75
252.164	75.75
252.397	78.75
252.63	82.75
252.863	75.75
253.096	88.75
253.329	77.75
253.562	75.75
253.795	64.75
254.028	92.75
254.261	75.75
254.494	74.75
254.727	95.75
254.96	81.75
255.193	72.75
255.426	74.75
255.659	82.75
255.892	68.75
256.124	86.75
256.357	77.75
256.59	81.75
256.823	68.75
257.056	81.75
257.289	71.75
257.521	77.75
257.754	88.75
257.987	81.75
258.22	87.75
258.452	79.75
258.685	65.75
258.918	73.75
259.151	79.75
259.383	87.75
259.616	79.75
259.849	72.75
260.081	84.75
260.314	81.75
260.547	73.75
260.779	75.75
261.012	67.75
261.244	76.75
261.477	79.75
261.71	89.75
261.942	108.75
262.175	85.75
262.407	93.75
262.64	89.75
262.872	80.75
263.105	84.75
263.337	81.75
263.57	81.75
263.802	90.75
264.035	89.75
264.267	82.75
264.499	73.75
264.732	77.75
264.964	78.75
265.197	64.75
265.429	62.75
265.661	85.75
265.894	87.75
266.126	89.75
266.358	75.75
266.591	86.75
266.823	73.75
267.055	66.75
267.287	85.75
267.52	66.75
267.752	76.75
267.984	79.75
268.216	73.75
268.448	73.75
268.681	80.75
268.913	79.75
269.145	93.75
269.377	79.75
269.609	76.75
269.841	86.75
270.073	73.75
270.306	85.75
270.538	96.75
270.77	71.75
271.002	95.75
271.234	85.75
271.466	89.75
271.698	67.75
271.93	65.75
272.162	83.75
272.394	77.75
272.626	92.75
272.858	77.75
273.09	91.75
273.322	73.75
273.553	88.75
273.785	85.75
274.017	82.75
274.249	84.75
274.481	77.75
274.713	97.75
274.945	80.75
275.176	74.75
275.408	104.75
275.64	73.75
275.872	74.75
276.104	80.75
276.335	92.75
276.567	100.75
276.799	99.75
277.031	84.75
277.262	85.75
277.494	85.75
277.726	75.75
277.957	91.75
278.189	79.75
278.421	84.75
278.652	74.75
278.884	77.75
279.115	83.75
279.347	81.75
279.579	101.75
279.81	85.75
280.042	85.75
280.273	93.75
280.505	74.75
280.736	81.75
280.968	96.75
281.199	93.75
281.431	91.75
281.662	91.75
281.894	85.75
282.125	91.75
282.356	109.75
282.588	120.75
282.819	116.75
283.051	102.75
283.282	91.75
283.513	78.75
283.745	101.75
283.976	91.75
284.207	77.75
284.439	77.75
284.67	68.75
284.901	86.75
285.132	81.75
285.364	80.75
285.595	80.75
285.826	82.75
286.057	90.75
286.288	81.75
286.52	89.75
286.751	82.75
286.982	101.75
287.213	77.75
287.444	78.75
287.675	84.75
287.906	84.75
288.138	98.75
288.369	81.75
288.6	86.75
288.831	96.75
289.062	87.75
289.293	80.75
289.524	78.75
289.755	82.75
289.986	70.75
290.217	99.75
290.448	77.75
290.679	71.75
290.91	106.75
291.141	79.75
291.371	81.75
291.602	92.75
291.833	87.75
292.064	84.75
292.295	90.75
292.526	84.75
292.757	88.75
292.987	80.75
293.218	80.75
293.449	89.75
293.68	89.75
293.91	80.75
294.141	86.75
294.372	88.75
294.603	83.75
294.833	99.75
295.064	81.75
295.295	68.75
295.525	89.75
295.756	94.75
295.987	101.75
296.217	131.75
296.448	113.75
296.679	95.75
296.909	80.75
297.14	80.75
297.37	75.75
297.601	76.75
297.831	78.75
298.062	67.75
298.292	90.75
298.523	90.75
298.753	78.75
298.984	80.75
299.214	85.75
299.445	68.75
299.675	91.75
299.905	79.75
300.136	90.75
300.366	86.75
300.597	101.75
300.827	77.75
301.057	90.75
301.288	99.75
301.518	97.75
301.748	96.75
301.979	83.75
302.209	79.75
302.439	91.75
302.669	81.75
302.9	87.75
303.13	82.75
303.36	79.75
303.59	95.75
303.82	88.75
304.051	89.75
304.281	85.75
304.511	89.75
304.741	86.75
304.971	80.75
305.201	99.75
305.431	73.75
305.661	70.75
305.891	89.75
306.121	83.75
306.352	84.75
306.582	95.75
306.812	97.75
307.042	94.75
307.272	96.75
307.502	91.75
307.731	95.75
307.961	105.75
308.191	82.75
308.421	92.75
308.651	83.75
308.881	92.75
309.111	107.75
309.341	88.75
309.571	85.75
309.8	85.75
310.03	100.75
310.26	102.75
310.49	95.75
310.72	88.75
310.949	97.75
311.179	78.75
311.409	66.75
311.639	107.75
311.868	91.75
312.098	89.75
312.328	97.75
312.557	92.75
312.787	102.75
313.017	87.75
313.246	90.75
313.476	87.75
313.706	86.75
313.935	78.75
314.165	88.75
314.394	73.75
314.624	88.75
314.853	99.75
315.083	89.75
315.312	91.75
315.542	87.75
315.771	87.75
316.001	84.75
316.23	88.75
316.46	87.75
316.689	91.75
316.919	92.75
317.148	80.75
317.377	94.75
317.607	79.75
317.836	92.75
318.065	97.75
318.295	101.75
318.524	101.75
318.753	94.75
318.983	101.75
319.212	92.75
319.441	94.75
319.67	98.75
319.9	85.75
320.129	98.75
320.358	96.75
320.587	101.75
320.816	103.75
321.046	89.75
321.275	91.75
321.504	91.75
321.733	100.75
321.962	92.75
322.191	107.75
322.42	101.75
322.649	102.75
322.878	108.75
323.108	113.75
323.337	123.75
323.566	136.75
323.795	143.75
324.024	187.75
324.253	329.75
324.482	743.75
324.71	1489.75
324.939	1991.75
325.168	729.75
325.397	215.75
325.626	131.75
325.855	114.75
326.084	119.75
326.313	140.75
326.542	141.75
326.77	220.75
326.999	408.75
327.228	839.75
327.457	1557.75
327.686	1189.75
327.914	329.75
328.143	185.75
328.372	139.75
328.6	121.75
328.829	108.75
329.058	126.75
329.287	111.75
329.515	80.75
329.744	90.75
329.972	96.75
330.201	99.75
330.43	94.75
330.658	108.75
330.887	106.75
331.115	113.75
331.344	109.75
331.572	100.75
331.801	94.75
332.03	99.75
332.258	87.75
332.486	80.75
332.715	99.75
332.943	99.75
333.172	85.75
333.4	105.75
333.629	99.75
333.857	110.75
334.085	109.75
334.314	81.75
334.542	95.75
334.771	97.75
334.999	76.75
335.227	93.75
335.455	89.75
335.684	97.75
335.912	93.75
336.14	94.75
336.369	95.75
336.597	88.75
336.825	96.75
337.053	91.75
337.281	75.75
337.51	79.75
337.738	84.75
337.966	75.75
338.194	92.75
338.422	93.75
338.65	82.75
338.878	99.75
339.106	78.75
339.334	96.75
339.562	92.75
339.79	87.75
340.018	93.75
340.246	109.75
340.474	91.75
340.702	90.75
340.93	86.75
341.158	80.75
341.386	98.75
341.614	101.75
341.842	82.75
342.07	80.75
342.298	78.75
342.526	91.75
342.754	86.75
342.981	81.75
343.209	85.75
343.437	90.75
343.665	82.75
343.893	88.75
344.12	90.75
344.348	88.75
344.576	68.75
344.804	73.75
345.031	95.75
345.259	93.75
345.487	98.75
345.714	92.75
345.942	79.75
346.17	102.75
346.397	83.75
346.625	100.75
346.853	83.75
347.08	92.75
347.308	78.75
347.535	79.75
347.763	103.75
347.99	95.75
348.218	97.75
348.445	100.75
348.673	88.75
348.9	93.75
349.128	93.75
349.355	89.75
349.583	96.75
349.81	79.75
350.037	88.75
350.265	104.75
350.492	100.75
350.72	104.75
350.947	93.75
351.174	103.75
351.402	101.75
351.629	95.75
351.856	106.75
352.083	97.75
352.311	106.75
352.538	105.75
352.765	98.75
352.992	96.75
353.22	96.75
353.447	83.75
353.674	98.75
353.901	82.75
354.128	95.75
354.355	95.75
354.583	98.75
354.81	93.75
355.037	88.75
355.264	81.75
355.491	91.75
355.718	95.75
355.945	91.75
356.172	84.75
356.399	95.75
356.626	83.75
356.853	86.75
357.08	83.75
357.307	82.75
357.534	93.75
357.761	96.75
357.988	104.75
358.215	103.75
358.441	96.75
358.668	81.75
358.895	96.75
359.122	86.75
359.349	88.75
359.576	97.75
359.802	93.75
360.029	112.75
360.256	98.75
360.483	79.75
360.709	95.75
360.936	91.75
361.163	99.75
361.39	90.75
361.616	95.75
361.843	82.75
362.07	99.75
362.296	97.75
362.523	78.75
362.749	73.75
362.976	77.75
363.203	100.75
363.429	80.75
363.656	87.75
363.882	90.75
364.109	85.75
364.335	90.75
364.562	76.75
364.788	88.75
365.015	89.75
365.241	90.75
365.468	78.75
365.694	107.75
365.92	85.75
366.147	78.75
366.373	83.75
366.599	90.75
366.826	83.75
367.052	77.75
367.278	87.75
367.505	79.75
367.731	87.75
367.957	84.75
368.184	93.75
368.41	84.75
368.636	101.75
368.862	87.75
369.089	100.75
369.315	99.75
369.541	87.75
369.767	87.75
369.993	73.75
370.219	77.75
370.445	98.75
370.672	87.75
370.898	88.75
371.124	91.75
371.35	95.75
371.576	66.75
371.802	83.75
372.028	86.75
372.254	93.75
372.48	80.75
372.706	73.75
372.932	79.75
373.158	91.75
373.384	92.75
373.61	92.75
373.835	83.75
374.061	90.75
374.287	88.75
374.513	79.75
374.739	89.75
374.965	82.75
375.191	88.75
375.416	97.75
375.642	83.75
375.868	94.75
376.094	80.75
376.319	96.75
376.545	84.75
376.771	94.75
376.997	80.75
377.222	91.75
377.448	83.75
377.674	72.75
377.899	83.75
378.125	100.75
378.35	81.75
378.576	84.75
378.802	82.75
379.027	84.75
379.253	79.75
379.478	84.75
379.704	76.75
379.929	97.75
380.155	94.75
380.38	105.75
380.606	80.75
380.831	108.75
381.057	96.75
381.282	81.75
381.507	79.75
381.733	79.75
381.958	67.75
382.184	85.75
382.409	99.75
382.634	105.75
382.86	87.75
383.085	95.75
383.31	85.75
383.535	103.75
383.761	85.75
383.986	90.75
384.211	94.75
384.436	93.75
384.662	80.75
384.887	93.75
385.112	88.75
385.337	92.75
385.562	81.75
385.787	90.75
386.013	101.75
386.238	98.75
386.463	97.75
386.688	103.75
386.913	101.75
387.138	96.75
387.363	98.75
387.588	97.75
387.813	84.75
388.038	92.75
388.263	109.75
388.488	99.75
388.713	84.75
388.938	91.75
389.163	100.75
389.387	93.75
389.612	87.75
389.837	83.75
390.062	85.75
390.287	81.75
390.512	90.75
390.736	81.75
390.961	87.75
391.186	77.75
391.411	81.75
391.636	77.75
391.86	83.75
392.085	79.75
392.31	80.75
392.534	81.75
392.759	80.75
392.984	79.75
393.208	92.75
393.433	82.75
393.658	100.75
393.882	88.75
394.107	73.75
394.331	76.75
394.556	77.75
394.78	94.75
395.005	90.75
395.229	93.75
395.454	87.75
395.678	86.75
395.903	91.75
396.127	87.75
396.352	100.75
396.576	85.75
396.801	88.75
397.025	87.75
397.249	92.75
397.474	89.75
397.698	85.75
397.922	71.75
398.147	93.75
398.371	91.75
398.595	77.75
398.82	89.75
399.044	83.75
399.268	85.75
399.492	92.75
399.717	93.75
399.941	77.75
400.165	94.75
400.389	88.75
400.613	94.75
400.837	70.75
401.062	65.75
401.286	93.75
401.51	80.75
401.734	83.75
401.958	101.75
402.182	117.75
402.406	136.75
402.63	119.75
402.854	88.75
403.078	87.75
403.302	90.75
403.526	82.75
403.75	84.75
403.974	92.75
404.198	93.75
404.422	107.75
404.645	85.75
404.869	89.75
405.093	93.75
405.317	98.75
405.541	92.75
405.765	91.75
405.988	112.75
406.212	143.75
406.436	196.75
406.66	124.75
406.883	89.75
407.107	80.75
407.331	102.75
407.555	84.75
407.778	78.75
408.002	84.75
408.226	89.75
408.449	94.75
408.673	92.75
408.896	87.75
409.12	90.75
409.344	90.75
409.567	101.75
409.791	93.75
410.014	95.75
410.238	95.75
410.461	103.75
410.685	85.75
410.908	104.75
411.132	111.75
411.355	102.75
411.578	107.75
411.802	85.75
412.025	85.75
412.249	97.75
412.472	92.75
412.695	92.75
412.919	93.75
413.142	108.75
413.365	87.75
413.589	91.75
413.812	86.75
414.035	83.75
414.258	71.75
414.482	76.75
414.705	88.75
414.928	90.75
415.151	95.75
415.374	81.75
415.597	83.75
415.821	76.75
416.044	100.75
416.267	80.75
416.49	76.75
416.713	85.75
416.936	91.75
417.159	85.75
417.382	68.75
417.605	88.75
417.828	77.75
418.051	94.75
418.274	83.75
418.497	88.75
418.72	83.75
418.943	81.75
419.166	84.75
419.389	79.75
419.611	94.75
419.834	103.75
420.057	80.75
420.28	79.75
420.503	92.75
420.726	78.75
420.948	89.75
421.171	88.75
421.394	95.75
421.617	68.75
421.839	77.75
422.062	92.75
422.285	81.75
422.507	95.75
422.73	114.75
422.953	80.75
423.175	80.75
423.398	83.75
423.621	86.75
423.843	99.75
424.066	85.75
424.288	97.75
424.511	92.75
424.733	75.75
424.956	92.75
425.178	81.75
425.401	104.75
425.623	97.75
425.846	85.75
426.068	88.75
426.291	87.75
426.513	85.75
426.735	65.75
426.958	91.75
427.18	104.75
427.402	124.75
427.625	144.75
427.847	107.75
428.069	95.75
428.292	83.75
428.514	91.75
428.736	88.75
428.958	90.75
429.181	83.75
429.403	76.75
429.625	89.75
429.847	89.75
430.069	93.75
430.292	91.75
430.514	74.75
430.736	84.75
430.958	91.75
431.18	101.75
431.402	80.75
431.624	88.75
431.846	87.75
432.068	84.75
432.29	74.75
432.512	75.75
432.734	77.75
432.956	80.75
433.178	89.75
433.4	93.75
433.622	87.75
433.844	84.75
434.066	79.75
434.287	87.75
434.509	98.75
434.731	91.75
434.953	79.75
435.175	83.75
435.397	76.75
435.618	81.75
435.84	91.75
436.062	115.75
436.284	89.75
436.505	90.75
436.727	89.75
436.949	91.75
437.17	90.75
437.392	95.75
437.614	75.75
437.835	93.75
438.057	104.75
438.278	115.75
438.5	97.75
438.721	103.75
438.943	83.75
439.165	79.75
439.386	88.75
439.608	93.75
439.829	96.75
440.05	105.75
440.272	133.75
440.493	105.75
440.715	83.75
440.936	77.75
441.158	89.75
441.379	82.75
441.6	84.75
441.822	96.75
442.043	97.75
442.264	92.75
442.486	101.75
442.707	84.75
442.928	111.75
443.149	122.75
443.371	119.75
443.592	106.75
443.813	101.75
444.034	107.75
444.255	92.75
444.476	90.75
444.698	87.75
444.919	90.75
445.14	127.75
445.361	118.75
445.582	100.75
445.803	117.75
446.024	119.75
446.245	126.75
446.466	117.75
446.687	93.75
446.908	97.75
447.129	85.75
447.35	80.75
447.571	80.75
447.792	83.75
448.013	89.75
448.234	103.75
448.455	98.75
448.675	116.75
448.896	99.75
449.117	81.75
449.338	106.75
449.559	128.75
449.779	131.75
450	110.75
450.221	82.75
450.442	82.75
450.662	88.75
450.883	94.75
451.104	106.75
451.324	87.75
451.545	99.75
451.766	81.75
451.986	85.75
452.207	87.75
452.428	80.75
452.648	99.75
452.869	110.75
453.089	96.75
453.31	100.75
453.53	106.75
453.751	77.75
453.971	99.75
454.192	93.75
454.412	94.75
454.633	85.75
454.853	87.75
455.073	64.75
455.294	91.75
455.514	83.75
455.734	82.75
455.955	80.75
456.175	76.75
456.395	68.75
456.616	93.75
456.836	82.75
457.056	90.75
457.276	85.75
457.497	71.75
457.717	85.75
457.937	101.75
458.157	92.75
458.377	87.75
458.598	93.75
458.818	122.75
459.038	133.75
459.258	92.75
459.478	81.75
459.698	82.75
459.918	75.75
460.138	92.75
460.358	80.75
460.578	76.75
460.798	78.75
461.018	83.75
461.238	77.75
461.458	83.75
461.678	72.75
461.898	83.75
462.118	95.75
462.338	80.75
462.558	91.75
462.777	75.75
462.997	76.75
463.217	89.75
463.437	68.75
463.657	81.75
463.876	91.75
464.096	85.75
464.316	95.75
464.536	89.75
464.755	103.75
464.975	83.75
465.195	146.75
465.414	149.75
465.634	104.75
465.854	86.75
466.073	85.75
466.293	81.75
466.512	77.75
466.732	80.75
466.951	91.75
467.171	73.75
467.391	85.75
467.61	88.75
467.829	90.75
468.049	77.75
468.268	88.75
468.488	96.75
468.707	87.75
468.927	81.75
469.146	78.75
469.365	77.75
469.585	72.75
469.804	83.75
470.023	78.75
470.243	89.75
470.462	87.75
470.681	101.75
470.901	90.75
471.12	82.75
471.339	83.75
471.558	94.75
471.777	88.75
471.997	83.75
472.216	94.75
472.435	90.75
472.654	83.75
472.873	79.75
473.092	72.75
473.311	82.75
473.53	77.75
473.749	82.75
473.968	84.75
474.187	89.75
474.406	85.75
474.625	84.75
474.844	83.75
475.063	80.75
475.282	81.75
475.501	79.75
475.72	85.75
475.939	85.75
476.158	88.75
476.377	69.75
476.596	83.75
476.814	91.75
477.033	75.75
477.252	89.75
477.471	67.75
477.69	71.75
477.908	81.75
478.127	72.75
478.346	82.75
478.564	77.75
478.783	90.75
479.002	96.75
479.22	81.75
479.439	94.75
479.658	91.75
479.876	79.75
480.095	109.75
480.313	87.75
480.532	95.75
480.751	77.75
480.969	78.75
481.188	125.75
481.406	91.75
481.624	82.75
481.843	89.75
482.061	81.75
482.28	96.75
482.498	81.75
482.717	82.75
482.935	90.75
483.153	91.75
483.372	103.75
483.59	73.75
483.808	90.75
484.027	92.75
484.245	94.75
484.463	77.75
484.681	86.75
484.9	71.75
485.118	93.75
485.336	87.75
485.554	95.75
485.772	95.75
485.99	113.75
486.209	102.75
486.427	97.75
486.645	117.75
486.863	110.75
487.081	94.75
487.299	92.75
487.517	106.75
487.735	89.75
487.953	87.75
488.171	91.75
488.389	85.75
488.607	97.75
488.825	76.75
489.043	93.75
489.261	82.75
489.479	82.75
489.696	68.75
489.914	84.75
490.132	87.75
490.35	87.75
490.568	99.75
490.786	82.75
491.003	89.75
491.221	98.75
491.439	87.75
491.657	99.75
491.874	105.75
492.092	76.75
492.31	101.75
492.527	90.75
492.745	103.75
492.963	86.75
493.18	82.75
493.398	87.75
493.615	90.75
493.833	94.75
494.05	78.75
494.268	87.75
494.485	95.75
494.703	76.75
494.92	94.75
495.138	97.75
495.355	96.75
495.573	81.75
495.79	83.75
496.008	98.75
496.225	91.75
496.442	85.75
496.66	98.75
496.877	92.75
497.094	86.75
497.312	79.75
497.529	84.75
497.746	79.75
497.963	84.75
498.181	97.75
498.398	94.75
498.615	94.75
498.832	102.75
499.049	85.75
499.267	95.75
499.484	104.75
499.701	80.75
499.918	83.75
500.135	89.75
500.352	100.75
500.569	75.75
500.786	89.75
501.003	91.75
501.22	100.75
501.437	94.75
501.654	78.75
501.871	103.75
502.088	88.75
502.305	101.75
502.522	92.75
502.739	83.75
502.956	84.75
503.172	93.75
503.389	78.75
503.606	97.75
503.823	73.75
504.04	95.75
504.256	94.75
504.473	78.75
504.69	81.75
504.907	83.75
505.123	82.75
505.34	82.75
505.557	79.75
505.773	67.75
505.99	79.75
506.207	101.75
506.423	90.75
506.64	82.75
506.856	80.75
507.073	85.75
507.289	92.75
507.506	82.75
507.722	98.75
507.939	98.75
508.155	97.75
508.372	112.75
508.588	87.75
508.805	96.75
509.021	79.75
509.238	81.75
509.454	102.75
509.67	84.75
509.887	111.75
510.103	123.75
510.319	197.75
510.536	673.75
510.752	2141.75
510.968	595.75
511.184	149.75
511.401	117.75
511.617	90.75
511.833	87.75
512.049	80.75
512.265	89.75
512.481	85.75
512.698	85.75
512.914	84.75
513.13	96.75
513.346	85.75
513.562	83.75
513.778	100.75
513.994	90.75
514.21	104.75
514.426	105.75
514.642	109.75
514.858	108.75
515.074	153.75
515.29	394.75
515.506	1243.75
515.721	478.75
515.937	136.75
516.153	105.75
516.369	95.75
516.585	81.75
516.801	79.75
517.016	91.75
517.232	90.75
