Data from Uncirc_1990_H10_HRD10591_00018.txt Node
Date: Wed Jan 03 11:53:55 EST 2024
User: Yrep
Spectrometer: HR+D1059
Trigger mode: 1
Integration Time (sec): 1.000000E-1
Scans to average: 1
Electric dark correction enabled: true
Nonlinearity correction enabled: false
Boxcar width: 0
XAxis mode: Wavelengths
Number of Pixels in Spectrum: 2048
>>>>>Begin Spectral Data<<<<<
223.165	-7.5
223.4	-7.5
223.635	-7.5
223.869	-26.5
224.104	-23.5
224.338	4.5
224.573	-15.5
224.808	-9.5
225.042	4.5
225.277	-17.5
225.511	-9.5
225.746	5.5
225.98	4.5
226.215	5.5
226.449	20.5
226.683	14.5
226.918	25.5
227.152	24.5
227.387	38.5
227.621	36.5
227.856	43.5
228.09	52.5
228.324	52.5
228.559	53.5
228.793	46.5
229.027	71.5
229.262	60.5
229.496	67.5
229.73	75.5
229.964	78.5
230.199	70.5
230.433	61.5
230.667	73.5
230.901	81.5
231.136	75.5
231.37	68.5
231.604	62.5
231.838	70.5
232.072	74.5
232.306	69.5
232.541	76.5
232.775	91.5
233.009	79.5
233.243	74.5
233.477	67.5
233.711	64.5
233.945	60.5
234.179	73.5
234.413	73.5
234.647	62.5
234.881	75.5
235.115	89.5
235.349	76.5
235.583	69.5
235.817	67.5
236.051	75.5
236.285	67.5
236.519	71.5
236.753	85.5
236.987	73.5
237.221	79.5
237.455	84.5
237.689	75.5
237.922	69.5
238.156	61.5
238.39	64.5
238.624	70.5
238.858	65.5
239.091	77.5
239.325	75.5
239.559	70.5
239.793	79.5
240.027	80.5
240.26	72.5
240.494	74.5
240.728	82.5
240.961	68.5
241.195	68.5
241.429	67.5
241.662	65.5
241.896	69.5
242.13	77.5
242.363	73.5
242.597	93.5
242.83	73.5
243.064	83.5
243.298	84.5
243.531	74.5
243.765	75.5
243.998	78.5
244.232	77.5
244.465	76.5
244.699	61.5
244.932	78.5
245.166	69.5
245.399	75.5
245.633	80.5
245.866	73.5
246.099	68.5
246.333	62.5
246.566	71.5
246.8	80.5
247.033	91.5
247.266	81.5
247.5	85.5
247.733	86.5
247.966	63.5
248.2	78.5
248.433	68.5
248.666	78.5
248.899	76.5
249.133	80.5
249.366	93.5
249.599	87.5
249.832	71.5
250.066	80.5
250.299	70.5
250.532	74.5
250.765	54.5
250.998	88.5
251.231	88.5
251.465	71.5
251.698	74.5
251.931	70.5
252.164	78.5
252.397	86.5
252.63	62.5
252.863	85.5
253.096	77.5
253.329	65.5
253.562	84.5
253.795	74.5
254.028	70.5
254.261	82.5
254.494	97.5
254.727	75.5
254.96	82.5
255.193	87.5
255.426	71.5
255.659	91.5
255.892	67.5
256.124	87.5
256.357	75.5
256.59	83.5
256.823	74.5
257.056	76.5
257.289	78.5
257.521	73.5
257.754	89.5
257.987	62.5
258.22	93.5
258.452	86.5
258.685	78.5
258.918	82.5
259.151	84.5
259.383	92.5
259.616	74.5
259.849	85.5
260.081	90.5
260.314	71.5
260.547	81.5
260.779	75.5
261.012	90.5
261.244	75.5
261.477	85.5
261.71	79.5
261.942	121.5
262.175	113.5
262.407	96.5
262.64	79.5
262.872	84.5
263.105	76.5
263.337	81.5
263.57	101.5
263.802	81.5
264.035	79.5
264.267	84.5
264.499	66.5
264.732	90.5
264.964	73.5
265.197	86.5
265.429	71.5
265.661	75.5
265.894	68.5
266.126	83.5
266.358	85.5
266.591	80.5
266.823	81.5
267.055	75.5
267.287	71.5
267.52	77.5
267.752	81.5
267.984	85.5
268.216	70.5
268.448	71.5
268.681	94.5
268.913	76.5
269.145	87.5
269.377	84.5
269.609	85.5
269.841	80.5
270.073	67.5
270.306	86.5
270.538	78.5
270.77	75.5
271.002	88.5
271.234	83.5
271.466	89.5
271.698	80.5
271.93	74.5
272.162	87.5
272.394	81.5
272.626	83.5
272.858	75.5
273.09	92.5
273.322	90.5
273.553	85.5
273.785	71.5
274.017	84.5
274.249	77.5
274.481	89.5
274.713	82.5
274.945	70.5
275.176	77.5
275.408	78.5
275.64	78.5
275.872	75.5
276.104	96.5
276.335	85.5
276.567	92.5
276.799	94.5
277.031	96.5
277.262	86.5
277.494	79.5
277.726	90.5
277.957	75.5
278.189	92.5
278.421	67.5
278.652	79.5
278.884	84.5
279.115	77.5
279.347	89.5
279.579	80.5
279.81	70.5
280.042	82.5
280.273	89.5
280.505	82.5
280.736	78.5
280.968	79.5
281.199	93.5
281.431	71.5
281.662	95.5
281.894	92.5
282.125	80.5
282.356	108.5
282.588	133.5
282.819	99.5
283.051	76.5
283.282	86.5
283.513	85.5
283.745	79.5
283.976	77.5
284.207	87.5
284.439	93.5
284.67	90.5
284.901	77.5
285.132	82.5
285.364	78.5
285.595	96.5
285.826	81.5
286.057	89.5
286.288	87.5
286.52	94.5
286.751	85.5
286.982	88.5
287.213	82.5
287.444	83.5
287.675	89.5
287.906	75.5
288.138	78.5
288.369	90.5
288.6	87.5
288.831	75.5
289.062	79.5
289.293	73.5
289.524	79.5
289.755	93.5
289.986	73.5
290.217	86.5
290.448	87.5
290.679	97.5
290.91	77.5
291.141	79.5
291.371	84.5
291.602	92.5
291.833	88.5
292.064	73.5
292.295	76.5
292.526	94.5
292.757	78.5
292.987	89.5
293.218	85.5
293.449	89.5
293.68	89.5
293.91	94.5
294.141	87.5
294.372	80.5
294.603	89.5
294.833	83.5
295.064	87.5
295.295	95.5
295.525	93.5
295.756	109.5
295.987	112.5
296.217	109.5
296.448	124.5
296.679	88.5
296.909	79.5
297.14	94.5
297.37	92.5
297.601	71.5
297.831	91.5
298.062	93.5
298.292	96.5
298.523	85.5
298.753	79.5
298.984	89.5
299.214	95.5
299.445	95.5
299.675	101.5
299.905	98.5
300.136	85.5
300.366	94.5
300.597	84.5
300.827	88.5
301.057	87.5
301.288	88.5
301.518	93.5
301.748	94.5
301.979	107.5
302.209	112.5
302.439	88.5
302.669	84.5
302.9	85.5
303.13	83.5
303.36	84.5
303.59	79.5
303.82	92.5
304.051	92.5
304.281	90.5
304.511	82.5
304.741	96.5
304.971	73.5
305.201	77.5
305.431	79.5
305.661	82.5
305.891	98.5
306.121	102.5
306.352	100.5
306.582	95.5
306.812	88.5
307.042	87.5
307.272	92.5
307.502	94.5
307.731	89.5
307.961	96.5
308.191	81.5
308.421	100.5
308.651	89.5
308.881	82.5
309.111	101.5
309.341	101.5
309.571	95.5
309.8	88.5
310.03	108.5
310.26	95.5
310.49	99.5
310.72	112.5
310.949	93.5
311.179	93.5
311.409	95.5
311.639	84.5
311.868	90.5
312.098	78.5
312.328	76.5
312.557	107.5
312.787	98.5
313.017	91.5
313.246	90.5
313.476	102.5
313.706	83.5
313.935	100.5
314.165	108.5
314.394	98.5
314.624	92.5
314.853	91.5
315.083	79.5
315.312	89.5
315.542	92.5
315.771	102.5
316.001	88.5
316.23	86.5
316.46	84.5
316.689	88.5
316.919	90.5
317.148	80.5
317.377	100.5
317.607	102.5
317.836	84.5
318.065	76.5
318.295	87.5
318.524	91.5
318.753	94.5
318.983	86.5
319.212	91.5
319.441	102.5
319.67	105.5
319.9	85.5
320.129	107.5
320.358	97.5
320.587	102.5
320.816	91.5
321.046	98.5
321.275	95.5
321.504	105.5
321.733	87.5
321.962	95.5
322.191	97.5
322.42	93.5
322.649	99.5
322.878	101.5
323.108	121.5
323.337	111.5
323.566	114.5
323.795	117.5
324.024	182.5
324.253	345.5
324.482	715.5
324.71	1452.5
324.939	1879.5
325.168	715.5
325.397	207.5
325.626	134.5
325.855	115.5
326.084	114.5
326.313	141.5
326.542	153.5
326.77	210.5
326.999	383.5
327.228	829.5
327.457	1506.5
327.686	1204.5
327.914	337.5
328.143	153.5
328.372	134.5
328.6	101.5
328.829	109.5
329.058	100.5
329.287	113.5
329.515	93.5
329.744	102.5
329.972	109.5
330.201	101.5
330.43	116.5
330.658	112.5
330.887	116.5
331.115	118.5
331.344	108.5
331.572	97.5
331.801	103.5
332.03	95.5
332.258	86.5
332.486	88.5
332.715	88.5
332.943	73.5
333.172	82.5
333.4	98.5
333.629	102.5
333.857	113.5
334.085	92.5
334.314	83.5
334.542	78.5
334.771	99.5
334.999	89.5
335.227	92.5
335.455	86.5
335.684	84.5
335.912	93.5
336.14	96.5
336.369	96.5
336.597	110.5
336.825	100.5
337.053	89.5
337.281	90.5
337.51	81.5
337.738	94.5
337.966	98.5
338.194	79.5
338.422	97.5
338.65	85.5
338.878	90.5
339.106	68.5
339.334	87.5
339.562	83.5
339.79	81.5
340.018	82.5
340.246	98.5
340.474	99.5
340.702	99.5
340.93	92.5
341.158	84.5
341.386	94.5
341.614	87.5
341.842	106.5
342.07	75.5
342.298	87.5
342.526	82.5
342.754	80.5
342.981	110.5
343.209	97.5
343.437	94.5
343.665	94.5
343.893	86.5
344.12	95.5
344.348	89.5
344.576	76.5
344.804	92.5
345.031	97.5
345.259	99.5
345.487	100.5
345.714	100.5
345.942	91.5
346.17	65.5
346.397	97.5
346.625	91.5
346.853	84.5
347.08	86.5
347.308	94.5
347.535	92.5
347.763	90.5
347.99	97.5
348.218	106.5
348.445	111.5
348.673	89.5
348.9	95.5
349.128	102.5
349.355	113.5
349.583	86.5
349.81	89.5
350.037	99.5
350.265	86.5
350.492	86.5
350.72	96.5
350.947	107.5
351.174	100.5
351.402	97.5
351.629	95.5
351.856	96.5
352.083	98.5
352.311	102.5
352.538	111.5
352.765	117.5
352.992	118.5
353.22	111.5
353.447	96.5
353.674	104.5
353.901	97.5
354.128	90.5
354.355	92.5
354.583	108.5
354.81	92.5
355.037	101.5
355.264	98.5
355.491	99.5
355.718	77.5
355.945	98.5
356.172	97.5
356.399	86.5
356.626	85.5
356.853	97.5
357.08	97.5
357.307	87.5
357.534	66.5
357.761	95.5
357.988	97.5
358.215	86.5
358.441	103.5
358.668	105.5
358.895	97.5
359.122	106.5
359.349	75.5
359.576	95.5
359.802	100.5
360.029	100.5
360.256	100.5
360.483	98.5
360.709	93.5
360.936	77.5
361.163	89.5
361.39	91.5
361.616	96.5
361.843	85.5
362.07	87.5
362.296	95.5
362.523	76.5
362.749	96.5
362.976	97.5
363.203	91.5
363.429	87.5
363.656	92.5
363.882	97.5
364.109	97.5
364.335	96.5
364.562	101.5
364.788	100.5
365.015	82.5
365.241	93.5
365.468	95.5
365.694	97.5
365.92	93.5
366.147	94.5
366.373	87.5
366.599	97.5
366.826	91.5
367.052	75.5
367.278	89.5
367.505	96.5
367.731	79.5
367.957	63.5
368.184	83.5
368.41	99.5
368.636	104.5
368.862	116.5
369.089	91.5
369.315	94.5
369.541	89.5
369.767	88.5
369.993	96.5
370.219	87.5
370.445	86.5
370.672	99.5
370.898	77.5
371.124	83.5
371.35	90.5
371.576	90.5
371.802	74.5
372.028	89.5
372.254	84.5
372.48	98.5
372.706	83.5
372.932	102.5
373.158	85.5
373.384	93.5
373.61	105.5
373.835	87.5
374.061	86.5
374.287	85.5
374.513	78.5
374.739	89.5
374.965	96.5
375.191	89.5
375.416	85.5
375.642	68.5
375.868	82.5
376.094	77.5
376.319	89.5
376.545	82.5
376.771	99.5
376.997	89.5
377.222	81.5
377.448	88.5
377.674	95.5
377.899	95.5
378.125	86.5
378.35	90.5
378.576	89.5
378.802	81.5
379.027	104.5
379.253	85.5
379.478	95.5
379.704	92.5
379.929	91.5
380.155	92.5
380.38	105.5
380.606	102.5
380.831	103.5
381.057	90.5
381.282	98.5
381.507	87.5
381.733	107.5
381.958	99.5
382.184	77.5
382.409	86.5
382.634	119.5
382.86	78.5
383.085	95.5
383.31	87.5
383.535	92.5
383.761	105.5
383.986	111.5
384.211	83.5
384.436	95.5
384.662	102.5
384.887	99.5
385.112	109.5
385.337	89.5
385.562	103.5
385.787	93.5
386.013	119.5
386.238	116.5
386.463	104.5
386.688	106.5
386.913	83.5
387.138	103.5
387.363	107.5
387.588	114.5
387.813	103.5
388.038	105.5
388.263	117.5
388.488	103.5
388.713	84.5
388.938	82.5
389.163	93.5
389.387	93.5
389.612	93.5
389.837	88.5
390.062	93.5
390.287	89.5
390.512	89.5
390.736	108.5
390.961	91.5
391.186	96.5
391.411	94.5
391.636	83.5
391.86	91.5
392.085	93.5
392.31	97.5
392.534	89.5
392.759	86.5
392.984	86.5
393.208	102.5
393.433	86.5
393.658	99.5
393.882	79.5
394.107	87.5
394.331	91.5
394.556	98.5
394.78	97.5
395.005	94.5
395.229	84.5
395.454	77.5
395.678	90.5
395.903	77.5
396.127	91.5
396.352	87.5
396.576	91.5
396.801	96.5
397.025	92.5
397.249	98.5
397.474	94.5
397.698	77.5
397.922	99.5
398.147	95.5
398.371	79.5
398.595	93.5
398.82	83.5
399.044	98.5
399.268	81.5
399.492	100.5
399.717	89.5
399.941	83.5
400.165	106.5
400.389	74.5
400.613	90.5
400.837	85.5
401.062	83.5
401.286	85.5
401.51	81.5
401.734	84.5
401.958	94.5
402.182	113.5
402.406	141.5
402.63	108.5
402.854	86.5
403.078	84.5
403.302	87.5
403.526	81.5
403.75	78.5
403.974	95.5
404.198	89.5
404.422	77.5
404.645	71.5
404.869	96.5
405.093	73.5
405.317	82.5
405.541	85.5
405.765	99.5
405.988	95.5
406.212	143.5
406.436	185.5
406.66	116.5
406.883	93.5
407.107	94.5
407.331	86.5
407.555	105.5
407.778	94.5
408.002	98.5
408.226	89.5
408.449	78.5
408.673	99.5
408.896	101.5
409.12	83.5
409.344	81.5
409.567	92.5
409.791	91.5
410.014	94.5
410.238	105.5
410.461	90.5
410.685	89.5
410.908	97.5
411.132	95.5
411.355	98.5
411.578	81.5
411.802	95.5
412.025	96.5
412.249	83.5
412.472	95.5
412.695	87.5
412.919	99.5
413.142	92.5
413.365	91.5
413.589	83.5
413.812	93.5
414.035	93.5
414.258	79.5
414.482	86.5
414.705	80.5
414.928	90.5
415.151	93.5
415.374	92.5
415.597	92.5
415.821	96.5
416.044	97.5
416.267	89.5
416.49	84.5
416.713	87.5
416.936	93.5
417.159	96.5
417.382	85.5
417.605	95.5
417.828	85.5
418.051	84.5
418.274	86.5
418.497	85.5
418.72	86.5
418.943	89.5
419.166	83.5
419.389	90.5
419.611	85.5
419.834	92.5
420.057	74.5
420.28	79.5
420.503	85.5
420.726	71.5
420.948	91.5
421.171	87.5
421.394	79.5
421.617	78.5
421.839	84.5
422.062	89.5
422.285	77.5
422.507	89.5
422.73	92.5
422.953	89.5
423.175	89.5
423.398	80.5
423.621	71.5
423.843	77.5
424.066	77.5
424.288	82.5
424.511	84.5
424.733	85.5
424.956	92.5
425.178	90.5
425.401	79.5
425.623	90.5
425.846	103.5
426.068	94.5
426.291	97.5
426.513	87.5
426.735	90.5
426.958	90.5
427.18	114.5
427.402	118.5
427.625	147.5
427.847	126.5
428.069	91.5
428.292	85.5
428.514	75.5
428.736	86.5
428.958	94.5
429.181	94.5
429.403	86.5
429.625	90.5
429.847	96.5
430.069	102.5
430.292	84.5
430.514	78.5
430.736	68.5
430.958	82.5
431.18	72.5
431.402	90.5
431.624	82.5
431.846	82.5
432.068	77.5
432.29	96.5
432.512	73.5
432.734	88.5
432.956	91.5
433.178	80.5
433.4	99.5
433.622	82.5
433.844	79.5
434.066	83.5
434.287	81.5
434.509	78.5
434.731	92.5
434.953	93.5
435.175	90.5
435.397	81.5
435.618	93.5
435.84	96.5
436.062	117.5
436.284	111.5
436.505	98.5
436.727	115.5
436.949	103.5
437.17	97.5
437.392	92.5
437.614	84.5
437.835	93.5
438.057	97.5
438.278	107.5
438.5	122.5
438.721	98.5
438.943	96.5
439.165	94.5
439.386	88.5
439.608	88.5
439.829	83.5
440.05	106.5
440.272	124.5
440.493	97.5
440.715	92.5
440.936	87.5
441.158	84.5
441.379	90.5
441.6	98.5
441.822	82.5
442.043	87.5
442.264	95.5
442.486	88.5
442.707	87.5
442.928	97.5
443.149	122.5
443.371	118.5
443.592	111.5
443.813	103.5
444.034	94.5
444.255	88.5
444.476	90.5
444.698	97.5
444.919	91.5
445.14	127.5
445.361	107.5
445.582	111.5
445.803	121.5
446.024	118.5
446.245	129.5
446.466	110.5
446.687	80.5
446.908	85.5
447.129	77.5
447.35	88.5
447.571	100.5
447.792	92.5
448.013	105.5
448.234	110.5
448.455	112.5
448.675	104.5
448.896	116.5
449.117	103.5
449.338	97.5
449.559	120.5
449.779	124.5
450	98.5
450.221	83.5
450.442	85.5
450.662	75.5
450.883	95.5
451.104	108.5
451.324	85.5
451.545	82.5
451.766	76.5
451.986	90.5
452.207	85.5
452.428	88.5
452.648	80.5
452.869	101.5
453.089	85.5
453.31	112.5
453.53	90.5
453.751	87.5
453.971	87.5
454.192	97.5
454.412	82.5
454.633	77.5
454.853	87.5
455.073	77.5
455.294	92.5
455.514	91.5
455.734	85.5
455.955	77.5
456.175	80.5
456.395	82.5
456.616	80.5
456.836	84.5
457.056	81.5
457.276	89.5
457.497	83.5
457.717	97.5
457.937	91.5
458.157	84.5
458.377	95.5
458.598	96.5
458.818	122.5
459.038	141.5
459.258	95.5
459.478	83.5
459.698	89.5
459.918	92.5
460.138	68.5
460.358	77.5
460.578	91.5
460.798	86.5
461.018	82.5
461.238	78.5
461.458	78.5
461.678	91.5
461.898	86.5
462.118	96.5
462.338	89.5
462.558	92.5
462.777	81.5
462.997	81.5
463.217	86.5
463.437	88.5
463.657	84.5
463.876	92.5
464.096	96.5
464.316	87.5
464.536	99.5
464.755	81.5
464.975	98.5
465.195	154.5
465.414	129.5
465.634	93.5
465.854	96.5
466.073	91.5
466.293	91.5
466.512	90.5
466.732	81.5
466.951	89.5
467.171	81.5
467.391	89.5
467.61	94.5
467.829	81.5
468.049	81.5
468.268	84.5
468.488	86.5
468.707	100.5
468.927	91.5
469.146	92.5
469.365	79.5
469.585	84.5
469.804	89.5
470.023	94.5
470.243	100.5
470.462	85.5
470.681	89.5
470.901	85.5
471.12	77.5
471.339	82.5
471.558	78.5
471.777	102.5
471.997	79.5
472.216	83.5
472.435	101.5
472.654	91.5
472.873	89.5
473.092	83.5
473.311	86.5
473.53	87.5
473.749	107.5
473.968	101.5
474.187	79.5
474.406	101.5
474.625	81.5
474.844	99.5
475.063	104.5
475.282	87.5
475.501	108.5
475.72	94.5
475.939	82.5
476.158	89.5
476.377	80.5
476.596	84.5
476.814	99.5
477.033	90.5
477.252	80.5
477.471	76.5
477.69	81.5
477.908	95.5
478.127	92.5
478.346	92.5
478.564	89.5
478.783	95.5
479.002	89.5
479.22	80.5
479.439	97.5
479.658	88.5
479.876	87.5
480.095	89.5
480.313	84.5
480.532	79.5
480.751	91.5
480.969	74.5
481.188	93.5
481.406	96.5
481.624	96.5
481.843	102.5
482.061	87.5
482.28	82.5
482.498	85.5
482.717	79.5
482.935	90.5
483.153	82.5
483.372	97.5
483.59	89.5
483.808	88.5
484.027	65.5
484.245	102.5
484.463	85.5
484.681	82.5
484.9	85.5
485.118	102.5
485.336	94.5
485.554	98.5
485.772	102.5
485.99	115.5
486.209	93.5
486.427	113.5
486.645	98.5
486.863	104.5
487.081	104.5
487.299	94.5
487.517	106.5
487.735	83.5
487.953	89.5
488.171	87.5
488.389	83.5
488.607	100.5
488.825	99.5
489.043	87.5
489.261	95.5
489.479	97.5
489.696	89.5
489.914	79.5
490.132	81.5
490.35	73.5
490.568	90.5
490.786	85.5
491.003	98.5
491.221	100.5
491.439	85.5
491.657	85.5
491.874	84.5
492.092	91.5
492.31	91.5
492.527	90.5
492.745	90.5
492.963	79.5
493.18	86.5
493.398	89.5
493.615	93.5
493.833	105.5
494.05	78.5
494.268	97.5
494.485	77.5
494.703	87.5
494.92	72.5
495.138	83.5
495.355	88.5
495.573	93.5
495.79	66.5
496.008	82.5
496.225	83.5
496.442	99.5
496.66	90.5
496.877	89.5
497.094	105.5
497.312	96.5
497.529	85.5
497.746	79.5
497.963	90.5
498.181	97.5
498.398	90.5
498.615	107.5
498.832	112.5
499.049	91.5
499.267	85.5
499.484	85.5
499.701	73.5
499.918	86.5
500.135	92.5
500.352	89.5
500.569	85.5
500.786	93.5
501.003	89.5
501.22	75.5
501.437	77.5
501.654	84.5
501.871	116.5
502.088	85.5
502.305	98.5
502.522	83.5
502.739	84.5
502.956	86.5
503.172	88.5
503.389	85.5
503.606	98.5
503.823	81.5
504.04	81.5
504.256	95.5
504.473	97.5
504.69	79.5
504.907	89.5
505.123	74.5
505.34	82.5
505.557	85.5
505.773	87.5
505.99	99.5
506.207	90.5
506.423	87.5
506.64	79.5
506.856	91.5
507.073	83.5
507.289	90.5
507.506	103.5
507.722	93.5
507.939	99.5
508.155	93.5
508.372	91.5
508.588	94.5
508.805	93.5
509.021	71.5
509.238	93.5
509.454	88.5
509.67	101.5
509.887	111.5
510.103	128.5
510.319	179.5
510.536	673.5
510.752	2070.5
510.968	566.5
511.184	141.5
511.401	112.5
511.617	105.5
511.833	78.5
512.049	73.5
512.265	87.5
512.481	89.5
512.698	94.5
512.914	83.5
513.13	97.5
513.346	85.5
513.562	83.5
513.778	79.5
513.994	106.5
514.21	92.5
514.426	113.5
514.642	121.5
514.858	103.5
515.074	138.5
515.29	362.5
515.506	1217.5
515.721	452.5
515.937	140.5
516.153	111.5
516.369	89.5
516.585	84.5
516.801	85.5
517.016	90.5
517.232	92.5
517.448	92.5
517.664	99.5
517.879	92.5
518.095	97.5
518.311	99.5
518.527	94.5
518.742	80.5
518.958	84.5
519.173	88.5
519.389	87.5
519.605	103.5
519.82	95.5
520.036	97.5
520.251	109.5
520.467	101.5
520.682	113.5
520.898	105.5
521.113	107.5
521.329	122.5
521.544	198.5
521.76	453.5
521.975	1979.5
522.19	1175.5
522.406	254.5
522.621	117.5
522.836	107.5
523.052	94.5
523.267	98.5
523.482	97.5
523.698	87.5
523.913	105.5
524.128	103.5
524.343	83.5
524.559	94.5
524.774	77.5
524.989	98.5
525.204	104.5
525.419	87.5
525.634	84.5
525.849	92.5
526.064	83.5
526.28	75.5
526.495	88.5
526.71	99.5
526.925	84.5
527.14	93.5
527.355	74.5
527.57	94.5
527.785	84.5
527.999	85.5
528.214	78.5
528.429	92.5
528.644	92.5
528.859	80.5
529.074	95.5
529.289	121.5
529.503	164.5
529.718	95.5
529.933	86.5
530.148	91.5
530.363	89.5
530.577	85.5
530.792	86.5
531.007	95.5
531.221	85.5
531.436	91.5
531.651	96.5
531.865	96.5
532.08	108.5
532.295	94.5
532.509	80.5
532.724	94.5
532.938	104.5
533.153	90.5
533.367	92.5
533.582	88.5
533.796	91.5
534.011	89.5
534.225	86.5
534.44	97.5
534.654	96.5
534.868	101.5
535.083	90.5
535.297	86.5
535.511	105.5
535.726	91.5
535.94	104.5
536.154	99.5
536.369	90.5
536.583	82.5
536.797	100.5
