Data from Uncirc_1990_H10_HRD10591_00080.txt Node
Date: Wed Jan 03 11:54:07 EST 2024
User: Yrep
Spectrometer: HR+D1059
Trigger mode: 1
Integration Time (sec): 1.000000E-1
Scans to average: 1
Electric dark correction enabled: true
Nonlinearity correction enabled: false
Boxcar width: 0
XAxis mode: Wavelengths
Number of Pixels in Spectrum: 2048
>>>>>Begin Spectral Data<<<<<
223.165	-9.19
223.4	-9.19
223.635	-9.19
223.869	-24.19
224.104	-5.19
224.338	-13.19
224.573	-22.19
224.808	-18.19
225.042	-2.19
225.277	-1.19
225.511	-2.19
225.746	-10.19
225.98	3.81
226.215	4.81
226.449	15.81
226.683	19.81
226.918	25.81
227.152	37.81
227.387	32.81
227.621	34.81
227.856	43.81
228.09	46.81
228.324	50.81
228.559	59.81
228.793	67.81
229.027	59.81
229.262	62.81
229.496	77.81
229.73	78.81
229.964	85.81
230.199	65.81
230.433	71.81
230.667	58.81
230.901	60.81
231.136	68.81
231.37	81.81
231.604	74.81
231.838	88.81
232.072	84.81
232.306	82.81
232.541	81.81
232.775	86.81
233.009	94.81
233.243	87.81
233.477	93.81
233.711	86.81
233.945	69.81
234.179	89.81
234.413	89.81
234.647	61.81
234.881	100.81
235.115	83.81
235.349	73.81
235.583	87.81
235.817	86.81
236.051	65.81
236.285	80.81
236.519	88.81
236.753	81.81
236.987	78.81
237.221	79.81
237.455	79.81
237.689	92.81
237.922	69.81
238.156	87.81
238.39	83.81
238.624	67.81
238.858	78.81
239.091	77.81
239.325	90.81
239.559	83.81
239.793	76.81
240.027	87.81
240.26	75.81
240.494	75.81
240.728	60.81
240.961	63.81
241.195	70.81
241.429	83.81
241.662	59.81
241.896	79.81
242.13	93.81
242.363	78.81
242.597	71.81
242.83	86.81
243.064	73.81
243.298	70.81
243.531	59.81
243.765	63.81
243.998	77.81
244.232	79.81
244.465	81.81
244.699	93.81
244.932	68.81
245.166	80.81
245.399	69.81
245.633	70.81
245.866	78.81
246.099	85.81
246.333	70.81
246.566	71.81
246.8	83.81
247.033	74.81
247.266	77.81
247.5	62.81
247.733	85.81
247.966	92.81
248.2	79.81
248.433	87.81
248.666	79.81
248.899	88.81
249.133	78.81
249.366	94.81
249.599	100.81
249.832	89.81
250.066	82.81
250.299	76.81
250.532	75.81
250.765	90.81
250.998	73.81
251.231	77.81
251.465	92.81
251.698	73.81
251.931	84.81
252.164	86.81
252.397	67.81
252.63	79.81
252.863	89.81
253.096	92.81
253.329	80.81
253.562	83.81
253.795	80.81
254.028	79.81
254.261	86.81
254.494	86.81
254.727	71.81
254.96	85.81
255.193	77.81
255.426	80.81
255.659	82.81
255.892	67.81
256.124	73.81
256.357	79.81
256.59	74.81
256.823	87.81
257.056	85.81
257.289	79.81
257.521	75.81
257.754	73.81
257.987	71.81
258.22	78.81
258.452	76.81
258.685	69.81
258.918	69.81
259.151	84.81
259.383	70.81
259.616	83.81
259.849	89.81
260.081	89.81
260.314	70.81
260.547	95.81
260.779	70.81
261.012	79.81
261.244	88.81
261.477	93.81
261.71	93.81
261.942	105.81
262.175	108.81
262.407	84.81
262.64	68.81
262.872	87.81
263.105	90.81
263.337	80.81
263.57	99.81
263.802	87.81
264.035	93.81
264.267	75.81
264.499	77.81
264.732	80.81
264.964	82.81
265.197	74.81
265.429	76.81
265.661	84.81
265.894	87.81
266.126	90.81
266.358	93.81
266.591	73.81
266.823	93.81
267.055	96.81
267.287	80.81
267.52	71.81
267.752	76.81
267.984	85.81
268.216	89.81
268.448	73.81
268.681	94.81
268.913	93.81
269.145	80.81
269.377	83.81
269.609	89.81
269.841	64.81
270.073	88.81
270.306	79.81
270.538	106.81
270.77	83.81
271.002	78.81
271.234	90.81
271.466	94.81
271.698	86.81
271.93	83.81
272.162	84.81
272.394	90.81
272.626	77.81
272.858	83.81
273.09	81.81
273.322	82.81
273.553	95.81
273.785	79.81
274.017	83.81
274.249	94.81
274.481	86.81
274.713	98.81
274.945	78.81
275.176	83.81
275.408	97.81
275.64	88.81
275.872	83.81
276.104	89.81
276.335	98.81
276.567	98.81
276.799	115.81
277.031	98.81
277.262	87.81
277.494	84.81
277.726	89.81
277.957	85.81
278.189	80.81
278.421	87.81
278.652	89.81
278.884	98.81
279.115	93.81
279.347	96.81
279.579	90.81
279.81	86.81
280.042	70.81
280.273	93.81
280.505	94.81
280.736	88.81
280.968	81.81
281.199	76.81
281.431	85.81
281.662	71.81
281.894	79.81
282.125	83.81
282.356	119.81
282.588	125.81
282.819	110.81
283.051	93.81
283.282	88.81
283.513	87.81
283.745	79.81
283.976	110.81
284.207	79.81
284.439	93.81
284.67	82.81
284.901	91.81
285.132	92.81
285.364	74.81
285.595	67.81
285.826	79.81
286.057	81.81
286.288	89.81
286.52	91.81
286.751	93.81
286.982	67.81
287.213	89.81
287.444	83.81
287.675	85.81
287.906	86.81
288.138	78.81
288.369	93.81
288.6	100.81
288.831	84.81
289.062	90.81
289.293	100.81
289.524	82.81
289.755	78.81
289.986	84.81
290.217	85.81
290.448	83.81
290.679	85.81
290.91	89.81
291.141	80.81
291.371	72.81
291.602	93.81
291.833	93.81
292.064	75.81
292.295	98.81
292.526	82.81
292.757	84.81
292.987	85.81
293.218	86.81
293.449	92.81
293.68	83.81
293.91	84.81
294.141	102.81
294.372	84.81
294.603	88.81
294.833	82.81
295.064	70.81
295.295	68.81
295.525	83.81
295.756	97.81
295.987	93.81
296.217	137.81
296.448	108.81
296.679	85.81
296.909	102.81
297.14	81.81
297.37	84.81
297.601	94.81
297.831	97.81
298.062	94.81
298.292	85.81
298.523	76.81
298.753	87.81
298.984	87.81
299.214	81.81
299.445	84.81
299.675	93.81
299.905	87.81
300.136	101.81
300.366	95.81
300.597	84.81
300.827	80.81
301.057	94.81
301.288	103.81
301.518	91.81
301.748	93.81
301.979	102.81
302.209	80.81
302.439	86.81
302.669	97.81
302.9	76.81
303.13	86.81
303.36	88.81
303.59	101.81
303.82	86.81
304.051	92.81
304.281	81.81
304.511	82.81
304.741	82.81
304.971	87.81
305.201	98.81
305.431	76.81
305.661	80.81
305.891	83.81
306.121	99.81
306.352	93.81
306.582	91.81
306.812	89.81
307.042	99.81
307.272	93.81
307.502	85.81
307.731	90.81
307.961	80.81
308.191	99.81
308.421	85.81
308.651	91.81
308.881	108.81
309.111	77.81
309.341	103.81
309.571	101.81
309.8	96.81
310.03	95.81
310.26	106.81
310.49	106.81
310.72	107.81
310.949	95.81
311.179	89.81
311.409	81.81
311.639	85.81
311.868	91.81
312.098	98.81
312.328	79.81
312.557	88.81
312.787	103.81
313.017	86.81
313.246	87.81
313.476	93.81
313.706	85.81
313.935	100.81
314.165	97.81
314.394	101.81
314.624	89.81
314.853	85.81
315.083	89.81
315.312	83.81
315.542	90.81
315.771	96.81
316.001	94.81
316.23	86.81
316.46	88.81
316.689	80.81
316.919	84.81
317.148	93.81
317.377	76.81
317.607	91.81
317.836	81.81
318.065	93.81
318.295	93.81
318.524	102.81
318.753	82.81
318.983	96.81
319.212	99.81
319.441	117.81
319.67	110.81
319.9	83.81
320.129	83.81
320.358	92.81
320.587	87.81
320.816	99.81
321.046	96.81
321.275	87.81
321.504	102.81
321.733	88.81
321.962	90.81
322.191	105.81
322.42	101.81
322.649	105.81
322.878	111.81
323.108	114.81
323.337	124.81
323.566	114.81
323.795	130.81
324.024	183.81
324.253	343.81
324.482	745.81
324.71	1557.81
324.939	2062.81
325.168	749.81
325.397	233.81
325.626	150.81
325.855	123.81
326.084	123.81
326.313	132.81
326.542	154.81
326.77	227.81
326.999	418.81
327.228	863.81
327.457	1589.81
327.686	1311.81
327.914	345.81
328.143	182.81
328.372	132.81
328.6	133.81
328.829	113.81
329.058	107.81
329.287	123.81
329.515	117.81
329.744	94.81
329.972	103.81
330.201	106.81
330.43	116.81
330.658	131.81
330.887	137.81
331.115	101.81
331.344	83.81
331.572	90.81
331.801	92.81
332.03	99.81
332.258	97.81
332.486	103.81
332.715	98.81
332.943	97.81
333.172	92.81
333.4	99.81
333.629	103.81
333.857	107.81
334.085	102.81
334.314	96.81
334.542	125.81
334.771	114.81
334.999	94.81
335.227	96.81
335.455	111.81
335.684	103.81
335.912	82.81
336.14	101.81
336.369	97.81
336.597	84.81
336.825	85.81
337.053	81.81
337.281	99.81
337.51	90.81
337.738	88.81
337.966	92.81
338.194	84.81
338.422	91.81
338.65	91.81
338.878	99.81
339.106	88.81
339.334	91.81
339.562	93.81
339.79	87.81
340.018	80.81
340.246	97.81
340.474	99.81
340.702	80.81
340.93	87.81
341.158	92.81
341.386	82.81
341.614	99.81
341.842	87.81
342.07	87.81
342.298	84.81
342.526	93.81
342.754	86.81
342.981	100.81
343.209	100.81
343.437	86.81
343.665	81.81
343.893	101.81
344.12	82.81
344.348	78.81
344.576	84.81
344.804	95.81
345.031	99.81
345.259	88.81
345.487	81.81
345.714	92.81
345.942	91.81
346.17	89.81
346.397	102.81
346.625	96.81
346.853	85.81
347.08	93.81
347.308	101.81
347.535	85.81
347.763	108.81
347.99	102.81
348.218	102.81
348.445	98.81
348.673	107.81
348.9	98.81
349.128	91.81
349.355	93.81
349.583	111.81
349.81	108.81
350.037	95.81
350.265	82.81
350.492	101.81
350.72	86.81
350.947	99.81
351.174	100.81
351.402	109.81
351.629	77.81
351.856	92.81
352.083	102.81
352.311	108.81
352.538	105.81
352.765	100.81
352.992	92.81
353.22	103.81
353.447	85.81
353.674	106.81
353.901	98.81
354.128	88.81
354.355	87.81
354.583	89.81
354.81	90.81
355.037	93.81
355.264	103.81
355.491	98.81
355.718	100.81
355.945	99.81
356.172	89.81
356.399	93.81
356.626	93.81
356.853	99.81
357.08	98.81
357.307	89.81
357.534	103.81
357.761	85.81
357.988	93.81
358.215	110.81
358.441	101.81
358.668	87.81
358.895	92.81
359.122	92.81
359.349	97.81
359.576	96.81
359.802	102.81
360.029	100.81
360.256	100.81
360.483	89.81
360.709	89.81
360.936	79.81
361.163	89.81
361.39	86.81
361.616	95.81
361.843	95.81
362.07	99.81
362.296	107.81
362.523	99.81
362.749	92.81
362.976	94.81
363.203	86.81
363.429	81.81
363.656	84.81
363.882	71.81
364.109	89.81
364.335	92.81
364.562	99.81
364.788	84.81
365.015	106.81
365.241	92.81
365.468	110.81
365.694	108.81
365.92	92.81
366.147	86.81
366.373	77.81
366.599	95.81
366.826	100.81
367.052	81.81
367.278	93.81
367.505	100.81
367.731	92.81
367.957	78.81
368.184	91.81
368.41	109.81
368.636	124.81
368.862	117.81
369.089	94.81
369.315	89.81
369.541	81.81
369.767	78.81
369.993	93.81
370.219	80.81
370.445	85.81
370.672	93.81
370.898	105.81
371.124	83.81
371.35	93.81
371.576	94.81
371.802	83.81
372.028	97.81
372.254	85.81
372.48	81.81
372.706	82.81
372.932	86.81
373.158	87.81
373.384	70.81
373.61	93.81
373.835	93.81
374.061	99.81
374.287	96.81
374.513	82.81
374.739	80.81
374.965	89.81
375.191	91.81
375.416	89.81
375.642	89.81
375.868	85.81
376.094	103.81
376.319	79.81
376.545	84.81
376.771	86.81
376.997	92.81
377.222	86.81
377.448	84.81
377.674	85.81
377.899	93.81
378.125	80.81
378.35	93.81
378.576	101.81
378.802	89.81
379.027	90.81
379.253	97.81
379.478	99.81
379.704	94.81
379.929	85.81
380.155	102.81
380.38	83.81
380.606	91.81
380.831	98.81
381.057	96.81
381.282	83.81
381.507	87.81
381.733	97.81
381.958	93.81
382.184	94.81
382.409	95.81
382.634	93.81
382.86	107.81
383.085	98.81
383.31	100.81
383.535	98.81
383.761	95.81
383.986	92.81
384.211	98.81
384.436	98.81
384.662	88.81
384.887	87.81
385.112	101.81
385.337	101.81
385.562	89.81
385.787	97.81
386.013	104.81
386.238	114.81
386.463	96.81
386.688	103.81
386.913	103.81
387.138	103.81
387.363	94.81
387.588	100.81
387.813	105.81
388.038	98.81
388.263	105.81
388.488	101.81
388.713	94.81
388.938	98.81
389.163	86.81
389.387	96.81
389.612	89.81
389.837	83.81
390.062	75.81
390.287	104.81
390.512	94.81
390.736	101.81
390.961	90.81
391.186	96.81
391.411	89.81
391.636	85.81
391.86	86.81
392.085	93.81
392.31	76.81
392.534	84.81
392.759	89.81
392.984	82.81
393.208	88.81
393.433	88.81
393.658	79.81
393.882	81.81
394.107	81.81
394.331	87.81
394.556	70.81
394.78	91.81
395.005	84.81
395.229	85.81
395.454	95.81
395.678	107.81
395.903	92.81
396.127	86.81
396.352	92.81
396.576	79.81
396.801	96.81
397.025	81.81
397.249	80.81
397.474	80.81
397.698	87.81
397.922	93.81
398.147	97.81
398.371	99.81
398.595	94.81
398.82	77.81
399.044	85.81
399.268	91.81
399.492	71.81
399.717	95.81
399.941	94.81
400.165	88.81
400.389	93.81
400.613	91.81
400.837	88.81
401.062	100.81
401.286	84.81
401.51	88.81
401.734	96.81
401.958	95.81
402.182	116.81
402.406	147.81
402.63	105.81
402.854	93.81
403.078	76.81
403.302	70.81
403.526	86.81
403.75	86.81
403.974	91.81
404.198	86.81
404.422	94.81
404.645	79.81
404.869	79.81
405.093	83.81
405.317	85.81
405.541	97.81
405.765	81.81
405.988	96.81
406.212	156.81
406.436	201.81
406.66	138.81
406.883	97.81
407.107	91.81
407.331	97.81
407.555	101.81
407.778	86.81
408.002	86.81
408.226	88.81
408.449	79.81
408.673	93.81
408.896	94.81
409.12	109.81
409.344	82.81
409.567	83.81
409.791	92.81
410.014	98.81
410.238	98.81
410.461	99.81
410.685	94.81
410.908	94.81
411.132	92.81
411.355	94.81
411.578	87.81
411.802	77.81
412.025	84.81
412.249	82.81
412.472	100.81
412.695	91.81
412.919	89.81
413.142	79.81
413.365	95.81
413.589	76.81
413.812	89.81
414.035	85.81
414.258	91.81
414.482	91.81
414.705	76.81
414.928	97.81
415.151	94.81
415.374	99.81
415.597	79.81
415.821	98.81
416.044	90.81
416.267	85.81
416.49	89.81
416.713	85.81
416.936	101.81
417.159	87.81
417.382	82.81
417.605	101.81
417.828	107.81
418.051	100.81
418.274	95.81
418.497	71.81
418.72	96.81
418.943	94.81
419.166	101.81
419.389	90.81
419.611	84.81
419.834	91.81
420.057	84.81
420.28	80.81
420.503	101.81
420.726	64.81
420.948	76.81
421.171	89.81
421.394	107.81
421.617	80.81
421.839	86.81
422.062	70.81
422.285	97.81
422.507	100.81
422.73	89.81
422.953	86.81
423.175	84.81
423.398	93.81
423.621	82.81
423.843	82.81
424.066	82.81
424.288	77.81
424.511	69.81
424.733	84.81
424.956	96.81
425.178	96.81
425.401	94.81
425.623	105.81
425.846	92.81
426.068	89.81
426.291	78.81
426.513	99.81
426.735	89.81
426.958	97.81
427.18	106.81
427.402	118.81
427.625	159.81
427.847	126.81
428.069	114.81
428.292	103.81
428.514	92.81
428.736	82.81
428.958	89.81
429.181	92.81
429.403	98.81
429.625	78.81
429.847	89.81
430.069	92.81
430.292	88.81
430.514	94.81
430.736	86.81
430.958	94.81
431.18	70.81
431.402	75.81
431.624	89.81
431.846	71.81
432.068	84.81
432.29	94.81
432.512	89.81
432.734	80.81
432.956	96.81
433.178	89.81
433.4	92.81
433.622	92.81
433.844	84.81
434.066	79.81
434.287	84.81
434.509	85.81
434.731	95.81
434.953	75.81
435.175	90.81
435.397	76.81
435.618	92.81
435.84	89.81
436.062	123.81
436.284	112.81
436.505	94.81
436.727	91.81
436.949	100.81
437.17	100.81
437.392	76.81
437.614	79.81
437.835	105.81
438.057	114.81
438.278	106.81
438.5	101.81
438.721	119.81
438.943	90.81
439.165	96.81
439.386	99.81
439.608	89.81
439.829	89.81
440.05	96.81
440.272	143.81
440.493	98.81
440.715	73.81
440.936	84.81
441.158	82.81
441.379	85.81
441.6	92.81
441.822	89.81
442.043	91.81
442.264	99.81
442.486	101.81
442.707	90.81
442.928	84.81
443.149	103.81
443.371	113.81
443.592	103.81
443.813	96.81
444.034	111.81
444.255	95.81
444.476	95.81
444.698	73.81
444.919	78.81
445.14	128.81
445.361	124.81
445.582	116.81
445.803	128.81
446.024	130.81
446.245	125.81
446.466	108.81
446.687	89.81
446.908	85.81
447.129	89.81
447.35	92.81
447.571	102.81
447.792	82.81
448.013	97.81
448.234	95.81
448.455	98.81
448.675	107.81
448.896	108.81
449.117	96.81
449.338	96.81
449.559	126.81
449.779	132.81
450	86.81
450.221	88.81
450.442	80.81
450.662	91.81
450.883	101.81
451.104	96.81
451.324	108.81
451.545	77.81
451.766	71.81
451.986	84.81
452.207	73.81
452.428	88.81
452.648	98.81
452.869	112.81
453.089	98.81
453.31	107.81
453.53	106.81
453.751	93.81
453.971	81.81
454.192	96.81
454.412	90.81
454.633	82.81
454.853	94.81
455.073	81.81
455.294	79.81
455.514	98.81
455.734	82.81
455.955	79.81
456.175	96.81
456.395	90.81
456.616	86.81
456.836	85.81
457.056	82.81
457.276	91.81
457.497	87.81
457.717	78.81
457.937	84.81
458.157	85.81
458.377	81.81
458.598	100.81
458.818	137.81
459.038	146.81
459.258	118.81
459.478	80.81
459.698	81.81
459.918	74.81
460.138	73.81
460.358	88.81
460.578	95.81
460.798	87.81
461.018	96.81
461.238	89.81
461.458	86.81
461.678	93.81
461.898	78.81
462.118	90.81
462.338	84.81
462.558	94.81
462.777	84.81
462.997	93.81
463.217	75.81
463.437	79.81
463.657	86.81
463.876	71.81
464.096	84.81
464.316	86.81
464.536	92.81
464.755	98.81
464.975	106.81
465.195	151.81
465.414	127.81
465.634	89.81
465.854	94.81
466.073	91.81
466.293	83.81
466.512	78.81
466.732	86.81
466.951	93.81
467.171	82.81
467.391	84.81
467.61	91.81
467.829	82.81
468.049	107.81
468.268	98.81
468.488	87.81
468.707	91.81
468.927	88.81
469.146	91.81
469.365	83.81
469.585	79.81
469.804	102.81
470.023	87.81
470.243	92.81
470.462	90.81
470.681	110.81
470.901	91.81
471.12	87.81
471.339	97.81
471.558	86.81
471.777	81.81
471.997	84.81
472.216	90.81
472.435	113.81
472.654	95.81
472.873	83.81
473.092	81.81
473.311	83.81
473.53	85.81
473.749	93.81
473.968	85.81
474.187	108.81
474.406	109.81
474.625	71.81
474.844	81.81
475.063	91.81
475.282	86.81
475.501	80.81
475.72	91.81
475.939	81.81
476.158	85.81
476.377	85.81
476.596	85.81
476.814	92.81
477.033	83.81
477.252	81.81
477.471	83.81
477.69	86.81
477.908	87.81
478.127	101.81
478.346	80.81
478.564	89.81
478.783	103.81
479.002	90.81
479.22	87.81
479.439	97.81
479.658	89.81
479.876	78.81
480.095	83.81
480.313	92.81
480.532	80.81
480.751	88.81
480.969	97.81
481.188	133.81
481.406	126.81
481.624	86.81
481.843	84.81
482.061	85.81
482.28	84.81
482.498	92.81
482.717	80.81
482.935	81.81
483.153	85.81
483.372	87.81
483.59	93.81
483.808	91.81
484.027	91.81
484.245	86.81
484.463	88.81
484.681	102.81
484.9	95.81
485.118	88.81
485.336	94.81
485.554	93.81
485.772	96.81
485.99	102.81
486.209	98.81
486.427	106.81
486.645	106.81
486.863	98.81
487.081	103.81
487.299	101.81
487.517	83.81
487.735	87.81
487.953	96.81
488.171	98.81
488.389	90.81
488.607	98.81
488.825	86.81
489.043	97.81
489.261	89.81
489.479	96.81
489.696	97.81
489.914	84.81
490.132	83.81
490.35	68.81
490.568	83.81
490.786	84.81
491.003	84.81
491.221	108.81
491.439	93.81
491.657	93.81
491.874	97.81
492.092	98.81
492.31	82.81
492.527	103.81
492.745	93.81
492.963	78.81
493.18	88.81
493.398	90.81
493.615	95.81
493.833	103.81
494.05	95.81
494.268	92.81
494.485	92.81
494.703	75.81
494.92	83.81
495.138	80.81
495.355	92.81
495.573	100.81
495.79	82.81
496.008	92.81
496.225	86.81
496.442	105.81
496.66	89.81
496.877	90.81
497.094	100.81
497.312	87.81
497.529	83.81
497.746	95.81
497.963	79.81
498.181	89.81
498.398	87.81
498.615	102.81
498.832	91.81
499.049	110.81
499.267	100.81
499.484	90.81
499.701	69.81
499.918	89.81
500.135	80.81
500.352	80.81
500.569	79.81
500.786	99.81
501.003	93.81
501.22	99.81
501.437	80.81
501.654	94.81
501.871	103.81
502.088	102.81
502.305	86.81
502.522	100.81
502.739	77.81
502.956	89.81
503.172	86.81
503.389	101.81
503.606	85.81
503.823	97.81
504.04	91.81
504.256	100.81
504.473	85.81
504.69	82.81
504.907	77.81
505.123	85.81
505.34	92.81
505.557	90.81
505.773	79.81
505.99	83.81
506.207	83.81
506.423	83.81
506.64	95.81
506.856	97.81
507.073	83.81
507.289	88.81
507.506	86.81
507.722	103.81
507.939	112.81
508.155	94.81
508.372	74.81
508.588	83.81
508.805	97.81
509.021	82.81
509.238	87.81
509.454	94.81
509.67	98.81
509.887	104.81
510.103	139.81
510.319	198.81
510.536	658.81
510.752	2118.81
510.968	593.81
511.184	141.81
511.401	115.81
511.617	88.81
511.833	86.81
512.049	90.81
512.265	86.81
512.481	77.81
512.698	94.81
512.914	99.81
513.13	104.81
513.346	79.81
513.562	103.81
513.778	102.81
513.994	87.81
514.21	90.81
514.426	121.81
514.642	134.81
514.858	121.81
515.074	152.81
515.29	387.81
515.506	1245.81
515.721	461.81
515.937	145.81
516.153	104.81
516.369	93.81
