Data from Uncirc_1990_H10_HRD10591_00076.txt Node
Date: Wed Jan 03 11:54:06 EST 2024
User: Yrep
Spectrometer: HR+D1059
Trigger mode: 1
Integration Time (sec): 1.000000E-1
Scans to average: 1
Electric dark correction enabled: true
Nonlinearity correction enabled: false
Boxcar width: 0
XAxis mode: Wavelengths
Number of Pixels in Spectrum: 2048
>>>>>Begin Spectral Data<<<<<
223.165	-21.56
223.4	-21.56
223.635	-21.56
223.869	-27.56
224.104	-14.56
224.338	-16.56
224.573	-23.56
224.808	-26.56
225.042	-11.56
225.277	-9.56
225.511	9.44
225.746	-1.56
225.98	-0.56
226.215	22.44
226.449	22.44
226.683	32.44
226.918	35.44
227.152	31.44
227.387	40.44
227.621	30.44
227.856	41.44
228.09	45.44
228.324	56.44
228.559	64.44
228.793	49.44
229.027	71.44
229.262	78.44
229.496	75.44
229.73	78.44
229.964	78.44
230.199	83.44
230.433	80.44
230.667	68.44
230.901	63.44
231.136	76.44
231.37	75.44
231.604	86.44
231.838	75.44
232.072	78.44
232.306	83.44
232.541	85.44
232.775	77.44
233.009	81.44
233.243	74.44
233.477	78.44
233.711	88.44
233.945	76.44
234.179	77.44
234.413	70.44
234.647	80.44
234.881	71.44
235.115	90.44
235.349	82.44
235.583	94.44
235.817	84.44
236.051	75.44
236.285	88.44
236.519	86.44
236.753	77.44
236.987	68.44
237.221	85.44
237.455	96.44
237.689	85.44
237.922	80.44
238.156	65.44
238.39	65.44
238.624	77.44
238.858	77.44
239.091	73.44
239.325	56.44
239.559	74.44
239.793	94.44
240.027	77.44
240.26	67.44
240.494	72.44
240.728	62.44
240.961	72.44
241.195	74.44
241.429	64.44
241.662	75.44
241.896	69.44
242.13	78.44
242.363	85.44
242.597	63.44
242.83	58.44
243.064	60.44
243.298	86.44
243.531	75.44
243.765	90.44
243.998	74.44
244.232	66.44
244.465	82.44
244.699	68.44
244.932	87.44
245.166	79.44
245.399	74.44
245.633	68.44
245.866	83.44
246.099	73.44
246.333	74.44
246.566	86.44
246.8	76.44
247.033	83.44
247.266	72.44
247.5	69.44
247.733	76.44
247.966	77.44
248.2	68.44
248.433	75.44
248.666	81.44
248.899	78.44
249.133	83.44
249.366	114.44
249.599	87.44
249.832	85.44
250.066	72.44
250.299	83.44
250.532	89.44
250.765	79.44
250.998	81.44
251.231	76.44
251.465	73.44
251.698	82.44
251.931	72.44
252.164	92.44
252.397	73.44
252.63	69.44
252.863	58.44
253.096	62.44
253.329	74.44
253.562	93.44
253.795	82.44
254.028	74.44
254.261	83.44
254.494	66.44
254.727	80.44
254.96	73.44
255.193	82.44
255.426	74.44
255.659	83.44
255.892	82.44
256.124	77.44
256.357	83.44
256.59	74.44
256.823	76.44
257.056	77.44
257.289	76.44
257.521	77.44
257.754	88.44
257.987	85.44
258.22	91.44
258.452	92.44
258.685	83.44
258.918	74.44
259.151	85.44
259.383	62.44
259.616	78.44
259.849	79.44
260.081	88.44
260.314	80.44
260.547	79.44
260.779	72.44
261.012	73.44
261.244	77.44
261.477	94.44
261.71	94.44
261.942	99.44
262.175	112.44
262.407	90.44
262.64	84.44
262.872	89.44
263.105	94.44
263.337	75.44
263.57	87.44
263.802	72.44
264.035	85.44
264.267	76.44
264.499	92.44
264.732	69.44
264.964	70.44
265.197	73.44
265.429	83.44
265.661	81.44
265.894	97.44
266.126	84.44
266.358	74.44
266.591	78.44
266.823	93.44
267.055	82.44
267.287	68.44
267.52	74.44
267.752	84.44
267.984	84.44
268.216	94.44
268.448	71.44
268.681	80.44
268.913	83.44
269.145	77.44
269.377	77.44
269.609	94.44
269.841	75.44
270.073	83.44
270.306	78.44
270.538	89.44
270.77	82.44
271.002	87.44
271.234	74.44
271.466	85.44
271.698	79.44
271.93	90.44
272.162	76.44
272.394	92.44
272.626	86.44
272.858	87.44
273.09	81.44
273.322	88.44
273.553	81.44
273.785	82.44
274.017	79.44
274.249	72.44
274.481	81.44
274.713	80.44
274.945	69.44
275.176	88.44
275.408	82.44
275.64	83.44
275.872	93.44
276.104	83.44
276.335	89.44
276.567	103.44
276.799	105.44
277.031	92.44
277.262	84.44
277.494	74.44
277.726	90.44
277.957	76.44
278.189	62.44
278.421	73.44
278.652	84.44
278.884	82.44
279.115	67.44
279.347	77.44
279.579	76.44
279.81	87.44
280.042	81.44
280.273	93.44
280.505	83.44
280.736	95.44
280.968	94.44
281.199	83.44
281.431	82.44
281.662	85.44
281.894	99.44
282.125	93.44
282.356	110.44
282.588	132.44
282.819	103.44
283.051	95.44
283.282	88.44
283.513	95.44
283.745	76.44
283.976	76.44
284.207	86.44
284.439	82.44
284.67	90.44
284.901	91.44
285.132	79.44
285.364	85.44
285.595	77.44
285.826	89.44
286.057	91.44
286.288	82.44
286.52	86.44
286.751	79.44
286.982	88.44
287.213	90.44
287.444	99.44
287.675	86.44
287.906	80.44
288.138	85.44
288.369	96.44
288.6	80.44
288.831	77.44
289.062	89.44
289.293	97.44
289.524	78.44
289.755	84.44
289.986	82.44
290.217	84.44
290.448	88.44
290.679	81.44
290.91	89.44
291.141	88.44
291.371	86.44
291.602	83.44
291.833	90.44
292.064	97.44
292.295	82.44
292.526	86.44
292.757	70.44
292.987	89.44
293.218	87.44
293.449	86.44
293.68	79.44
293.91	88.44
294.141	90.44
294.372	73.44
294.603	72.44
294.833	80.44
295.064	67.44
295.295	86.44
295.525	93.44
295.756	96.44
295.987	97.44
296.217	129.44
296.448	123.44
296.679	98.44
296.909	88.44
297.14	87.44
297.37	105.44
297.601	97.44
297.831	68.44
298.062	72.44
298.292	88.44
298.523	84.44
298.753	92.44
298.984	88.44
299.214	86.44
299.445	82.44
299.675	85.44
299.905	92.44
300.136	90.44
300.366	88.44
300.597	90.44
300.827	90.44
301.057	93.44
301.288	84.44
301.518	88.44
301.748	91.44
301.979	106.44
302.209	96.44
302.439	88.44
302.669	83.44
302.9	89.44
303.13	88.44
303.36	107.44
303.59	101.44
303.82	114.44
304.051	97.44
304.281	97.44
304.511	78.44
304.741	89.44
304.971	77.44
305.201	89.44
305.431	95.44
305.661	82.44
305.891	90.44
306.121	88.44
306.352	97.44
306.582	98.44
306.812	91.44
307.042	92.44
307.272	88.44
307.502	80.44
307.731	91.44
307.961	75.44
308.191	74.44
308.421	88.44
308.651	88.44
308.881	93.44
309.111	88.44
309.341	87.44
309.571	104.44
309.8	105.44
310.03	96.44
310.26	107.44
310.49	94.44
310.72	92.44
310.949	89.44
311.179	98.44
311.409	97.44
311.639	90.44
311.868	80.44
312.098	80.44
312.328	100.44
312.557	92.44
312.787	101.44
313.017	116.44
313.246	88.44
313.476	80.44
313.706	89.44
313.935	91.44
314.165	89.44
314.394	91.44
314.624	89.44
314.853	100.44
315.083	104.44
315.312	80.44
315.542	78.44
315.771	85.44
316.001	96.44
316.23	89.44
316.46	80.44
316.689	92.44
316.919	83.44
317.148	81.44
317.377	100.44
317.607	82.44
317.836	88.44
318.065	82.44
318.295	86.44
318.524	87.44
318.753	100.44
318.983	91.44
319.212	107.44
319.441	108.44
319.67	106.44
319.9	89.44
320.129	85.44
320.358	100.44
320.587	106.44
320.816	87.44
321.046	102.44
321.275	101.44
321.504	108.44
321.733	78.44
321.962	82.44
322.191	91.44
322.42	106.44
322.649	106.44
322.878	106.44
323.108	111.44
323.337	107.44
323.566	127.44
323.795	150.44
324.024	192.44
324.253	393.44
324.482	810.44
324.71	1708.44
324.939	2243.44
325.168	831.44
325.397	244.44
325.626	151.44
325.855	124.44
326.084	116.44
326.313	128.44
326.542	155.44
326.77	222.44
326.999	442.44
327.228	902.44
327.457	1723.44
327.686	1344.44
327.914	347.44
328.143	192.44
328.372	126.44
328.6	127.44
328.829	117.44
329.058	125.44
329.287	110.44
329.515	117.44
329.744	95.44
329.972	88.44
330.201	92.44
330.43	116.44
330.658	127.44
330.887	150.44
331.115	114.44
331.344	99.44
331.572	101.44
331.801	104.44
332.03	107.44
332.258	96.44
332.486	89.44
332.715	94.44
332.943	93.44
333.172	94.44
333.4	105.44
333.629	99.44
333.857	103.44
334.085	93.44
334.314	93.44
334.542	118.44
334.771	115.44
334.999	91.44
335.227	88.44
335.455	89.44
335.684	74.44
335.912	101.44
336.14	85.44
336.369	88.44
336.597	112.44
336.825	96.44
337.053	93.44
337.281	91.44
337.51	95.44
337.738	85.44
337.966	88.44
338.194	102.44
338.422	87.44
338.65	85.44
338.878	99.44
339.106	82.44
339.334	81.44
339.562	73.44
339.79	91.44
340.018	74.44
340.246	70.44
340.474	95.44
340.702	89.44
340.93	87.44
341.158	86.44
341.386	89.44
341.614	86.44
341.842	82.44
342.07	94.44
342.298	87.44
342.526	86.44
342.754	96.44
342.981	89.44
343.209	85.44
343.437	107.44
343.665	93.44
343.893	73.44
344.12	97.44
344.348	88.44
344.576	92.44
344.804	108.44
345.031	97.44
345.259	96.44
345.487	84.44
345.714	84.44
345.942	96.44
346.17	90.44
346.397	88.44
346.625	80.44
346.853	95.44
347.08	99.44
347.308	95.44
347.535	80.44
347.763	98.44
347.99	90.44
348.218	84.44
348.445	88.44
348.673	94.44
348.9	100.44
349.128	92.44
349.355	86.44
349.583	90.44
349.81	90.44
350.037	89.44
350.265	87.44
350.492	89.44
350.72	100.44
350.947	103.44
351.174	108.44
351.402	103.44
351.629	111.44
351.856	103.44
352.083	83.44
352.311	110.44
352.538	100.44
352.765	124.44
352.992	112.44
353.22	102.44
353.447	85.44
353.674	101.44
353.901	94.44
354.128	82.44
354.355	96.44
354.583	98.44
354.81	89.44
355.037	85.44
355.264	90.44
355.491	94.44
355.718	85.44
355.945	90.44
356.172	95.44
356.399	86.44
356.626	102.44
356.853	101.44
357.08	81.44
357.307	88.44
357.534	98.44
357.761	83.44
357.988	95.44
358.215	101.44
358.441	91.44
358.668	93.44
358.895	83.44
359.122	89.44
359.349	76.44
359.576	86.44
359.802	100.44
360.029	105.44
360.256	92.44
360.483	91.44
360.709	107.44
360.936	93.44
361.163	98.44
361.39	95.44
361.616	95.44
361.843	74.44
362.07	87.44
362.296	88.44
362.523	96.44
362.749	80.44
362.976	82.44
363.203	103.44
363.429	101.44
363.656	86.44
363.882	83.44
364.109	75.44
364.335	87.44
364.562	89.44
364.788	88.44
365.015	98.44
365.241	103.44
365.468	111.44
365.694	106.44
365.92	88.44
366.147	92.44
366.373	88.44
366.599	81.44
366.826	90.44
367.052	80.44
367.278	95.44
367.505	82.44
367.731	96.44
367.957	79.44
368.184	102.44
368.41	90.44
368.636	86.44
368.862	111.44
369.089	101.44
369.315	84.44
369.541	92.44
369.767	96.44
369.993	99.44
370.219	79.44
370.445	88.44
370.672	89.44
370.898	78.44
371.124	96.44
371.35	81.44
371.576	86.44
371.802	80.44
372.028	100.44
372.254	81.44
372.48	98.44
372.706	89.44
372.932	86.44
373.158	87.44
373.384	81.44
373.61	78.44
373.835	81.44
374.061	86.44
374.287	86.44
374.513	90.44
374.739	95.44
374.965	95.44
375.191	96.44
375.416	81.44
375.642	80.44
375.868	96.44
376.094	96.44
376.319	90.44
376.545	73.44
376.771	69.44
376.997	65.44
377.222	95.44
377.448	77.44
377.674	76.44
377.899	84.44
378.125	72.44
378.35	84.44
378.576	81.44
378.802	82.44
379.027	87.44
379.253	83.44
379.478	84.44
379.704	90.44
379.929	103.44
380.155	97.44
380.38	99.44
380.606	82.44
380.831	95.44
381.057	89.44
381.282	91.44
381.507	98.44
381.733	98.44
381.958	77.44
382.184	86.44
382.409	94.44
382.634	97.44
382.86	98.44
383.085	105.44
383.31	105.44
383.535	93.44
383.761	100.44
383.986	89.44
384.211	89.44
384.436	97.44
384.662	95.44
384.887	98.44
385.112	100.44
385.337	96.44
385.562	98.44
385.787	98.44
386.013	99.44
386.238	106.44
386.463	85.44
386.688	103.44
386.913	99.44
387.138	109.44
387.363	91.44
387.588	102.44
387.813	89.44
388.038	87.44
388.263	84.44
388.488	100.44
388.713	97.44
388.938	94.44
389.163	97.44
389.387	80.44
389.612	78.44
389.837	84.44
390.062	89.44
390.287	93.44
390.512	78.44
390.736	77.44
390.961	85.44
391.186	90.44
391.411	76.44
391.636	85.44
391.86	78.44
392.085	74.44
392.31	90.44
392.534	84.44
392.759	81.44
392.984	101.44
393.208	74.44
393.433	96.44
393.658	82.44
393.882	89.44
394.107	102.44
394.331	90.44
394.556	77.44
394.78	92.44
395.005	78.44
395.229	89.44
395.454	76.44
395.678	89.44
395.903	94.44
396.127	82.44
396.352	92.44
396.576	79.44
396.801	93.44
397.025	90.44
397.249	97.44
397.474	72.44
397.698	80.44
397.922	76.44
398.147	90.44
398.371	81.44
398.595	95.44
398.82	86.44
399.044	81.44
399.268	94.44
399.492	78.44
399.717	101.44
399.941	96.44
400.165	86.44
400.389	100.44
400.613	90.44
400.837	79.44
401.062	78.44
401.286	89.44
401.51	93.44
401.734	96.44
401.958	101.44
402.182	115.44
402.406	158.44
402.63	121.44
402.854	94.44
403.078	81.44
403.302	94.44
403.526	80.44
403.75	95.44
403.974	82.44
404.198	76.44
404.422	79.44
404.645	82.44
404.869	91.44
405.093	100.44
405.317	95.44
405.541	94.44
405.765	98.44
405.988	110.44
406.212	177.44
406.436	233.44
406.66	132.44
406.883	96.44
407.107	104.44
407.331	85.44
407.555	106.44
407.778	109.44
408.002	88.44
408.226	89.44
408.449	77.44
408.673	81.44
408.896	90.44
409.12	93.44
409.344	93.44
409.567	89.44
409.791	81.44
410.014	79.44
410.238	92.44
410.461	79.44
410.685	83.44
410.908	107.44
411.132	94.44
411.355	90.44
411.578	89.44
411.802	75.44
412.025	99.44
412.249	80.44
412.472	83.44
412.695	90.44
412.919	93.44
413.142	93.44
413.365	90.44
413.589	82.44
413.812	76.44
414.035	89.44
414.258	96.44
414.482	97.44
414.705	79.44
414.928	79.44
415.151	94.44
415.374	95.44
415.597	80.44
415.821	85.44
416.044	91.44
416.267	81.44
416.49	90.44
416.713	87.44
416.936	90.44
417.159	81.44
417.382	78.44
417.605	81.44
417.828	90.44
418.051	90.44
418.274	81.44
418.497	71.44
418.72	80.44
418.943	88.44
419.166	88.44
419.389	81.44
419.611	93.44
419.834	88.44
420.057	92.44
420.28	80.44
420.503	74.44
420.726	95.44
420.948	89.44
421.171	90.44
421.394	85.44
421.617	98.44
421.839	81.44
422.062	104.44
422.285	91.44
422.507	80.44
422.73	99.44
422.953	99.44
423.175	69.44
423.398	82.44
423.621	101.44
423.843	90.44
424.066	86.44
424.288	95.44
424.511	94.44
424.733	109.44
424.956	104.44
425.178	93.44
425.401	93.44
425.623	108.44
425.846	100.44
426.068	106.44
426.291	95.44
426.513	86.44
426.735	104.44
426.958	76.44
427.18	101.44
427.402	130.44
427.625	170.44
427.847	123.44
428.069	109.44
428.292	102.44
428.514	91.44
428.736	80.44
428.958	74.44
429.181	77.44
429.403	71.44
429.625	82.44
429.847	93.44
430.069	92.44
430.292	78.44
430.514	82.44
430.736	77.44
430.958	82.44
431.18	69.44
431.402	86.44
431.624	94.44
431.846	88.44
432.068	81.44
432.29	85.44
432.512	83.44
432.734	69.44
432.956	86.44
433.178	86.44
433.4	79.44
433.622	86.44
433.844	92.44
434.066	86.44
434.287	84.44
434.509	82.44
434.731	92.44
434.953	93.44
435.175	89.44
435.397	81.44
435.618	83.44
435.84	109.44
436.062	111.44
436.284	105.44
436.505	108.44
436.727	101.44
436.949	84.44
437.17	88.44
437.392	74.44
437.614	97.44
437.835	88.44
438.057	104.44
438.278	109.44
438.5	90.44
438.721	108.44
438.943	100.44
439.165	96.44
439.386	105.44
439.608	97.44
439.829	100.44
440.05	130.44
440.272	142.44
440.493	96.44
440.715	78.44
440.936	93.44
441.158	77.44
441.379	77.44
441.6	104.44
441.822	97.44
442.043	101.44
442.264	106.44
442.486	94.44
442.707	89.44
442.928	95.44
443.149	149.44
443.371	137.44
443.592	103.44
443.813	106.44
444.034	105.44
444.255	97.44
444.476	92.44
444.698	94.44
444.919	90.44
445.14	124.44
445.361	129.44
445.582	113.44
445.803	117.44
446.024	129.44
446.245	110.44
446.466	108.44
446.687	88.44
446.908	93.44
447.129	74.44
447.35	93.44
447.571	97.44
447.792	90.44
448.013	91.44
448.234	106.44
448.455	101.44
448.675	105.44
448.896	115.44
449.117	94.44
449.338	106.44
449.559	132.44
449.779	128.44
450	93.44
450.221	86.44
450.442	84.44
450.662	91.44
450.883	94.44
451.104	94.44
451.324	86.44
451.545	80.44
451.766	82.44
451.986	79.44
452.207	79.44
452.428	79.44
452.648	101.44
452.869	105.44
453.089	113.44
453.31	108.44
453.53	98.44
453.751	95.44
453.971	102.44
454.192	109.44
454.412	98.44
454.633	84.44
454.853	88.44
455.073	89.44
455.294	92.44
455.514	106.44
455.734	93.44
455.955	93.44
456.175	84.44
456.395	101.44
456.616	76.44
456.836	74.44
457.056	87.44
457.276	92.44
457.497	100.44
457.717	83.44
457.937	89.44
458.157	79.44
458.377	86.44
458.598	97.44
458.818	146.44
459.038	170.44
459.258	128.44
459.478	94.44
459.698	85.44
459.918	89.44
460.138	79.44
460.358	76.44
460.578	92.44
460.798	94.44
461.018	83.44
461.238	79.44
461.458	99.44
461.678	77.44
461.898	84.44
462.118	104.44
462.338	83.44
462.558	83.44
462.777	86.44
462.997	85.44
463.217	73.44
463.437	91.44
463.657	75.44
463.876	86.44
464.096	84.44
464.316	86.44
464.536	100.44
464.755	88.44
464.975	104.44
465.195	137.44
465.414	149.44
465.634	89.44
465.854	93.44
466.073	90.44
466.293	79.44
466.512	88.44
466.732	84.44
466.951	93.44
467.171	72.44
467.391	94.44
467.61	107.44
467.829	95.44
468.049	87.44
468.268	93.44
468.488	78.44
468.707	84.44
468.927	92.44
469.146	86.44
469.365	87.44
469.585	87.44
469.804	93.44
470.023	91.44
470.243	93.44
470.462	98.44
470.681	109.44
470.901	94.44
471.12	84.44
471.339	81.44
471.558	74.44
471.777	88.44
471.997	82.44
472.216	100.44
472.435	131.44
472.654	100.44
472.873	93.44
473.092	79.44
473.311	80.44
473.53	85.44
473.749	97.44
473.968	96.44
474.187	106.44
474.406	95.44
474.625	103.44
474.844	76.44
475.063	76.44
475.282	91.44
475.501	73.44
475.72	90.44
475.939	76.44
476.158	83.44
476.377	61.44
476.596	99.44
476.814	61.44
477.033	92.44
477.252	82.44
477.471	81.44
477.69	79.44
477.908	93.44
478.127	83.44
478.346	80.44
478.564	94.44
478.783	106.44
479.002	100.44
479.22	86.44
479.439	88.44
479.658	96.44
479.876	109.44
480.095	96.44
480.313	90.44
480.532	89.44
480.751	100.44
480.969	89.44
481.188	152.44
481.406	134.44
481.624	98.44
481.843	89.44
482.061	81.44
482.28	80.44
482.498	99.44
482.717	91.44
482.935	85.44
483.153	106.44
483.372	88.44
483.59	96.44
483.808	101.44
484.027	92.44
484.245	92.44
484.463	108.44
484.681	100.44
484.9	91.44
485.118	93.44
485.336	86.44
485.554	102.44
485.772	116.44
485.99	103.44
486.209	95.44
486.427	88.44
486.645	103.44
486.863	117.44
487.081	94.44
487.299	92.44
487.517	101.44
487.735	84.44
487.953	106.44
488.171	89.44
488.389	90.44
488.607	113.44
488.825	89.44
489.043	92.44
489.261	92.44
489.479	83.44
489.696	92.44
489.914	88.44
490.132	102.44
490.35	90.44
490.568	88.44
490.786	95.44
491.003	88.44
491.221	101.44
491.439	101.44
491.657	88.44
491.874	91.44
492.092	87.44
492.31	100.44
492.527	92.44
492.745	88.44
492.963	83.44
493.18	85.44
493.398	92.44
493.615	81.44
493.833	75.44
494.05	93.44
494.268	92.44
494.485	95.44
494.703	90.44
494.92	90.44
495.138	82.44
495.355	82.44
495.573	80.44
495.79	94.44
496.008	85.44
496.225	86.44
496.442	91.44
496.66	87.44
496.877	88.44
497.094	97.44
497.312	94.44
497.529	82.44
497.746	85.44
497.963	85.44
498.181	84.44
498.398	100.44
498.615	106.44
498.832	98.44
499.049	101.44
499.267	100.44
499.484	90.44
499.701	87.44
499.918	94.44
500.135	91.44
500.352	92.44
500.569	93.44
500.786	87.44
501.003	93.44
501.22	90.44
501.437	78.44
501.654	95.44
501.871	97.44
502.088	88.44
502.305	100.44
502.522	90.44
502.739	87.44
502.956	86.44
503.172	90.44
503.389	93.44
503.606	103.44
503.823	95.44
504.04	97.44
504.256	102.44
504.473	96.44
504.69	88.44
504.907	99.44
505.123	89.44
505.34	88.44
505.557	99.44
505.773	97.44
505.99	78.44
506.207	74.44
506.423	99.44
506.64	101.44
506.856	73.44
507.073	80.44
507.289	81.44
507.506	102.44
507.722	113.44
507.939	102.44
508.155	82.44
508.372	104.44
508.588	97.44
508.805	89.44
509.021	110.44
509.238	101.44
509.454	101.44
509.67	107.44
509.887	80.44
510.103	127.44
510.319	200.44
510.536	736.44
510.752	2456.44
510.968	661.44
511.184	132.44
511.401	113.44
511.617	113.44
511.833	96.44
512.049	103.44
512.265	91.44
512.481	89.44
512.698	98.44
512.914	112.44
513.13	94.44
513.346	94.44
513.562	101.44
513.778	87.44
513.994	86.44
514.21	95.44
514.426	107.44
514.642	124.44
514.858	121.44
515.074	149.44
515.29	449.44
515.506	1462.44
515.721	504.44
515.937	154.44
516.153	115.44
