Data from Uncirc_1990_H10_HRD10591_00081.txt Node
Date: Wed Jan 03 11:54:07 EST 2024
User: Yrep
Spectrometer: HR+D1059
Trigger mode: 1
Integration Time (sec): 1.000000E-1
Scans to average: 1
Electric dark correction enabled: true
Nonlinearity correction enabled: false
Boxcar width: 0
XAxis mode: Wavelengths
Number of Pixels in Spectrum: 2048
>>>>>Begin Spectral Data<<<<<
223.165	-17.94
223.4	-17.94
223.635	-17.94
223.869	-19.94
224.104	-23.94
224.338	-12.94
224.573	-14.94
224.808	-4.94
225.042	-11.94
225.277	7.06
225.511	-12.94
225.746	-2.94
225.98	13.06
226.215	5.06
226.449	24.06
226.683	21.06
226.918	23.06
227.152	29.06
227.387	35.06
227.621	42.06
227.856	55.06
228.09	45.06
228.324	49.06
228.559	42.06
228.793	45.06
229.027	70.06
229.262	61.06
229.496	78.06
229.73	79.06
229.964	99.06
230.199	77.06
230.433	65.06
230.667	79.06
230.901	71.06
231.136	69.06
231.37	71.06
231.604	72.06
231.838	75.06
232.072	83.06
232.306	87.06
232.541	87.06
232.775	77.06
233.009	79.06
233.243	92.06
233.477	77.06
233.711	80.06
233.945	102.06
234.179	85.06
234.413	82.06
234.647	84.06
234.881	69.06
235.115	81.06
235.349	69.06
235.583	56.06
235.817	73.06
236.051	86.06
236.285	95.06
236.519	89.06
236.753	71.06
236.987	81.06
237.221	80.06
237.455	90.06
237.689	78.06
237.922	78.06
238.156	82.06
238.39	70.06
238.624	64.06
238.858	87.06
239.091	80.06
239.325	70.06
239.559	92.06
239.793	81.06
240.027	76.06
240.26	78.06
240.494	73.06
240.728	68.06
240.961	85.06
241.195	71.06
241.429	61.06
241.662	77.06
241.896	70.06
242.13	66.06
242.363	75.06
242.597	88.06
242.83	75.06
243.064	79.06
243.298	87.06
243.531	63.06
243.765	77.06
243.998	100.06
244.232	86.06
244.465	82.06
244.699	80.06
244.932	83.06
245.166	77.06
245.399	70.06
245.633	67.06
245.866	79.06
246.099	80.06
246.333	76.06
246.566	79.06
246.8	86.06
247.033	84.06
247.266	77.06
247.5	70.06
247.733	75.06
247.966	83.06
248.2	79.06
248.433	71.06
248.666	77.06
248.899	83.06
249.133	85.06
249.366	96.06
249.599	101.06
249.832	91.06
250.066	84.06
250.299	86.06
250.532	75.06
250.765	69.06
250.998	70.06
251.231	79.06
251.465	65.06
251.698	59.06
251.931	84.06
252.164	81.06
252.397	83.06
252.63	73.06
252.863	83.06
253.096	79.06
253.329	76.06
253.562	69.06
253.795	81.06
254.028	88.06
254.261	78.06
254.494	85.06
254.727	85.06
254.96	93.06
255.193	79.06
255.426	79.06
255.659	73.06
255.892	91.06
256.124	77.06
256.357	78.06
256.59	86.06
256.823	73.06
257.056	96.06
257.289	98.06
257.521	97.06
257.754	79.06
257.987	80.06
258.22	88.06
258.452	77.06
258.685	85.06
258.918	80.06
259.151	95.06
259.383	100.06
259.616	95.06
259.849	83.06
260.081	82.06
260.314	70.06
260.547	85.06
260.779	87.06
261.012	79.06
261.244	83.06
261.477	70.06
261.71	93.06
261.942	113.06
262.175	120.06
262.407	102.06
262.64	73.06
262.872	71.06
263.105	83.06
263.337	77.06
263.57	61.06
263.802	93.06
264.035	85.06
264.267	80.06
264.499	78.06
264.732	71.06
264.964	95.06
265.197	68.06
265.429	81.06
265.661	73.06
265.894	91.06
266.126	85.06
266.358	75.06
266.591	90.06
266.823	103.06
267.055	80.06
267.287	85.06
267.52	85.06
267.752	84.06
267.984	89.06
268.216	88.06
268.448	97.06
268.681	81.06
268.913	85.06
269.145	73.06
269.377	74.06
269.609	62.06
269.841	87.06
270.073	88.06
270.306	84.06
270.538	88.06
270.77	98.06
271.002	83.06
271.234	80.06
271.466	84.06
271.698	87.06
271.93	80.06
272.162	83.06
272.394	96.06
272.626	64.06
272.858	81.06
273.09	95.06
273.322	90.06
273.553	83.06
273.785	83.06
274.017	79.06
274.249	81.06
274.481	82.06
274.713	87.06
274.945	88.06
275.176	96.06
275.408	62.06
275.64	73.06
275.872	84.06
276.104	94.06
276.335	84.06
276.567	100.06
276.799	109.06
277.031	97.06
277.262	89.06
277.494	80.06
277.726	86.06
277.957	80.06
278.189	82.06
278.421	95.06
278.652	95.06
278.884	90.06
279.115	93.06
279.347	81.06
279.579	79.06
279.81	92.06
280.042	96.06
280.273	84.06
280.505	93.06
280.736	95.06
280.968	64.06
281.199	77.06
281.431	93.06
281.662	82.06
281.894	97.06
282.125	102.06
282.356	118.06
282.588	146.06
282.819	98.06
283.051	80.06
283.282	87.06
283.513	83.06
283.745	75.06
283.976	87.06
284.207	86.06
284.439	96.06
284.67	97.06
284.901	73.06
285.132	84.06
285.364	80.06
285.595	86.06
285.826	83.06
286.057	87.06
286.288	83.06
286.52	72.06
286.751	76.06
286.982	89.06
287.213	91.06
287.444	90.06
287.675	84.06
287.906	97.06
288.138	91.06
288.369	105.06
288.6	91.06
288.831	83.06
289.062	90.06
289.293	94.06
289.524	93.06
289.755	88.06
289.986	80.06
290.217	73.06
290.448	83.06
290.679	87.06
290.91	93.06
291.141	88.06
291.371	85.06
291.602	89.06
291.833	92.06
292.064	94.06
292.295	86.06
292.526	71.06
292.757	88.06
292.987	86.06
293.218	92.06
293.449	85.06
293.68	80.06
293.91	99.06
294.141	97.06
294.372	85.06
294.603	79.06
294.833	68.06
295.064	70.06
295.295	95.06
295.525	84.06
295.756	104.06
295.987	119.06
296.217	148.06
296.448	121.06
296.679	88.06
296.909	92.06
297.14	92.06
297.37	79.06
297.601	103.06
297.831	92.06
298.062	74.06
298.292	99.06
298.523	85.06
298.753	85.06
298.984	87.06
299.214	87.06
299.445	83.06
299.675	81.06
299.905	92.06
300.136	86.06
300.366	96.06
300.597	88.06
300.827	87.06
301.057	95.06
301.288	94.06
301.518	91.06
301.748	95.06
301.979	97.06
302.209	86.06
302.439	89.06
302.669	89.06
302.9	97.06
303.13	87.06
303.36	97.06
303.59	86.06
303.82	107.06
304.051	86.06
304.281	91.06
304.511	105.06
304.741	85.06
304.971	90.06
305.201	87.06
305.431	88.06
305.661	104.06
305.891	95.06
306.121	110.06
306.352	111.06
306.582	112.06
306.812	97.06
307.042	95.06
307.272	100.06
307.502	93.06
307.731	94.06
307.961	81.06
308.191	102.06
308.421	105.06
308.651	115.06
308.881	105.06
309.111	86.06
309.341	101.06
309.571	86.06
309.8	97.06
310.03	104.06
310.26	81.06
310.49	81.06
310.72	105.06
310.949	113.06
311.179	97.06
311.409	99.06
311.639	98.06
311.868	95.06
312.098	104.06
312.328	116.06
312.557	104.06
312.787	102.06
313.017	102.06
313.246	96.06
313.476	75.06
313.706	109.06
313.935	89.06
314.165	96.06
314.394	107.06
314.624	103.06
314.853	109.06
315.083	97.06
315.312	78.06
315.542	77.06
315.771	107.06
316.001	101.06
316.23	99.06
316.46	102.06
316.689	102.06
316.919	89.06
317.148	105.06
317.377	90.06
317.607	100.06
317.836	95.06
318.065	84.06
318.295	97.06
318.524	89.06
318.753	98.06
318.983	81.06
319.212	92.06
319.441	98.06
319.67	113.06
319.9	98.06
320.129	109.06
320.358	84.06
320.587	109.06
320.816	108.06
321.046	104.06
321.275	115.06
321.504	99.06
321.733	103.06
321.962	102.06
322.191	103.06
322.42	105.06
322.649	120.06
322.878	111.06
323.108	112.06
323.337	119.06
323.566	128.06
323.795	146.06
324.024	195.06
324.253	386.06
324.482	852.06
324.71	1761.06
324.939	2391.06
325.168	851.06
325.397	258.06
325.626	147.06
325.855	125.06
326.084	134.06
326.313	125.06
326.542	162.06
326.77	229.06
326.999	468.06
327.228	1011.06
327.457	1808.06
327.686	1437.06
327.914	384.06
328.143	200.06
328.372	141.06
328.6	110.06
328.829	104.06
329.058	137.06
329.287	131.06
329.515	119.06
329.744	95.06
329.972	102.06
330.201	111.06
330.43	132.06
330.658	117.06
330.887	156.06
331.115	123.06
331.344	96.06
331.572	93.06
331.801	95.06
332.03	100.06
332.258	98.06
332.486	94.06
332.715	89.06
332.943	105.06
333.172	101.06
333.4	101.06
333.629	109.06
333.857	114.06
334.085	108.06
334.314	108.06
334.542	125.06
334.771	123.06
334.999	104.06
335.227	94.06
335.455	93.06
335.684	104.06
335.912	83.06
336.14	93.06
336.369	87.06
336.597	85.06
336.825	95.06
337.053	95.06
337.281	94.06
337.51	95.06
337.738	100.06
337.966	81.06
338.194	93.06
338.422	93.06
338.65	91.06
338.878	88.06
339.106	93.06
339.334	92.06
339.562	91.06
339.79	86.06
340.018	96.06
340.246	95.06
340.474	85.06
340.702	99.06
340.93	95.06
341.158	95.06
341.386	91.06
341.614	97.06
341.842	87.06
342.07	83.06
342.298	87.06
342.526	104.06
342.754	100.06
342.981	104.06
343.209	84.06
343.437	101.06
343.665	79.06
343.893	104.06
344.12	98.06
344.348	98.06
344.576	92.06
344.804	84.06
345.031	94.06
345.259	79.06
345.487	83.06
345.714	105.06
345.942	100.06
346.17	80.06
346.397	90.06
346.625	85.06
346.853	93.06
347.08	98.06
347.308	93.06
347.535	103.06
347.763	96.06
347.99	96.06
348.218	110.06
348.445	110.06
348.673	97.06
348.9	96.06
349.128	104.06
349.355	79.06
349.583	105.06
349.81	84.06
350.037	88.06
350.265	112.06
350.492	100.06
350.72	91.06
350.947	96.06
351.174	109.06
351.402	112.06
351.629	108.06
351.856	89.06
352.083	97.06
352.311	101.06
352.538	112.06
352.765	108.06
352.992	100.06
353.22	113.06
353.447	93.06
353.674	90.06
353.901	107.06
354.128	97.06
354.355	102.06
354.583	97.06
354.81	98.06
355.037	99.06
355.264	103.06
355.491	93.06
355.718	90.06
355.945	93.06
356.172	80.06
356.399	103.06
356.626	93.06
356.853	89.06
357.08	95.06
357.307	92.06
357.534	85.06
357.761	92.06
357.988	103.06
358.215	90.06
358.441	83.06
358.668	103.06
358.895	81.06
359.122	87.06
359.349	95.06
359.576	78.06
359.802	96.06
360.029	120.06
360.256	109.06
360.483	84.06
360.709	81.06
360.936	107.06
361.163	63.06
361.39	97.06
361.616	109.06
361.843	94.06
362.07	97.06
362.296	97.06
362.523	82.06
362.749	93.06
362.976	92.06
363.203	88.06
363.429	88.06
363.656	95.06
363.882	101.06
364.109	100.06
364.335	91.06
364.562	79.06
364.788	95.06
365.015	109.06
365.241	87.06
365.468	103.06
365.694	106.06
365.92	93.06
366.147	82.06
366.373	83.06
366.599	94.06
366.826	79.06
367.052	91.06
367.278	77.06
367.505	97.06
367.731	76.06
367.957	90.06
368.184	91.06
368.41	100.06
368.636	111.06
368.862	122.06
369.089	112.06
369.315	99.06
369.541	88.06
369.767	104.06
369.993	80.06
370.219	84.06
370.445	91.06
370.672	101.06
370.898	96.06
371.124	104.06
371.35	87.06
371.576	92.06
371.802	88.06
372.028	107.06
372.254	97.06
372.48	81.06
372.706	97.06
372.932	89.06
373.158	85.06
373.384	80.06
373.61	76.06
373.835	82.06
374.061	85.06
374.287	89.06
374.513	93.06
374.739	84.06
374.965	73.06
375.191	77.06
375.416	86.06
375.642	89.06
375.868	81.06
376.094	70.06
376.319	83.06
376.545	92.06
376.771	87.06
376.997	92.06
377.222	91.06
377.448	85.06
377.674	86.06
377.899	96.06
378.125	84.06
378.35	98.06
378.576	92.06
378.802	100.06
379.027	89.06
379.253	104.06
379.478	87.06
379.704	88.06
379.929	85.06
380.155	88.06
380.38	89.06
380.606	100.06
380.831	103.06
381.057	96.06
381.282	100.06
381.507	89.06
381.733	98.06
381.958	99.06
382.184	100.06
382.409	100.06
382.634	96.06
382.86	94.06
383.085	95.06
383.31	102.06
383.535	110.06
383.761	98.06
383.986	96.06
384.211	98.06
384.436	97.06
384.662	111.06
384.887	103.06
385.112	84.06
385.337	98.06
385.562	99.06
385.787	93.06
386.013	100.06
386.238	90.06
386.463	88.06
386.688	100.06
386.913	88.06
387.138	105.06
387.363	89.06
387.588	111.06
387.813	89.06
388.038	114.06
388.263	111.06
388.488	96.06
388.713	89.06
388.938	72.06
389.163	84.06
389.387	93.06
389.612	93.06
389.837	87.06
390.062	102.06
390.287	86.06
390.512	81.06
390.736	100.06
390.961	88.06
391.186	91.06
391.411	104.06
391.636	96.06
391.86	86.06
392.085	95.06
392.31	84.06
392.534	83.06
392.759	83.06
392.984	86.06
393.208	87.06
393.433	94.06
393.658	79.06
393.882	83.06
394.107	87.06
394.331	92.06
394.556	83.06
394.78	93.06
395.005	100.06
395.229	84.06
395.454	81.06
395.678	89.06
395.903	90.06
396.127	87.06
396.352	79.06
396.576	84.06
396.801	97.06
397.025	89.06
397.249	102.06
397.474	85.06
397.698	92.06
397.922	93.06
398.147	83.06
398.371	93.06
398.595	89.06
398.82	82.06
399.044	80.06
399.268	97.06
399.492	79.06
399.717	83.06
399.941	99.06
400.165	94.06
400.389	87.06
400.613	102.06
400.837	76.06
401.062	100.06
401.286	79.06
401.51	104.06
401.734	97.06
401.958	108.06
402.182	140.06
402.406	165.06
402.63	102.06
402.854	81.06
403.078	89.06
403.302	93.06
403.526	80.06
403.75	75.06
403.974	79.06
404.198	70.06
404.422	88.06
404.645	86.06
404.869	86.06
405.093	98.06
405.317	100.06
405.541	97.06
405.765	97.06
405.988	124.06
406.212	183.06
406.436	231.06
406.66	128.06
406.883	94.06
407.107	95.06
407.331	101.06
407.555	96.06
407.778	88.06
408.002	91.06
408.226	84.06
408.449	99.06
408.673	93.06
408.896	86.06
409.12	103.06
409.344	96.06
409.567	87.06
409.791	106.06
410.014	97.06
410.238	88.06
410.461	104.06
410.685	103.06
410.908	97.06
411.132	95.06
411.355	93.06
411.578	84.06
411.802	76.06
412.025	98.06
412.249	84.06
412.472	90.06
412.695	84.06
412.919	80.06
413.142	75.06
413.365	95.06
413.589	93.06
413.812	84.06
414.035	89.06
414.258	93.06
414.482	86.06
414.705	83.06
414.928	84.06
415.151	87.06
415.374	85.06
415.597	93.06
415.821	88.06
416.044	77.06
416.267	91.06
416.49	71.06
416.713	86.06
416.936	79.06
417.159	74.06
417.382	87.06
417.605	79.06
417.828	93.06
418.051	91.06
418.274	80.06
418.497	90.06
418.72	93.06
418.943	87.06
419.166	82.06
419.389	94.06
419.611	89.06
419.834	92.06
420.057	76.06
420.28	117.06
420.503	77.06
420.726	92.06
420.948	84.06
421.171	87.06
421.394	91.06
421.617	80.06
421.839	87.06
422.062	97.06
422.285	85.06
422.507	104.06
422.73	96.06
422.953	89.06
423.175	81.06
423.398	78.06
423.621	83.06
423.843	84.06
424.066	91.06
424.288	89.06
424.511	83.06
424.733	85.06
424.956	113.06
425.178	104.06
425.401	111.06
425.623	85.06
425.846	102.06
426.068	93.06
426.291	91.06
426.513	95.06
426.735	88.06
426.958	95.06
427.18	88.06
427.402	132.06
427.625	155.06
427.847	136.06
428.069	96.06
428.292	89.06
428.514	89.06
428.736	89.06
428.958	87.06
429.181	88.06
429.403	104.06
429.625	100.06
429.847	89.06
430.069	103.06
430.292	86.06
430.514	83.06
430.736	94.06
430.958	85.06
431.18	81.06
431.402	80.06
431.624	77.06
431.846	79.06
432.068	84.06
432.29	80.06
432.512	95.06
432.734	94.06
432.956	92.06
433.178	96.06
433.4	87.06
433.622	88.06
433.844	85.06
434.066	101.06
434.287	103.06
434.509	83.06
434.731	84.06
434.953	79.06
435.175	91.06
435.397	95.06
435.618	94.06
435.84	100.06
436.062	113.06
436.284	116.06
436.505	103.06
436.727	91.06
436.949	96.06
437.17	92.06
437.392	96.06
437.614	102.06
437.835	107.06
438.057	105.06
438.278	107.06
438.5	100.06
438.721	125.06
438.943	99.06
439.165	89.06
439.386	101.06
439.608	102.06
439.829	110.06
440.05	109.06
440.272	157.06
440.493	97.06
440.715	93.06
440.936	97.06
441.158	84.06
441.379	89.06
441.6	96.06
441.822	92.06
442.043	89.06
442.264	92.06
442.486	100.06
442.707	99.06
442.928	104.06
443.149	150.06
443.371	122.06
443.592	105.06
443.813	95.06
444.034	111.06
444.255	85.06
444.476	97.06
444.698	85.06
444.919	85.06
445.14	148.06
445.361	139.06
445.582	119.06
445.803	131.06
446.024	137.06
446.245	134.06
446.466	108.06
446.687	95.06
446.908	90.06
447.129	92.06
447.35	89.06
447.571	79.06
447.792	92.06
448.013	108.06
448.234	123.06
448.455	108.06
448.675	112.06
448.896	108.06
449.117	110.06
449.338	92.06
449.559	121.06
449.779	136.06
450	91.06
450.221	76.06
450.442	81.06
450.662	92.06
450.883	116.06
451.104	113.06
451.324	98.06
451.545	105.06
451.766	75.06
451.986	79.06
452.207	80.06
452.428	88.06
452.648	96.06
452.869	110.06
453.089	120.06
453.31	114.06
453.53	81.06
453.751	88.06
453.971	109.06
454.192	103.06
454.412	93.06
454.633	88.06
454.853	88.06
455.073	71.06
455.294	81.06
455.514	103.06
455.734	94.06
455.955	69.06
456.175	88.06
456.395	96.06
456.616	77.06
456.836	90.06
457.056	92.06
457.276	92.06
457.497	82.06
457.717	96.06
457.937	82.06
458.157	86.06
458.377	81.06
458.598	97.06
458.818	151.06
459.038	180.06
459.258	104.06
459.478	87.06
459.698	86.06
459.918	79.06
460.138	89.06
460.358	92.06
460.578	91.06
460.798	96.06
461.018	99.06
461.238	86.06
461.458	81.06
461.678	77.06
461.898	95.06
462.118	85.06
462.338	69.06
462.558	82.06
462.777	102.06
462.997	79.06
463.217	93.06
463.437	80.06
463.657	75.06
463.876	95.06
464.096	95.06
464.316	99.06
464.536	101.06
464.755	99.06
464.975	101.06
465.195	183.06
465.414	150.06
465.634	80.06
465.854	95.06
466.073	86.06
466.293	98.06
466.512	87.06
466.732	105.06
466.951	93.06
467.171	88.06
467.391	87.06
467.61	118.06
467.829	108.06
468.049	93.06
468.268	95.06
468.488	83.06
468.707	93.06
468.927	75.06
469.146	89.06
469.365	77.06
469.585	92.06
469.804	97.06
470.023	89.06
470.243	96.06
470.462	100.06
470.681	105.06
470.901	88.06
471.12	97.06
471.339	92.06
471.558	87.06
471.777	96.06
471.997	93.06
472.216	120.06
472.435	116.06
472.654	108.06
472.873	91.06
473.092	89.06
473.311	81.06
473.53	72.06
473.749	96.06
473.968	77.06
474.187	101.06
474.406	100.06
474.625	65.06
474.844	85.06
475.063	83.06
475.282	97.06
475.501	73.06
475.72	97.06
475.939	104.06
476.158	87.06
476.377	79.06
476.596	92.06
476.814	75.06
477.033	103.06
477.252	92.06
477.471	94.06
477.69	72.06
477.908	78.06
478.127	99.06
478.346	96.06
478.564	84.06
478.783	95.06
479.002	101.06
479.22	110.06
479.439	104.06
479.658	102.06
479.876	93.06
480.095	98.06
480.313	85.06
480.532	102.06
480.751	87.06
480.969	98.06
481.188	165.06
481.406	133.06
481.624	88.06
481.843	85.06
482.061	104.06
482.28	99.06
482.498	96.06
482.717	91.06
482.935	84.06
483.153	82.06
483.372	85.06
483.59	103.06
483.808	75.06
484.027	95.06
484.245	95.06
484.463	88.06
484.681	95.06
484.9	86.06
485.118	90.06
485.336	107.06
485.554	97.06
485.772	111.06
485.99	101.06
486.209	94.06
486.427	104.06
486.645	113.06
486.863	114.06
487.081	120.06
487.299	95.06
487.517	87.06
487.735	91.06
487.953	111.06
488.171	97.06
488.389	101.06
488.607	105.06
488.825	72.06
489.043	109.06
489.261	109.06
489.479	88.06
489.696	92.06
489.914	106.06
490.132	85.06
490.35	98.06
490.568	86.06
490.786	96.06
491.003	93.06
491.221	86.06
491.439	96.06
491.657	96.06
491.874	97.06
492.092	91.06
492.31	86.06
492.527	88.06
492.745	79.06
492.963	98.06
493.18	97.06
493.398	81.06
493.615	89.06
493.833	90.06
494.05	87.06
494.268	88.06
494.485	81.06
494.703	104.06
494.92	84.06
495.138	75.06
495.355	101.06
495.573	95.06
495.79	105.06
496.008	97.06
496.225	74.06
496.442	99.06
496.66	94.06
496.877	91.06
497.094	103.06
497.312	88.06
497.529	103.06
497.746	96.06
497.963	87.06
498.181	93.06
498.398	92.06
498.615	105.06
498.832	103.06
499.049	92.06
499.267	92.06
499.484	88.06
499.701	94.06
499.918	104.06
500.135	88.06
500.352	93.06
500.569	100.06
500.786	99.06
501.003	82.06
501.22	85.06
501.437	88.06
501.654	92.06
501.871	108.06
502.088	95.06
502.305	94.06
502.522	102.06
502.739	98.06
502.956	111.06
503.172	87.06
503.389	101.06
503.606	81.06
503.823	97.06
504.04	94.06
504.256	103.06
504.473	100.06
504.69	85.06
504.907	95.06
505.123	93.06
505.34	92.06
505.557	89.06
505.773	101.06
505.99	90.06
506.207	90.06
506.423	91.06
506.64	80.06
506.856	97.06
507.073	92.06
507.289	93.06
507.506	91.06
507.722	107.06
507.939	121.06
508.155	105.06
508.372	92.06
508.588	104.06
508.805	103.06
509.021	105.06
509.238	105.06
509.454	87.06
509.67	120.06
509.887	107.06
510.103	141.06
510.319	209.06
510.536	772.06
510.752	2536.06
510.968	686.06
511.184	151.06
511.401	128.06
511.617	100.06
511.833	91.06
512.049	98.06
512.265	98.06
512.481	99.06
512.698	96.06
512.914	89.06
513.13	97.06
513.346	101.06
513.562	100.06
513.778	97.06
513.994	108.06
514.21	104.06
514.426	120.06
514.642	141.06
514.858	123.06
515.074	159.06
515.29	451.06
