Data from Uncirc_1990_H10_HRD10591_00091.txt Node
Date: Wed Jan 03 11:54:09 EST 2024
User: Yrep
Spectrometer: HR+D1059
Trigger mode: 1
Integration Time (sec): 1.000000E-1
Scans to average: 1
Electric dark correction enabled: true
Nonlinearity correction enabled: false
Boxcar width: 0
XAxis mode: Wavelengths
Number of Pixels in Spectrum: 2048
>>>>>Begin Spectral Data<<<<<
223.165	-7.88
223.4	-7.88
223.635	-7.88
223.869	-35.88
224.104	-10.88
224.338	-12.88
224.573	-19.88
224.808	-15.88
225.042	-1.88
225.277	-10.88
225.511	-11.88
225.746	-1.88
225.98	-3.88
226.215	22.12
226.449	28.12
226.683	18.12
226.918	28.12
227.152	37.12
227.387	33.12
227.621	45.12
227.856	48.12
228.09	39.12
228.324	49.12
228.559	60.12
228.793	63.12
229.027	59.12
229.262	61.12
229.496	77.12
229.73	88.12
229.964	82.12
230.199	78.12
230.433	90.12
230.667	76.12
230.901	72.12
231.136	65.12
231.37	81.12
231.604	86.12
231.838	102.12
232.072	88.12
232.306	74.12
232.541	91.12
232.775	82.12
233.009	78.12
233.243	86.12
233.477	80.12
233.711	88.12
233.945	79.12
234.179	93.12
234.413	85.12
234.647	90.12
234.881	77.12
235.115	96.12
235.349	86.12
235.583	101.12
235.817	73.12
236.051	77.12
236.285	90.12
236.519	86.12
236.753	89.12
236.987	82.12
237.221	81.12
237.455	89.12
237.689	78.12
237.922	61.12
238.156	77.12
238.39	82.12
238.624	78.12
238.858	82.12
239.091	71.12
239.325	69.12
239.559	82.12
239.793	66.12
240.027	89.12
240.26	99.12
240.494	74.12
240.728	84.12
240.961	72.12
241.195	85.12
241.429	83.12
241.662	85.12
241.896	93.12
242.13	77.12
242.363	80.12
242.597	69.12
242.83	86.12
243.064	73.12
243.298	68.12
243.531	79.12
243.765	95.12
243.998	90.12
244.232	76.12
244.465	90.12
244.699	93.12
244.932	77.12
245.166	80.12
245.399	92.12
245.633	82.12
245.866	65.12
246.099	88.12
246.333	78.12
246.566	81.12
246.8	73.12
247.033	81.12
247.266	82.12
247.5	85.12
247.733	84.12
247.966	96.12
248.2	89.12
248.433	90.12
248.666	89.12
248.899	82.12
249.133	84.12
249.366	95.12
249.599	98.12
249.832	93.12
250.066	94.12
250.299	75.12
250.532	73.12
250.765	84.12
250.998	79.12
251.231	93.12
251.465	75.12
251.698	73.12
251.931	88.12
252.164	85.12
252.397	81.12
252.63	83.12
252.863	84.12
253.096	78.12
253.329	88.12
253.562	81.12
253.795	74.12
254.028	81.12
254.261	77.12
254.494	83.12
254.727	87.12
254.96	90.12
255.193	69.12
255.426	77.12
255.659	80.12
255.892	93.12
256.124	72.12
256.357	73.12
256.59	95.12
256.823	79.12
257.056	82.12
257.289	86.12
257.521	93.12
257.754	88.12
257.987	79.12
258.22	81.12
258.452	106.12
258.685	83.12
258.918	83.12
259.151	96.12
259.383	88.12
259.616	71.12
259.849	88.12
260.081	83.12
260.314	82.12
260.547	80.12
260.779	94.12
261.012	97.12
261.244	72.12
261.477	98.12
261.71	102.12
261.942	121.12
262.175	110.12
262.407	94.12
262.64	84.12
262.872	80.12
263.105	83.12
263.337	102.12
263.57	78.12
263.802	91.12
264.035	87.12
264.267	79.12
264.499	88.12
264.732	93.12
264.964	70.12
265.197	75.12
265.429	86.12
265.661	83.12
265.894	82.12
266.126	89.12
266.358	89.12
266.591	83.12
266.823	87.12
267.055	85.12
267.287	77.12
267.52	80.12
267.752	77.12
267.984	78.12
268.216	88.12
268.448	86.12
268.681	77.12
268.913	102.12
269.145	80.12
269.377	98.12
269.609	94.12
269.841	86.12
270.073	83.12
270.306	89.12
270.538	100.12
270.77	83.12
271.002	90.12
271.234	81.12
271.466	81.12
271.698	86.12
271.93	82.12
272.162	91.12
272.394	95.12
272.626	95.12
272.858	87.12
273.09	97.12
273.322	94.12
273.553	68.12
273.785	99.12
274.017	83.12
274.249	86.12
274.481	81.12
274.713	85.12
274.945	91.12
275.176	84.12
275.408	99.12
275.64	94.12
275.872	94.12
276.104	97.12
276.335	102.12
276.567	109.12
276.799	109.12
277.031	99.12
277.262	87.12
277.494	88.12
277.726	87.12
277.957	92.12
278.189	81.12
278.421	90.12
278.652	100.12
278.884	93.12
279.115	73.12
279.347	88.12
279.579	87.12
279.81	90.12
280.042	75.12
280.273	90.12
280.505	78.12
280.736	90.12
280.968	95.12
281.199	88.12
281.431	82.12
281.662	94.12
281.894	93.12
282.125	99.12
282.356	103.12
282.588	124.12
282.819	104.12
283.051	92.12
283.282	94.12
283.513	87.12
283.745	94.12
283.976	102.12
284.207	97.12
284.439	96.12
284.67	84.12
284.901	86.12
285.132	97.12
285.364	84.12
285.595	91.12
285.826	100.12
286.057	90.12
286.288	86.12
286.52	96.12
286.751	109.12
286.982	99.12
287.213	97.12
287.444	98.12
287.675	84.12
287.906	83.12
288.138	101.12
288.369	101.12
288.6	90.12
288.831	81.12
289.062	84.12
289.293	105.12
289.524	90.12
289.755	83.12
289.986	87.12
290.217	102.12
290.448	97.12
290.679	89.12
290.91	107.12
291.141	98.12
291.371	94.12
291.602	98.12
291.833	86.12
292.064	82.12
292.295	87.12
292.526	97.12
292.757	98.12
292.987	95.12
293.218	86.12
293.449	79.12
293.68	94.12
293.91	85.12
294.141	101.12
294.372	100.12
294.603	91.12
294.833	88.12
295.064	94.12
295.295	101.12
295.525	90.12
295.756	95.12
295.987	112.12
296.217	133.12
296.448	121.12
296.679	86.12
296.909	94.12
297.14	87.12
297.37	80.12
297.601	101.12
297.831	89.12
298.062	85.12
298.292	96.12
298.523	82.12
298.753	83.12
298.984	86.12
299.214	92.12
299.445	87.12
299.675	90.12
299.905	96.12
300.136	85.12
300.366	95.12
300.597	99.12
300.827	87.12
301.057	93.12
301.288	89.12
301.518	95.12
301.748	87.12
301.979	108.12
302.209	95.12
302.439	91.12
302.669	73.12
302.9	92.12
303.13	81.12
303.36	92.12
303.59	95.12
303.82	105.12
304.051	93.12
304.281	88.12
304.511	98.12
304.741	102.12
304.971	97.12
305.201	100.12
305.431	107.12
305.661	95.12
305.891	89.12
306.121	102.12
306.352	99.12
306.582	106.12
306.812	101.12
307.042	91.12
307.272	90.12
307.502	107.12
307.731	109.12
307.961	95.12
308.191	91.12
308.421	84.12
308.651	107.12
308.881	104.12
309.111	99.12
309.341	104.12
309.571	97.12
309.8	94.12
310.03	90.12
310.26	97.12
310.49	103.12
310.72	101.12
310.949	110.12
311.179	120.12
311.409	83.12
311.639	83.12
311.868	101.12
312.098	105.12
312.328	91.12
312.557	98.12
312.787	109.12
313.017	101.12
313.246	91.12
313.476	92.12
313.706	93.12
313.935	94.12
314.165	99.12
314.394	107.12
314.624	89.12
314.853	106.12
315.083	105.12
315.312	98.12
315.542	72.12
315.771	105.12
316.001	97.12
316.23	96.12
316.46	99.12
316.689	82.12
316.919	91.12
317.148	90.12
317.377	82.12
317.607	105.12
317.836	97.12
318.065	92.12
318.295	94.12
318.524	102.12
318.753	93.12
318.983	85.12
319.212	100.12
319.441	114.12
319.67	107.12
319.9	97.12
320.129	103.12
320.358	94.12
320.587	90.12
320.816	109.12
321.046	115.12
321.275	102.12
321.504	102.12
321.733	95.12
321.962	99.12
322.191	102.12
322.42	109.12
322.649	113.12
322.878	116.12
323.108	120.12
323.337	119.12
323.566	138.12
323.795	144.12
324.024	172.12
324.253	351.12
324.482	751.12
324.71	1537.12
324.939	2101.12
325.168	781.12
325.397	242.12
325.626	157.12
325.855	128.12
326.084	122.12
326.313	147.12
326.542	146.12
326.77	219.12
326.999	432.12
327.228	886.12
327.457	1594.12
327.686	1257.12
327.914	363.12
328.143	177.12
328.372	151.12
328.6	125.12
328.829	111.12
329.058	117.12
329.287	126.12
329.515	111.12
329.744	105.12
329.972	119.12
330.201	125.12
330.43	124.12
330.658	122.12
330.887	123.12
331.115	111.12
331.344	97.12
331.572	88.12
331.801	102.12
332.03	106.12
332.258	105.12
332.486	91.12
332.715	98.12
332.943	108.12
333.172	94.12
333.4	120.12
333.629	111.12
333.857	114.12
334.085	122.12
334.314	118.12
334.542	124.12
334.771	131.12
334.999	97.12
335.227	103.12
335.455	96.12
335.684	89.12
335.912	92.12
336.14	93.12
336.369	95.12
336.597	104.12
336.825	101.12
337.053	103.12
337.281	83.12
337.51	101.12
337.738	105.12
337.966	94.12
338.194	104.12
338.422	109.12
338.65	86.12
338.878	90.12
339.106	107.12
339.334	91.12
339.562	91.12
339.79	93.12
340.018	89.12
340.246	87.12
340.474	106.12
340.702	109.12
340.93	113.12
341.158	93.12
341.386	105.12
341.614	107.12
341.842	106.12
342.07	88.12
342.298	90.12
342.526	101.12
342.754	94.12
342.981	94.12
343.209	101.12
343.437	101.12
343.665	88.12
343.893	100.12
344.12	91.12
344.348	100.12
344.576	99.12
344.804	97.12
345.031	101.12
345.259	96.12
345.487	111.12
345.714	105.12
345.942	87.12
346.17	88.12
346.397	104.12
346.625	97.12
346.853	107.12
347.08	102.12
347.308	103.12
347.535	115.12
347.763	110.12
347.99	96.12
348.218	98.12
348.445	112.12
348.673	106.12
348.9	109.12
349.128	93.12
349.355	106.12
349.583	99.12
349.81	106.12
350.037	107.12
350.265	105.12
350.492	104.12
350.72	97.12
350.947	103.12
351.174	112.12
351.402	120.12
351.629	105.12
351.856	111.12
352.083	107.12
352.311	118.12
352.538	98.12
352.765	99.12
352.992	104.12
353.22	114.12
353.447	105.12
353.674	99.12
353.901	100.12
354.128	102.12
354.355	97.12
354.583	93.12
354.81	107.12
355.037	108.12
355.264	90.12
355.491	95.12
355.718	109.12
355.945	90.12
356.172	111.12
356.399	103.12
356.626	102.12
356.853	103.12
357.08	96.12
357.307	90.12
357.534	87.12
357.761	90.12
357.988	104.12
358.215	96.12
358.441	91.12
358.668	98.12
358.895	116.12
359.122	105.12
359.349	91.12
359.576	97.12
359.802	100.12
360.029	117.12
360.256	113.12
360.483	98.12
360.709	94.12
360.936	86.12
361.163	104.12
361.39	87.12
361.616	94.12
361.843	90.12
362.07	104.12
362.296	102.12
362.523	101.12
362.749	87.12
362.976	98.12
363.203	106.12
363.429	104.12
363.656	99.12
363.882	93.12
364.109	91.12
364.335	96.12
364.562	99.12
364.788	104.12
365.015	94.12
365.241	113.12
365.468	103.12
365.694	113.12
365.92	97.12
366.147	84.12
366.373	93.12
366.599	87.12
366.826	104.12
367.052	97.12
367.278	104.12
367.505	84.12
367.731	105.12
367.957	102.12
368.184	84.12
368.41	96.12
368.636	110.12
368.862	121.12
369.089	116.12
369.315	106.12
369.541	94.12
369.767	108.12
369.993	85.12
370.219	90.12
370.445	97.12
370.672	97.12
370.898	99.12
371.124	78.12
371.35	100.12
371.576	85.12
371.802	102.12
372.028	95.12
372.254	75.12
372.48	85.12
372.706	88.12
372.932	97.12
373.158	87.12
373.384	86.12
373.61	99.12
373.835	82.12
374.061	89.12
374.287	103.12
374.513	95.12
374.739	94.12
374.965	103.12
375.191	104.12
375.416	89.12
375.642	101.12
375.868	95.12
376.094	102.12
376.319	94.12
376.545	94.12
376.771	96.12
376.997	101.12
377.222	95.12
377.448	104.12
377.674	97.12
377.899	105.12
378.125	96.12
378.35	85.12
378.576	106.12
378.802	90.12
379.027	99.12
379.253	95.12
379.478	94.12
379.704	106.12
379.929	82.12
380.155	81.12
380.38	93.12
380.606	84.12
380.831	93.12
381.057	91.12
381.282	105.12
381.507	106.12
381.733	106.12
381.958	90.12
382.184	102.12
382.409	102.12
382.634	102.12
382.86	118.12
383.085	89.12
383.31	111.12
383.535	88.12
383.761	94.12
383.986	113.12
384.211	90.12
384.436	94.12
384.662	102.12
384.887	98.12
385.112	108.12
385.337	104.12
385.562	93.12
385.787	114.12
386.013	101.12
386.238	108.12
386.463	95.12
386.688	98.12
386.913	109.12
387.138	94.12
387.363	93.12
387.588	99.12
387.813	98.12
388.038	112.12
388.263	101.12
388.488	113.12
388.713	111.12
388.938	81.12
389.163	103.12
389.387	94.12
389.612	96.12
389.837	103.12
390.062	91.12
390.287	87.12
390.512	91.12
390.736	103.12
390.961	91.12
391.186	99.12
391.411	95.12
391.636	102.12
391.86	90.12
392.085	79.12
392.31	96.12
392.534	103.12
392.759	92.12
392.984	96.12
393.208	100.12
393.433	110.12
393.658	81.12
393.882	91.12
394.107	75.12
394.331	96.12
394.556	89.12
394.78	89.12
395.005	97.12
395.229	77.12
395.454	93.12
395.678	92.12
395.903	89.12
396.127	93.12
396.352	101.12
396.576	102.12
396.801	93.12
397.025	93.12
397.249	84.12
397.474	75.12
397.698	85.12
397.922	86.12
398.147	87.12
398.371	97.12
398.595	89.12
398.82	84.12
399.044	78.12
399.268	89.12
399.492	97.12
399.717	75.12
399.941	96.12
400.165	97.12
400.389	87.12
400.613	89.12
400.837	94.12
401.062	83.12
401.286	96.12
401.51	90.12
401.734	80.12
401.958	109.12
402.182	132.12
402.406	145.12
402.63	128.12
402.854	93.12
403.078	93.12
403.302	90.12
403.526	94.12
403.75	94.12
403.974	102.12
404.198	101.12
404.422	85.12
404.645	95.12
404.869	92.12
405.093	84.12
405.317	123.12
405.541	101.12
405.765	106.12
405.988	135.12
406.212	167.12
406.436	204.12
406.66	134.12
406.883	112.12
407.107	101.12
407.331	90.12
407.555	104.12
407.778	102.12
408.002	89.12
408.226	86.12
408.449	82.12
408.673	107.12
408.896	103.12
409.12	90.12
409.344	97.12
409.567	113.12
409.791	91.12
410.014	99.12
410.238	96.12
410.461	89.12
410.685	103.12
410.908	101.12
411.132	123.12
411.355	94.12
411.578	88.12
411.802	88.12
412.025	80.12
412.249	86.12
412.472	91.12
412.695	92.12
412.919	99.12
413.142	82.12
413.365	96.12
413.589	103.12
413.812	94.12
414.035	94.12
414.258	96.12
414.482	94.12
414.705	93.12
414.928	98.12
415.151	99.12
415.374	107.12
415.597	96.12
415.821	103.12
416.044	97.12
416.267	86.12
416.49	91.12
416.713	106.12
416.936	94.12
417.159	77.12
417.382	92.12
417.605	98.12
417.828	89.12
418.051	90.12
418.274	111.12
418.497	104.12
418.72	97.12
418.943	95.12
419.166	97.12
419.389	81.12
419.611	99.12
419.834	94.12
420.057	89.12
420.28	102.12
420.503	81.12
420.726	93.12
420.948	90.12
421.171	85.12
421.394	97.12
421.617	102.12
421.839	93.12
422.062	107.12
422.285	110.12
422.507	103.12
422.73	110.12
422.953	106.12
423.175	96.12
423.398	95.12
423.621	102.12
423.843	87.12
424.066	104.12
424.288	89.12
424.511	98.12
424.733	117.12
424.956	110.12
425.178	100.12
425.401	102.12
425.623	118.12
425.846	97.12
426.068	102.12
426.291	95.12
426.513	80.12
426.735	89.12
426.958	105.12
427.18	96.12
427.402	132.12
427.625	160.12
427.847	129.12
428.069	98.12
428.292	93.12
428.514	78.12
428.736	80.12
428.958	71.12
429.181	90.12
429.403	74.12
429.625	88.12
429.847	96.12
430.069	103.12
430.292	95.12
430.514	86.12
430.736	81.12
430.958	86.12
431.18	68.12
431.402	91.12
431.624	87.12
431.846	93.12
432.068	92.12
432.29	88.12
432.512	92.12
432.734	83.12
432.956	99.12
433.178	105.12
433.4	107.12
433.622	108.12
433.844	95.12
434.066	107.12
434.287	86.12
434.509	72.12
434.731	103.12
434.953	82.12
435.175	95.12
435.397	116.12
435.618	87.12
435.84	102.12
436.062	120.12
436.284	105.12
436.505	99.12
436.727	119.12
436.949	93.12
437.17	82.12
437.392	79.12
437.614	88.12
437.835	105.12
438.057	121.12
438.278	106.12
438.5	111.12
438.721	105.12
438.943	90.12
439.165	83.12
439.386	100.12
439.608	117.12
439.829	111.12
440.05	140.12
440.272	145.12
440.493	99.12
440.715	93.12
440.936	104.12
441.158	91.12
441.379	93.12
441.6	102.12
441.822	103.12
442.043	106.12
442.264	97.12
442.486	112.12
442.707	85.12
442.928	106.12
443.149	125.12
443.371	122.12
443.592	109.12
443.813	95.12
444.034	98.12
444.255	87.12
444.476	102.12
444.698	80.12
444.919	77.12
445.14	140.12
445.361	129.12
445.582	112.12
445.803	135.12
446.024	133.12
446.245	125.12
446.466	96.12
446.687	97.12
446.908	96.12
447.129	90.12
447.35	89.12
447.571	107.12
447.792	111.12
448.013	101.12
448.234	102.12
448.455	102.12
448.675	114.12
448.896	126.12
449.117	107.12
449.338	99.12
449.559	127.12
449.779	133.12
450	107.12
450.221	87.12
450.442	89.12
450.662	104.12
450.883	110.12
451.104	106.12
451.324	107.12
451.545	106.12
451.766	105.12
451.986	96.12
452.207	93.12
452.428	79.12
452.648	97.12
452.869	103.12
453.089	110.12
453.31	114.12
453.53	88.12
453.751	102.12
453.971	100.12
454.192	102.12
454.412	99.12
454.633	97.12
454.853	80.12
455.073	91.12
455.294	77.12
455.514	97.12
455.734	107.12
455.955	92.12
456.175	94.12
456.395	72.12
456.616	87.12
456.836	88.12
457.056	90.12
457.276	95.12
457.497	92.12
457.717	80.12
457.937	76.12
458.157	93.12
458.377	100.12
458.598	107.12
458.818	141.12
459.038	145.12
459.258	104.12
459.478	93.12
459.698	90.12
459.918	91.12
460.138	98.12
460.358	91.12
460.578	90.12
460.798	93.12
461.018	106.12
461.238	90.12
461.458	99.12
461.678	74.12
461.898	81.12
462.118	103.12
462.338	107.12
462.558	90.12
462.777	86.12
462.997	85.12
463.217	93.12
463.437	103.12
463.657	86.12
463.876	88.12
464.096	88.12
464.316	98.12
464.536	102.12
464.755	88.12
464.975	100.12
465.195	170.12
465.414	147.12
465.634	97.12
465.854	101.12
466.073	88.12
466.293	73.12
466.512	67.12
466.732	92.12
466.951	89.12
467.171	91.12
467.391	97.12
467.61	98.12
467.829	102.12
468.049	102.12
468.268	106.12
468.488	95.12
468.707	87.12
468.927	82.12
469.146	92.12
469.365	89.12
469.585	87.12
469.804	77.12
470.023	99.12
470.243	85.12
470.462	104.12
470.681	111.12
470.901	99.12
471.12	78.12
471.339	92.12
471.558	97.12
471.777	101.12
471.997	94.12
472.216	110.12
472.435	131.12
472.654	97.12
472.873	87.12
473.092	87.12
473.311	100.12
473.53	101.12
473.749	89.12
473.968	96.12
474.187	108.12
474.406	110.12
474.625	87.12
474.844	97.12
475.063	77.12
475.282	88.12
475.501	85.12
475.72	82.12
475.939	102.12
476.158	95.12
476.377	86.12
476.596	86.12
476.814	83.12
477.033	108.12
477.252	85.12
477.471	87.12
477.69	92.12
477.908	93.12
478.127	98.12
478.346	108.12
478.564	86.12
478.783	85.12
479.002	82.12
479.22	90.12
479.439	103.12
479.658	104.12
479.876	94.12
480.095	86.12
480.313	91.12
480.532	85.12
480.751	101.12
480.969	114.12
481.188	177.12
481.406	142.12
481.624	102.12
481.843	82.12
482.061	84.12
482.28	91.12
482.498	90.12
482.717	104.12
482.935	95.12
483.153	102.12
483.372	86.12
483.59	91.12
483.808	92.12
484.027	109.12
484.245	97.12
484.463	77.12
484.681	102.12
484.9	83.12
485.118	93.12
485.336	96.12
485.554	102.12
485.772	102.12
485.99	109.12
486.209	112.12
486.427	99.12
486.645	115.12
486.863	107.12
487.081	76.12
487.299	107.12
487.517	92.12
487.735	107.12
487.953	83.12
488.171	100.12
488.389	85.12
488.607	97.12
488.825	81.12
489.043	77.12
489.261	89.12
489.479	96.12
489.696	101.12
489.914	84.12
490.132	87.12
490.35	97.12
490.568	109.12
490.786	80.12
491.003	89.12
491.221	95.12
491.439	89.12
491.657	97.12
491.874	100.12
492.092	85.12
492.31	92.12
492.527	103.12
492.745	97.12
492.963	96.12
493.18	79.12
493.398	83.12
493.615	97.12
493.833	90.12
494.05	107.12
494.268	95.12
494.485	102.12
494.703	90.12
494.92	85.12
495.138	83.12
495.355	85.12
495.573	93.12
495.79	81.12
496.008	107.12
496.225	89.12
496.442	95.12
496.66	92.12
496.877	98.12
497.094	88.12
497.312	96.12
497.529	87.12
497.746	95.12
497.963	93.12
498.181	110.12
498.398	95.12
498.615	107.12
498.832	111.12
499.049	92.12
499.267	111.12
499.484	87.12
499.701	90.12
499.918	106.12
500.135	82.12
500.352	88.12
500.569	89.12
500.786	98.12
501.003	99.12
501.22	90.12
501.437	98.12
501.654	90.12
501.871	114.12
502.088	100.12
502.305	101.12
502.522	97.12
502.739	91.12
502.956	83.12
503.172	96.12
503.389	96.12
503.606	96.12
503.823	110.12
504.04	94.12
504.256	93.12
504.473	82.12
504.69	87.12
504.907	88.12
505.123	88.12
505.34	89.12
505.557	102.12
505.773	96.12
505.99	95.12
506.207	99.12
506.423	81.12
506.64	74.12
506.856	102.12
507.073	89.12
507.289	103.12
507.506	88.12
507.722	105.12
507.939	99.12
508.155	97.12
508.372	101.12
508.588	106.12
508.805	101.12
509.021	91.12
509.238	109.12
509.454	102.12
509.67	102.12
509.887	121.12
510.103	143.12
510.319	195.12
510.536	692.12
510.752	2227.12
510.968	629.12
511.184	157.12
511.401	107.12
511.617	96.12
511.833	103.12
512.049	113.12
512.265	113.12
512.481	100.12
512.698	94.12
512.914	94.12
513.13	85.12
513.346	99.12
513.562	94.12
513.778	106.12
