Data from Uncirc_1990_H10_HRD10591_00094.txt Node
Date: Wed Jan 03 11:54:10 EST 2024
User: Yrep
Spectrometer: HR+D1059
Trigger mode: 1
Integration Time (sec): 1.000000E-1
Scans to average: 1
Electric dark correction enabled: true
Nonlinearity correction enabled: false
Boxcar width: 0
XAxis mode: Wavelengths
Number of Pixels in Spectrum: 2048
>>>>>Begin Spectral Data<<<<<
223.165	-7.06
223.4	-7.06
223.635	-7.06
223.869	-17.06
224.104	-23.06
224.338	-31.06
224.573	-14.06
224.808	7.94
225.042	-15.06
225.277	-12.06
225.511	3.94
225.746	7.94
225.98	6.94
226.215	-10.06
226.449	18.94
226.683	26.94
226.918	30.94
227.152	25.94
227.387	33.94
227.621	37.94
227.856	47.94
228.09	48.94
228.324	39.94
228.559	57.94
228.793	68.94
229.027	58.94
229.262	68.94
229.496	65.94
229.73	84.94
229.964	87.94
230.199	74.94
230.433	77.94
230.667	83.94
230.901	79.94
231.136	78.94
231.37	102.94
231.604	79.94
231.838	87.94
232.072	97.94
232.306	93.94
232.541	85.94
232.775	95.94
233.009	86.94
233.243	77.94
233.477	90.94
233.711	82.94
233.945	73.94
234.179	86.94
234.413	89.94
234.647	73.94
234.881	85.94
235.115	86.94
235.349	65.94
235.583	71.94
235.817	72.94
236.051	62.94
236.285	74.94
236.519	88.94
236.753	87.94
236.987	88.94
237.221	94.94
237.455	78.94
237.689	84.94
237.922	67.94
238.156	75.94
238.39	84.94
238.624	84.94
238.858	89.94
239.091	85.94
239.325	75.94
239.559	81.94
239.793	81.94
240.027	83.94
240.26	79.94
240.494	77.94
240.728	70.94
240.961	81.94
241.195	83.94
241.429	79.94
241.662	83.94
241.896	88.94
242.13	78.94
242.363	69.94
242.597	77.94
242.83	88.94
243.064	71.94
243.298	79.94
243.531	77.94
243.765	79.94
243.998	88.94
244.232	87.94
244.465	82.94
244.699	80.94
244.932	81.94
245.166	64.94
245.399	73.94
245.633	90.94
245.866	81.94
246.099	82.94
246.333	79.94
246.566	84.94
246.8	82.94
247.033	85.94
247.266	85.94
247.5	77.94
247.733	85.94
247.966	76.94
248.2	84.94
248.433	88.94
248.666	84.94
248.899	78.94
249.133	84.94
249.366	97.94
249.599	103.94
249.832	67.94
250.066	85.94
250.299	79.94
250.532	83.94
250.765	62.94
250.998	79.94
251.231	85.94
251.465	87.94
251.698	65.94
251.931	69.94
252.164	72.94
252.397	73.94
252.63	79.94
252.863	88.94
253.096	83.94
253.329	88.94
253.562	73.94
253.795	86.94
254.028	93.94
254.261	80.94
254.494	83.94
254.727	84.94
254.96	75.94
255.193	77.94
255.426	79.94
255.659	71.94
255.892	73.94
256.124	80.94
256.357	80.94
256.59	96.94
256.823	88.94
257.056	89.94
257.289	90.94
257.521	83.94
257.754	78.94
257.987	73.94
258.22	84.94
258.452	83.94
258.685	87.94
258.918	85.94
259.151	90.94
259.383	87.94
259.616	85.94
259.849	79.94
260.081	88.94
260.314	84.94
260.547	107.94
260.779	85.94
261.012	87.94
261.244	92.94
261.477	94.94
261.71	85.94
261.942	114.94
262.175	105.94
262.407	81.94
262.64	89.94
262.872	93.94
263.105	93.94
263.337	82.94
263.57	85.94
263.802	82.94
264.035	80.94
264.267	106.94
264.499	85.94
264.732	87.94
264.964	94.94
265.197	86.94
265.429	84.94
265.661	89.94
265.894	87.94
266.126	81.94
266.358	78.94
266.591	84.94
266.823	99.94
267.055	85.94
267.287	81.94
267.52	78.94
267.752	79.94
267.984	85.94
268.216	83.94
268.448	78.94
268.681	88.94
268.913	94.94
269.145	84.94
269.377	91.94
269.609	85.94
269.841	90.94
270.073	82.94
270.306	95.94
270.538	85.94
270.77	88.94
271.002	77.94
271.234	91.94
271.466	89.94
271.698	88.94
271.93	78.94
272.162	89.94
272.394	79.94
272.626	86.94
272.858	73.94
273.09	101.94
273.322	75.94
273.553	74.94
273.785	81.94
274.017	84.94
274.249	88.94
274.481	92.94
274.713	70.94
274.945	74.94
275.176	91.94
275.408	81.94
275.64	104.94
275.872	93.94
276.104	78.94
276.335	103.94
276.567	86.94
276.799	102.94
277.031	82.94
277.262	90.94
277.494	75.94
277.726	77.94
277.957	76.94
278.189	101.94
278.421	88.94
278.652	97.94
278.884	87.94
279.115	94.94
279.347	89.94
279.579	94.94
279.81	93.94
280.042	91.94
280.273	80.94
280.505	69.94
280.736	77.94
280.968	77.94
281.199	87.94
281.431	86.94
281.662	104.94
281.894	85.94
282.125	100.94
282.356	118.94
282.588	129.94
282.819	110.94
283.051	95.94
283.282	79.94
283.513	94.94
283.745	82.94
283.976	79.94
284.207	84.94
284.439	83.94
284.67	94.94
284.901	87.94
285.132	87.94
285.364	85.94
285.595	94.94
285.826	101.94
286.057	86.94
286.288	85.94
286.52	86.94
286.751	83.94
286.982	88.94
287.213	89.94
287.444	93.94
287.675	82.94
287.906	90.94
288.138	95.94
288.369	93.94
288.6	85.94
288.831	87.94
289.062	93.94
289.293	88.94
289.524	100.94
289.755	92.94
289.986	87.94
290.217	90.94
290.448	87.94
290.679	98.94
290.91	89.94
291.141	77.94
291.371	100.94
291.602	96.94
291.833	80.94
292.064	90.94
292.295	100.94
292.526	104.94
292.757	89.94
292.987	96.94
293.218	90.94
293.449	102.94
293.68	96.94
293.91	88.94
294.141	86.94
294.372	91.94
294.603	93.94
294.833	68.94
295.064	99.94
295.295	85.94
295.525	99.94
295.756	111.94
295.987	110.94
296.217	124.94
296.448	105.94
296.679	110.94
296.909	93.94
297.14	97.94
297.37	88.94
297.601	88.94
297.831	88.94
298.062	99.94
298.292	100.94
298.523	103.94
298.753	85.94
298.984	94.94
299.214	95.94
299.445	81.94
299.675	95.94
299.905	103.94
300.136	88.94
300.366	85.94
300.597	82.94
300.827	94.94
301.057	95.94
301.288	95.94
301.518	96.94
301.748	91.94
301.979	109.94
302.209	103.94
302.439	95.94
302.669	96.94
302.9	90.94
303.13	77.94
303.36	98.94
303.59	116.94
303.82	112.94
304.051	89.94
304.281	93.94
304.511	91.94
304.741	82.94
304.971	92.94
305.201	107.94
305.431	102.94
305.661	89.94
305.891	105.94
306.121	106.94
306.352	98.94
306.582	97.94
306.812	111.94
307.042	80.94
307.272	86.94
307.502	88.94
307.731	93.94
307.961	89.94
308.191	88.94
308.421	91.94
308.651	96.94
308.881	96.94
309.111	84.94
309.341	101.94
309.571	98.94
309.8	86.94
310.03	86.94
310.26	99.94
310.49	86.94
310.72	85.94
310.949	85.94
311.179	82.94
311.409	85.94
311.639	90.94
311.868	89.94
312.098	90.94
312.328	90.94
312.557	99.94
312.787	110.94
313.017	90.94
313.246	100.94
313.476	96.94
313.706	86.94
313.935	93.94
314.165	106.94
314.394	109.94
314.624	96.94
314.853	79.94
315.083	100.94
315.312	93.94
315.542	105.94
315.771	90.94
316.001	108.94
316.23	98.94
316.46	96.94
316.689	105.94
316.919	91.94
317.148	105.94
317.377	96.94
317.607	99.94
317.836	102.94
318.065	100.94
318.295	89.94
318.524	103.94
318.753	95.94
318.983	87.94
319.212	113.94
319.441	111.94
319.67	110.94
319.9	98.94
320.129	104.94
320.358	103.94
320.587	92.94
320.816	103.94
321.046	93.94
321.275	94.94
321.504	96.94
321.733	98.94
321.962	99.94
322.191	94.94
322.42	114.94
322.649	108.94
322.878	115.94
323.108	99.94
323.337	111.94
323.566	120.94
323.795	132.94
324.024	205.94
324.253	370.94
324.482	730.94
324.71	1464.94
324.939	1984.94
325.168	740.94
325.397	226.94
325.626	144.94
325.855	124.94
326.084	121.94
326.313	116.94
326.542	149.94
326.77	218.94
326.999	431.94
327.228	863.94
327.457	1520.94
327.686	1185.94
327.914	327.94
328.143	165.94
328.372	138.94
328.6	116.94
328.829	111.94
329.058	113.94
329.287	125.94
329.515	112.94
329.744	117.94
329.972	105.94
330.201	127.94
330.43	127.94
330.658	129.94
330.887	138.94
331.115	112.94
331.344	94.94
331.572	101.94
331.801	104.94
332.03	104.94
332.258	94.94
332.486	85.94
332.715	103.94
332.943	99.94
333.172	97.94
333.4	106.94
333.629	105.94
333.857	103.94
334.085	108.94
334.314	112.94
334.542	144.94
334.771	121.94
334.999	92.94
335.227	98.94
335.455	83.94
335.684	95.94
335.912	90.94
336.14	104.94
336.369	92.94
336.597	98.94
336.825	81.94
337.053	81.94
337.281	98.94
337.51	103.94
337.738	97.94
337.966	97.94
338.194	108.94
338.422	97.94
338.65	83.94
338.878	76.94
339.106	88.94
339.334	98.94
339.562	94.94
339.79	91.94
340.018	103.94
340.246	85.94
340.474	95.94
340.702	91.94
340.93	93.94
341.158	78.94
341.386	98.94
341.614	100.94
341.842	96.94
342.07	96.94
342.298	95.94
342.526	89.94
342.754	89.94
342.981	89.94
343.209	85.94
343.437	104.94
343.665	100.94
343.893	106.94
344.12	106.94
344.348	90.94
344.576	87.94
344.804	83.94
345.031	96.94
345.259	104.94
345.487	98.94
345.714	89.94
345.942	82.94
346.17	97.94
346.397	92.94
346.625	105.94
346.853	94.94
347.08	99.94
347.308	100.94
347.535	100.94
347.763	106.94
347.99	93.94
348.218	104.94
348.445	110.94
348.673	103.94
348.9	88.94
349.128	86.94
349.355	93.94
349.583	91.94
349.81	93.94
350.037	97.94
350.265	101.94
350.492	100.94
350.72	102.94
350.947	88.94
351.174	105.94
351.402	118.94
351.629	95.94
351.856	97.94
352.083	109.94
352.311	109.94
352.538	103.94
352.765	120.94
352.992	117.94
353.22	102.94
353.447	93.94
353.674	93.94
353.901	85.94
354.128	108.94
354.355	96.94
354.583	105.94
354.81	103.94
355.037	96.94
355.264	91.94
355.491	92.94
355.718	93.94
355.945	100.94
356.172	86.94
356.399	104.94
356.626	90.94
356.853	93.94
357.08	87.94
357.307	85.94
357.534	80.94
357.761	95.94
357.988	114.94
358.215	105.94
358.441	91.94
358.668	85.94
358.895	98.94
359.122	87.94
359.349	97.94
359.576	105.94
359.802	96.94
360.029	106.94
360.256	101.94
360.483	90.94
360.709	85.94
360.936	85.94
361.163	97.94
361.39	100.94
361.616	103.94
361.843	97.94
362.07	91.94
362.296	96.94
362.523	77.94
362.749	81.94
362.976	87.94
363.203	83.94
363.429	82.94
363.656	99.94
363.882	90.94
364.109	97.94
364.335	98.94
364.562	102.94
364.788	95.94
365.015	89.94
365.241	96.94
365.468	113.94
365.694	131.94
365.92	88.94
366.147	95.94
366.373	91.94
366.599	89.94
366.826	107.94
367.052	98.94
367.278	91.94
367.505	94.94
367.731	96.94
367.957	101.94
368.184	89.94
368.41	89.94
368.636	104.94
368.862	120.94
369.089	105.94
369.315	80.94
369.541	107.94
369.767	97.94
369.993	88.94
370.219	96.94
370.445	82.94
370.672	89.94
370.898	83.94
371.124	85.94
371.35	90.94
371.576	91.94
371.802	86.94
372.028	90.94
372.254	93.94
372.48	96.94
372.706	89.94
372.932	95.94
373.158	73.94
373.384	87.94
373.61	82.94
373.835	82.94
374.061	93.94
374.287	90.94
374.513	95.94
374.739	85.94
374.965	92.94
375.191	81.94
375.416	73.94
375.642	96.94
375.868	101.94
376.094	103.94
376.319	85.94
376.545	86.94
376.771	90.94
376.997	104.94
377.222	97.94
377.448	95.94
377.674	97.94
377.899	95.94
378.125	90.94
378.35	93.94
378.576	105.94
378.802	90.94
379.027	105.94
379.253	97.94
379.478	97.94
379.704	79.94
379.929	85.94
380.155	82.94
380.38	94.94
380.606	102.94
380.831	101.94
381.057	90.94
381.282	87.94
381.507	107.94
381.733	104.94
381.958	80.94
382.184	91.94
382.409	101.94
382.634	98.94
382.86	107.94
383.085	96.94
383.31	100.94
383.535	105.94
383.761	98.94
383.986	88.94
384.211	91.94
384.436	102.94
384.662	77.94
384.887	106.94
385.112	115.94
385.337	94.94
385.562	103.94
385.787	99.94
386.013	98.94
386.238	119.94
386.463	95.94
386.688	112.94
386.913	95.94
387.138	99.94
387.363	95.94
387.588	100.94
387.813	98.94
388.038	109.94
388.263	105.94
388.488	104.94
388.713	84.94
388.938	94.94
389.163	105.94
389.387	98.94
389.612	109.94
389.837	99.94
390.062	91.94
390.287	100.94
390.512	95.94
390.736	94.94
390.961	100.94
391.186	100.94
391.411	95.94
391.636	102.94
391.86	93.94
392.085	86.94
392.31	84.94
392.534	81.94
392.759	95.94
392.984	87.94
393.208	85.94
393.433	91.94
393.658	102.94
393.882	97.94
394.107	92.94
394.331	93.94
394.556	83.94
394.78	78.94
395.005	81.94
395.229	94.94
395.454	79.94
395.678	88.94
395.903	97.94
396.127	84.94
396.352	85.94
396.576	96.94
396.801	78.94
397.025	91.94
397.249	86.94
397.474	91.94
397.698	81.94
397.922	89.94
398.147	102.94
398.371	91.94
398.595	77.94
398.82	100.94
399.044	94.94
399.268	100.94
399.492	90.94
399.717	107.94
399.941	89.94
400.165	90.94
400.389	95.94
400.613	105.94
400.837	93.94
401.062	77.94
401.286	99.94
401.51	85.94
401.734	87.94
401.958	87.94
402.182	105.94
402.406	138.94
402.63	118.94
402.854	89.94
403.078	94.94
403.302	119.94
403.526	95.94
403.75	86.94
403.974	94.94
404.198	80.94
404.422	85.94
404.645	95.94
404.869	96.94
405.093	94.94
405.317	77.94
405.541	100.94
405.765	93.94
405.988	107.94
406.212	153.94
406.436	192.94
406.66	122.94
406.883	92.94
407.107	87.94
407.331	94.94
407.555	107.94
407.778	98.94
408.002	75.94
408.226	96.94
408.449	95.94
408.673	90.94
408.896	97.94
409.12	97.94
409.344	86.94
409.567	93.94
409.791	95.94
410.014	89.94
410.238	86.94
410.461	87.94
410.685	104.94
410.908	97.94
411.132	98.94
411.355	98.94
411.578	101.94
411.802	89.94
412.025	79.94
412.249	102.94
412.472	87.94
412.695	82.94
412.919	84.94
413.142	81.94
413.365	92.94
413.589	89.94
413.812	92.94
414.035	94.94
414.258	85.94
414.482	98.94
414.705	96.94
414.928	88.94
415.151	83.94
415.374	98.94
415.597	92.94
415.821	84.94
416.044	89.94
416.267	81.94
416.49	88.94
416.713	99.94
416.936	89.94
417.159	90.94
417.382	86.94
417.605	105.94
417.828	91.94
418.051	94.94
418.274	88.94
418.497	84.94
418.72	82.94
418.943	98.94
419.166	91.94
419.389	99.94
419.611	99.94
419.834	87.94
420.057	89.94
420.28	83.94
420.503	92.94
420.726	87.94
420.948	95.94
421.171	87.94
421.394	81.94
421.617	94.94
421.839	76.94
422.062	95.94
422.285	103.94
422.507	112.94
422.73	100.94
422.953	90.94
423.175	101.94
423.398	91.94
423.621	102.94
423.843	90.94
424.066	69.94
424.288	88.94
424.511	83.94
424.733	94.94
424.956	113.94
425.178	94.94
425.401	83.94
425.623	104.94
425.846	101.94
426.068	87.94
426.291	85.94
426.513	91.94
426.735	88.94
426.958	113.94
427.18	109.94
427.402	130.94
427.625	133.94
427.847	120.94
428.069	101.94
428.292	93.94
428.514	85.94
428.736	79.94
428.958	91.94
429.181	89.94
429.403	86.94
429.625	79.94
429.847	101.94
430.069	104.94
430.292	105.94
430.514	83.94
430.736	92.94
430.958	102.94
431.18	90.94
431.402	79.94
431.624	94.94
431.846	99.94
432.068	102.94
432.29	83.94
432.512	93.94
432.734	90.94
432.956	84.94
433.178	103.94
433.4	98.94
433.622	93.94
433.844	103.94
434.066	79.94
434.287	93.94
434.509	82.94
434.731	82.94
434.953	74.94
435.175	109.94
435.397	100.94
435.618	93.94
435.84	101.94
436.062	126.94
436.284	121.94
436.505	102.94
436.727	105.94
436.949	102.94
437.17	90.94
437.392	97.94
437.614	80.94
437.835	100.94
438.057	102.94
438.278	98.94
438.5	98.94
438.721	113.94
438.943	98.94
439.165	99.94
439.386	88.94
439.608	95.94
439.829	81.94
440.05	105.94
440.272	143.94
440.493	102.94
440.715	98.94
440.936	80.94
441.158	77.94
441.379	88.94
441.6	87.94
441.822	89.94
442.043	95.94
442.264	89.94
442.486	95.94
442.707	91.94
442.928	110.94
443.149	108.94
443.371	118.94
443.592	108.94
443.813	116.94
444.034	104.94
444.255	95.94
444.476	93.94
444.698	96.94
444.919	86.94
445.14	125.94
445.361	117.94
445.582	112.94
445.803	124.94
446.024	121.94
446.245	123.94
446.466	104.94
446.687	79.94
446.908	87.94
447.129	77.94
447.35	88.94
447.571	90.94
447.792	90.94
448.013	96.94
448.234	105.94
448.455	95.94
448.675	109.94
448.896	118.94
449.117	96.94
449.338	111.94
449.559	122.94
449.779	121.94
450	91.94
450.221	93.94
450.442	93.94
450.662	84.94
450.883	89.94
451.104	91.94
451.324	97.94
451.545	85.94
451.766	97.94
451.986	89.94
452.207	99.94
452.428	79.94
452.648	95.94
452.869	105.94
453.089	95.94
453.31	100.94
453.53	103.94
453.751	84.94
453.971	101.94
454.192	122.94
454.412	94.94
454.633	76.94
454.853	84.94
455.073	99.94
455.294	90.94
455.514	98.94
455.734	89.94
455.955	90.94
456.175	86.94
456.395	88.94
456.616	89.94
456.836	81.94
457.056	90.94
457.276	101.94
457.497	90.94
457.717	85.94
457.937	92.94
458.157	79.94
458.377	101.94
458.598	94.94
458.818	130.94
459.038	149.94
459.258	90.94
459.478	82.94
459.698	88.94
459.918	93.94
460.138	89.94
460.358	83.94
460.578	78.94
460.798	87.94
461.018	94.94
461.238	90.94
461.458	95.94
461.678	97.94
461.898	80.94
462.118	95.94
462.338	81.94
462.558	95.94
462.777	97.94
462.997	73.94
463.217	85.94
463.437	81.94
463.657	94.94
463.876	88.94
464.096	85.94
464.316	87.94
464.536	89.94
464.755	94.94
464.975	113.94
465.195	130.94
465.414	129.94
465.634	83.94
465.854	91.94
466.073	104.94
466.293	92.94
466.512	96.94
466.732	83.94
466.951	96.94
467.171	80.94
467.391	89.94
467.61	108.94
467.829	97.94
468.049	97.94
468.268	81.94
468.488	103.94
468.707	97.94
468.927	89.94
469.146	91.94
469.365	78.94
469.585	94.94
469.804	105.94
470.023	94.94
470.243	97.94
470.462	94.94
470.681	97.94
470.901	76.94
471.12	88.94
471.339	101.94
471.558	92.94
471.777	93.94
471.997	101.94
472.216	105.94
472.435	130.94
472.654	102.94
472.873	82.94
473.092	77.94
473.311	92.94
473.53	71.94
473.749	87.94
473.968	92.94
474.187	107.94
474.406	80.94
474.625	100.94
474.844	90.94
475.063	68.94
475.282	88.94
475.501	86.94
475.72	98.94
475.939	81.94
476.158	88.94
476.377	77.94
476.596	81.94
476.814	93.94
477.033	97.94
477.252	85.94
477.471	95.94
477.69	94.94
477.908	93.94
478.127	102.94
478.346	97.94
478.564	86.94
478.783	91.94
479.002	86.94
479.22	86.94
479.439	107.94
479.658	99.94
479.876	98.94
480.095	90.94
480.313	91.94
480.532	90.94
480.751	89.94
480.969	102.94
481.188	156.94
481.406	123.94
481.624	97.94
481.843	84.94
482.061	96.94
482.28	89.94
482.498	78.94
482.717	98.94
482.935	91.94
483.153	91.94
483.372	90.94
483.59	98.94
483.808	93.94
484.027	95.94
484.245	87.94
484.463	96.94
484.681	102.94
484.9	95.94
485.118	97.94
485.336	103.94
485.554	94.94
485.772	101.94
485.99	102.94
486.209	104.94
486.427	101.94
486.645	97.94
486.863	105.94
487.081	98.94
487.299	98.94
487.517	99.94
487.735	84.94
487.953	95.94
488.171	93.94
488.389	103.94
488.607	93.94
488.825	90.94
489.043	93.94
489.261	89.94
489.479	92.94
489.696	97.94
489.914	81.94
490.132	104.94
490.35	106.94
490.568	77.94
490.786	77.94
491.003	73.94
491.221	87.94
491.439	88.94
491.657	97.94
491.874	97.94
492.092	94.94
492.31	92.94
492.527	103.94
492.745	101.94
492.963	95.94
493.18	101.94
493.398	77.94
493.615	81.94
493.833	85.94
494.05	96.94
494.268	94.94
494.485	95.94
494.703	87.94
494.92	105.94
495.138	87.94
495.355	81.94
495.573	91.94
495.79	87.94
496.008	94.94
496.225	91.94
496.442	94.94
496.66	113.94
496.877	101.94
497.094	99.94
497.312	94.94
497.529	89.94
497.746	97.94
497.963	98.94
498.181	83.94
498.398	102.94
498.615	97.94
498.832	97.94
499.049	91.94
499.267	94.94
499.484	89.94
499.701	84.94
499.918	113.94
500.135	86.94
500.352	89.94
500.569	86.94
500.786	86.94
501.003	77.94
501.22	95.94
501.437	81.94
501.654	91.94
501.871	101.94
502.088	83.94
502.305	101.94
502.522	75.94
502.739	89.94
502.956	99.94
503.172	99.94
503.389	104.94
503.606	81.94
503.823	90.94
504.04	100.94
504.256	84.94
504.473	91.94
504.69	96.94
504.907	101.94
505.123	87.94
505.34	87.94
505.557	90.94
505.773	96.94
505.99	93.94
506.207	94.94
506.423	88.94
506.64	98.94
506.856	101.94
507.073	91.94
507.289	84.94
507.506	109.94
507.722	95.94
507.939	107.94
508.155	103.94
508.372	106.94
508.588	90.94
508.805	90.94
509.021	104.94
509.238	104.94
509.454	102.94
509.67	109.94
509.887	112.94
510.103	133.94
510.319	198.94
510.536	646.94
510.752	2006.94
510.968	556.94
511.184	146.94
511.401	99.94
511.617	105.94
511.833	103.94
512.049	99.94
512.265	101.94
512.481	92.94
512.698	92.94
512.914	86.94
513.13	86.94
513.346	92.94
513.562	97.94
513.778	102.94
513.994	93.94
514.21	103.94
514.426	110.94
514.642	114.94
514.858	117.94
515.074	151.94
515.29	377.94
