Data from Uncirc_1990_H10_HRD10591_00017.txt Node
Date: Wed Jan 03 11:53:55 EST 2024
User: Yrep
Spectrometer: HR+D1059
Trigger mode: 1
Integration Time (sec): 1.000000E-1
Scans to average: 1
Electric dark correction enabled: true
Nonlinearity correction enabled: false
Boxcar width: 0
XAxis mode: Wavelengths
Number of Pixels in Spectrum: 2048
>>>>>Begin Spectral Data<<<<<
223.165	-26.19
223.4	-26.19
223.635	-26.19
223.869	-20.19
224.104	-25.19
224.338	-1.19
224.573	-14.19
224.808	-10.19
225.042	-0.19
225.277	-8.19
225.511	-8.19
225.746	5.81
225.98	7.81
226.215	1.81
226.449	21.81
226.683	33.81
226.918	3.81
227.152	38.81
227.387	47.81
227.621	51.81
227.856	55.81
228.09	41.81
228.324	54.81
228.559	56.81
228.793	62.81
229.027	77.81
229.262	56.81
229.496	81.81
229.73	80.81
229.964	74.81
230.199	73.81
230.433	80.81
230.667	93.81
230.901	82.81
231.136	68.81
231.37	78.81
231.604	81.81
231.838	78.81
232.072	64.81
232.306	89.81
232.541	82.81
232.775	88.81
233.009	83.81
233.243	93.81
233.477	80.81
233.711	71.81
233.945	88.81
234.179	78.81
234.413	77.81
234.647	84.81
234.881	74.81
235.115	87.81
235.349	70.81
235.583	87.81
235.817	80.81
236.051	78.81
236.285	80.81
236.519	91.81
236.753	76.81
236.987	65.81
237.221	76.81
237.455	84.81
237.689	74.81
237.922	75.81
238.156	68.81
238.39	67.81
238.624	72.81
238.858	87.81
239.091	89.81
239.325	89.81
239.559	71.81
239.793	71.81
240.027	84.81
240.26	85.81
240.494	79.81
240.728	67.81
240.961	82.81
241.195	86.81
241.429	81.81
241.662	78.81
241.896	83.81
242.13	79.81
242.363	73.81
242.597	77.81
242.83	87.81
243.064	72.81
243.298	84.81
243.531	78.81
243.765	72.81
243.998	59.81
244.232	83.81
244.465	86.81
244.699	80.81
244.932	62.81
245.166	71.81
245.399	93.81
245.633	71.81
245.866	87.81
246.099	80.81
246.333	88.81
246.566	83.81
246.8	89.81
247.033	74.81
247.266	90.81
247.5	85.81
247.733	65.81
247.966	78.81
248.2	72.81
248.433	89.81
248.666	78.81
248.899	68.81
249.133	84.81
249.366	92.81
249.599	88.81
249.832	101.81
250.066	83.81
250.299	78.81
250.532	74.81
250.765	83.81
250.998	90.81
251.231	89.81
251.465	76.81
251.698	81.81
251.931	69.81
252.164	83.81
252.397	86.81
252.63	83.81
252.863	73.81
253.096	82.81
253.329	80.81
253.562	90.81
253.795	89.81
254.028	89.81
254.261	82.81
254.494	78.81
254.727	95.81
254.96	82.81
255.193	86.81
255.426	77.81
255.659	81.81
255.892	97.81
256.124	89.81
256.357	97.81
256.59	88.81
256.823	92.81
257.056	86.81
257.289	88.81
257.521	88.81
257.754	88.81
257.987	86.81
258.22	88.81
258.452	90.81
258.685	84.81
258.918	85.81
259.151	79.81
259.383	92.81
259.616	85.81
259.849	77.81
260.081	94.81
260.314	86.81
260.547	76.81
260.779	90.81
261.012	84.81
261.244	73.81
261.477	88.81
261.71	104.81
261.942	104.81
262.175	124.81
262.407	76.81
262.64	82.81
262.872	97.81
263.105	81.81
263.337	97.81
263.57	95.81
263.802	78.81
264.035	91.81
264.267	88.81
264.499	84.81
264.732	92.81
264.964	100.81
265.197	88.81
265.429	84.81
265.661	86.81
265.894	95.81
266.126	92.81
266.358	87.81
266.591	85.81
266.823	84.81
267.055	81.81
267.287	93.81
267.52	78.81
267.752	82.81
267.984	73.81
268.216	95.81
268.448	81.81
268.681	78.81
268.913	103.81
269.145	90.81
269.377	86.81
269.609	83.81
269.841	87.81
270.073	88.81
270.306	101.81
270.538	81.81
270.77	86.81
271.002	89.81
271.234	86.81
271.466	84.81
271.698	87.81
271.93	81.81
272.162	85.81
272.394	96.81
272.626	85.81
272.858	70.81
273.09	83.81
273.322	85.81
273.553	79.81
273.785	89.81
274.017	84.81
274.249	86.81
274.481	81.81
274.713	94.81
274.945	82.81
275.176	78.81
275.408	94.81
275.64	85.81
275.872	89.81
276.104	81.81
276.335	83.81
276.567	92.81
276.799	100.81
277.031	100.81
277.262	94.81
277.494	88.81
277.726	78.81
277.957	70.81
278.189	79.81
278.421	82.81
278.652	77.81
278.884	92.81
279.115	101.81
279.347	73.81
279.579	86.81
279.81	85.81
280.042	85.81
280.273	88.81
280.505	77.81
280.736	74.81
280.968	82.81
281.199	90.81
281.431	94.81
281.662	83.81
281.894	86.81
282.125	108.81
282.356	115.81
282.588	144.81
282.819	122.81
283.051	84.81
283.282	85.81
283.513	100.81
283.745	96.81
283.976	86.81
284.207	86.81
284.439	73.81
284.67	101.81
284.901	82.81
285.132	87.81
285.364	87.81
285.595	86.81
285.826	90.81
286.057	81.81
286.288	80.81
286.52	86.81
286.751	94.81
286.982	72.81
287.213	95.81
287.444	96.81
287.675	87.81
287.906	83.81
288.138	99.81
288.369	92.81
288.6	94.81
288.831	69.81
289.062	88.81
289.293	82.81
289.524	94.81
289.755	97.81
289.986	85.81
290.217	80.81
290.448	80.81
290.679	91.81
290.91	98.81
291.141	77.81
291.371	88.81
291.602	86.81
291.833	89.81
292.064	96.81
292.295	95.81
292.526	93.81
292.757	96.81
292.987	104.81
293.218	94.81
293.449	92.81
293.68	84.81
293.91	85.81
294.141	114.81
294.372	94.81
294.603	93.81
294.833	100.81
295.064	94.81
295.295	104.81
295.525	94.81
295.756	97.81
295.987	114.81
296.217	138.81
296.448	136.81
296.679	82.81
296.909	94.81
297.14	81.81
297.37	84.81
297.601	84.81
297.831	90.81
298.062	94.81
298.292	88.81
298.523	78.81
298.753	93.81
298.984	76.81
299.214	85.81
299.445	89.81
299.675	88.81
299.905	94.81
300.136	96.81
300.366	97.81
300.597	88.81
300.827	84.81
301.057	97.81
301.288	96.81
301.518	97.81
301.748	85.81
301.979	92.81
302.209	88.81
302.439	105.81
302.669	83.81
302.9	90.81
303.13	78.81
303.36	97.81
303.59	95.81
303.82	105.81
304.051	83.81
304.281	105.81
304.511	89.81
304.741	89.81
304.971	96.81
305.201	84.81
305.431	79.81
305.661	88.81
305.891	93.81
306.121	95.81
306.352	104.81
306.582	99.81
306.812	89.81
307.042	88.81
307.272	69.81
307.502	88.81
307.731	88.81
307.961	97.81
308.191	91.81
308.421	91.81
308.651	94.81
308.881	80.81
309.111	101.81
309.341	85.81
309.571	97.81
309.8	103.81
310.03	91.81
310.26	102.81
310.49	93.81
310.72	101.81
310.949	97.81
311.179	96.81
311.409	102.81
311.639	102.81
311.868	93.81
312.098	108.81
312.328	94.81
312.557	110.81
312.787	108.81
313.017	103.81
313.246	89.81
313.476	87.81
313.706	96.81
313.935	95.81
314.165	108.81
314.394	100.81
314.624	112.81
314.853	113.81
315.083	92.81
315.312	90.81
315.542	94.81
315.771	95.81
316.001	91.81
316.23	96.81
316.46	83.81
316.689	96.81
316.919	96.81
317.148	100.81
317.377	95.81
317.607	80.81
317.836	97.81
318.065	100.81
318.295	90.81
318.524	95.81
318.753	89.81
318.983	110.81
319.212	103.81
319.441	112.81
319.67	97.81
319.9	106.81
320.129	88.81
320.358	101.81
320.587	79.81
320.816	90.81
321.046	96.81
321.275	94.81
321.504	89.81
321.733	104.81
321.962	105.81
322.191	96.81
322.42	107.81
322.649	110.81
322.878	106.81
323.108	111.81
323.337	118.81
323.566	130.81
323.795	153.81
324.024	199.81
324.253	350.81
324.482	786.81
324.71	1628.81
324.939	2183.81
325.168	817.81
325.397	222.81
325.626	160.81
325.855	131.81
326.084	125.81
326.313	128.81
326.542	150.81
326.77	230.81
326.999	440.81
327.228	898.81
327.457	1670.81
327.686	1352.81
327.914	360.81
328.143	184.81
328.372	127.81
328.6	122.81
328.829	108.81
329.058	119.81
329.287	135.81
329.515	110.81
329.744	102.81
329.972	100.81
330.201	101.81
330.43	94.81
330.658	116.81
330.887	122.81
331.115	111.81
331.344	93.81
331.572	102.81
331.801	96.81
332.03	90.81
332.258	90.81
332.486	100.81
332.715	92.81
332.943	92.81
333.172	94.81
333.4	105.81
333.629	104.81
333.857	101.81
334.085	97.81
334.314	110.81
334.542	91.81
334.771	94.81
334.999	78.81
335.227	80.81
335.455	83.81
335.684	90.81
335.912	85.81
336.14	101.81
336.369	99.81
336.597	110.81
336.825	98.81
337.053	108.81
337.281	85.81
337.51	90.81
337.738	104.81
337.966	91.81
338.194	102.81
338.422	106.81
338.65	97.81
338.878	96.81
339.106	90.81
339.334	98.81
339.562	97.81
339.79	95.81
340.018	98.81
340.246	89.81
340.474	94.81
340.702	91.81
340.93	88.81
341.158	92.81
341.386	95.81
341.614	111.81
341.842	94.81
342.07	100.81
342.298	85.81
342.526	90.81
342.754	105.81
342.981	86.81
343.209	93.81
343.437	88.81
343.665	80.81
343.893	95.81
344.12	108.81
344.348	86.81
344.576	99.81
344.804	87.81
345.031	89.81
345.259	112.81
345.487	94.81
345.714	94.81
345.942	105.81
346.17	88.81
346.397	87.81
346.625	106.81
346.853	90.81
347.08	92.81
347.308	103.81
347.535	99.81
347.763	95.81
347.99	113.81
348.218	106.81
348.445	95.81
348.673	84.81
348.9	101.81
349.128	83.81
349.355	104.81
349.583	82.81
349.81	94.81
350.037	93.81
350.265	96.81
350.492	104.81
350.72	81.81
350.947	89.81
351.174	111.81
351.402	96.81
351.629	109.81
351.856	96.81
352.083	82.81
352.311	116.81
352.538	104.81
352.765	105.81
352.992	109.81
353.22	109.81
353.447	116.81
353.674	88.81
353.901	99.81
354.128	110.81
354.355	104.81
354.583	94.81
354.81	104.81
355.037	109.81
355.264	96.81
355.491	95.81
355.718	88.81
355.945	89.81
356.172	98.81
356.399	110.81
356.626	96.81
356.853	89.81
357.08	101.81
357.307	109.81
357.534	90.81
357.761	98.81
357.988	103.81
358.215	97.81
358.441	93.81
358.668	107.81
358.895	90.81
359.122	100.81
359.349	100.81
359.576	90.81
359.802	104.81
360.029	105.81
360.256	103.81
360.483	96.81
360.709	88.81
360.936	91.81
361.163	105.81
361.39	107.81
361.616	108.81
361.843	93.81
362.07	87.81
362.296	110.81
362.523	103.81
362.749	98.81
362.976	95.81
363.203	95.81
363.429	108.81
363.656	99.81
363.882	89.81
364.109	89.81
364.335	89.81
364.562	93.81
364.788	93.81
365.015	103.81
365.241	94.81
365.468	98.81
365.694	100.81
365.92	100.81
366.147	101.81
366.373	95.81
366.599	87.81
366.826	92.81
367.052	97.81
367.278	96.81
367.505	79.81
367.731	99.81
367.957	96.81
368.184	104.81
368.41	99.81
368.636	105.81
368.862	108.81
369.089	99.81
369.315	111.81
369.541	83.81
369.767	90.81
369.993	87.81
370.219	93.81
370.445	87.81
370.672	84.81
370.898	110.81
371.124	87.81
371.35	86.81
371.576	104.81
371.802	99.81
372.028	99.81
372.254	86.81
372.48	88.81
372.706	84.81
372.932	74.81
373.158	98.81
373.384	97.81
373.61	100.81
373.835	78.81
374.061	87.81
374.287	80.81
374.513	86.81
374.739	100.81
374.965	97.81
375.191	95.81
375.416	89.81
375.642	97.81
375.868	96.81
376.094	90.81
376.319	94.81
376.545	93.81
376.771	105.81
376.997	95.81
377.222	92.81
377.448	88.81
377.674	84.81
377.899	83.81
378.125	84.81
378.35	95.81
378.576	86.81
378.802	88.81
379.027	90.81
379.253	81.81
379.478	93.81
379.704	90.81
379.929	94.81
380.155	98.81
380.38	88.81
380.606	83.81
380.831	106.81
381.057	99.81
381.282	85.81
381.507	104.81
381.733	113.81
381.958	95.81
382.184	89.81
382.409	91.81
382.634	98.81
382.86	105.81
383.085	104.81
383.31	108.81
383.535	103.81
383.761	89.81
383.986	102.81
384.211	106.81
384.436	120.81
384.662	102.81
384.887	81.81
385.112	95.81
385.337	112.81
385.562	113.81
385.787	110.81
386.013	105.81
386.238	114.81
386.463	115.81
386.688	104.81
386.913	106.81
387.138	115.81
387.363	92.81
387.588	101.81
387.813	98.81
388.038	116.81
388.263	115.81
388.488	105.81
388.713	104.81
388.938	88.81
389.163	105.81
389.387	97.81
389.612	93.81
389.837	97.81
390.062	100.81
390.287	88.81
390.512	89.81
390.736	99.81
390.961	100.81
391.186	90.81
391.411	90.81
391.636	95.81
391.86	98.81
392.085	96.81
392.31	78.81
392.534	90.81
392.759	97.81
392.984	92.81
393.208	94.81
393.433	109.81
393.658	77.81
393.882	96.81
394.107	87.81
394.331	85.81
394.556	94.81
394.78	86.81
395.005	96.81
395.229	89.81
395.454	88.81
395.678	88.81
395.903	78.81
396.127	89.81
396.352	90.81
396.576	98.81
396.801	96.81
397.025	96.81
397.249	90.81
397.474	80.81
397.698	81.81
397.922	87.81
398.147	84.81
398.371	93.81
398.595	81.81
398.82	89.81
399.044	77.81
399.268	72.81
399.492	96.81
399.717	86.81
399.941	84.81
400.165	103.81
400.389	91.81
400.613	93.81
400.837	84.81
401.062	101.81
401.286	92.81
401.51	98.81
401.734	99.81
401.958	114.81
402.182	122.81
402.406	149.81
402.63	96.81
402.854	78.81
403.078	87.81
403.302	97.81
403.526	87.81
403.75	94.81
403.974	84.81
404.198	88.81
404.422	92.81
404.645	99.81
404.869	87.81
405.093	88.81
405.317	80.81
405.541	83.81
405.765	104.81
405.988	114.81
406.212	156.81
406.436	185.81
406.66	119.81
406.883	109.81
407.107	85.81
407.331	76.81
407.555	97.81
407.778	95.81
408.002	90.81
408.226	91.81
408.449	84.81
408.673	69.81
408.896	93.81
409.12	98.81
409.344	103.81
409.567	97.81
409.791	86.81
410.014	86.81
410.238	86.81
410.461	90.81
410.685	97.81
410.908	96.81
411.132	111.81
411.355	108.81
411.578	90.81
411.802	91.81
412.025	81.81
412.249	98.81
412.472	78.81
412.695	99.81
412.919	81.81
413.142	105.81
413.365	90.81
413.589	97.81
413.812	93.81
414.035	92.81
414.258	96.81
414.482	82.81
414.705	93.81
414.928	86.81
415.151	78.81
415.374	89.81
415.597	76.81
415.821	87.81
416.044	98.81
416.267	81.81
416.49	100.81
416.713	93.81
416.936	78.81
417.159	86.81
417.382	92.81
417.605	77.81
417.828	109.81
418.051	95.81
418.274	82.81
418.497	88.81
418.72	95.81
418.943	103.81
419.166	101.81
419.389	98.81
419.611	99.81
419.834	93.81
420.057	90.81
420.28	81.81
420.503	89.81
420.726	93.81
420.948	87.81
421.171	91.81
421.394	103.81
421.617	105.81
421.839	97.81
422.062	90.81
422.285	104.81
422.507	101.81
422.73	111.81
422.953	86.81
423.175	78.81
423.398	102.81
423.621	101.81
423.843	86.81
424.066	95.81
424.288	93.81
424.511	84.81
424.733	96.81
424.956	98.81
425.178	92.81
425.401	113.81
425.623	103.81
425.846	94.81
426.068	94.81
426.291	90.81
426.513	97.81
426.735	103.81
426.958	92.81
427.18	105.81
427.402	132.81
427.625	154.81
427.847	119.81
428.069	100.81
428.292	90.81
428.514	99.81
428.736	79.81
428.958	85.81
429.181	81.81
429.403	87.81
429.625	86.81
429.847	100.81
430.069	97.81
430.292	90.81
430.514	92.81
430.736	98.81
430.958	76.81
431.18	82.81
431.402	101.81
431.624	95.81
431.846	95.81
432.068	81.81
432.29	89.81
432.512	96.81
432.734	92.81
432.956	94.81
433.178	97.81
433.4	101.81
433.622	101.81
433.844	83.81
434.066	95.81
434.287	98.81
434.509	87.81
434.731	92.81
434.953	92.81
435.175	81.81
435.397	75.81
435.618	100.81
435.84	100.81
436.062	116.81
436.284	120.81
436.505	112.81
436.727	97.81
436.949	102.81
437.17	89.81
437.392	89.81
437.614	94.81
437.835	83.81
438.057	127.81
438.278	109.81
438.5	111.81
438.721	119.81
438.943	115.81
439.165	83.81
439.386	83.81
439.608	81.81
439.829	98.81
440.05	114.81
440.272	142.81
440.493	102.81
440.715	85.81
440.936	87.81
441.158	88.81
441.379	94.81
441.6	89.81
441.822	84.81
442.043	93.81
442.264	108.81
442.486	94.81
442.707	101.81
442.928	112.81
443.149	118.81
443.371	121.81
443.592	111.81
443.813	127.81
444.034	121.81
444.255	126.81
444.476	80.81
444.698	80.81
444.919	95.81
445.14	132.81
445.361	129.81
445.582	111.81
445.803	130.81
446.024	133.81
446.245	124.81
446.466	120.81
446.687	90.81
446.908	98.81
447.129	97.81
447.35	95.81
447.571	96.81
447.792	89.81
448.013	93.81
448.234	108.81
448.455	104.81
448.675	117.81
448.896	131.81
449.117	92.81
449.338	90.81
449.559	118.81
449.779	125.81
450	104.81
450.221	99.81
450.442	95.81
450.662	91.81
450.883	106.81
451.104	111.81
451.324	82.81
451.545	80.81
451.766	80.81
451.986	83.81
452.207	86.81
452.428	89.81
452.648	96.81
452.869	98.81
453.089	105.81
453.31	117.81
453.53	93.81
453.751	94.81
453.971	102.81
454.192	111.81
454.412	102.81
454.633	100.81
454.853	79.81
455.073	94.81
455.294	69.81
455.514	102.81
455.734	95.81
455.955	76.81
456.175	86.81
456.395	76.81
456.616	87.81
456.836	101.81
457.056	86.81
457.276	73.81
457.497	90.81
457.717	91.81
457.937	90.81
458.157	78.81
458.377	87.81
458.598	105.81
458.818	143.81
459.038	160.81
459.258	115.81
459.478	94.81
459.698	83.81
459.918	73.81
460.138	112.81
460.358	89.81
460.578	87.81
460.798	87.81
461.018	90.81
461.238	80.81
461.458	89.81
461.678	83.81
461.898	83.81
462.118	89.81
462.338	77.81
462.558	86.81
462.777	98.81
462.997	81.81
463.217	90.81
463.437	88.81
463.657	83.81
463.876	86.81
464.096	97.81
464.316	82.81
464.536	93.81
464.755	88.81
464.975	103.81
465.195	146.81
465.414	132.81
465.634	100.81
465.854	74.81
466.073	94.81
466.293	80.81
466.512	90.81
466.732	92.81
466.951	87.81
467.171	102.81
467.391	85.81
467.61	98.81
467.829	96.81
468.049	86.81
468.268	94.81
468.488	89.81
468.707	73.81
468.927	92.81
469.146	78.81
469.365	88.81
469.585	90.81
469.804	91.81
470.023	88.81
470.243	87.81
470.462	107.81
470.681	112.81
470.901	93.81
471.12	79.81
471.339	90.81
471.558	83.81
471.777	81.81
471.997	87.81
472.216	77.81
472.435	99.81
472.654	101.81
472.873	92.81
473.092	84.81
473.311	81.81
473.53	97.81
473.749	86.81
473.968	92.81
474.187	96.81
474.406	102.81
474.625	82.81
474.844	97.81
475.063	103.81
475.282	94.81
475.501	83.81
475.72	102.81
475.939	108.81
476.158	74.81
476.377	82.81
476.596	90.81
476.814	80.81
477.033	99.81
477.252	83.81
477.471	81.81
477.69	88.81
477.908	90.81
478.127	89.81
478.346	101.81
478.564	87.81
478.783	96.81
479.002	93.81
479.22	87.81
479.439	91.81
479.658	103.81
479.876	93.81
480.095	97.81
480.313	107.81
480.532	81.81
480.751	100.81
480.969	112.81
481.188	98.81
481.406	105.81
481.624	112.81
481.843	92.81
482.061	93.81
482.28	87.81
482.498	86.81
482.717	90.81
482.935	92.81
483.153	88.81
483.372	85.81
483.59	81.81
483.808	84.81
484.027	92.81
484.245	92.81
484.463	100.81
484.681	102.81
484.9	98.81
485.118	101.81
485.336	109.81
485.554	95.81
485.772	105.81
485.99	87.81
486.209	103.81
486.427	86.81
486.645	114.81
486.863	110.81
487.081	108.81
487.299	104.81
487.517	90.81
487.735	88.81
487.953	90.81
488.171	94.81
488.389	97.81
488.607	110.81
488.825	113.81
489.043	88.81
489.261	86.81
489.479	96.81
489.696	96.81
489.914	101.81
490.132	93.81
490.35	85.81
490.568	81.81
490.786	81.81
491.003	87.81
491.221	88.81
491.439	103.81
491.657	103.81
491.874	93.81
492.092	96.81
492.31	96.81
492.527	84.81
492.745	91.81
492.963	90.81
493.18	94.81
493.398	90.81
493.615	79.81
493.833	97.81
494.05	84.81
494.268	83.81
494.485	104.81
494.703	101.81
494.92	92.81
495.138	87.81
495.355	103.81
495.573	102.81
495.79	72.81
496.008	95.81
496.225	109.81
496.442	97.81
496.66	82.81
496.877	97.81
497.094	107.81
497.312	90.81
497.529	93.81
497.746	90.81
497.963	78.81
498.181	85.81
498.398	86.81
498.615	105.81
498.832	91.81
499.049	96.81
499.267	96.81
499.484	96.81
499.701	93.81
499.918	86.81
500.135	91.81
500.352	89.81
500.569	78.81
500.786	88.81
501.003	106.81
501.22	100.81
501.437	82.81
501.654	110.81
501.871	113.81
502.088	85.81
502.305	96.81
502.522	84.81
502.739	93.81
502.956	88.81
503.172	98.81
503.389	103.81
503.606	99.81
503.823	91.81
504.04	108.81
504.256	97.81
504.473	86.81
504.69	91.81
504.907	81.81
505.123	92.81
505.34	89.81
505.557	95.81
505.773	94.81
505.99	105.81
506.207	82.81
506.423	95.81
506.64	96.81
506.856	84.81
507.073	95.81
507.289	94.81
507.506	99.81
507.722	96.81
507.939	103.81
508.155	104.81
508.372	92.81
508.588	96.81
508.805	71.81
509.021	109.81
509.238	88.81
509.454	100.81
509.67	109.81
509.887	95.81
510.103	156.81
510.319	212.81
510.536	676.81
510.752	2283.81
510.968	629.81
511.184	140.81
511.401	108.81
511.617	115.81
511.833	110.81
512.049	96.81
512.265	84.81
512.481	87.81
512.698	89.81
512.914	90.81
513.13	104.81
513.346	98.81
513.562	97.81
513.778	99.81
513.994	99.81
514.21	98.81
514.426	112.81
514.642	126.81
514.858	106.81
515.074	157.81
515.29	432.81
