Data from Uncirc_1990_H10_HRD10591_00062.txt Node
Date: Wed Jan 03 11:54:04 EST 2024
User: Yrep
Spectrometer: HR+D1059
Trigger mode: 1
Integration Time (sec): 1.000000E-1
Scans to average: 1
Electric dark correction enabled: true
Nonlinearity correction enabled: false
Boxcar width: 0
XAxis mode: Wavelengths
Number of Pixels in Spectrum: 2048
>>>>>Begin Spectral Data<<<<<
223.165	-7.75
223.4	-7.75
223.635	-7.75
223.869	-10.75
224.104	-14.75
224.338	-24.75
224.573	-16.75
224.808	-12.75
225.042	-1.75
225.277	-9.75
225.511	-7.75
225.746	4.25
225.98	2.25
226.215	1.25
226.449	26.25
226.683	14.25
226.918	26.25
227.152	32.25
227.387	38.25
227.621	33.25
227.856	47.25
228.09	58.25
228.324	52.25
228.559	57.25
228.793	57.25
229.027	73.25
229.262	52.25
229.496	72.25
229.73	68.25
229.964	73.25
230.199	82.25
230.433	87.25
230.667	76.25
230.901	84.25
231.136	80.25
231.37	89.25
231.604	78.25
231.838	84.25
232.072	88.25
232.306	93.25
232.541	78.25
232.775	82.25
233.009	72.25
233.243	57.25
233.477	91.25
233.711	78.25
233.945	77.25
234.179	80.25
234.413	86.25
234.647	82.25
234.881	96.25
235.115	88.25
235.349	69.25
235.583	73.25
235.817	86.25
236.051	87.25
236.285	85.25
236.519	77.25
236.753	83.25
236.987	90.25
237.221	71.25
237.455	80.25
237.689	81.25
237.922	74.25
238.156	69.25
238.39	90.25
238.624	80.25
238.858	85.25
239.091	87.25
239.325	79.25
239.559	77.25
239.793	74.25
240.027	79.25
240.26	82.25
240.494	82.25
240.728	74.25
240.961	76.25
241.195	71.25
241.429	64.25
241.662	69.25
241.896	84.25
242.13	76.25
242.363	73.25
242.597	82.25
242.83	92.25
243.064	84.25
243.298	67.25
243.531	72.25
243.765	84.25
243.998	83.25
244.232	81.25
244.465	88.25
244.699	80.25
244.932	74.25
245.166	76.25
245.399	84.25
245.633	86.25
245.866	77.25
246.099	85.25
246.333	88.25
246.566	87.25
246.8	93.25
247.033	87.25
247.266	96.25
247.5	84.25
247.733	86.25
247.966	86.25
248.2	85.25
248.433	73.25
248.666	80.25
248.899	69.25
249.133	80.25
249.366	95.25
249.599	94.25
249.832	69.25
250.066	78.25
250.299	90.25
250.532	86.25
250.765	75.25
250.998	97.25
251.231	83.25
251.465	86.25
251.698	82.25
251.931	76.25
252.164	70.25
252.397	80.25
252.63	83.25
252.863	77.25
253.096	68.25
253.329	70.25
253.562	83.25
253.795	91.25
254.028	74.25
254.261	87.25
254.494	84.25
254.727	73.25
254.96	89.25
255.193	83.25
255.426	99.25
255.659	83.25
255.892	85.25
256.124	79.25
256.357	82.25
256.59	78.25
256.823	86.25
257.056	81.25
257.289	77.25
257.521	74.25
257.754	72.25
257.987	67.25
258.22	81.25
258.452	80.25
258.685	82.25
258.918	74.25
259.151	80.25
259.383	77.25
259.616	90.25
259.849	81.25
260.081	85.25
260.314	80.25
260.547	78.25
260.779	73.25
261.012	83.25
261.244	85.25
261.477	92.25
261.71	101.25
261.942	108.25
262.175	118.25
262.407	86.25
262.64	88.25
262.872	77.25
263.105	89.25
263.337	97.25
263.57	87.25
263.802	80.25
264.035	88.25
264.267	85.25
264.499	84.25
264.732	86.25
264.964	92.25
265.197	71.25
265.429	87.25
265.661	82.25
265.894	83.25
266.126	85.25
266.358	80.25
266.591	98.25
266.823	94.25
267.055	90.25
267.287	93.25
267.52	88.25
267.752	92.25
267.984	86.25
268.216	88.25
268.448	98.25
268.681	92.25
268.913	80.25
269.145	97.25
269.377	97.25
269.609	81.25
269.841	82.25
270.073	72.25
270.306	81.25
270.538	76.25
270.77	83.25
271.002	82.25
271.234	85.25
271.466	83.25
271.698	87.25
271.93	89.25
272.162	81.25
272.394	92.25
272.626	92.25
272.858	69.25
273.09	81.25
273.322	86.25
273.553	73.25
273.785	74.25
274.017	88.25
274.249	76.25
274.481	88.25
274.713	77.25
274.945	89.25
275.176	97.25
275.408	78.25
275.64	92.25
275.872	76.25
276.104	71.25
276.335	91.25
276.567	88.25
276.799	89.25
277.031	102.25
277.262	88.25
277.494	82.25
277.726	96.25
277.957	84.25
278.189	80.25
278.421	74.25
278.652	72.25
278.884	74.25
279.115	81.25
279.347	80.25
279.579	80.25
279.81	72.25
280.042	95.25
280.273	84.25
280.505	101.25
280.736	86.25
280.968	90.25
281.199	84.25
281.431	93.25
281.662	93.25
281.894	89.25
282.125	92.25
282.356	125.25
282.588	143.25
282.819	101.25
283.051	89.25
283.282	88.25
283.513	80.25
283.745	90.25
283.976	87.25
284.207	102.25
284.439	94.25
284.67	87.25
284.901	84.25
285.132	96.25
285.364	84.25
285.595	80.25
285.826	87.25
286.057	85.25
286.288	98.25
286.52	87.25
286.751	93.25
286.982	87.25
287.213	93.25
287.444	92.25
287.675	93.25
287.906	107.25
288.138	96.25
288.369	87.25
288.6	95.25
288.831	86.25
289.062	84.25
289.293	94.25
289.524	94.25
289.755	80.25
289.986	80.25
290.217	74.25
290.448	108.25
290.679	96.25
290.91	101.25
291.141	101.25
291.371	93.25
291.602	84.25
291.833	84.25
292.064	91.25
292.295	93.25
292.526	69.25
292.757	82.25
292.987	88.25
293.218	90.25
293.449	99.25
293.68	91.25
293.91	79.25
294.141	101.25
294.372	82.25
294.603	105.25
294.833	96.25
295.064	93.25
295.295	93.25
295.525	84.25
295.756	93.25
295.987	101.25
296.217	133.25
296.448	111.25
296.679	117.25
296.909	94.25
297.14	86.25
297.37	91.25
297.601	86.25
297.831	96.25
298.062	87.25
298.292	92.25
298.523	95.25
298.753	97.25
298.984	82.25
299.214	92.25
299.445	92.25
299.675	78.25
299.905	89.25
300.136	93.25
300.366	99.25
300.597	84.25
300.827	102.25
301.057	91.25
301.288	81.25
301.518	91.25
301.748	90.25
301.979	100.25
302.209	87.25
302.439	90.25
302.669	95.25
302.9	85.25
303.13	90.25
303.36	103.25
303.59	95.25
303.82	92.25
304.051	82.25
304.281	90.25
304.511	94.25
304.741	96.25
304.971	86.25
305.201	106.25
305.431	93.25
305.661	94.25
305.891	91.25
306.121	96.25
306.352	107.25
306.582	97.25
306.812	112.25
307.042	105.25
307.272	109.25
307.502	85.25
307.731	96.25
307.961	80.25
308.191	86.25
308.421	87.25
308.651	100.25
308.881	103.25
309.111	90.25
309.341	94.25
309.571	105.25
309.8	110.25
310.03	108.25
310.26	98.25
310.49	100.25
310.72	80.25
310.949	97.25
311.179	97.25
311.409	84.25
311.639	95.25
311.868	103.25
312.098	95.25
312.328	93.25
312.557	102.25
312.787	103.25
313.017	99.25
313.246	102.25
313.476	86.25
313.706	95.25
313.935	104.25
314.165	95.25
314.394	103.25
314.624	100.25
314.853	97.25
315.083	94.25
315.312	103.25
315.542	90.25
315.771	95.25
316.001	103.25
316.23	77.25
316.46	84.25
316.689	95.25
316.919	73.25
317.148	100.25
317.377	84.25
317.607	83.25
317.836	93.25
318.065	82.25
318.295	89.25
318.524	93.25
318.753	84.25
318.983	89.25
319.212	109.25
319.441	112.25
319.67	105.25
319.9	103.25
320.129	91.25
320.358	92.25
320.587	90.25
320.816	105.25
321.046	111.25
321.275	96.25
321.504	99.25
321.733	96.25
321.962	87.25
322.191	102.25
322.42	108.25
322.649	114.25
322.878	113.25
323.108	114.25
323.337	126.25
323.566	138.25
323.795	163.25
324.024	191.25
324.253	373.25
324.482	768.25
324.71	1593.25
324.939	2097.25
325.168	802.25
325.397	238.25
325.626	148.25
325.855	135.25
326.084	113.25
326.313	145.25
326.542	159.25
326.77	225.25
326.999	427.25
327.228	896.25
327.457	1660.25
327.686	1318.25
327.914	353.25
328.143	185.25
328.372	134.25
328.6	119.25
328.829	124.25
329.058	105.25
329.287	114.25
329.515	112.25
329.744	108.25
329.972	101.25
330.201	109.25
330.43	105.25
330.658	102.25
330.887	124.25
331.115	118.25
331.344	100.25
331.572	110.25
331.801	94.25
332.03	104.25
332.258	84.25
332.486	90.25
332.715	94.25
332.943	103.25
333.172	103.25
333.4	97.25
333.629	117.25
333.857	114.25
334.085	95.25
334.314	104.25
334.542	101.25
334.771	130.25
334.999	103.25
335.227	100.25
335.455	102.25
335.684	93.25
335.912	98.25
336.14	100.25
336.369	97.25
336.597	88.25
336.825	101.25
337.053	96.25
337.281	108.25
337.51	92.25
337.738	94.25
337.966	92.25
338.194	102.25
338.422	99.25
338.65	92.25
338.878	95.25
339.106	103.25
339.334	96.25
339.562	90.25
339.79	78.25
340.018	86.25
340.246	97.25
340.474	101.25
340.702	82.25
340.93	102.25
341.158	101.25
341.386	90.25
341.614	96.25
341.842	89.25
342.07	99.25
342.298	96.25
342.526	106.25
342.754	88.25
342.981	84.25
343.209	90.25
343.437	98.25
343.665	85.25
343.893	97.25
344.12	89.25
344.348	82.25
344.576	87.25
344.804	81.25
345.031	89.25
345.259	103.25
345.487	100.25
345.714	96.25
345.942	94.25
346.17	96.25
346.397	88.25
346.625	101.25
346.853	84.25
347.08	93.25
347.308	101.25
347.535	103.25
347.763	108.25
347.99	115.25
348.218	102.25
348.445	100.25
348.673	88.25
348.9	84.25
349.128	108.25
349.355	98.25
349.583	90.25
349.81	85.25
350.037	107.25
350.265	102.25
350.492	94.25
350.72	88.25
350.947	107.25
351.174	98.25
351.402	100.25
351.629	103.25
351.856	97.25
352.083	111.25
352.311	102.25
352.538	98.25
352.765	101.25
352.992	115.25
353.22	116.25
353.447	109.25
353.674	101.25
353.901	101.25
354.128	105.25
354.355	100.25
354.583	105.25
354.81	114.25
355.037	92.25
355.264	100.25
355.491	96.25
355.718	96.25
355.945	95.25
356.172	87.25
356.399	95.25
356.626	87.25
356.853	104.25
357.08	101.25
357.307	98.25
357.534	83.25
357.761	103.25
357.988	88.25
358.215	93.25
358.441	96.25
358.668	87.25
358.895	106.25
359.122	85.25
359.349	71.25
359.576	93.25
359.802	89.25
360.029	106.25
360.256	108.25
360.483	105.25
360.709	84.25
360.936	83.25
361.163	96.25
361.39	94.25
361.616	96.25
361.843	78.25
362.07	92.25
362.296	92.25
362.523	81.25
362.749	85.25
362.976	84.25
363.203	98.25
363.429	86.25
363.656	89.25
363.882	78.25
364.109	96.25
364.335	93.25
364.562	94.25
364.788	78.25
365.015	85.25
365.241	97.25
365.468	102.25
365.694	98.25
365.92	96.25
366.147	90.25
366.373	94.25
366.599	81.25
366.826	90.25
367.052	77.25
367.278	89.25
367.505	107.25
367.731	92.25
367.957	106.25
368.184	85.25
368.41	92.25
368.636	110.25
368.862	114.25
369.089	96.25
369.315	89.25
369.541	96.25
369.767	84.25
369.993	81.25
370.219	103.25
370.445	109.25
370.672	85.25
370.898	89.25
371.124	97.25
371.35	96.25
371.576	81.25
371.802	95.25
372.028	74.25
372.254	82.25
372.48	95.25
372.706	90.25
372.932	92.25
373.158	98.25
373.384	94.25
373.61	92.25
373.835	100.25
374.061	97.25
374.287	96.25
374.513	82.25
374.739	87.25
374.965	88.25
375.191	88.25
375.416	97.25
375.642	91.25
375.868	89.25
376.094	94.25
376.319	85.25
376.545	86.25
376.771	113.25
376.997	83.25
377.222	105.25
377.448	107.25
377.674	100.25
377.899	103.25
378.125	100.25
378.35	83.25
378.576	85.25
378.802	96.25
379.027	90.25
379.253	84.25
379.478	95.25
379.704	100.25
379.929	89.25
380.155	88.25
380.38	100.25
380.606	90.25
380.831	107.25
381.057	107.25
381.282	95.25
381.507	92.25
381.733	76.25
381.958	79.25
382.184	101.25
382.409	105.25
382.634	82.25
382.86	101.25
383.085	98.25
383.31	110.25
383.535	95.25
383.761	89.25
383.986	103.25
384.211	92.25
384.436	101.25
384.662	95.25
384.887	111.25
385.112	109.25
385.337	89.25
385.562	96.25
385.787	107.25
386.013	87.25
386.238	114.25
386.463	100.25
386.688	111.25
386.913	96.25
387.138	107.25
387.363	94.25
387.588	80.25
387.813	97.25
388.038	102.25
388.263	117.25
388.488	99.25
388.713	98.25
388.938	86.25
389.163	97.25
389.387	100.25
389.612	89.25
389.837	87.25
390.062	98.25
390.287	90.25
390.512	97.25
390.736	86.25
390.961	92.25
391.186	97.25
391.411	97.25
391.636	89.25
391.86	91.25
392.085	89.25
392.31	98.25
392.534	97.25
392.759	81.25
392.984	87.25
393.208	100.25
393.433	93.25
393.658	97.25
393.882	73.25
394.107	81.25
394.331	97.25
394.556	99.25
394.78	97.25
395.005	95.25
395.229	95.25
395.454	92.25
395.678	89.25
395.903	100.25
396.127	92.25
396.352	84.25
396.576	83.25
396.801	85.25
397.025	90.25
397.249	102.25
397.474	92.25
397.698	86.25
397.922	102.25
398.147	87.25
398.371	97.25
398.595	94.25
398.82	104.25
399.044	83.25
399.268	88.25
399.492	93.25
399.717	98.25
399.941	93.25
400.165	85.25
400.389	78.25
400.613	81.25
400.837	100.25
401.062	85.25
401.286	87.25
401.51	95.25
401.734	96.25
401.958	88.25
402.182	124.25
402.406	136.25
402.63	108.25
402.854	88.25
403.078	93.25
403.302	81.25
403.526	91.25
403.75	78.25
403.974	77.25
404.198	78.25
404.422	93.25
404.645	93.25
404.869	97.25
405.093	80.25
405.317	95.25
405.541	100.25
405.765	102.25
405.988	128.25
406.212	159.25
406.436	201.25
406.66	129.25
406.883	100.25
407.107	100.25
407.331	105.25
407.555	106.25
407.778	99.25
408.002	93.25
408.226	93.25
408.449	84.25
408.673	94.25
408.896	88.25
409.12	97.25
409.344	104.25
409.567	97.25
409.791	102.25
410.014	99.25
410.238	94.25
410.461	106.25
410.685	95.25
410.908	74.25
411.132	106.25
411.355	94.25
411.578	105.25
411.802	92.25
412.025	91.25
412.249	89.25
412.472	94.25
412.695	100.25
412.919	94.25
413.142	93.25
413.365	98.25
413.589	83.25
413.812	93.25
414.035	90.25
414.258	98.25
414.482	78.25
414.705	85.25
414.928	84.25
415.151	86.25
415.374	97.25
415.597	94.25
415.821	103.25
416.044	89.25
416.267	80.25
416.49	80.25
416.713	86.25
416.936	83.25
417.159	88.25
417.382	104.25
417.605	99.25
417.828	95.25
418.051	86.25
418.274	86.25
418.497	85.25
418.72	90.25
418.943	76.25
419.166	93.25
419.389	100.25
419.611	90.25
419.834	88.25
420.057	87.25
420.28	92.25
420.503	109.25
420.726	98.25
420.948	92.25
421.171	91.25
421.394	94.25
421.617	80.25
421.839	90.25
422.062	96.25
422.285	98.25
422.507	77.25
422.73	105.25
422.953	98.25
423.175	78.25
423.398	92.25
423.621	92.25
423.843	96.25
424.066	82.25
424.288	101.25
424.511	76.25
424.733	102.25
424.956	102.25
425.178	102.25
425.401	102.25
425.623	98.25
425.846	92.25
426.068	81.25
426.291	94.25
426.513	93.25
426.735	88.25
426.958	98.25
427.18	117.25
427.402	142.25
427.625	162.25
427.847	126.25
428.069	110.25
428.292	99.25
428.514	92.25
428.736	82.25
428.958	90.25
429.181	96.25
429.403	85.25
429.625	88.25
429.847	93.25
430.069	101.25
430.292	90.25
430.514	91.25
430.736	92.25
430.958	95.25
431.18	80.25
431.402	83.25
431.624	92.25
431.846	89.25
432.068	78.25
432.29	88.25
432.512	79.25
432.734	76.25
432.956	94.25
433.178	113.25
433.4	103.25
433.622	78.25
433.844	83.25
434.066	95.25
434.287	87.25
434.509	102.25
434.731	89.25
434.953	100.25
435.175	73.25
435.397	102.25
435.618	80.25
435.84	105.25
436.062	125.25
436.284	127.25
436.505	98.25
436.727	101.25
436.949	88.25
437.17	83.25
437.392	85.25
437.614	100.25
437.835	106.25
438.057	119.25
438.278	98.25
438.5	88.25
438.721	126.25
438.943	110.25
439.165	86.25
439.386	98.25
439.608	98.25
439.829	100.25
440.05	105.25
440.272	143.25
440.493	92.25
440.715	89.25
440.936	83.25
441.158	93.25
441.379	85.25
441.6	80.25
441.822	85.25
442.043	109.25
442.264	108.25
442.486	84.25
442.707	90.25
442.928	102.25
443.149	130.25
443.371	128.25
443.592	99.25
443.813	90.25
444.034	106.25
444.255	105.25
444.476	90.25
444.698	73.25
444.919	71.25
445.14	129.25
445.361	122.25
445.582	109.25
445.803	137.25
446.024	121.25
446.245	120.25
446.466	106.25
446.687	89.25
446.908	100.25
447.129	97.25
447.35	105.25
447.571	86.25
447.792	96.25
448.013	107.25
448.234	100.25
448.455	100.25
448.675	111.25
448.896	110.25
449.117	109.25
449.338	105.25
449.559	125.25
449.779	127.25
450	81.25
450.221	98.25
450.442	81.25
450.662	97.25
450.883	115.25
451.104	117.25
451.324	91.25
451.545	79.25
451.766	85.25
451.986	74.25
452.207	92.25
452.428	84.25
452.648	107.25
452.869	106.25
453.089	111.25
453.31	113.25
453.53	84.25
453.751	78.25
453.971	101.25
454.192	101.25
454.412	84.25
454.633	95.25
454.853	93.25
455.073	79.25
455.294	87.25
455.514	95.25
455.734	82.25
455.955	89.25
456.175	87.25
456.395	78.25
456.616	87.25
456.836	81.25
457.056	65.25
457.276	81.25
457.497	74.25
457.717	73.25
457.937	89.25
458.157	97.25
458.377	85.25
458.598	92.25
458.818	128.25
459.038	151.25
459.258	111.25
459.478	89.25
459.698	84.25
459.918	86.25
460.138	85.25
460.358	113.25
460.578	91.25
460.798	84.25
461.018	90.25
461.238	87.25
461.458	95.25
461.678	102.25
461.898	100.25
462.118	102.25
462.338	89.25
462.558	83.25
462.777	88.25
462.997	87.25
463.217	89.25
463.437	98.25
463.657	90.25
463.876	96.25
464.096	80.25
464.316	96.25
464.536	101.25
464.755	88.25
464.975	96.25
465.195	147.25
465.414	147.25
465.634	96.25
465.854	90.25
466.073	88.25
466.293	107.25
466.512	96.25
466.732	78.25
466.951	91.25
467.171	90.25
467.391	84.25
467.61	95.25
467.829	102.25
468.049	99.25
468.268	96.25
468.488	100.25
468.707	91.25
468.927	89.25
469.146	87.25
469.365	89.25
469.585	82.25
469.804	96.25
470.023	97.25
470.243	110.25
470.462	89.25
470.681	101.25
470.901	94.25
471.12	86.25
471.339	90.25
471.558	92.25
471.777	89.25
471.997	94.25
472.216	108.25
472.435	115.25
472.654	92.25
472.873	100.25
473.092	92.25
473.311	90.25
473.53	97.25
473.749	84.25
473.968	101.25
474.187	105.25
474.406	105.25
474.625	90.25
474.844	90.25
475.063	90.25
475.282	97.25
475.501	92.25
475.72	90.25
475.939	86.25
476.158	89.25
476.377	84.25
476.596	88.25
476.814	83.25
477.033	96.25
477.252	96.25
477.471	79.25
477.69	105.25
477.908	98.25
478.127	79.25
478.346	93.25
478.564	86.25
478.783	87.25
479.002	94.25
479.22	105.25
479.439	92.25
479.658	105.25
479.876	104.25
480.095	86.25
480.313	100.25
480.532	96.25
480.751	98.25
480.969	108.25
481.188	115.25
481.406	116.25
481.624	105.25
481.843	99.25
482.061	92.25
482.28	86.25
482.498	88.25
482.717	97.25
482.935	92.25
483.153	84.25
483.372	96.25
483.59	103.25
483.808	81.25
484.027	93.25
484.245	101.25
484.463	105.25
484.681	109.25
484.9	98.25
485.118	105.25
485.336	83.25
485.554	106.25
485.772	105.25
485.99	103.25
486.209	107.25
486.427	98.25
486.645	96.25
486.863	116.25
487.081	105.25
487.299	90.25
487.517	86.25
487.735	92.25
487.953	113.25
488.171	85.25
488.389	89.25
488.607	99.25
488.825	86.25
489.043	92.25
489.261	96.25
489.479	101.25
489.696	102.25
489.914	88.25
490.132	89.25
490.35	83.25
490.568	92.25
490.786	89.25
491.003	92.25
491.221	95.25
491.439	84.25
491.657	99.25
491.874	104.25
492.092	71.25
492.31	86.25
492.527	84.25
492.745	97.25
492.963	80.25
493.18	92.25
493.398	96.25
493.615	91.25
493.833	98.25
494.05	98.25
494.268	105.25
494.485	95.25
494.703	85.25
494.92	92.25
495.138	80.25
495.355	76.25
495.573	94.25
495.79	98.25
496.008	99.25
496.225	95.25
496.442	86.25
496.66	92.25
496.877	82.25
497.094	97.25
497.312	83.25
497.529	87.25
497.746	92.25
497.963	90.25
498.181	85.25
498.398	95.25
498.615	111.25
498.832	114.25
499.049	81.25
499.267	87.25
499.484	108.25
499.701	96.25
499.918	89.25
500.135	88.25
500.352	94.25
500.569	80.25
500.786	93.25
501.003	79.25
501.22	86.25
501.437	102.25
501.654	94.25
501.871	106.25
502.088	94.25
502.305	86.25
502.522	115.25
502.739	81.25
502.956	75.25
503.172	93.25
503.389	99.25
503.606	105.25
503.823	109.25
504.04	102.25
504.256	91.25
504.473	86.25
504.69	105.25
504.907	89.25
505.123	86.25
505.34	85.25
505.557	94.25
505.773	99.25
505.99	89.25
506.207	84.25
506.423	92.25
506.64	101.25
506.856	93.25
507.073	102.25
507.289	93.25
507.506	95.25
507.722	100.25
507.939	104.25
508.155	97.25
508.372	93.25
508.588	93.25
508.805	99.25
509.021	97.25
509.238	87.25
509.454	105.25
509.67	106.25
509.887	108.25
510.103	128.25
510.319	198.25
510.536	689.25
510.752	2228.25
510.968	622.25
511.184	150.25
511.401	104.25
511.617	108.25
511.833	101.25
512.049	92.25
512.265	94.25
512.481	100.25
512.698	86.25
512.914	101.25
513.13	89.25
513.346	95.25
513.562	81.25
513.778	99.25
513.994	104.25
514.21	103.25
514.426	109.25
514.642	129.25
514.858	113.25
515.074	169.25
