Data from Uncirc_1990_H10_HRD10591_00033.txt Node
Date: Wed Jan 03 11:53:58 EST 2024
User: Yrep
Spectrometer: HR+D1059
Trigger mode: 1
Integration Time (sec): 1.000000E-1
Scans to average: 1
Electric dark correction enabled: true
Nonlinearity correction enabled: false
Boxcar width: 0
XAxis mode: Wavelengths
Number of Pixels in Spectrum: 2048
>>>>>Begin Spectral Data<<<<<
223.165	-7.25
223.4	-7.25
223.635	-7.25
223.869	-7.25
224.104	-22.25
224.338	-12.25
224.573	-21.25
224.808	-21.25
225.042	-3.25
225.277	0.75
225.511	-11.25
225.746	-16.25
225.98	13.75
226.215	16.75
226.449	19.75
226.683	21.75
226.918	15.75
227.152	33.75
227.387	26.75
227.621	29.75
227.856	44.75
228.09	52.75
228.324	57.75
228.559	45.75
228.793	54.75
229.027	58.75
229.262	65.75
229.496	81.75
229.73	82.75
229.964	83.75
230.199	82.75
230.433	76.75
230.667	73.75
230.901	69.75
231.136	88.75
231.37	68.75
231.604	86.75
231.838	82.75
232.072	75.75
232.306	74.75
232.541	69.75
232.775	73.75
233.009	78.75
233.243	68.75
233.477	77.75
233.711	82.75
233.945	74.75
234.179	74.75
234.413	77.75
234.647	78.75
234.881	85.75
235.115	74.75
235.349	90.75
235.583	79.75
235.817	89.75
236.051	79.75
236.285	84.75
236.519	69.75
236.753	76.75
236.987	65.75
237.221	83.75
237.455	78.75
237.689	80.75
237.922	79.75
238.156	72.75
238.39	87.75
238.624	75.75
238.858	69.75
239.091	74.75
239.325	72.75
239.559	87.75
239.793	75.75
240.027	77.75
240.26	64.75
240.494	62.75
240.728	70.75
240.961	79.75
241.195	76.75
241.429	70.75
241.662	77.75
241.896	62.75
242.13	75.75
242.363	77.75
242.597	91.75
242.83	74.75
243.064	82.75
243.298	72.75
243.531	78.75
243.765	82.75
243.998	78.75
244.232	78.75
244.465	86.75
244.699	81.75
244.932	69.75
245.166	76.75
245.399	72.75
245.633	83.75
245.866	75.75
246.099	77.75
246.333	75.75
246.566	77.75
246.8	79.75
247.033	83.75
247.266	76.75
247.5	78.75
247.733	78.75
247.966	97.75
248.2	77.75
248.433	79.75
248.666	86.75
248.899	76.75
249.133	78.75
249.366	110.75
249.599	79.75
249.832	72.75
250.066	74.75
250.299	68.75
250.532	89.75
250.765	101.75
250.998	84.75
251.231	76.75
251.465	69.75
251.698	67.75
251.931	70.75
252.164	79.75
252.397	75.75
252.63	73.75
252.863	68.75
253.096	84.75
253.329	68.75
253.562	80.75
253.795	76.75
254.028	77.75
254.261	78.75
254.494	72.75
254.727	78.75
254.96	78.75
255.193	77.75
255.426	81.75
255.659	78.75
255.892	83.75
256.124	81.75
256.357	81.75
256.59	90.75
256.823	69.75
257.056	72.75
257.289	82.75
257.521	71.75
257.754	85.75
257.987	67.75
258.22	88.75
258.452	78.75
258.685	81.75
258.918	69.75
259.151	70.75
259.383	88.75
259.616	88.75
259.849	85.75
260.081	75.75
260.314	69.75
260.547	79.75
260.779	84.75
261.012	76.75
261.244	72.75
261.477	89.75
261.71	83.75
261.942	114.75
262.175	107.75
262.407	73.75
262.64	83.75
262.872	80.75
263.105	78.75
263.337	92.75
263.57	66.75
263.802	78.75
264.035	83.75
264.267	82.75
264.499	81.75
264.732	76.75
264.964	80.75
265.197	88.75
265.429	86.75
265.661	74.75
265.894	79.75
266.126	92.75
266.358	86.75
266.591	79.75
266.823	72.75
267.055	91.75
267.287	93.75
267.52	73.75
267.752	93.75
267.984	90.75
268.216	93.75
268.448	77.75
268.681	98.75
268.913	88.75
269.145	79.75
269.377	92.75
269.609	75.75
269.841	81.75
270.073	82.75
270.306	80.75
270.538	101.75
270.77	89.75
271.002	89.75
271.234	85.75
271.466	72.75
271.698	92.75
271.93	79.75
272.162	65.75
272.394	77.75
272.626	88.75
272.858	68.75
273.09	82.75
273.322	88.75
273.553	89.75
273.785	76.75
274.017	66.75
274.249	82.75
274.481	82.75
274.713	99.75
274.945	76.75
275.176	80.75
275.408	82.75
275.64	88.75
275.872	87.75
276.104	77.75
276.335	74.75
276.567	86.75
276.799	82.75
277.031	109.75
277.262	80.75
277.494	85.75
277.726	83.75
277.957	80.75
278.189	79.75
278.421	94.75
278.652	93.75
278.884	82.75
279.115	67.75
279.347	86.75
279.579	79.75
279.81	76.75
280.042	80.75
280.273	80.75
280.505	83.75
280.736	84.75
280.968	88.75
281.199	87.75
281.431	87.75
281.662	92.75
281.894	76.75
282.125	83.75
282.356	109.75
282.588	127.75
282.819	102.75
283.051	86.75
283.282	92.75
283.513	93.75
283.745	75.75
283.976	79.75
284.207	84.75
284.439	86.75
284.67	72.75
284.901	88.75
285.132	81.75
285.364	76.75
285.595	82.75
285.826	62.75
286.057	96.75
286.288	80.75
286.52	69.75
286.751	82.75
286.982	78.75
287.213	81.75
287.444	94.75
287.675	78.75
287.906	90.75
288.138	84.75
288.369	77.75
288.6	90.75
288.831	86.75
289.062	90.75
289.293	80.75
289.524	79.75
289.755	90.75
289.986	74.75
290.217	78.75
290.448	71.75
290.679	94.75
290.91	89.75
291.141	90.75
291.371	83.75
291.602	62.75
291.833	76.75
292.064	82.75
292.295	98.75
292.526	87.75
292.757	84.75
292.987	88.75
293.218	83.75
293.449	70.75
293.68	90.75
293.91	82.75
294.141	62.75
294.372	78.75
294.603	89.75
294.833	89.75
295.064	91.75
295.295	96.75
295.525	81.75
295.756	97.75
295.987	107.75
296.217	120.75
296.448	121.75
296.679	97.75
296.909	84.75
297.14	84.75
297.37	93.75
297.601	86.75
297.831	80.75
298.062	77.75
298.292	72.75
298.523	92.75
298.753	88.75
298.984	86.75
299.214	75.75
299.445	77.75
299.675	92.75
299.905	85.75
300.136	84.75
300.366	90.75
300.597	77.75
300.827	76.75
301.057	88.75
301.288	92.75
301.518	90.75
301.748	79.75
301.979	93.75
302.209	85.75
302.439	96.75
302.669	84.75
302.9	87.75
303.13	99.75
303.36	95.75
303.59	109.75
303.82	93.75
304.051	87.75
304.281	99.75
304.511	88.75
304.741	85.75
304.971	92.75
305.201	90.75
305.431	93.75
305.661	75.75
305.891	84.75
306.121	84.75
306.352	101.75
306.582	98.75
306.812	86.75
307.042	88.75
307.272	90.75
307.502	80.75
307.731	107.75
307.961	77.75
308.191	81.75
308.421	90.75
308.651	79.75
308.881	86.75
309.111	113.75
309.341	92.75
309.571	89.75
309.8	95.75
310.03	89.75
310.26	87.75
310.49	86.75
310.72	106.75
310.949	105.75
311.179	99.75
311.409	77.75
311.639	101.75
311.868	90.75
312.098	76.75
312.328	96.75
312.557	98.75
312.787	93.75
313.017	86.75
313.246	111.75
313.476	87.75
313.706	80.75
313.935	105.75
314.165	96.75
314.394	81.75
314.624	99.75
314.853	81.75
315.083	102.75
315.312	90.75
315.542	82.75
315.771	96.75
316.001	89.75
316.23	80.75
316.46	76.75
316.689	81.75
316.919	95.75
317.148	87.75
317.377	93.75
317.607	93.75
317.836	90.75
318.065	86.75
318.295	92.75
318.524	87.75
318.753	89.75
318.983	91.75
319.212	89.75
319.441	101.75
319.67	122.75
319.9	86.75
320.129	100.75
320.358	80.75
320.587	89.75
320.816	92.75
321.046	93.75
321.275	80.75
321.504	89.75
321.733	91.75
321.962	79.75
322.191	92.75
322.42	109.75
322.649	114.75
322.878	111.75
323.108	124.75
323.337	118.75
323.566	107.75
323.795	152.75
324.024	203.75
324.253	336.75
324.482	707.75
324.71	1460.75
324.939	2011.75
325.168	723.75
325.397	229.75
325.626	131.75
325.855	130.75
326.084	112.75
326.313	101.75
326.542	153.75
326.77	211.75
326.999	420.75
327.228	830.75
327.457	1535.75
327.686	1204.75
327.914	314.75
328.143	191.75
328.372	132.75
328.6	120.75
328.829	105.75
329.058	121.75
329.287	113.75
329.515	111.75
329.744	95.75
329.972	101.75
330.201	96.75
330.43	90.75
330.658	107.75
330.887	112.75
331.115	117.75
331.344	100.75
331.572	99.75
331.801	79.75
332.03	104.75
332.258	81.75
332.486	83.75
332.715	92.75
332.943	83.75
333.172	99.75
333.4	93.75
333.629	94.75
333.857	110.75
334.085	86.75
334.314	82.75
334.542	94.75
334.771	92.75
334.999	98.75
335.227	95.75
335.455	95.75
335.684	93.75
335.912	99.75
336.14	88.75
336.369	104.75
336.597	94.75
336.825	88.75
337.053	93.75
337.281	86.75
337.51	73.75
337.738	98.75
337.966	96.75
338.194	103.75
338.422	88.75
338.65	96.75
338.878	90.75
339.106	91.75
339.334	93.75
339.562	93.75
339.79	81.75
340.018	89.75
340.246	80.75
340.474	81.75
340.702	75.75
340.93	99.75
341.158	99.75
341.386	102.75
341.614	84.75
341.842	96.75
342.07	81.75
342.298	85.75
342.526	92.75
342.754	89.75
342.981	82.75
343.209	69.75
343.437	108.75
343.665	82.75
343.893	90.75
344.12	89.75
344.348	84.75
344.576	88.75
344.804	85.75
345.031	95.75
345.259	99.75
345.487	90.75
345.714	78.75
345.942	85.75
346.17	94.75
346.397	76.75
346.625	95.75
346.853	81.75
347.08	91.75
347.308	94.75
347.535	92.75
347.763	99.75
347.99	93.75
348.218	115.75
348.445	98.75
348.673	106.75
348.9	93.75
349.128	110.75
349.355	76.75
349.583	83.75
349.81	88.75
350.037	88.75
350.265	90.75
350.492	93.75
350.72	96.75
350.947	91.75
351.174	106.75
351.402	98.75
351.629	87.75
351.856	88.75
352.083	97.75
352.311	107.75
352.538	90.75
352.765	107.75
352.992	97.75
353.22	110.75
353.447	106.75
353.674	102.75
353.901	99.75
354.128	90.75
354.355	92.75
354.583	95.75
354.81	86.75
355.037	100.75
355.264	81.75
355.491	80.75
355.718	104.75
355.945	104.75
356.172	91.75
356.399	92.75
356.626	80.75
356.853	90.75
357.08	85.75
357.307	90.75
357.534	96.75
357.761	80.75
357.988	91.75
358.215	87.75
358.441	88.75
358.668	81.75
358.895	85.75
359.122	80.75
359.349	84.75
359.576	92.75
359.802	93.75
360.029	88.75
360.256	92.75
360.483	95.75
360.709	81.75
360.936	75.75
361.163	82.75
361.39	93.75
361.616	82.75
361.843	90.75
362.07	88.75
362.296	90.75
362.523	96.75
362.749	88.75
362.976	83.75
363.203	91.75
363.429	74.75
363.656	76.75
363.882	83.75
364.109	67.75
364.335	72.75
364.562	82.75
364.788	89.75
365.015	92.75
365.241	94.75
365.468	106.75
365.694	95.75
365.92	91.75
366.147	108.75
366.373	86.75
366.599	84.75
366.826	90.75
367.052	94.75
367.278	93.75
367.505	93.75
367.731	86.75
367.957	88.75
368.184	94.75
368.41	95.75
368.636	101.75
368.862	105.75
369.089	92.75
369.315	78.75
369.541	98.75
369.767	79.75
369.993	82.75
370.219	91.75
370.445	79.75
370.672	84.75
370.898	93.75
371.124	83.75
371.35	83.75
371.576	89.75
371.802	76.75
372.028	84.75
372.254	88.75
372.48	99.75
372.706	92.75
372.932	77.75
373.158	84.75
373.384	93.75
373.61	90.75
373.835	85.75
374.061	88.75
374.287	83.75
374.513	90.75
374.739	85.75
374.965	76.75
375.191	82.75
375.416	88.75
375.642	82.75
375.868	88.75
376.094	95.75
376.319	92.75
376.545	92.75
376.771	98.75
376.997	93.75
377.222	84.75
377.448	83.75
377.674	98.75
377.899	82.75
378.125	88.75
378.35	101.75
378.576	85.75
378.802	74.75
379.027	84.75
379.253	76.75
379.478	94.75
379.704	87.75
379.929	97.75
380.155	87.75
380.38	96.75
380.606	74.75
380.831	86.75
381.057	94.75
381.282	97.75
381.507	92.75
381.733	93.75
381.958	97.75
382.184	84.75
382.409	94.75
382.634	85.75
382.86	89.75
383.085	104.75
383.31	93.75
383.535	108.75
383.761	92.75
383.986	79.75
384.211	99.75
384.436	93.75
384.662	94.75
384.887	88.75
385.112	87.75
385.337	84.75
385.562	93.75
385.787	100.75
386.013	108.75
386.238	104.75
386.463	102.75
386.688	109.75
386.913	94.75
387.138	85.75
387.363	96.75
387.588	89.75
387.813	92.75
388.038	97.75
388.263	94.75
388.488	102.75
388.713	84.75
388.938	92.75
389.163	78.75
389.387	86.75
389.612	89.75
389.837	90.75
390.062	95.75
390.287	96.75
390.512	72.75
390.736	82.75
390.961	93.75
391.186	89.75
391.411	105.75
391.636	91.75
391.86	86.75
392.085	92.75
392.31	76.75
392.534	81.75
392.759	75.75
392.984	85.75
393.208	85.75
393.433	80.75
393.658	89.75
393.882	80.75
394.107	85.75
394.331	79.75
394.556	72.75
394.78	98.75
395.005	94.75
395.229	78.75
395.454	92.75
395.678	73.75
395.903	85.75
396.127	89.75
396.352	100.75
396.576	76.75
396.801	81.75
397.025	91.75
397.249	92.75
397.474	99.75
397.698	76.75
397.922	77.75
398.147	76.75
398.371	85.75
398.595	81.75
398.82	93.75
399.044	81.75
399.268	87.75
399.492	84.75
399.717	98.75
399.941	79.75
400.165	96.75
400.389	84.75
400.613	82.75
400.837	88.75
401.062	94.75
401.286	83.75
401.51	77.75
401.734	92.75
401.958	82.75
402.182	118.75
402.406	122.75
402.63	92.75
402.854	93.75
403.078	82.75
403.302	69.75
403.526	76.75
403.75	98.75
403.974	98.75
404.198	72.75
404.422	80.75
404.645	83.75
404.869	88.75
405.093	86.75
405.317	82.75
405.541	113.75
405.765	92.75
405.988	86.75
406.212	138.75
406.436	197.75
406.66	112.75
406.883	81.75
407.107	93.75
407.331	94.75
407.555	85.75
407.778	88.75
408.002	82.75
408.226	86.75
408.449	85.75
408.673	84.75
408.896	82.75
409.12	98.75
409.344	93.75
409.567	84.75
409.791	82.75
410.014	90.75
410.238	108.75
410.461	93.75
410.685	90.75
410.908	86.75
411.132	106.75
411.355	84.75
411.578	85.75
411.802	82.75
412.025	85.75
412.249	93.75
412.472	94.75
412.695	76.75
412.919	87.75
413.142	96.75
413.365	88.75
413.589	75.75
413.812	92.75
414.035	100.75
414.258	77.75
414.482	83.75
414.705	69.75
414.928	87.75
415.151	88.75
415.374	91.75
415.597	93.75
415.821	87.75
416.044	100.75
416.267	82.75
416.49	93.75
416.713	92.75
416.936	89.75
417.159	88.75
417.382	78.75
417.605	92.75
417.828	100.75
418.051	87.75
418.274	86.75
418.497	85.75
418.72	83.75
418.943	95.75
419.166	97.75
419.389	82.75
419.611	78.75
419.834	85.75
420.057	78.75
420.28	89.75
420.503	74.75
420.726	84.75
420.948	79.75
421.171	97.75
421.394	88.75
421.617	92.75
421.839	85.75
422.062	80.75
422.285	100.75
422.507	90.75
422.73	113.75
422.953	85.75
423.175	73.75
423.398	85.75
423.621	75.75
423.843	82.75
424.066	80.75
424.288	82.75
424.511	95.75
424.733	96.75
424.956	103.75
425.178	85.75
425.401	79.75
425.623	90.75
425.846	81.75
426.068	81.75
426.291	97.75
426.513	80.75
426.735	94.75
426.958	96.75
427.18	88.75
427.402	114.75
427.625	129.75
427.847	119.75
428.069	100.75
428.292	73.75
428.514	96.75
428.736	80.75
428.958	74.75
429.181	89.75
429.403	89.75
429.625	81.75
429.847	86.75
430.069	87.75
430.292	92.75
430.514	89.75
430.736	91.75
430.958	88.75
431.18	88.75
431.402	73.75
431.624	63.75
431.846	76.75
432.068	81.75
432.29	88.75
432.512	101.75
432.734	97.75
432.956	81.75
433.178	90.75
433.4	99.75
433.622	88.75
433.844	78.75
434.066	84.75
434.287	82.75
434.509	104.75
434.731	102.75
434.953	91.75
435.175	86.75
435.397	95.75
435.618	88.75
435.84	97.75
436.062	107.75
436.284	97.75
436.505	99.75
436.727	96.75
436.949	92.75
437.17	95.75
437.392	76.75
437.614	74.75
437.835	103.75
438.057	115.75
438.278	108.75
438.5	100.75
438.721	94.75
438.943	105.75
439.165	90.75
439.386	93.75
439.608	100.75
439.829	98.75
440.05	107.75
440.272	123.75
440.493	78.75
440.715	92.75
440.936	99.75
441.158	91.75
441.379	89.75
441.6	80.75
441.822	97.75
442.043	85.75
442.264	96.75
442.486	95.75
442.707	90.75
442.928	100.75
443.149	118.75
443.371	130.75
443.592	100.75
443.813	99.75
444.034	87.75
444.255	91.75
444.476	75.75
444.698	83.75
444.919	85.75
445.14	119.75
445.361	121.75
445.582	111.75
445.803	116.75
446.024	127.75
446.245	123.75
446.466	89.75
446.687	80.75
446.908	96.75
447.129	89.75
447.35	80.75
447.571	95.75
447.792	92.75
448.013	84.75
448.234	105.75
448.455	101.75
448.675	106.75
448.896	103.75
449.117	88.75
449.338	106.75
449.559	127.75
449.779	126.75
450	96.75
450.221	84.75
450.442	92.75
450.662	88.75
450.883	92.75
451.104	97.75
451.324	102.75
451.545	85.75
451.766	83.75
451.986	87.75
452.207	88.75
452.428	97.75
452.648	102.75
452.869	92.75
453.089	116.75
453.31	109.75
453.53	91.75
453.751	91.75
453.971	95.75
454.192	106.75
454.412	89.75
454.633	107.75
454.853	85.75
455.073	79.75
455.294	97.75
455.514	92.75
455.734	92.75
455.955	76.75
456.175	89.75
456.395	82.75
456.616	93.75
456.836	77.75
457.056	74.75
457.276	84.75
457.497	102.75
457.717	70.75
457.937	76.75
458.157	94.75
458.377	84.75
458.598	81.75
458.818	108.75
459.038	141.75
459.258	110.75
459.478	79.75
459.698	90.75
459.918	83.75
460.138	91.75
460.358	95.75
460.578	81.75
460.798	89.75
461.018	96.75
461.238	82.75
461.458	82.75
461.678	77.75
461.898	87.75
462.118	84.75
462.338	92.75
462.558	71.75
462.777	78.75
462.997	76.75
463.217	60.75
463.437	69.75
463.657	85.75
463.876	80.75
464.096	95.75
464.316	92.75
464.536	83.75
464.755	94.75
464.975	98.75
465.195	141.75
465.414	120.75
465.634	72.75
465.854	77.75
466.073	96.75
466.293	88.75
466.512	81.75
466.732	82.75
466.951	95.75
467.171	74.75
467.391	98.75
467.61	100.75
467.829	85.75
468.049	88.75
468.268	79.75
468.488	76.75
468.707	72.75
468.927	83.75
469.146	91.75
469.365	72.75
469.585	82.75
469.804	97.75
470.023	89.75
470.243	83.75
470.462	96.75
470.681	103.75
470.901	92.75
471.12	90.75
471.339	84.75
471.558	94.75
471.777	101.75
471.997	93.75
472.216	98.75
472.435	101.75
472.654	90.75
472.873	95.75
473.092	92.75
473.311	83.75
473.53	89.75
473.749	82.75
473.968	85.75
474.187	103.75
474.406	89.75
474.625	76.75
474.844	89.75
475.063	77.75
475.282	85.75
475.501	81.75
475.72	88.75
475.939	68.75
476.158	94.75
476.377	89.75
476.596	81.75
476.814	100.75
477.033	92.75
477.252	91.75
477.471	86.75
477.69	87.75
477.908	82.75
478.127	92.75
478.346	89.75
478.564	102.75
478.783	84.75
479.002	85.75
479.22	88.75
479.439	84.75
479.658	88.75
479.876	86.75
480.095	93.75
480.313	86.75
480.532	79.75
480.751	90.75
480.969	77.75
481.188	94.75
481.406	85.75
481.624	86.75
481.843	75.75
482.061	87.75
482.28	90.75
482.498	97.75
482.717	76.75
482.935	90.75
483.153	81.75
483.372	87.75
483.59	82.75
483.808	98.75
484.027	85.75
484.245	91.75
484.463	88.75
484.681	94.75
484.9	98.75
485.118	81.75
485.336	94.75
485.554	84.75
485.772	96.75
485.99	88.75
486.209	98.75
486.427	93.75
486.645	86.75
486.863	108.75
487.081	112.75
487.299	94.75
487.517	92.75
487.735	90.75
487.953	94.75
488.171	97.75
488.389	96.75
488.607	102.75
488.825	95.75
489.043	79.75
489.261	68.75
489.479	86.75
489.696	76.75
489.914	77.75
490.132	83.75
490.35	89.75
490.568	72.75
490.786	86.75
491.003	92.75
491.221	76.75
491.439	92.75
491.657	82.75
491.874	97.75
492.092	93.75
492.31	89.75
492.527	80.75
492.745	95.75
492.963	93.75
493.18	86.75
493.398	88.75
493.615	96.75
493.833	76.75
494.05	100.75
494.268	79.75
494.485	87.75
494.703	89.75
494.92	98.75
495.138	85.75
495.355	89.75
495.573	91.75
495.79	83.75
496.008	93.75
496.225	96.75
496.442	73.75
496.66	92.75
496.877	83.75
497.094	85.75
497.312	81.75
497.529	81.75
497.746	85.75
497.963	88.75
498.181	91.75
498.398	92.75
498.615	111.75
498.832	99.75
499.049	85.75
499.267	92.75
499.484	99.75
499.701	90.75
499.918	85.75
500.135	84.75
500.352	77.75
500.569	101.75
500.786	90.75
501.003	74.75
501.22	80.75
501.437	91.75
501.654	92.75
501.871	109.75
502.088	83.75
502.305	96.75
502.522	77.75
502.739	87.75
502.956	92.75
503.172	101.75
503.389	108.75
503.606	91.75
503.823	101.75
504.04	86.75
504.256	82.75
504.473	91.75
504.69	95.75
504.907	93.75
505.123	95.75
505.34	84.75
505.557	88.75
505.773	94.75
505.99	91.75
506.207	89.75
506.423	92.75
506.64	93.75
506.856	85.75
507.073	88.75
507.289	86.75
507.506	111.75
507.722	104.75
507.939	107.75
508.155	104.75
508.372	83.75
508.588	89.75
508.805	82.75
509.021	76.75
509.238	91.75
509.454	85.75
509.67	96.75
509.887	112.75
510.103	120.75
510.319	197.75
510.536	664.75
510.752	2078.75
510.968	586.75
511.184	150.75
511.401	114.75
511.617	90.75
511.833	97.75
512.049	87.75
512.265	84.75
512.481	99.75
512.698	85.75
512.914	74.75
513.13	84.75
513.346	85.75
513.562	93.75
513.778	93.75
513.994	82.75
514.21	94.75
514.426	110.75
514.642	115.75
514.858	111.75
515.074	150.75
515.29	363.75
515.506	1232.75
515.721	443.75
515.937	133.75
516.153	99.75
516.369	102.75
516.585	105.75
516.801	92.75
517.016	80.75
517.232	88.75
