Data from Uncirc_1990_H10_HRD10591_00086.txt Node
Date: Wed Jan 03 11:54:08 EST 2024
User: Yrep
Spectrometer: HR+D1059
Trigger mode: 1
Integration Time (sec): 1.000000E-1
Scans to average: 1
Electric dark correction enabled: true
Nonlinearity correction enabled: false
Boxcar width: 0
XAxis mode: Wavelengths
Number of Pixels in Spectrum: 2048
>>>>>Begin Spectral Data<<<<<
223.165	-9.31
223.4	-9.31
223.635	-9.31
223.869	-16.31
224.104	-32.31
224.338	-24.31
224.573	2.69
224.808	-19.31
225.042	-6.31
225.277	2.69
225.511	-7.31
225.746	-2.31
225.98	2.69
226.215	15.69
226.449	13.69
226.683	21.69
226.918	29.69
227.152	28.69
227.387	37.69
227.621	42.69
227.856	40.69
228.09	45.69
228.324	48.69
228.559	43.69
228.793	53.69
229.027	51.69
229.262	61.69
229.496	70.69
229.73	77.69
229.964	57.69
230.199	63.69
230.433	72.69
230.667	67.69
230.901	69.69
231.136	75.69
231.37	78.69
231.604	85.69
231.838	76.69
232.072	80.69
232.306	94.69
232.541	71.69
232.775	78.69
233.009	90.69
233.243	87.69
233.477	77.69
233.711	69.69
233.945	70.69
234.179	78.69
234.413	72.69
234.647	65.69
234.881	59.69
235.115	86.69
235.349	80.69
235.583	75.69
235.817	66.69
236.051	77.69
236.285	67.69
236.519	79.69
236.753	71.69
236.987	68.69
237.221	85.69
237.455	74.69
237.689	85.69
237.922	60.69
238.156	71.69
238.39	69.69
238.624	66.69
238.858	63.69
239.091	43.69
239.325	72.69
239.559	79.69
239.793	86.69
240.027	84.69
240.26	81.69
240.494	62.69
240.728	73.69
240.961	62.69
241.195	67.69
241.429	74.69
241.662	86.69
241.896	74.69
242.13	69.69
242.363	66.69
242.597	72.69
242.83	69.69
243.064	72.69
243.298	70.69
243.531	87.69
243.765	78.69
243.998	78.69
244.232	63.69
244.465	90.69
244.699	77.69
244.932	76.69
245.166	79.69
245.399	80.69
245.633	74.69
245.866	73.69
246.099	69.69
246.333	59.69
246.566	70.69
246.8	60.69
247.033	63.69
247.266	70.69
247.5	70.69
247.733	69.69
247.966	82.69
248.2	80.69
248.433	74.69
248.666	61.69
248.899	77.69
249.133	84.69
249.366	81.69
249.599	94.69
249.832	87.69
250.066	76.69
250.299	64.69
250.532	78.69
250.765	81.69
250.998	67.69
251.231	63.69
251.465	73.69
251.698	86.69
251.931	68.69
252.164	75.69
252.397	70.69
252.63	79.69
252.863	78.69
253.096	70.69
253.329	65.69
253.562	72.69
253.795	80.69
254.028	73.69
254.261	74.69
254.494	90.69
254.727	78.69
254.96	94.69
255.193	79.69
255.426	70.69
255.659	75.69
255.892	81.69
256.124	78.69
256.357	80.69
256.59	72.69
256.823	77.69
257.056	88.69
257.289	86.69
257.521	76.69
257.754	73.69
257.987	85.69
258.22	73.69
258.452	80.69
258.685	58.69
258.918	76.69
259.151	83.69
259.383	67.69
259.616	88.69
259.849	69.69
260.081	73.69
260.314	76.69
260.547	77.69
260.779	86.69
261.012	77.69
261.244	85.69
261.477	85.69
261.71	81.69
261.942	96.69
262.175	101.69
262.407	75.69
262.64	75.69
262.872	76.69
263.105	73.69
263.337	65.69
263.57	53.69
263.802	77.69
264.035	77.69
264.267	82.69
264.499	79.69
264.732	73.69
264.964	74.69
265.197	79.69
265.429	79.69
265.661	83.69
265.894	91.69
266.126	78.69
266.358	95.69
266.591	74.69
266.823	75.69
267.055	67.69
267.287	71.69
267.52	74.69
267.752	75.69
267.984	83.69
268.216	70.69
268.448	81.69
268.681	95.69
268.913	78.69
269.145	87.69
269.377	77.69
269.609	57.69
269.841	75.69
270.073	64.69
270.306	84.69
270.538	84.69
270.77	86.69
271.002	82.69
271.234	85.69
271.466	79.69
271.698	82.69
271.93	86.69
272.162	80.69
272.394	87.69
272.626	69.69
272.858	86.69
273.09	85.69
273.322	86.69
273.553	69.69
273.785	65.69
274.017	96.69
274.249	77.69
274.481	89.69
274.713	88.69
274.945	100.69
275.176	81.69
275.408	78.69
275.64	83.69
275.872	91.69
276.104	90.69
276.335	94.69
276.567	101.69
276.799	87.69
277.031	85.69
277.262	73.69
277.494	75.69
277.726	85.69
277.957	82.69
278.189	91.69
278.421	84.69
278.652	77.69
278.884	91.69
279.115	91.69
279.347	75.69
279.579	97.69
279.81	81.69
280.042	75.69
280.273	72.69
280.505	76.69
280.736	85.69
280.968	79.69
281.199	75.69
281.431	81.69
281.662	78.69
281.894	95.69
282.125	99.69
282.356	109.69
282.588	114.69
282.819	104.69
283.051	85.69
283.282	77.69
283.513	77.69
283.745	84.69
283.976	85.69
284.207	76.69
284.439	89.69
284.67	86.69
284.901	84.69
285.132	74.69
285.364	83.69
285.595	73.69
285.826	69.69
286.057	78.69
286.288	73.69
286.52	69.69
286.751	85.69
286.982	86.69
287.213	86.69
287.444	78.69
287.675	80.69
287.906	74.69
288.138	90.69
288.369	89.69
288.6	78.69
288.831	82.69
289.062	85.69
289.293	87.69
289.524	84.69
289.755	80.69
289.986	66.69
290.217	72.69
290.448	64.69
290.679	89.69
290.91	82.69
291.141	77.69
291.371	77.69
291.602	92.69
291.833	69.69
292.064	81.69
292.295	85.69
292.526	83.69
292.757	82.69
292.987	82.69
293.218	92.69
293.449	75.69
293.68	88.69
293.91	78.69
294.141	90.69
294.372	103.69
294.603	86.69
294.833	85.69
295.064	88.69
295.295	79.69
295.525	80.69
295.756	99.69
295.987	87.69
296.217	114.69
296.448	116.69
296.679	94.69
296.909	78.69
297.14	62.69
297.37	84.69
297.601	81.69
297.831	86.69
298.062	103.69
298.292	80.69
298.523	78.69
298.753	76.69
298.984	91.69
299.214	80.69
299.445	87.69
299.675	87.69
299.905	92.69
300.136	89.69
300.366	75.69
300.597	94.69
300.827	94.69
301.057	92.69
301.288	103.69
301.518	94.69
301.748	86.69
301.979	95.69
302.209	89.69
302.439	77.69
302.669	85.69
302.9	80.69
303.13	94.69
303.36	93.69
303.59	90.69
303.82	109.69
304.051	87.69
304.281	96.69
304.511	84.69
304.741	94.69
304.971	85.69
305.201	95.69
305.431	96.69
305.661	77.69
305.891	87.69
306.121	90.69
306.352	76.69
306.582	90.69
306.812	88.69
307.042	97.69
307.272	102.69
307.502	97.69
307.731	82.69
307.961	93.69
308.191	71.69
308.421	72.69
308.651	93.69
308.881	94.69
309.111	87.69
309.341	86.69
309.571	70.69
309.8	79.69
310.03	98.69
310.26	89.69
310.49	87.69
310.72	105.69
310.949	81.69
311.179	97.69
311.409	83.69
311.639	97.69
311.868	89.69
312.098	95.69
312.328	95.69
312.557	93.69
312.787	98.69
313.017	91.69
313.246	81.69
313.476	80.69
313.706	77.69
313.935	87.69
314.165	92.69
314.394	75.69
314.624	101.69
314.853	103.69
315.083	87.69
315.312	80.69
315.542	87.69
315.771	87.69
316.001	77.69
316.23	80.69
316.46	84.69
316.689	80.69
316.919	94.69
317.148	95.69
317.377	90.69
317.607	95.69
317.836	86.69
318.065	80.69
318.295	88.69
318.524	81.69
318.753	96.69
318.983	86.69
319.212	78.69
319.441	95.69
319.67	110.69
319.9	75.69
320.129	99.69
320.358	102.69
320.587	81.69
320.816	86.69
321.046	104.69
321.275	77.69
321.504	94.69
321.733	86.69
321.962	94.69
322.191	92.69
322.42	95.69
322.649	101.69
322.878	107.69
323.108	109.69
323.337	108.69
323.566	113.69
323.795	147.69
324.024	192.69
324.253	361.69
324.482	756.69
324.71	1530.69
324.939	2024.69
325.168	753.69
325.397	229.69
325.626	127.69
325.855	115.69
326.084	118.69
326.313	109.69
326.542	130.69
326.77	204.69
326.999	411.69
327.228	847.69
327.457	1557.69
327.686	1274.69
327.914	346.69
328.143	180.69
328.372	124.69
328.6	111.69
328.829	119.69
329.058	105.69
329.287	118.69
329.515	110.69
329.744	99.69
329.972	95.69
330.201	119.69
330.43	122.69
330.658	96.69
330.887	119.69
331.115	125.69
331.344	82.69
331.572	81.69
331.801	90.69
332.03	92.69
332.258	95.69
332.486	88.69
332.715	85.69
332.943	83.69
333.172	89.69
333.4	87.69
333.629	96.69
333.857	104.69
334.085	87.69
334.314	99.69
334.542	112.69
334.771	102.69
334.999	98.69
335.227	86.69
335.455	75.69
335.684	98.69
335.912	99.69
336.14	86.69
336.369	90.69
336.597	92.69
336.825	87.69
337.053	81.69
337.281	76.69
337.51	74.69
337.738	95.69
337.966	77.69
338.194	86.69
338.422	94.69
338.65	81.69
338.878	87.69
339.106	96.69
339.334	90.69
339.562	91.69
339.79	87.69
340.018	94.69
340.246	93.69
340.474	95.69
340.702	81.69
340.93	98.69
341.158	82.69
341.386	89.69
341.614	87.69
341.842	82.69
342.07	88.69
342.298	94.69
342.526	79.69
342.754	84.69
342.981	84.69
343.209	86.69
343.437	113.69
343.665	75.69
343.893	80.69
344.12	83.69
344.348	74.69
344.576	91.69
344.804	86.69
345.031	96.69
345.259	90.69
345.487	87.69
345.714	87.69
345.942	82.69
346.17	92.69
346.397	82.69
346.625	87.69
346.853	92.69
347.08	93.69
347.308	100.69
347.535	86.69
347.763	101.69
347.99	87.69
348.218	85.69
348.445	101.69
348.673	102.69
348.9	93.69
349.128	87.69
349.355	87.69
349.583	95.69
349.81	87.69
350.037	88.69
350.265	86.69
350.492	93.69
350.72	104.69
350.947	92.69
351.174	110.69
351.402	94.69
351.629	98.69
351.856	91.69
352.083	85.69
352.311	119.69
352.538	98.69
352.765	98.69
352.992	113.69
353.22	110.69
353.447	99.69
353.674	85.69
353.901	103.69
354.128	97.69
354.355	86.69
354.583	88.69
354.81	94.69
355.037	92.69
355.264	75.69
355.491	98.69
355.718	89.69
355.945	88.69
356.172	85.69
356.399	87.69
356.626	81.69
356.853	84.69
357.08	84.69
357.307	91.69
357.534	90.69
357.761	95.69
357.988	82.69
358.215	84.69
358.441	101.69
358.668	87.69
358.895	81.69
359.122	91.69
359.349	77.69
359.576	88.69
359.802	93.69
360.029	104.69
360.256	96.69
360.483	83.69
360.709	89.69
360.936	88.69
361.163	76.69
361.39	79.69
361.616	81.69
361.843	83.69
362.07	85.69
362.296	93.69
362.523	74.69
362.749	85.69
362.976	83.69
363.203	97.69
363.429	88.69
363.656	76.69
363.882	83.69
364.109	92.69
364.335	108.69
364.562	85.69
364.788	90.69
365.015	77.69
365.241	86.69
365.468	87.69
365.694	101.69
365.92	102.69
366.147	106.69
366.373	87.69
366.599	84.69
366.826	80.69
367.052	84.69
367.278	73.69
367.505	89.69
367.731	79.69
367.957	95.69
368.184	77.69
368.41	91.69
368.636	96.69
368.862	116.69
369.089	101.69
369.315	82.69
369.541	80.69
369.767	94.69
369.993	81.69
370.219	64.69
370.445	83.69
370.672	90.69
370.898	91.69
371.124	83.69
371.35	87.69
371.576	88.69
371.802	83.69
372.028	79.69
372.254	88.69
372.48	77.69
372.706	84.69
372.932	85.69
373.158	101.69
373.384	83.69
373.61	90.69
373.835	90.69
374.061	90.69
374.287	87.69
374.513	86.69
374.739	78.69
374.965	92.69
375.191	97.69
375.416	83.69
375.642	92.69
375.868	76.69
376.094	96.69
376.319	88.69
376.545	95.69
376.771	84.69
376.997	85.69
377.222	75.69
377.448	84.69
377.674	91.69
377.899	88.69
378.125	95.69
378.35	104.69
378.576	83.69
378.802	89.69
379.027	81.69
379.253	81.69
379.478	92.69
379.704	92.69
379.929	85.69
380.155	92.69
380.38	78.69
380.606	86.69
380.831	86.69
381.057	94.69
381.282	96.69
381.507	100.69
381.733	91.69
381.958	97.69
382.184	86.69
382.409	96.69
382.634	98.69
382.86	91.69
383.085	83.69
383.31	97.69
383.535	95.69
383.761	95.69
383.986	80.69
384.211	93.69
384.436	77.69
384.662	88.69
384.887	82.69
385.112	97.69
385.337	97.69
385.562	103.69
385.787	99.69
386.013	89.69
386.238	82.69
386.463	100.69
386.688	108.69
386.913	95.69
387.138	98.69
387.363	83.69
387.588	91.69
387.813	85.69
388.038	102.69
388.263	96.69
388.488	105.69
388.713	79.69
388.938	88.69
389.163	94.69
389.387	92.69
389.612	86.69
389.837	79.69
390.062	90.69
390.287	84.69
390.512	91.69
390.736	90.69
390.961	79.69
391.186	75.69
391.411	77.69
391.636	88.69
391.86	84.69
392.085	91.69
392.31	84.69
392.534	78.69
392.759	75.69
392.984	92.69
393.208	87.69
393.433	73.69
393.658	83.69
393.882	88.69
394.107	64.69
394.331	90.69
394.556	91.69
394.78	87.69
395.005	96.69
395.229	67.69
395.454	89.69
395.678	71.69
395.903	79.69
396.127	77.69
396.352	85.69
396.576	76.69
396.801	79.69
397.025	80.69
397.249	85.69
397.474	73.69
397.698	88.69
397.922	78.69
398.147	82.69
398.371	85.69
398.595	78.69
398.82	96.69
399.044	76.69
399.268	83.69
399.492	81.69
399.717	89.69
399.941	85.69
400.165	103.69
400.389	92.69
400.613	85.69
400.837	81.69
401.062	82.69
401.286	72.69
401.51	80.69
401.734	85.69
401.958	93.69
402.182	122.69
402.406	134.69
402.63	104.69
402.854	97.69
403.078	94.69
403.302	78.69
403.526	79.69
403.75	87.69
403.974	66.69
404.198	83.69
404.422	86.69
404.645	88.69
404.869	80.69
405.093	79.69
405.317	78.69
405.541	97.69
405.765	92.69
405.988	102.69
406.212	146.69
406.436	209.69
406.66	126.69
406.883	85.69
407.107	97.69
407.331	79.69
407.555	92.69
407.778	103.69
408.002	89.69
408.226	89.69
408.449	94.69
408.673	73.69
408.896	92.69
409.12	77.69
409.344	90.69
409.567	93.69
409.791	77.69
410.014	82.69
410.238	101.69
410.461	89.69
410.685	103.69
410.908	91.69
411.132	90.69
411.355	88.69
411.578	103.69
411.802	88.69
412.025	102.69
412.249	85.69
412.472	89.69
412.695	97.69
412.919	82.69
413.142	79.69
413.365	89.69
413.589	88.69
413.812	86.69
414.035	98.69
414.258	84.69
414.482	85.69
414.705	101.69
414.928	91.69
415.151	82.69
415.374	93.69
415.597	96.69
415.821	88.69
416.044	89.69
416.267	78.69
416.49	90.69
416.713	96.69
416.936	82.69
417.159	64.69
417.382	81.69
417.605	88.69
417.828	82.69
418.051	87.69
418.274	86.69
418.497	79.69
418.72	91.69
418.943	74.69
419.166	76.69
419.389	91.69
419.611	81.69
419.834	80.69
420.057	82.69
420.28	86.69
420.503	81.69
420.726	98.69
420.948	81.69
421.171	76.69
421.394	82.69
421.617	90.69
421.839	85.69
422.062	86.69
422.285	90.69
422.507	87.69
422.73	83.69
422.953	99.69
423.175	84.69
423.398	83.69
423.621	85.69
423.843	88.69
424.066	94.69
424.288	85.69
424.511	81.69
424.733	98.69
424.956	104.69
425.178	81.69
425.401	90.69
425.623	95.69
425.846	98.69
426.068	91.69
426.291	81.69
426.513	78.69
426.735	90.69
426.958	83.69
427.18	89.69
427.402	133.69
427.625	142.69
427.847	110.69
428.069	94.69
428.292	74.69
428.514	78.69
428.736	90.69
428.958	79.69
429.181	87.69
429.403	90.69
429.625	85.69
429.847	98.69
430.069	93.69
430.292	91.69
430.514	75.69
430.736	79.69
430.958	74.69
431.18	88.69
431.402	85.69
431.624	84.69
431.846	81.69
432.068	80.69
432.29	86.69
432.512	81.69
432.734	76.69
432.956	87.69
433.178	89.69
433.4	87.69
433.622	93.69
433.844	91.69
434.066	75.69
434.287	90.69
434.509	89.69
434.731	81.69
434.953	78.69
435.175	87.69
435.397	74.69
435.618	81.69
435.84	100.69
436.062	106.69
436.284	99.69
436.505	81.69
436.727	85.69
436.949	82.69
437.17	89.69
437.392	94.69
437.614	74.69
437.835	95.69
438.057	117.69
438.278	96.69
438.5	93.69
438.721	122.69
438.943	85.69
439.165	86.69
439.386	98.69
439.608	81.69
439.829	90.69
440.05	112.69
440.272	133.69
440.493	93.69
440.715	95.69
440.936	84.69
441.158	77.69
441.379	91.69
441.6	93.69
441.822	84.69
442.043	86.69
442.264	102.69
442.486	88.69
442.707	99.69
442.928	92.69
443.149	105.69
443.371	96.69
443.592	108.69
443.813	105.69
444.034	108.69
444.255	97.69
444.476	80.69
444.698	92.69
444.919	81.69
445.14	144.69
445.361	121.69
445.582	118.69
445.803	109.69
446.024	123.69
446.245	112.69
446.466	101.69
446.687	80.69
446.908	93.69
447.129	93.69
447.35	78.69
447.571	85.69
447.792	75.69
448.013	84.69
448.234	97.69
448.455	83.69
448.675	104.69
448.896	114.69
449.117	91.69
449.338	82.69
449.559	109.69
449.779	99.69
450	98.69
450.221	88.69
450.442	97.69
450.662	89.69
450.883	96.69
451.104	95.69
451.324	88.69
451.545	85.69
451.766	89.69
451.986	86.69
452.207	86.69
452.428	87.69
452.648	89.69
452.869	101.69
453.089	113.69
453.31	103.69
453.53	89.69
453.751	74.69
453.971	91.69
454.192	99.69
454.412	86.69
454.633	92.69
454.853	77.69
455.073	63.69
455.294	75.69
455.514	79.69
455.734	85.69
455.955	58.69
456.175	73.69
456.395	63.69
456.616	80.69
456.836	82.69
457.056	91.69
457.276	85.69
457.497	86.69
457.717	87.69
457.937	77.69
458.157	88.69
458.377	73.69
458.598	82.69
458.818	112.69
459.038	135.69
459.258	103.69
459.478	73.69
459.698	81.69
459.918	73.69
460.138	78.69
460.358	95.69
460.578	101.69
460.798	90.69
461.018	90.69
461.238	79.69
461.458	87.69
461.678	80.69
461.898	78.69
462.118	82.69
462.338	92.69
462.558	82.69
462.777	84.69
462.997	78.69
463.217	78.69
463.437	78.69
463.657	79.69
463.876	88.69
464.096	83.69
464.316	93.69
464.536	90.69
464.755	91.69
464.975	101.69
465.195	156.69
465.414	120.69
465.634	97.69
465.854	81.69
466.073	85.69
466.293	87.69
466.512	101.69
466.732	83.69
466.951	88.69
467.171	92.69
467.391	77.69
467.61	97.69
467.829	104.69
468.049	82.69
468.268	84.69
468.488	86.69
468.707	73.69
468.927	87.69
469.146	71.69
469.365	83.69
469.585	69.69
469.804	80.69
470.023	83.69
470.243	78.69
470.462	91.69
470.681	93.69
470.901	77.69
471.12	85.69
471.339	71.69
471.558	81.69
471.777	77.69
471.997	102.69
472.216	102.69
472.435	125.69
472.654	90.69
472.873	80.69
473.092	99.69
473.311	80.69
473.53	80.69
473.749	77.69
473.968	85.69
474.187	83.69
474.406	97.69
474.625	85.69
474.844	91.69
475.063	81.69
475.282	97.69
475.501	82.69
475.72	84.69
475.939	73.69
476.158	67.69
476.377	94.69
476.596	81.69
476.814	86.69
477.033	92.69
477.252	94.69
477.471	64.69
477.69	90.69
477.908	85.69
478.127	86.69
478.346	90.69
478.564	82.69
478.783	88.69
479.002	76.69
479.22	61.69
479.439	85.69
479.658	87.69
479.876	86.69
480.095	80.69
480.313	88.69
480.532	93.69
480.751	78.69
480.969	91.69
481.188	168.69
481.406	133.69
481.624	86.69
481.843	89.69
482.061	78.69
482.28	88.69
482.498	90.69
482.717	70.69
482.935	93.69
483.153	80.69
483.372	82.69
483.59	76.69
483.808	81.69
484.027	88.69
484.245	86.69
484.463	79.69
484.681	86.69
484.9	91.69
485.118	86.69
485.336	87.69
485.554	79.69
485.772	103.69
485.99	91.69
486.209	99.69
486.427	101.69
486.645	106.69
486.863	107.69
487.081	99.69
487.299	98.69
487.517	87.69
487.735	91.69
487.953	79.69
488.171	88.69
488.389	100.69
488.607	92.69
488.825	79.69
489.043	86.69
489.261	95.69
489.479	77.69
489.696	73.69
489.914	83.69
490.132	83.69
490.35	79.69
490.568	78.69
490.786	94.69
491.003	77.69
491.221	83.69
491.439	72.69
491.657	77.69
491.874	76.69
492.092	73.69
492.31	85.69
492.527	89.69
492.745	85.69
492.963	97.69
493.18	100.69
493.398	73.69
493.615	93.69
493.833	92.69
494.05	88.69
494.268	86.69
494.485	90.69
494.703	92.69
494.92	96.69
495.138	83.69
495.355	76.69
495.573	92.69
495.79	85.69
496.008	53.69
496.225	85.69
496.442	86.69
496.66	82.69
496.877	77.69
497.094	89.69
497.312	77.69
497.529	85.69
497.746	97.69
497.963	95.69
498.181	79.69
498.398	91.69
498.615	105.69
498.832	102.69
499.049	96.69
499.267	98.69
499.484	82.69
499.701	89.69
499.918	82.69
500.135	92.69
500.352	88.69
500.569	80.69
500.786	72.69
501.003	77.69
501.22	74.69
501.437	98.69
501.654	87.69
501.871	93.69
502.088	77.69
502.305	88.69
502.522	74.69
502.739	87.69
502.956	90.69
503.172	73.69
503.389	89.69
503.606	95.69
503.823	94.69
504.04	94.69
504.256	85.69
504.473	78.69
504.69	85.69
504.907	90.69
505.123	86.69
505.34	87.69
505.557	78.69
505.773	88.69
505.99	95.69
506.207	86.69
506.423	80.69
506.64	77.69
506.856	97.69
507.073	77.69
507.289	69.69
507.506	97.69
507.722	95.69
507.939	86.69
508.155	82.69
508.372	90.69
508.588	90.69
508.805	87.69
509.021	82.69
509.238	80.69
509.454	97.69
509.67	91.69
509.887	102.69
510.103	136.69
510.319	184.69
510.536	674.69
510.752	2124.69
510.968	571.69
511.184	129.69
511.401	100.69
511.617	92.69
511.833	90.69
512.049	99.69
512.265	102.69
512.481	81.69
512.698	87.69
512.914	87.69
513.13	83.69
513.346	83.69
513.562	94.69
513.778	92.69
513.994	99.69
514.21	94.69
514.426	112.69
514.642	111.69
514.858	102.69
515.074	153.69
515.29	397.69
515.506	1248.69
515.721	475.69
515.937	130.69
516.153	89.69
516.369	91.69
516.585	87.69
516.801	95.69
517.016	85.69
517.232	80.69
517.448	85.69
517.664	64.69
517.879	89.69
