Data from Uncirc_1990_H10_HRD10591_00058.txt Node
Date: Wed Jan 03 11:54:03 EST 2024
User: Yrep
Spectrometer: HR+D1059
Trigger mode: 1
Integration Time (sec): 1.000000E-1
Scans to average: 1
Electric dark correction enabled: true
Nonlinearity correction enabled: false
Boxcar width: 0
XAxis mode: Wavelengths
Number of Pixels in Spectrum: 2048
>>>>>Begin Spectral Data<<<<<
223.165	-11.69
223.4	-11.69
223.635	-11.69
223.869	-25.69
224.104	-12.69
224.338	-7.69
224.573	-26.69
224.808	-30.69
225.042	-12.69
225.277	0.31
225.511	-18.69
225.746	-6.69
225.98	9.31
226.215	22.31
226.449	20.31
226.683	25.31
226.918	40.31
227.152	35.31
227.387	37.31
227.621	51.31
227.856	27.31
228.09	56.31
228.324	36.31
228.559	56.31
228.793	52.31
229.027	57.31
229.262	81.31
229.496	62.31
229.73	67.31
229.964	78.31
230.199	75.31
230.433	77.31
230.667	81.31
230.901	82.31
231.136	85.31
231.37	81.31
231.604	75.31
231.838	77.31
232.072	67.31
232.306	88.31
232.541	80.31
232.775	67.31
233.009	86.31
233.243	82.31
233.477	97.31
233.711	85.31
233.945	74.31
234.179	78.31
234.413	69.31
234.647	79.31
234.881	77.31
235.115	70.31
235.349	86.31
235.583	82.31
235.817	76.31
236.051	75.31
236.285	76.31
236.519	78.31
236.753	86.31
236.987	68.31
237.221	106.31
237.455	88.31
237.689	76.31
237.922	73.31
238.156	78.31
238.39	69.31
238.624	88.31
238.858	71.31
239.091	73.31
239.325	90.31
239.559	81.31
239.793	75.31
240.027	68.31
240.26	67.31
240.494	82.31
240.728	69.31
240.961	80.31
241.195	67.31
241.429	62.31
241.662	79.31
241.896	63.31
242.13	82.31
242.363	67.31
242.597	79.31
242.83	68.31
243.064	73.31
243.298	83.31
243.531	88.31
243.765	92.31
243.998	76.31
244.232	77.31
244.465	63.31
244.699	68.31
244.932	81.31
245.166	77.31
245.399	77.31
245.633	84.31
245.866	90.31
246.099	66.31
246.333	71.31
246.566	75.31
246.8	81.31
247.033	82.31
247.266	68.31
247.5	78.31
247.733	81.31
247.966	79.31
248.2	85.31
248.433	79.31
248.666	77.31
248.899	77.31
249.133	90.31
249.366	96.31
249.599	98.31
249.832	79.31
250.066	79.31
250.299	75.31
250.532	87.31
250.765	82.31
250.998	85.31
251.231	74.31
251.465	76.31
251.698	85.31
251.931	65.31
252.164	75.31
252.397	73.31
252.63	71.31
252.863	86.31
253.096	79.31
253.329	85.31
253.562	84.31
253.795	90.31
254.028	77.31
254.261	81.31
254.494	81.31
254.727	70.31
254.96	74.31
255.193	88.31
255.426	87.31
255.659	79.31
255.892	91.31
256.124	87.31
256.357	74.31
256.59	79.31
256.823	89.31
257.056	77.31
257.289	84.31
257.521	84.31
257.754	82.31
257.987	86.31
258.22	83.31
258.452	76.31
258.685	75.31
258.918	83.31
259.151	72.31
259.383	85.31
259.616	73.31
259.849	83.31
260.081	78.31
260.314	90.31
260.547	85.31
260.779	71.31
261.012	84.31
261.244	92.31
261.477	88.31
261.71	89.31
261.942	114.31
262.175	119.31
262.407	90.31
262.64	65.31
262.872	81.31
263.105	91.31
263.337	86.31
263.57	83.31
263.802	82.31
264.035	79.31
264.267	93.31
264.499	89.31
264.732	90.31
264.964	82.31
265.197	77.31
265.429	82.31
265.661	61.31
265.894	85.31
266.126	94.31
266.358	87.31
266.591	89.31
266.823	87.31
267.055	91.31
267.287	74.31
267.52	86.31
267.752	83.31
267.984	79.31
268.216	83.31
268.448	92.31
268.681	83.31
268.913	81.31
269.145	98.31
269.377	78.31
269.609	81.31
269.841	73.31
270.073	96.31
270.306	69.31
270.538	74.31
270.77	94.31
271.002	81.31
271.234	75.31
271.466	91.31
271.698	96.31
271.93	95.31
272.162	94.31
272.394	63.31
272.626	79.31
272.858	83.31
273.09	82.31
273.322	94.31
273.553	95.31
273.785	88.31
274.017	91.31
274.249	98.31
274.481	79.31
274.713	71.31
274.945	95.31
275.176	72.31
275.408	85.31
275.64	79.31
275.872	92.31
276.104	79.31
276.335	89.31
276.567	94.31
276.799	103.31
277.031	94.31
277.262	75.31
277.494	84.31
277.726	86.31
277.957	76.31
278.189	81.31
278.421	86.31
278.652	90.31
278.884	84.31
279.115	90.31
279.347	85.31
279.579	87.31
279.81	92.31
280.042	93.31
280.273	97.31
280.505	94.31
280.736	88.31
280.968	75.31
281.199	92.31
281.431	103.31
281.662	84.31
281.894	88.31
282.125	110.31
282.356	100.31
282.588	118.31
282.819	103.31
283.051	82.31
283.282	85.31
283.513	91.31
283.745	85.31
283.976	88.31
284.207	83.31
284.439	89.31
284.67	82.31
284.901	81.31
285.132	79.31
285.364	93.31
285.595	85.31
285.826	81.31
286.057	92.31
286.288	91.31
286.52	97.31
286.751	94.31
286.982	79.31
287.213	67.31
287.444	79.31
287.675	85.31
287.906	85.31
288.138	92.31
288.369	100.31
288.6	95.31
288.831	73.31
289.062	96.31
289.293	81.31
289.524	74.31
289.755	98.31
289.986	90.31
290.217	81.31
290.448	83.31
290.679	99.31
290.91	92.31
291.141	96.31
291.371	83.31
291.602	90.31
291.833	83.31
292.064	82.31
292.295	83.31
292.526	85.31
292.757	79.31
292.987	86.31
293.218	80.31
293.449	107.31
293.68	81.31
293.91	111.31
294.141	91.31
294.372	86.31
294.603	89.31
294.833	83.31
295.064	97.31
295.295	76.31
295.525	85.31
295.756	97.31
295.987	108.31
296.217	147.31
296.448	115.31
296.679	97.31
296.909	87.31
297.14	99.31
297.37	87.31
297.601	70.31
297.831	84.31
298.062	87.31
298.292	95.31
298.523	86.31
298.753	82.31
298.984	85.31
299.214	65.31
299.445	99.31
299.675	99.31
299.905	93.31
300.136	88.31
300.366	91.31
300.597	93.31
300.827	82.31
301.057	91.31
301.288	91.31
301.518	90.31
301.748	88.31
301.979	93.31
302.209	89.31
302.439	75.31
302.669	83.31
302.9	83.31
303.13	87.31
303.36	103.31
303.59	87.31
303.82	100.31
304.051	103.31
304.281	82.31
304.511	90.31
304.741	83.31
304.971	101.31
305.201	101.31
305.431	81.31
305.661	89.31
305.891	82.31
306.121	93.31
306.352	90.31
306.582	110.31
306.812	98.31
307.042	79.31
307.272	87.31
307.502	97.31
307.731	98.31
307.961	97.31
308.191	89.31
308.421	87.31
308.651	102.31
308.881	89.31
309.111	86.31
309.341	101.31
309.571	103.31
309.8	94.31
310.03	114.31
310.26	98.31
310.49	97.31
310.72	93.31
310.949	103.31
311.179	93.31
311.409	93.31
311.639	87.31
311.868	90.31
312.098	91.31
312.328	98.31
312.557	87.31
312.787	95.31
313.017	89.31
313.246	79.31
313.476	102.31
313.706	87.31
313.935	85.31
314.165	98.31
314.394	93.31
314.624	89.31
314.853	98.31
315.083	96.31
315.312	73.31
315.542	92.31
315.771	95.31
316.001	83.31
316.23	83.31
316.46	82.31
316.689	94.31
316.919	84.31
317.148	85.31
317.377	68.31
317.607	95.31
317.836	88.31
318.065	84.31
318.295	70.31
318.524	89.31
318.753	75.31
318.983	88.31
319.212	90.31
319.441	103.31
319.67	124.31
319.9	97.31
320.129	80.31
320.358	82.31
320.587	102.31
320.816	99.31
321.046	100.31
321.275	84.31
321.504	101.31
321.733	94.31
321.962	103.31
322.191	103.31
322.42	122.31
322.649	96.31
322.878	102.31
323.108	112.31
323.337	108.31
323.566	133.31
323.795	145.31
324.024	181.31
324.253	352.31
324.482	745.31
324.71	1496.31
324.939	2018.31
325.168	746.31
325.397	233.31
325.626	139.31
325.855	116.31
326.084	115.31
326.313	126.31
326.542	143.31
326.77	221.31
326.999	422.31
327.228	834.31
327.457	1547.31
327.686	1241.31
327.914	343.31
328.143	179.31
328.372	127.31
328.6	125.31
328.829	109.31
329.058	134.31
329.287	118.31
329.515	99.31
329.744	82.31
329.972	103.31
330.201	118.31
330.43	112.31
330.658	116.31
330.887	131.31
331.115	111.31
331.344	101.31
331.572	102.31
331.801	96.31
332.03	96.31
332.258	87.31
332.486	91.31
332.715	94.31
332.943	103.31
333.172	89.31
333.4	91.31
333.629	109.31
333.857	107.31
334.085	100.31
334.314	106.31
334.542	112.31
334.771	108.31
334.999	104.31
335.227	105.31
335.455	73.31
335.684	87.31
335.912	83.31
336.14	97.31
336.369	94.31
336.597	87.31
336.825	98.31
337.053	104.31
337.281	93.31
337.51	79.31
337.738	97.31
337.966	98.31
338.194	91.31
338.422	89.31
338.65	87.31
338.878	98.31
339.106	99.31
339.334	105.31
339.562	90.31
339.79	91.31
340.018	85.31
340.246	86.31
340.474	108.31
340.702	106.31
340.93	73.31
341.158	92.31
341.386	90.31
341.614	89.31
341.842	90.31
342.07	91.31
342.298	81.31
342.526	85.31
342.754	86.31
342.981	90.31
343.209	73.31
343.437	88.31
343.665	82.31
343.893	87.31
344.12	97.31
344.348	93.31
344.576	88.31
344.804	91.31
345.031	105.31
345.259	87.31
345.487	86.31
345.714	101.31
345.942	81.31
346.17	97.31
346.397	79.31
346.625	89.31
346.853	80.31
347.08	84.31
347.308	95.31
347.535	102.31
347.763	94.31
347.99	93.31
348.218	111.31
348.445	90.31
348.673	78.31
348.9	73.31
349.128	97.31
349.355	75.31
349.583	98.31
349.81	92.31
350.037	92.31
350.265	95.31
350.492	101.31
350.72	96.31
350.947	83.31
351.174	103.31
351.402	109.31
351.629	100.31
351.856	101.31
352.083	98.31
352.311	107.31
352.538	111.31
352.765	109.31
352.992	107.31
353.22	120.31
353.447	84.31
353.674	102.31
353.901	102.31
354.128	94.31
354.355	95.31
354.583	95.31
354.81	96.31
355.037	85.31
355.264	81.31
355.491	84.31
355.718	83.31
355.945	99.31
356.172	106.31
356.399	98.31
356.626	99.31
356.853	90.31
357.08	90.31
357.307	84.31
357.534	89.31
357.761	96.31
357.988	103.31
358.215	89.31
358.441	98.31
358.668	88.31
358.895	80.31
359.122	91.31
359.349	86.31
359.576	98.31
359.802	90.31
360.029	95.31
360.256	97.31
360.483	97.31
360.709	86.31
360.936	92.31
361.163	82.31
361.39	88.31
361.616	94.31
361.843	91.31
362.07	77.31
362.296	92.31
362.523	87.31
362.749	89.31
362.976	89.31
363.203	89.31
363.429	87.31
363.656	83.31
363.882	85.31
364.109	85.31
364.335	91.31
364.562	76.31
364.788	82.31
365.015	80.31
365.241	96.31
365.468	101.31
365.694	90.31
365.92	82.31
366.147	88.31
366.373	99.31
366.599	83.31
366.826	97.31
367.052	86.31
367.278	94.31
367.505	95.31
367.731	74.31
367.957	88.31
368.184	106.31
368.41	87.31
368.636	93.31
368.862	105.31
369.089	99.31
369.315	99.31
369.541	86.31
369.767	85.31
369.993	77.31
370.219	89.31
370.445	81.31
370.672	77.31
370.898	79.31
371.124	82.31
371.35	85.31
371.576	83.31
371.802	89.31
372.028	94.31
372.254	81.31
372.48	89.31
372.706	77.31
372.932	73.31
373.158	91.31
373.384	85.31
373.61	82.31
373.835	76.31
374.061	98.31
374.287	81.31
374.513	89.31
374.739	92.31
374.965	92.31
375.191	88.31
375.416	92.31
375.642	77.31
375.868	92.31
376.094	87.31
376.319	80.31
376.545	88.31
376.771	89.31
376.997	79.31
377.222	77.31
377.448	87.31
377.674	86.31
377.899	84.31
378.125	79.31
378.35	97.31
378.576	110.31
378.802	102.31
379.027	78.31
379.253	95.31
379.478	80.31
379.704	85.31
379.929	92.31
380.155	84.31
380.38	96.31
380.606	93.31
380.831	88.31
381.057	90.31
381.282	85.31
381.507	93.31
381.733	94.31
381.958	101.31
382.184	103.31
382.409	94.31
382.634	94.31
382.86	100.31
383.085	87.31
383.31	85.31
383.535	103.31
383.761	91.31
383.986	90.31
384.211	103.31
384.436	89.31
384.662	104.31
384.887	84.31
385.112	98.31
385.337	99.31
385.562	95.31
385.787	101.31
386.013	113.31
386.238	94.31
386.463	102.31
386.688	99.31
386.913	102.31
387.138	94.31
387.363	96.31
387.588	111.31
387.813	82.31
388.038	102.31
388.263	108.31
388.488	99.31
388.713	102.31
388.938	96.31
389.163	95.31
389.387	103.31
389.612	79.31
389.837	91.31
390.062	93.31
390.287	90.31
390.512	97.31
390.736	96.31
390.961	96.31
391.186	94.31
391.411	77.31
391.636	83.31
391.86	93.31
392.085	83.31
392.31	95.31
392.534	81.31
392.759	93.31
392.984	79.31
393.208	83.31
393.433	78.31
393.658	91.31
393.882	79.31
394.107	82.31
394.331	84.31
394.556	99.31
394.78	80.31
395.005	87.31
395.229	78.31
395.454	89.31
395.678	88.31
395.903	90.31
396.127	80.31
396.352	80.31
396.576	78.31
396.801	80.31
397.025	87.31
397.249	84.31
397.474	82.31
397.698	86.31
397.922	92.31
398.147	101.31
398.371	75.31
398.595	88.31
398.82	98.31
399.044	77.31
399.268	87.31
399.492	86.31
399.717	86.31
399.941	84.31
400.165	91.31
400.389	91.31
400.613	89.31
400.837	83.31
401.062	93.31
401.286	77.31
401.51	85.31
401.734	95.31
401.958	103.31
402.182	129.31
402.406	141.31
402.63	108.31
402.854	76.31
403.078	82.31
403.302	83.31
403.526	86.31
403.75	98.31
403.974	95.31
404.198	89.31
404.422	94.31
404.645	90.31
404.869	92.31
405.093	98.31
405.317	94.31
405.541	93.31
405.765	90.31
405.988	113.31
406.212	151.31
406.436	209.31
406.66	138.31
406.883	79.31
407.107	95.31
407.331	86.31
407.555	89.31
407.778	97.31
408.002	99.31
408.226	82.31
408.449	82.31
408.673	91.31
408.896	81.31
409.12	102.31
409.344	93.31
409.567	90.31
409.791	95.31
410.014	103.31
410.238	102.31
410.461	98.31
410.685	100.31
410.908	94.31
411.132	101.31
411.355	96.31
411.578	104.31
411.802	87.31
412.025	94.31
412.249	92.31
412.472	102.31
412.695	69.31
412.919	91.31
413.142	89.31
413.365	95.31
413.589	82.31
413.812	77.31
414.035	95.31
414.258	93.31
414.482	95.31
414.705	77.31
414.928	87.31
415.151	86.31
415.374	94.31
415.597	91.31
415.821	87.31
416.044	90.31
416.267	81.31
416.49	77.31
416.713	79.31
416.936	70.31
417.159	91.31
417.382	90.31
417.605	90.31
417.828	83.31
418.051	89.31
418.274	98.31
418.497	84.31
418.72	73.31
418.943	81.31
419.166	92.31
419.389	89.31
419.611	85.31
419.834	91.31
420.057	94.31
420.28	96.31
420.503	74.31
420.726	80.31
420.948	94.31
421.171	89.31
421.394	76.31
421.617	100.31
421.839	85.31
422.062	79.31
422.285	92.31
422.507	91.31
422.73	77.31
422.953	92.31
423.175	93.31
423.398	90.31
423.621	89.31
423.843	84.31
424.066	88.31
424.288	84.31
424.511	71.31
424.733	93.31
424.956	104.31
425.178	99.31
425.401	102.31
425.623	100.31
425.846	84.31
426.068	93.31
426.291	108.31
426.513	92.31
426.735	85.31
426.958	85.31
427.18	102.31
427.402	130.31
427.625	142.31
427.847	127.31
428.069	97.31
428.292	85.31
428.514	80.31
428.736	79.31
428.958	83.31
429.181	87.31
429.403	91.31
429.625	89.31
429.847	91.31
430.069	82.31
430.292	85.31
430.514	89.31
430.736	85.31
430.958	86.31
431.18	82.31
431.402	88.31
431.624	70.31
431.846	82.31
432.068	81.31
432.29	97.31
432.512	96.31
432.734	87.31
432.956	91.31
433.178	107.31
433.4	92.31
433.622	99.31
433.844	88.31
434.066	82.31
434.287	75.31
434.509	98.31
434.731	83.31
434.953	93.31
435.175	95.31
435.397	95.31
435.618	85.31
435.84	111.31
436.062	114.31
436.284	110.31
436.505	97.31
436.727	94.31
436.949	80.31
437.17	73.31
437.392	74.31
437.614	99.31
437.835	96.31
438.057	83.31
438.278	94.31
438.5	95.31
438.721	113.31
438.943	96.31
439.165	93.31
439.386	86.31
439.608	90.31
439.829	89.31
440.05	110.31
440.272	141.31
440.493	108.31
440.715	108.31
440.936	76.31
441.158	79.31
441.379	79.31
441.6	86.31
441.822	92.31
442.043	92.31
442.264	93.31
442.486	103.31
442.707	95.31
442.928	88.31
443.149	110.31
443.371	126.31
443.592	101.31
443.813	113.31
444.034	103.31
444.255	83.31
444.476	94.31
444.698	74.31
444.919	83.31
445.14	119.31
445.361	118.31
445.582	88.31
445.803	119.31
446.024	132.31
446.245	129.31
446.466	103.31
446.687	90.31
446.908	80.31
447.129	82.31
447.35	76.31
447.571	92.31
447.792	94.31
448.013	99.31
448.234	97.31
448.455	105.31
448.675	117.31
448.896	106.31
449.117	94.31
449.338	99.31
449.559	117.31
449.779	125.31
450	109.31
450.221	96.31
450.442	94.31
450.662	85.31
450.883	104.31
451.104	98.31
451.324	89.31
451.545	92.31
451.766	77.31
451.986	92.31
452.207	107.31
452.428	93.31
452.648	102.31
452.869	98.31
453.089	102.31
453.31	106.31
453.53	99.31
453.751	83.31
453.971	90.31
454.192	100.31
454.412	81.31
454.633	94.31
454.853	87.31
455.073	83.31
455.294	83.31
455.514	88.31
455.734	90.31
455.955	98.31
456.175	86.31
456.395	89.31
456.616	79.31
456.836	83.31
457.056	91.31
457.276	86.31
457.497	87.31
457.717	76.31
457.937	76.31
458.157	84.31
458.377	96.31
458.598	101.31
458.818	115.31
459.038	137.31
459.258	101.31
459.478	98.31
459.698	91.31
459.918	91.31
460.138	87.31
460.358	87.31
460.578	84.31
460.798	86.31
461.018	87.31
461.238	88.31
461.458	82.31
461.678	84.31
461.898	78.31
462.118	94.31
462.338	83.31
462.558	91.31
462.777	95.31
462.997	97.31
463.217	70.31
463.437	83.31
463.657	83.31
463.876	80.31
464.096	81.31
464.316	87.31
464.536	97.31
464.755	97.31
464.975	101.31
465.195	140.31
465.414	150.31
465.634	98.31
465.854	89.31
466.073	88.31
466.293	93.31
466.512	97.31
466.732	86.31
466.951	78.31
467.171	94.31
467.391	94.31
467.61	105.31
467.829	89.31
468.049	99.31
468.268	100.31
468.488	84.31
468.707	84.31
468.927	85.31
469.146	76.31
469.365	83.31
469.585	91.31
469.804	89.31
470.023	103.31
470.243	96.31
470.462	101.31
470.681	92.31
470.901	99.31
471.12	86.31
471.339	106.31
471.558	80.31
471.777	88.31
471.997	87.31
472.216	101.31
472.435	105.31
472.654	96.31
472.873	79.31
473.092	83.31
473.311	77.31
473.53	78.31
473.749	76.31
473.968	86.31
474.187	114.31
474.406	104.31
474.625	96.31
474.844	74.31
475.063	83.31
475.282	83.31
475.501	73.31
475.72	84.31
475.939	81.31
476.158	88.31
476.377	98.31
476.596	96.31
476.814	99.31
477.033	90.31
477.252	83.31
477.471	83.31
477.69	81.31
477.908	95.31
478.127	87.31
478.346	93.31
478.564	82.31
478.783	85.31
479.002	79.31
479.22	78.31
479.439	95.31
479.658	103.31
479.876	94.31
480.095	77.31
480.313	98.31
480.532	91.31
480.751	97.31
480.969	89.31
481.188	129.31
481.406	133.31
481.624	94.31
481.843	99.31
482.061	80.31
482.28	84.31
482.498	94.31
482.717	85.31
482.935	84.31
483.153	95.31
483.372	95.31
483.59	91.31
483.808	87.31
484.027	91.31
484.245	112.31
484.463	113.31
484.681	91.31
484.9	97.31
485.118	89.31
485.336	85.31
485.554	95.31
485.772	110.31
485.99	108.31
486.209	108.31
486.427	108.31
486.645	89.31
486.863	99.31
487.081	95.31
487.299	88.31
487.517	106.31
487.735	110.31
487.953	77.31
488.171	85.31
488.389	95.31
488.607	88.31
488.825	82.31
489.043	86.31
489.261	89.31
489.479	89.31
489.696	87.31
489.914	87.31
490.132	88.31
490.35	108.31
490.568	100.31
490.786	81.31
491.003	90.31
491.221	95.31
491.439	77.31
491.657	106.31
491.874	94.31
492.092	87.31
492.31	83.31
492.527	97.31
492.745	87.31
492.963	75.31
493.18	96.31
493.398	78.31
493.615	95.31
493.833	90.31
494.05	77.31
494.268	91.31
494.485	84.31
494.703	92.31
494.92	91.31
495.138	95.31
495.355	83.31
495.573	93.31
495.79	102.31
496.008	84.31
496.225	88.31
496.442	99.31
496.66	90.31
496.877	74.31
497.094	97.31
497.312	87.31
497.529	100.31
497.746	93.31
497.963	89.31
498.181	103.31
498.398	103.31
498.615	115.31
498.832	120.31
499.049	92.31
499.267	97.31
499.484	83.31
499.701	104.31
499.918	76.31
500.135	85.31
500.352	101.31
500.569	89.31
500.786	100.31
501.003	99.31
501.22	84.31
501.437	90.31
501.654	92.31
501.871	99.31
502.088	102.31
502.305	99.31
502.522	90.31
502.739	100.31
502.956	96.31
503.172	92.31
503.389	96.31
503.606	94.31
503.823	85.31
504.04	81.31
504.256	95.31
504.473	93.31
504.69	86.31
504.907	86.31
505.123	91.31
505.34	92.31
505.557	93.31
505.773	93.31
505.99	81.31
506.207	90.31
506.423	83.31
506.64	85.31
506.856	92.31
507.073	96.31
507.289	86.31
507.506	91.31
507.722	97.31
507.939	109.31
508.155	95.31
508.372	85.31
508.588	77.31
508.805	85.31
509.021	102.31
509.238	87.31
509.454	98.31
509.67	101.31
509.887	110.31
510.103	126.31
510.319	181.31
510.536	638.31
510.752	2079.31
510.968	595.31
511.184	142.31
511.401	104.31
511.617	93.31
511.833	105.31
512.049	93.31
512.265	102.31
512.481	96.31
512.698	85.31
512.914	99.31
513.13	90.31
513.346	95.31
513.562	97.31
513.778	98.31
513.994	97.31
514.21	108.31
514.426	101.31
514.642	118.31
514.858	116.31
515.074	142.31
515.29	369.31
515.506	1213.31
515.721	443.31
515.937	131.31
516.153	109.31
516.369	97.31
516.585	95.31
