Data from Uncirc_1990_H10_HRD10591_00056.txt Node
Date: Wed Jan 03 11:54:02 EST 2024
User: Yrep
Spectrometer: HR+D1059
Trigger mode: 1
Integration Time (sec): 1.000000E-1
Scans to average: 1
Electric dark correction enabled: true
Nonlinearity correction enabled: false
Boxcar width: 0
XAxis mode: Wavelengths
Number of Pixels in Spectrum: 2048
>>>>>Begin Spectral Data<<<<<
223.165	-13.12
223.4	-13.12
223.635	-13.12
223.869	-17.12
224.104	-18.12
224.338	-7.12
224.573	-26.12
224.808	-13.12
225.042	-15.12
225.277	-20.12
225.511	4.88
225.746	17.88
225.98	4.88
226.215	4.88
226.449	22.88
226.683	19.88
226.918	11.88
227.152	42.88
227.387	34.88
227.621	33.88
227.856	50.88
228.09	54.88
228.324	41.88
228.559	73.88
228.793	58.88
229.027	63.88
229.262	49.88
229.496	61.88
229.73	67.88
229.964	68.88
230.199	66.88
230.433	77.88
230.667	79.88
230.901	81.88
231.136	70.88
231.37	73.88
231.604	78.88
231.838	88.88
232.072	77.88
232.306	63.88
232.541	78.88
232.775	66.88
233.009	81.88
233.243	90.88
233.477	76.88
233.711	76.88
233.945	78.88
234.179	67.88
234.413	93.88
234.647	73.88
234.881	81.88
235.115	79.88
235.349	73.88
235.583	80.88
235.817	78.88
236.051	73.88
236.285	71.88
236.519	74.88
236.753	66.88
236.987	79.88
237.221	77.88
237.455	78.88
237.689	91.88
237.922	76.88
238.156	71.88
238.39	77.88
238.624	61.88
238.858	75.88
239.091	82.88
239.325	83.88
239.559	75.88
239.793	77.88
240.027	76.88
240.26	77.88
240.494	71.88
240.728	81.88
240.961	67.88
241.195	70.88
241.429	93.88
241.662	77.88
241.896	86.88
242.13	76.88
242.363	78.88
242.597	69.88
242.83	65.88
243.064	72.88
243.298	81.88
243.531	66.88
243.765	79.88
243.998	75.88
244.232	85.88
244.465	73.88
244.699	76.88
244.932	85.88
245.166	77.88
245.399	91.88
245.633	83.88
245.866	80.88
246.099	84.88
246.333	90.88
246.566	63.88
246.8	79.88
247.033	81.88
247.266	74.88
247.5	76.88
247.733	81.88
247.966	88.88
248.2	68.88
248.433	100.88
248.666	83.88
248.899	69.88
249.133	85.88
249.366	80.88
249.599	100.88
249.832	79.88
250.066	86.88
250.299	76.88
250.532	83.88
250.765	69.88
250.998	75.88
251.231	79.88
251.465	84.88
251.698	69.88
251.931	65.88
252.164	81.88
252.397	76.88
252.63	84.88
252.863	87.88
253.096	84.88
253.329	99.88
253.562	77.88
253.795	66.88
254.028	86.88
254.261	97.88
254.494	81.88
254.727	78.88
254.96	82.88
255.193	77.88
255.426	80.88
255.659	81.88
255.892	84.88
256.124	105.88
256.357	77.88
256.59	73.88
256.823	74.88
257.056	89.88
257.289	69.88
257.521	82.88
257.754	81.88
257.987	86.88
258.22	87.88
258.452	82.88
258.685	77.88
258.918	87.88
259.151	81.88
259.383	75.88
259.616	82.88
259.849	84.88
260.081	101.88
260.314	85.88
260.547	84.88
260.779	96.88
261.012	73.88
261.244	68.88
261.477	73.88
261.71	78.88
261.942	94.88
262.175	108.88
262.407	87.88
262.64	93.88
262.872	87.88
263.105	78.88
263.337	86.88
263.57	88.88
263.802	85.88
264.035	70.88
264.267	68.88
264.499	83.88
264.732	87.88
264.964	88.88
265.197	64.88
265.429	92.88
265.661	89.88
265.894	89.88
266.126	82.88
266.358	79.88
266.591	91.88
266.823	93.88
267.055	90.88
267.287	91.88
267.52	89.88
267.752	74.88
267.984	95.88
268.216	88.88
268.448	80.88
268.681	83.88
268.913	94.88
269.145	85.88
269.377	81.88
269.609	82.88
269.841	75.88
270.073	75.88
270.306	91.88
270.538	73.88
270.77	82.88
271.002	74.88
271.234	93.88
271.466	97.88
271.698	86.88
271.93	100.88
272.162	103.88
272.394	77.88
272.626	91.88
272.858	92.88
273.09	92.88
273.322	88.88
273.553	82.88
273.785	73.88
274.017	84.88
274.249	81.88
274.481	86.88
274.713	74.88
274.945	75.88
275.176	96.88
275.408	79.88
275.64	85.88
275.872	87.88
276.104	78.88
276.335	97.88
276.567	106.88
276.799	113.88
277.031	94.88
277.262	86.88
277.494	98.88
277.726	88.88
277.957	66.88
278.189	81.88
278.421	77.88
278.652	76.88
278.884	87.88
279.115	93.88
279.347	69.88
279.579	74.88
279.81	83.88
280.042	95.88
280.273	90.88
280.505	68.88
280.736	93.88
280.968	84.88
281.199	88.88
281.431	86.88
281.662	85.88
281.894	86.88
282.125	94.88
282.356	112.88
282.588	118.88
282.819	113.88
283.051	83.88
283.282	96.88
283.513	84.88
283.745	96.88
283.976	93.88
284.207	73.88
284.439	74.88
284.67	90.88
284.901	76.88
285.132	89.88
285.364	83.88
285.595	77.88
285.826	91.88
286.057	93.88
286.288	86.88
286.52	90.88
286.751	89.88
286.982	85.88
287.213	93.88
287.444	91.88
287.675	79.88
287.906	92.88
288.138	85.88
288.369	97.88
288.6	85.88
288.831	84.88
289.062	72.88
289.293	89.88
289.524	91.88
289.755	98.88
289.986	86.88
290.217	77.88
290.448	79.88
290.679	92.88
290.91	90.88
291.141	85.88
291.371	80.88
291.602	87.88
291.833	86.88
292.064	72.88
292.295	93.88
292.526	85.88
292.757	74.88
292.987	91.88
293.218	104.88
293.449	89.88
293.68	83.88
293.91	89.88
294.141	90.88
294.372	77.88
294.603	93.88
294.833	79.88
295.064	91.88
295.295	82.88
295.525	66.88
295.756	87.88
295.987	114.88
296.217	134.88
296.448	103.88
296.679	94.88
296.909	100.88
297.14	79.88
297.37	88.88
297.601	79.88
297.831	70.88
298.062	82.88
298.292	74.88
298.523	89.88
298.753	104.88
298.984	89.88
299.214	90.88
299.445	82.88
299.675	89.88
299.905	86.88
300.136	86.88
300.366	95.88
300.597	96.88
300.827	85.88
301.057	103.88
301.288	108.88
301.518	92.88
301.748	94.88
301.979	101.88
302.209	81.88
302.439	95.88
302.669	93.88
302.9	100.88
303.13	83.88
303.36	102.88
303.59	100.88
303.82	92.88
304.051	69.88
304.281	82.88
304.511	91.88
304.741	94.88
304.971	84.88
305.201	84.88
305.431	92.88
305.661	100.88
305.891	100.88
306.121	90.88
306.352	99.88
306.582	92.88
306.812	94.88
307.042	85.88
307.272	87.88
307.502	94.88
307.731	94.88
307.961	93.88
308.191	83.88
308.421	80.88
308.651	78.88
308.881	89.88
309.111	90.88
309.341	92.88
309.571	85.88
309.8	109.88
310.03	100.88
310.26	96.88
310.49	95.88
310.72	96.88
310.949	93.88
311.179	96.88
311.409	98.88
311.639	93.88
311.868	106.88
312.098	94.88
312.328	98.88
312.557	91.88
312.787	109.88
313.017	106.88
313.246	97.88
313.476	85.88
313.706	105.88
313.935	110.88
314.165	110.88
314.394	85.88
314.624	87.88
314.853	97.88
315.083	94.88
315.312	99.88
315.542	89.88
315.771	90.88
316.001	89.88
316.23	75.88
316.46	94.88
316.689	93.88
316.919	93.88
317.148	103.88
317.377	89.88
317.607	79.88
317.836	94.88
318.065	93.88
318.295	84.88
318.524	81.88
318.753	89.88
318.983	98.88
319.212	98.88
319.441	108.88
319.67	92.88
319.9	83.88
320.129	89.88
320.358	82.88
320.587	95.88
320.816	96.88
321.046	86.88
321.275	101.88
321.504	97.88
321.733	92.88
321.962	107.88
322.191	99.88
322.42	103.88
322.649	103.88
322.878	97.88
323.108	98.88
323.337	110.88
323.566	123.88
323.795	142.88
324.024	179.88
324.253	341.88
324.482	713.88
324.71	1497.88
324.939	1939.88
325.168	725.88
325.397	216.88
325.626	140.88
325.855	123.88
326.084	113.88
326.313	124.88
326.542	145.88
326.77	198.88
326.999	405.88
327.228	812.88
327.457	1483.88
327.686	1197.88
327.914	326.88
328.143	164.88
328.372	131.88
328.6	108.88
328.829	95.88
329.058	125.88
329.287	124.88
329.515	108.88
329.744	113.88
329.972	107.88
330.201	96.88
330.43	91.88
330.658	125.88
330.887	117.88
331.115	100.88
331.344	83.88
331.572	74.88
331.801	97.88
332.03	89.88
332.258	79.88
332.486	100.88
332.715	99.88
332.943	91.88
333.172	85.88
333.4	113.88
333.629	104.88
333.857	110.88
334.085	85.88
334.314	75.88
334.542	108.88
334.771	108.88
334.999	94.88
335.227	99.88
335.455	108.88
335.684	97.88
335.912	84.88
336.14	95.88
336.369	86.88
336.597	97.88
336.825	91.88
337.053	97.88
337.281	98.88
337.51	88.88
337.738	94.88
337.966	99.88
338.194	86.88
338.422	90.88
338.65	96.88
338.878	76.88
339.106	95.88
339.334	93.88
339.562	88.88
339.79	83.88
340.018	97.88
340.246	89.88
340.474	99.88
340.702	92.88
340.93	100.88
341.158	80.88
341.386	103.88
341.614	101.88
341.842	90.88
342.07	88.88
342.298	101.88
342.526	94.88
342.754	91.88
342.981	86.88
343.209	105.88
343.437	97.88
343.665	86.88
343.893	73.88
344.12	83.88
344.348	78.88
344.576	85.88
344.804	95.88
345.031	89.88
345.259	85.88
345.487	88.88
345.714	84.88
345.942	96.88
346.17	78.88
346.397	97.88
346.625	87.88
346.853	110.88
347.08	101.88
347.308	81.88
347.535	96.88
347.763	97.88
347.99	83.88
348.218	81.88
348.445	98.88
348.673	86.88
348.9	97.88
349.128	96.88
349.355	85.88
349.583	91.88
349.81	100.88
350.037	107.88
350.265	82.88
350.492	99.88
350.72	100.88
350.947	101.88
351.174	104.88
351.402	93.88
351.629	103.88
351.856	100.88
352.083	103.88
352.311	97.88
352.538	95.88
352.765	94.88
352.992	109.88
353.22	105.88
353.447	104.88
353.674	103.88
353.901	97.88
354.128	92.88
354.355	93.88
354.583	100.88
354.81	102.88
355.037	101.88
355.264	90.88
355.491	100.88
355.718	92.88
355.945	81.88
356.172	99.88
356.399	79.88
356.626	82.88
356.853	90.88
357.08	106.88
357.307	96.88
357.534	90.88
357.761	101.88
357.988	97.88
358.215	91.88
358.441	99.88
358.668	91.88
358.895	105.88
359.122	92.88
359.349	82.88
359.576	96.88
359.802	98.88
360.029	101.88
360.256	92.88
360.483	94.88
360.709	90.88
360.936	85.88
361.163	91.88
361.39	98.88
361.616	89.88
361.843	85.88
362.07	92.88
362.296	101.88
362.523	88.88
362.749	85.88
362.976	95.88
363.203	85.88
363.429	78.88
363.656	84.88
363.882	100.88
364.109	94.88
364.335	95.88
364.562	93.88
364.788	91.88
365.015	90.88
365.241	93.88
365.468	106.88
365.694	110.88
365.92	96.88
366.147	96.88
366.373	91.88
366.599	82.88
366.826	81.88
367.052	93.88
367.278	89.88
367.505	91.88
367.731	101.88
367.957	87.88
368.184	85.88
368.41	106.88
368.636	109.88
368.862	111.88
369.089	100.88
369.315	83.88
369.541	93.88
369.767	102.88
369.993	93.88
370.219	78.88
370.445	88.88
370.672	90.88
370.898	95.88
371.124	96.88
371.35	85.88
371.576	81.88
371.802	75.88
372.028	79.88
372.254	83.88
372.48	88.88
372.706	77.88
372.932	92.88
373.158	91.88
373.384	84.88
373.61	96.88
373.835	83.88
374.061	92.88
374.287	80.88
374.513	79.88
374.739	95.88
374.965	92.88
375.191	95.88
375.416	107.88
375.642	90.88
375.868	86.88
376.094	70.88
376.319	70.88
376.545	81.88
376.771	93.88
376.997	69.88
377.222	83.88
377.448	100.88
377.674	91.88
377.899	93.88
378.125	86.88
378.35	85.88
378.576	92.88
378.802	81.88
379.027	90.88
379.253	87.88
379.478	94.88
379.704	96.88
379.929	93.88
380.155	83.88
380.38	82.88
380.606	96.88
380.831	94.88
381.057	97.88
381.282	97.88
381.507	90.88
381.733	98.88
381.958	92.88
382.184	82.88
382.409	95.88
382.634	89.88
382.86	95.88
383.085	110.88
383.31	92.88
383.535	103.88
383.761	104.88
383.986	79.88
384.211	95.88
384.436	93.88
384.662	103.88
384.887	90.88
385.112	93.88
385.337	92.88
385.562	87.88
385.787	95.88
386.013	100.88
386.238	99.88
386.463	109.88
386.688	116.88
386.913	92.88
387.138	102.88
387.363	90.88
387.588	98.88
387.813	105.88
388.038	101.88
388.263	91.88
388.488	88.88
388.713	99.88
388.938	102.88
389.163	90.88
389.387	73.88
389.612	85.88
389.837	86.88
390.062	82.88
390.287	108.88
390.512	99.88
390.736	75.88
390.961	81.88
391.186	85.88
391.411	109.88
391.636	90.88
391.86	87.88
392.085	83.88
392.31	81.88
392.534	74.88
392.759	85.88
392.984	74.88
393.208	84.88
393.433	81.88
393.658	84.88
393.882	90.88
394.107	75.88
394.331	78.88
394.556	92.88
394.78	101.88
395.005	86.88
395.229	98.88
395.454	81.88
395.678	90.88
395.903	98.88
396.127	85.88
396.352	86.88
396.576	84.88
396.801	98.88
397.025	89.88
397.249	105.88
397.474	88.88
397.698	83.88
397.922	91.88
398.147	91.88
398.371	94.88
398.595	81.88
398.82	83.88
399.044	85.88
399.268	94.88
399.492	85.88
399.717	90.88
399.941	86.88
400.165	106.88
400.389	91.88
400.613	79.88
400.837	80.88
401.062	79.88
401.286	82.88
401.51	78.88
401.734	77.88
401.958	86.88
402.182	107.88
402.406	141.88
402.63	107.88
402.854	80.88
403.078	86.88
403.302	73.88
403.526	98.88
403.75	75.88
403.974	73.88
404.198	77.88
404.422	81.88
404.645	100.88
404.869	87.88
405.093	95.88
405.317	98.88
405.541	78.88
405.765	92.88
405.988	100.88
406.212	139.88
406.436	179.88
406.66	126.88
406.883	81.88
407.107	77.88
407.331	91.88
407.555	97.88
407.778	84.88
408.002	99.88
408.226	86.88
408.449	96.88
408.673	82.88
408.896	93.88
409.12	99.88
409.344	89.88
409.567	81.88
409.791	80.88
410.014	93.88
410.238	79.88
410.461	84.88
410.685	90.88
410.908	97.88
411.132	93.88
411.355	90.88
411.578	88.88
411.802	89.88
412.025	77.88
412.249	76.88
412.472	82.88
412.695	84.88
412.919	90.88
413.142	81.88
413.365	82.88
413.589	92.88
413.812	83.88
414.035	92.88
414.258	93.88
414.482	102.88
414.705	95.88
414.928	91.88
415.151	90.88
415.374	90.88
415.597	93.88
415.821	76.88
416.044	97.88
416.267	94.88
416.49	80.88
416.713	77.88
416.936	89.88
417.159	80.88
417.382	82.88
417.605	82.88
417.828	78.88
418.051	95.88
418.274	84.88
418.497	75.88
418.72	80.88
418.943	90.88
419.166	89.88
419.389	88.88
419.611	93.88
419.834	83.88
420.057	110.88
420.28	72.88
420.503	81.88
420.726	85.88
420.948	86.88
421.171	77.88
421.394	83.88
421.617	86.88
421.839	83.88
422.062	82.88
422.285	99.88
422.507	91.88
422.73	97.88
422.953	87.88
423.175	88.88
423.398	84.88
423.621	78.88
423.843	79.88
424.066	98.88
424.288	93.88
424.511	91.88
424.733	89.88
424.956	92.88
425.178	104.88
425.401	99.88
425.623	102.88
425.846	88.88
426.068	81.88
426.291	77.88
426.513	93.88
426.735	87.88
426.958	102.88
427.18	90.88
427.402	112.88
427.625	141.88
427.847	113.88
428.069	98.88
428.292	94.88
428.514	90.88
428.736	86.88
428.958	73.88
429.181	86.88
429.403	90.88
429.625	83.88
429.847	87.88
430.069	85.88
430.292	88.88
430.514	81.88
430.736	100.88
430.958	85.88
431.18	77.88
431.402	86.88
431.624	85.88
431.846	85.88
432.068	91.88
432.29	77.88
432.512	94.88
432.734	78.88
432.956	77.88
433.178	87.88
433.4	84.88
433.622	78.88
433.844	88.88
434.066	70.88
434.287	89.88
434.509	93.88
434.731	82.88
434.953	75.88
435.175	90.88
435.397	90.88
435.618	92.88
435.84	101.88
436.062	118.88
436.284	108.88
436.505	94.88
436.727	87.88
436.949	66.88
437.17	97.88
437.392	90.88
437.614	83.88
437.835	98.88
438.057	101.88
438.278	105.88
438.5	107.88
438.721	105.88
438.943	96.88
439.165	94.88
439.386	85.88
439.608	86.88
439.829	100.88
440.05	101.88
440.272	111.88
440.493	96.88
440.715	87.88
440.936	75.88
441.158	100.88
441.379	93.88
441.6	102.88
441.822	91.88
442.043	97.88
442.264	83.88
442.486	97.88
442.707	81.88
442.928	104.88
443.149	116.88
443.371	119.88
443.592	99.88
443.813	104.88
444.034	103.88
444.255	95.88
444.476	96.88
444.698	95.88
444.919	85.88
445.14	138.88
445.361	114.88
445.582	108.88
445.803	120.88
446.024	124.88
446.245	119.88
446.466	94.88
446.687	86.88
446.908	85.88
447.129	86.88
447.35	87.88
447.571	90.88
447.792	84.88
448.013	80.88
448.234	101.88
448.455	95.88
448.675	105.88
448.896	103.88
449.117	101.88
449.338	75.88
449.559	134.88
449.779	123.88
450	95.88
450.221	90.88
450.442	72.88
450.662	90.88
450.883	89.88
451.104	102.88
451.324	99.88
451.545	85.88
451.766	86.88
451.986	94.88
452.207	90.88
452.428	88.88
452.648	74.88
452.869	95.88
453.089	94.88
453.31	97.88
453.53	91.88
453.751	96.88
453.971	100.88
454.192	105.88
454.412	75.88
454.633	92.88
454.853	97.88
455.073	71.88
455.294	81.88
455.514	91.88
455.734	88.88
455.955	86.88
456.175	74.88
456.395	96.88
456.616	91.88
456.836	82.88
457.056	101.88
457.276	82.88
457.497	83.88
457.717	71.88
457.937	92.88
458.157	73.88
458.377	74.88
458.598	110.88
458.818	116.88
459.038	146.88
459.258	117.88
459.478	83.88
459.698	68.88
459.918	82.88
460.138	82.88
460.358	80.88
460.578	98.88
460.798	95.88
461.018	91.88
461.238	87.88
461.458	86.88
461.678	82.88
461.898	85.88
462.118	87.88
462.338	61.88
462.558	79.88
462.777	75.88
462.997	75.88
463.217	92.88
463.437	90.88
463.657	86.88
463.876	68.88
464.096	82.88
464.316	81.88
464.536	80.88
464.755	87.88
464.975	109.88
465.195	141.88
465.414	137.88
465.634	95.88
465.854	90.88
466.073	89.88
466.293	94.88
466.512	84.88
466.732	70.88
466.951	66.88
467.171	91.88
467.391	98.88
467.61	99.88
467.829	104.88
468.049	99.88
468.268	79.88
468.488	92.88
468.707	88.88
468.927	83.88
469.146	80.88
469.365	93.88
469.585	82.88
469.804	94.88
470.023	94.88
470.243	89.88
470.462	87.88
470.681	94.88
470.901	88.88
471.12	91.88
471.339	76.88
471.558	84.88
471.777	65.88
471.997	79.88
472.216	92.88
472.435	100.88
472.654	70.88
472.873	76.88
473.092	78.88
473.311	91.88
473.53	72.88
473.749	98.88
473.968	77.88
474.187	95.88
474.406	98.88
474.625	93.88
474.844	86.88
475.063	88.88
475.282	70.88
475.501	85.88
475.72	82.88
475.939	77.88
476.158	78.88
476.377	77.88
476.596	67.88
476.814	87.88
477.033	82.88
477.252	87.88
477.471	91.88
477.69	81.88
477.908	80.88
478.127	96.88
478.346	84.88
478.564	89.88
478.783	92.88
479.002	98.88
479.22	91.88
479.439	98.88
479.658	93.88
479.876	77.88
480.095	84.88
480.313	94.88
480.532	81.88
480.751	79.88
480.969	90.88
481.188	105.88
481.406	106.88
481.624	89.88
481.843	81.88
482.061	78.88
482.28	73.88
482.498	85.88
482.717	98.88
482.935	92.88
483.153	96.88
483.372	84.88
483.59	77.88
483.808	86.88
484.027	86.88
484.245	101.88
484.463	78.88
484.681	93.88
484.9	90.88
485.118	79.88
485.336	99.88
485.554	97.88
485.772	89.88
485.99	102.88
486.209	110.88
486.427	96.88
486.645	99.88
486.863	115.88
487.081	98.88
487.299	109.88
487.517	75.88
487.735	87.88
487.953	99.88
488.171	77.88
488.389	93.88
488.607	102.88
488.825	91.88
489.043	89.88
489.261	80.88
489.479	99.88
489.696	77.88
489.914	97.88
490.132	86.88
490.35	79.88
490.568	76.88
490.786	84.88
491.003	93.88
491.221	74.88
491.439	82.88
491.657	84.88
491.874	121.88
492.092	92.88
492.31	97.88
492.527	89.88
492.745	90.88
492.963	81.88
493.18	99.88
493.398	80.88
493.615	85.88
493.833	98.88
494.05	82.88
494.268	86.88
494.485	82.88
494.703	76.88
494.92	88.88
495.138	82.88
495.355	80.88
495.573	85.88
495.79	92.88
496.008	86.88
496.225	96.88
496.442	98.88
496.66	92.88
496.877	93.88
497.094	87.88
497.312	101.88
497.529	89.88
497.746	70.88
497.963	80.88
498.181	101.88
498.398	91.88
498.615	99.88
498.832	99.88
499.049	85.88
499.267	77.88
499.484	95.88
499.701	93.88
499.918	89.88
500.135	94.88
500.352	77.88
500.569	87.88
500.786	103.88
501.003	93.88
501.22	87.88
501.437	83.88
501.654	84.88
501.871	94.88
502.088	87.88
502.305	88.88
502.522	89.88
502.739	73.88
502.956	84.88
503.172	92.88
503.389	107.88
503.606	94.88
503.823	103.88
504.04	98.88
504.256	97.88
504.473	89.88
504.69	94.88
504.907	99.88
505.123	101.88
505.34	88.88
505.557	107.88
505.773	86.88
505.99	86.88
506.207	81.88
506.423	90.88
506.64	95.88
506.856	93.88
507.073	85.88
507.289	97.88
507.506	79.88
507.722	93.88
507.939	103.88
508.155	86.88
508.372	70.88
508.588	79.88
508.805	92.88
509.021	92.88
509.238	101.88
509.454	98.88
509.67	94.88
509.887	102.88
510.103	116.88
510.319	201.88
510.536	641.88
510.752	2060.88
510.968	590.88
511.184	138.88
511.401	95.88
511.617	89.88
511.833	94.88
512.049	87.88
512.265	87.88
512.481	106.88
512.698	75.88
512.914	93.88
513.13	82.88
513.346	90.88
513.562	81.88
513.778	104.88
513.994	93.88
514.21	91.88
514.426	121.88
514.642	129.88
514.858	111.88
515.074	139.88
515.29	379.88
515.506	1183.88
515.721	449.88
515.937	151.88
516.153	103.88
516.369	91.88
516.585	79.88
516.801	95.88
