Data from Uncirc_1990_H10_HRD10591_00014.txt Node
Date: Wed Jan 03 11:53:54 EST 2024
User: Yrep
Spectrometer: HR+D1059
Trigger mode: 1
Integration Time (sec): 1.000000E-1
Scans to average: 1
Electric dark correction enabled: true
Nonlinearity correction enabled: false
Boxcar width: 0
XAxis mode: Wavelengths
Number of Pixels in Spectrum: 2048
>>>>>Begin Spectral Data<<<<<
223.165	-19.5
223.4	-19.5
223.635	-19.5
223.869	-18.5
224.104	-10.5
224.338	-21.5
224.573	-20.5
224.808	-10.5
225.042	-10.5
225.277	-6.5
225.511	14.5
225.746	8.5
225.98	2.5
226.215	4.5
226.449	17.5
226.683	16.5
226.918	19.5
227.152	34.5
227.387	26.5
227.621	33.5
227.856	32.5
228.09	47.5
228.324	49.5
228.559	50.5
228.793	56.5
229.027	68.5
229.262	70.5
229.496	77.5
229.73	75.5
229.964	66.5
230.199	76.5
230.433	74.5
230.667	85.5
230.901	72.5
231.136	85.5
231.37	72.5
231.604	68.5
231.838	64.5
232.072	73.5
232.306	82.5
232.541	78.5
232.775	70.5
233.009	69.5
233.243	89.5
233.477	72.5
233.711	73.5
233.945	83.5
234.179	78.5
234.413	76.5
234.647	64.5
234.881	77.5
235.115	77.5
235.349	78.5
235.583	83.5
235.817	84.5
236.051	85.5
236.285	66.5
236.519	76.5
236.753	72.5
236.987	82.5
237.221	72.5
237.455	76.5
237.689	73.5
237.922	74.5
238.156	82.5
238.39	77.5
238.624	80.5
238.858	73.5
239.091	74.5
239.325	86.5
239.559	74.5
239.793	74.5
240.027	76.5
240.26	72.5
240.494	83.5
240.728	85.5
240.961	83.5
241.195	57.5
241.429	75.5
241.662	59.5
241.896	69.5
242.13	67.5
242.363	65.5
242.597	81.5
242.83	65.5
243.064	70.5
243.298	72.5
243.531	66.5
243.765	67.5
243.998	65.5
244.232	73.5
244.465	78.5
244.699	66.5
244.932	73.5
245.166	74.5
245.399	74.5
245.633	74.5
245.866	79.5
246.099	68.5
246.333	76.5
246.566	74.5
246.8	68.5
247.033	80.5
247.266	69.5
247.5	65.5
247.733	82.5
247.966	79.5
248.2	74.5
248.433	73.5
248.666	70.5
248.899	77.5
249.133	78.5
249.366	93.5
249.599	85.5
249.832	68.5
250.066	80.5
250.299	63.5
250.532	65.5
250.765	77.5
250.998	68.5
251.231	84.5
251.465	71.5
251.698	74.5
251.931	78.5
252.164	66.5
252.397	78.5
252.63	80.5
252.863	66.5
253.096	67.5
253.329	79.5
253.562	75.5
253.795	81.5
254.028	76.5
254.261	78.5
254.494	68.5
254.727	93.5
254.96	89.5
255.193	70.5
255.426	67.5
255.659	84.5
255.892	87.5
256.124	86.5
256.357	69.5
256.59	72.5
256.823	76.5
257.056	75.5
257.289	81.5
257.521	78.5
257.754	64.5
257.987	71.5
258.22	91.5
258.452	78.5
258.685	93.5
258.918	89.5
259.151	80.5
259.383	74.5
259.616	79.5
259.849	75.5
260.081	87.5
260.314	80.5
260.547	81.5
260.779	77.5
261.012	75.5
261.244	68.5
261.477	75.5
261.71	90.5
261.942	107.5
262.175	101.5
262.407	71.5
262.64	81.5
262.872	88.5
263.105	81.5
263.337	88.5
263.57	79.5
263.802	76.5
264.035	74.5
264.267	87.5
264.499	92.5
264.732	76.5
264.964	65.5
265.197	84.5
265.429	74.5
265.661	81.5
265.894	76.5
266.126	77.5
266.358	82.5
266.591	77.5
266.823	79.5
267.055	85.5
267.287	89.5
267.52	82.5
267.752	78.5
267.984	75.5
268.216	80.5
268.448	90.5
268.681	81.5
268.913	66.5
269.145	86.5
269.377	83.5
269.609	68.5
269.841	88.5
270.073	82.5
270.306	83.5
270.538	82.5
270.77	70.5
271.002	87.5
271.234	76.5
271.466	81.5
271.698	76.5
271.93	67.5
272.162	84.5
272.394	80.5
272.626	76.5
272.858	87.5
273.09	79.5
273.322	76.5
273.553	85.5
273.785	85.5
274.017	89.5
274.249	83.5
274.481	81.5
274.713	79.5
274.945	74.5
275.176	80.5
275.408	76.5
275.64	96.5
275.872	83.5
276.104	89.5
276.335	104.5
276.567	91.5
276.799	100.5
277.031	86.5
277.262	91.5
277.494	93.5
277.726	77.5
277.957	84.5
278.189	89.5
278.421	79.5
278.652	77.5
278.884	96.5
279.115	83.5
279.347	85.5
279.579	74.5
279.81	86.5
280.042	89.5
280.273	81.5
280.505	91.5
280.736	74.5
280.968	77.5
281.199	85.5
281.431	64.5
281.662	79.5
281.894	92.5
282.125	80.5
282.356	116.5
282.588	115.5
282.819	101.5
283.051	91.5
283.282	88.5
283.513	79.5
283.745	93.5
283.976	80.5
284.207	88.5
284.439	86.5
284.67	95.5
284.901	78.5
285.132	75.5
285.364	84.5
285.595	75.5
285.826	92.5
286.057	88.5
286.288	92.5
286.52	91.5
286.751	81.5
286.982	76.5
287.213	70.5
287.444	76.5
287.675	92.5
287.906	77.5
288.138	94.5
288.369	89.5
288.6	97.5
288.831	77.5
289.062	83.5
289.293	85.5
289.524	85.5
289.755	76.5
289.986	84.5
290.217	79.5
290.448	102.5
290.679	94.5
290.91	84.5
291.141	81.5
291.371	75.5
291.602	74.5
291.833	104.5
292.064	97.5
292.295	84.5
292.526	90.5
292.757	82.5
292.987	97.5
293.218	88.5
293.449	91.5
293.68	94.5
293.91	92.5
294.141	91.5
294.372	75.5
294.603	89.5
294.833	100.5
295.064	79.5
295.295	93.5
295.525	96.5
295.756	116.5
295.987	92.5
296.217	122.5
296.448	119.5
296.679	87.5
296.909	84.5
297.14	78.5
297.37	81.5
297.601	86.5
297.831	82.5
298.062	85.5
298.292	79.5
298.523	86.5
298.753	74.5
298.984	80.5
299.214	90.5
299.445	90.5
299.675	92.5
299.905	85.5
300.136	81.5
300.366	87.5
300.597	90.5
300.827	94.5
301.057	93.5
301.288	98.5
301.518	100.5
301.748	78.5
301.979	92.5
302.209	84.5
302.439	88.5
302.669	91.5
302.9	89.5
303.13	91.5
303.36	104.5
303.59	101.5
303.82	85.5
304.051	79.5
304.281	91.5
304.511	88.5
304.741	93.5
304.971	77.5
305.201	92.5
305.431	72.5
305.661	76.5
305.891	93.5
306.121	92.5
306.352	97.5
306.582	100.5
306.812	96.5
307.042	92.5
307.272	90.5
307.502	91.5
307.731	87.5
307.961	94.5
308.191	88.5
308.421	82.5
308.651	90.5
308.881	87.5
309.111	86.5
309.341	80.5
309.571	99.5
309.8	83.5
310.03	99.5
310.26	95.5
310.49	85.5
310.72	108.5
310.949	107.5
311.179	79.5
311.409	82.5
311.639	88.5
311.868	85.5
312.098	96.5
312.328	97.5
312.557	93.5
312.787	92.5
313.017	108.5
313.246	87.5
313.476	96.5
313.706	84.5
313.935	98.5
314.165	96.5
314.394	99.5
314.624	82.5
314.853	91.5
315.083	86.5
315.312	82.5
315.542	94.5
315.771	85.5
316.001	100.5
316.23	105.5
316.46	94.5
316.689	84.5
316.919	84.5
317.148	91.5
317.377	99.5
317.607	97.5
317.836	98.5
318.065	91.5
318.295	110.5
318.524	89.5
318.753	93.5
318.983	98.5
319.212	93.5
319.441	97.5
319.67	102.5
319.9	90.5
320.129	96.5
320.358	102.5
320.587	98.5
320.816	83.5
321.046	92.5
321.275	104.5
321.504	77.5
321.733	90.5
321.962	93.5
322.191	96.5
322.42	107.5
322.649	100.5
322.878	112.5
323.108	111.5
323.337	130.5
323.566	104.5
323.795	138.5
324.024	181.5
324.253	368.5
324.482	754.5
324.71	1550.5
324.939	2066.5
325.168	769.5
325.397	220.5
325.626	131.5
325.855	118.5
326.084	124.5
326.313	124.5
326.542	137.5
326.77	206.5
326.999	447.5
327.228	839.5
327.457	1580.5
327.686	1275.5
327.914	330.5
328.143	167.5
328.372	110.5
328.6	111.5
328.829	105.5
329.058	117.5
329.287	113.5
329.515	102.5
329.744	97.5
329.972	91.5
330.201	98.5
330.43	85.5
330.658	109.5
330.887	112.5
331.115	114.5
331.344	110.5
331.572	105.5
331.801	96.5
332.03	84.5
332.258	92.5
332.486	88.5
332.715	91.5
332.943	91.5
333.172	94.5
333.4	75.5
333.629	93.5
333.857	96.5
334.085	94.5
334.314	89.5
334.542	87.5
334.771	83.5
334.999	92.5
335.227	89.5
335.455	86.5
335.684	99.5
335.912	88.5
336.14	96.5
336.369	102.5
336.597	103.5
336.825	105.5
337.053	86.5
337.281	101.5
337.51	73.5
337.738	86.5
337.966	92.5
338.194	79.5
338.422	74.5
338.65	97.5
338.878	93.5
339.106	87.5
339.334	92.5
339.562	84.5
339.79	79.5
340.018	86.5
340.246	82.5
340.474	98.5
340.702	94.5
340.93	99.5
341.158	100.5
341.386	86.5
341.614	77.5
341.842	70.5
342.07	72.5
342.298	78.5
342.526	98.5
342.754	85.5
342.981	98.5
343.209	91.5
343.437	96.5
343.665	84.5
343.893	91.5
344.12	98.5
344.348	97.5
344.576	89.5
344.804	97.5
345.031	96.5
345.259	84.5
345.487	91.5
345.714	84.5
345.942	91.5
346.17	89.5
346.397	87.5
346.625	98.5
346.853	96.5
347.08	81.5
347.308	93.5
347.535	93.5
347.763	99.5
347.99	98.5
348.218	86.5
348.445	100.5
348.673	109.5
348.9	84.5
349.128	81.5
349.355	96.5
349.583	89.5
349.81	84.5
350.037	82.5
350.265	112.5
350.492	103.5
350.72	102.5
350.947	109.5
351.174	88.5
351.402	93.5
351.629	97.5
351.856	105.5
352.083	101.5
352.311	103.5
352.538	103.5
352.765	105.5
352.992	99.5
353.22	96.5
353.447	93.5
353.674	111.5
353.901	93.5
354.128	82.5
354.355	88.5
354.583	104.5
354.81	91.5
355.037	102.5
355.264	96.5
355.491	75.5
355.718	76.5
355.945	100.5
356.172	89.5
356.399	105.5
356.626	96.5
356.853	89.5
357.08	84.5
357.307	93.5
357.534	85.5
357.761	93.5
357.988	90.5
358.215	89.5
358.441	87.5
358.668	101.5
358.895	94.5
359.122	88.5
359.349	92.5
359.576	89.5
359.802	81.5
360.029	108.5
360.256	102.5
360.483	110.5
360.709	84.5
360.936	82.5
361.163	98.5
361.39	102.5
361.616	81.5
361.843	83.5
362.07	86.5
362.296	84.5
362.523	94.5
362.749	96.5
362.976	87.5
363.203	96.5
363.429	88.5
363.656	102.5
363.882	81.5
364.109	92.5
364.335	92.5
364.562	93.5
364.788	80.5
365.015	89.5
365.241	94.5
365.468	102.5
365.694	89.5
365.92	90.5
366.147	104.5
366.373	85.5
366.599	99.5
366.826	80.5
367.052	91.5
367.278	78.5
367.505	93.5
367.731	92.5
367.957	84.5
368.184	85.5
368.41	93.5
368.636	94.5
368.862	111.5
369.089	101.5
369.315	98.5
369.541	94.5
369.767	74.5
369.993	95.5
370.219	81.5
370.445	97.5
370.672	86.5
370.898	100.5
371.124	93.5
371.35	78.5
371.576	89.5
371.802	93.5
372.028	101.5
372.254	83.5
372.48	91.5
372.706	86.5
372.932	91.5
373.158	86.5
373.384	76.5
373.61	99.5
373.835	79.5
374.061	83.5
374.287	94.5
374.513	92.5
374.739	78.5
374.965	77.5
375.191	77.5
375.416	82.5
375.642	98.5
375.868	86.5
376.094	99.5
376.319	89.5
376.545	90.5
376.771	97.5
376.997	82.5
377.222	89.5
377.448	82.5
377.674	84.5
377.899	88.5
378.125	91.5
378.35	93.5
378.576	94.5
378.802	79.5
379.027	78.5
379.253	95.5
379.478	86.5
379.704	94.5
379.929	91.5
380.155	99.5
380.38	96.5
380.606	86.5
380.831	98.5
381.057	97.5
381.282	85.5
381.507	88.5
381.733	79.5
381.958	105.5
382.184	95.5
382.409	103.5
382.634	85.5
382.86	95.5
383.085	99.5
383.31	91.5
383.535	94.5
383.761	90.5
383.986	106.5
384.211	94.5
384.436	92.5
384.662	108.5
384.887	86.5
385.112	83.5
385.337	112.5
385.562	85.5
385.787	93.5
386.013	109.5
386.238	108.5
386.463	107.5
386.688	112.5
386.913	101.5
387.138	98.5
387.363	106.5
387.588	100.5
387.813	96.5
388.038	99.5
388.263	112.5
388.488	90.5
388.713	101.5
388.938	109.5
389.163	74.5
389.387	93.5
389.612	122.5
389.837	94.5
390.062	104.5
390.287	92.5
390.512	84.5
390.736	76.5
390.961	78.5
391.186	94.5
391.411	97.5
391.636	94.5
391.86	88.5
392.085	86.5
392.31	83.5
392.534	84.5
392.759	75.5
392.984	88.5
393.208	84.5
393.433	98.5
393.658	94.5
393.882	84.5
394.107	99.5
394.331	98.5
394.556	80.5
394.78	83.5
395.005	96.5
395.229	92.5
395.454	77.5
395.678	77.5
395.903	91.5
396.127	85.5
396.352	92.5
396.576	64.5
396.801	97.5
397.025	96.5
397.249	78.5
397.474	88.5
397.698	82.5
397.922	86.5
398.147	88.5
398.371	76.5
398.595	83.5
398.82	87.5
399.044	92.5
399.268	96.5
399.492	88.5
399.717	86.5
399.941	95.5
400.165	99.5
400.389	76.5
400.613	79.5
400.837	91.5
401.062	96.5
401.286	86.5
401.51	88.5
401.734	96.5
401.958	89.5
402.182	105.5
402.406	138.5
402.63	108.5
402.854	83.5
403.078	85.5
403.302	81.5
403.526	92.5
403.75	89.5
403.974	86.5
404.198	94.5
404.422	102.5
404.645	81.5
404.869	83.5
405.093	86.5
405.317	82.5
405.541	99.5
405.765	82.5
405.988	109.5
406.212	138.5
406.436	203.5
406.66	134.5
406.883	78.5
407.107	80.5
407.331	82.5
407.555	91.5
407.778	96.5
408.002	89.5
408.226	93.5
408.449	80.5
408.673	72.5
408.896	81.5
409.12	90.5
409.344	96.5
409.567	93.5
409.791	88.5
410.014	96.5
410.238	90.5
410.461	101.5
410.685	93.5
410.908	82.5
411.132	85.5
411.355	84.5
411.578	82.5
411.802	87.5
412.025	84.5
412.249	92.5
412.472	91.5
412.695	77.5
412.919	66.5
413.142	81.5
413.365	76.5
413.589	87.5
413.812	91.5
414.035	95.5
414.258	97.5
414.482	92.5
414.705	85.5
414.928	99.5
415.151	86.5
415.374	87.5
415.597	99.5
415.821	88.5
416.044	96.5
416.267	95.5
416.49	97.5
416.713	98.5
416.936	96.5
417.159	93.5
417.382	77.5
417.605	98.5
417.828	83.5
418.051	83.5
418.274	94.5
418.497	75.5
418.72	89.5
418.943	73.5
419.166	87.5
419.389	93.5
419.611	93.5
419.834	89.5
420.057	80.5
420.28	85.5
420.503	95.5
420.726	67.5
420.948	83.5
421.171	100.5
421.394	78.5
421.617	87.5
421.839	86.5
422.062	89.5
422.285	88.5
422.507	74.5
422.73	86.5
422.953	109.5
423.175	97.5
423.398	104.5
423.621	94.5
423.843	94.5
424.066	97.5
424.288	95.5
424.511	82.5
424.733	102.5
424.956	89.5
425.178	90.5
425.401	88.5
425.623	87.5
425.846	91.5
426.068	97.5
426.291	101.5
426.513	87.5
426.735	87.5
426.958	89.5
427.18	112.5
427.402	136.5
427.625	140.5
427.847	118.5
428.069	87.5
428.292	93.5
428.514	76.5
428.736	84.5
428.958	89.5
429.181	89.5
429.403	80.5
429.625	80.5
429.847	86.5
430.069	84.5
430.292	100.5
430.514	80.5
430.736	89.5
430.958	85.5
431.18	80.5
431.402	94.5
431.624	89.5
431.846	76.5
432.068	87.5
432.29	74.5
432.512	86.5
432.734	73.5
432.956	88.5
433.178	83.5
433.4	99.5
433.622	98.5
433.844	89.5
434.066	102.5
434.287	84.5
434.509	99.5
434.731	84.5
434.953	81.5
435.175	85.5
435.397	93.5
435.618	85.5
435.84	91.5
436.062	107.5
436.284	105.5
436.505	106.5
436.727	99.5
436.949	90.5
437.17	80.5
437.392	92.5
437.614	94.5
437.835	96.5
438.057	112.5
438.278	96.5
438.5	97.5
438.721	114.5
438.943	97.5
439.165	84.5
439.386	84.5
439.608	91.5
439.829	100.5
440.05	109.5
440.272	133.5
440.493	85.5
440.715	75.5
440.936	97.5
441.158	81.5
441.379	82.5
441.6	97.5
441.822	87.5
442.043	92.5
442.264	108.5
442.486	98.5
442.707	107.5
442.928	93.5
443.149	113.5
443.371	113.5
443.592	108.5
443.813	113.5
444.034	86.5
444.255	85.5
444.476	88.5
444.698	77.5
444.919	76.5
445.14	137.5
445.361	128.5
445.582	98.5
445.803	126.5
446.024	129.5
446.245	120.5
446.466	88.5
446.687	86.5
446.908	91.5
447.129	94.5
447.35	86.5
447.571	97.5
447.792	95.5
448.013	88.5
448.234	104.5
448.455	100.5
448.675	108.5
448.896	100.5
449.117	90.5
449.338	104.5
449.559	124.5
449.779	135.5
450	100.5
450.221	78.5
450.442	89.5
450.662	86.5
450.883	101.5
451.104	108.5
451.324	88.5
451.545	78.5
451.766	83.5
451.986	101.5
452.207	92.5
452.428	88.5
452.648	96.5
452.869	103.5
453.089	100.5
453.31	106.5
453.53	92.5
453.751	100.5
453.971	91.5
454.192	96.5
454.412	80.5
454.633	80.5
454.853	68.5
455.073	74.5
455.294	93.5
455.514	88.5
455.734	85.5
455.955	78.5
456.175	76.5
456.395	83.5
456.616	84.5
456.836	77.5
457.056	81.5
457.276	83.5
457.497	81.5
457.717	82.5
457.937	77.5
458.157	80.5
458.377	101.5
458.598	103.5
458.818	133.5
459.038	129.5
459.258	109.5
459.478	87.5
459.698	74.5
459.918	90.5
460.138	81.5
460.358	92.5
460.578	80.5
460.798	95.5
461.018	93.5
461.238	86.5
461.458	78.5
461.678	84.5
461.898	91.5
462.118	86.5
462.338	82.5
462.558	80.5
462.777	82.5
462.997	73.5
463.217	86.5
463.437	89.5
463.657	95.5
463.876	81.5
464.096	84.5
464.316	97.5
464.536	76.5
464.755	89.5
464.975	94.5
465.195	128.5
465.414	122.5
465.634	87.5
465.854	82.5
466.073	85.5
466.293	79.5
466.512	85.5
466.732	92.5
466.951	70.5
467.171	94.5
467.391	89.5
467.61	81.5
467.829	80.5
468.049	94.5
468.268	77.5
468.488	87.5
468.707	94.5
468.927	77.5
469.146	84.5
469.365	85.5
469.585	85.5
469.804	80.5
470.023	80.5
470.243	98.5
470.462	90.5
470.681	98.5
470.901	78.5
471.12	71.5
471.339	94.5
471.558	84.5
471.777	80.5
471.997	86.5
472.216	91.5
472.435	93.5
472.654	77.5
472.873	88.5
473.092	78.5
473.311	86.5
473.53	91.5
473.749	72.5
473.968	97.5
474.187	109.5
474.406	92.5
474.625	92.5
474.844	83.5
475.063	81.5
475.282	82.5
475.501	75.5
475.72	90.5
475.939	85.5
476.158	84.5
476.377	87.5
476.596	80.5
476.814	97.5
477.033	88.5
477.252	102.5
477.471	102.5
477.69	82.5
477.908	90.5
478.127	72.5
478.346	89.5
478.564	76.5
478.783	72.5
479.002	100.5
479.22	84.5
479.439	91.5
479.658	107.5
479.876	92.5
480.095	80.5
480.313	80.5
480.532	104.5
480.751	92.5
480.969	104.5
481.188	92.5
481.406	76.5
481.624	86.5
481.843	98.5
482.061	85.5
482.28	72.5
482.498	86.5
482.717	89.5
482.935	97.5
483.153	91.5
483.372	93.5
483.59	92.5
483.808	88.5
484.027	77.5
484.245	90.5
484.463	86.5
484.681	99.5
484.9	84.5
485.118	94.5
485.336	96.5
485.554	85.5
485.772	101.5
485.99	104.5
486.209	96.5
486.427	102.5
486.645	95.5
486.863	117.5
487.081	94.5
487.299	102.5
487.517	91.5
487.735	105.5
487.953	81.5
488.171	90.5
488.389	82.5
488.607	86.5
488.825	83.5
489.043	82.5
489.261	96.5
489.479	84.5
489.696	86.5
489.914	95.5
490.132	95.5
490.35	89.5
490.568	81.5
490.786	85.5
491.003	107.5
491.221	85.5
491.439	91.5
491.657	88.5
491.874	89.5
492.092	82.5
492.31	80.5
492.527	72.5
492.745	97.5
492.963	88.5
493.18	101.5
493.398	94.5
493.615	98.5
493.833	91.5
494.05	75.5
494.268	88.5
494.485	82.5
494.703	76.5
494.92	95.5
495.138	86.5
495.355	103.5
495.573	94.5
495.79	108.5
496.008	74.5
496.225	92.5
496.442	82.5
496.66	81.5
496.877	70.5
497.094	89.5
497.312	78.5
497.529	79.5
497.746	99.5
497.963	90.5
498.181	86.5
498.398	103.5
498.615	108.5
498.832	98.5
499.049	91.5
499.267	92.5
499.484	89.5
499.701	94.5
499.918	83.5
500.135	89.5
500.352	90.5
500.569	90.5
500.786	93.5
501.003	97.5
501.22	76.5
501.437	90.5
501.654	76.5
501.871	100.5
502.088	88.5
502.305	80.5
502.522	74.5
502.739	89.5
502.956	103.5
503.172	82.5
503.389	91.5
503.606	100.5
503.823	81.5
504.04	76.5
504.256	86.5
504.473	100.5
504.69	88.5
504.907	90.5
505.123	82.5
505.34	77.5
505.557	90.5
505.773	79.5
505.99	82.5
506.207	69.5
506.423	95.5
506.64	70.5
506.856	90.5
507.073	94.5
507.289	99.5
507.506	101.5
507.722	101.5
507.939	108.5
508.155	92.5
508.372	84.5
508.588	90.5
508.805	79.5
509.021	86.5
509.238	92.5
509.454	89.5
509.67	102.5
509.887	104.5
510.103	122.5
510.319	196.5
510.536	648.5
510.752	2015.5
510.968	581.5
511.184	140.5
511.401	112.5
511.617	106.5
511.833	88.5
512.049	102.5
512.265	77.5
512.481	84.5
512.698	83.5
512.914	93.5
513.13	81.5
513.346	83.5
513.562	89.5
513.778	89.5
513.994	96.5
514.21	103.5
514.426	116.5
514.642	117.5
514.858	101.5
515.074	128.5
515.29	366.5
515.506	1168.5
515.721	446.5
515.937	132.5
516.153	110.5
516.369	102.5
516.585	76.5
516.801	84.5
517.016	77.5
517.232	93.5
517.448	94.5
517.664	90.5
517.879	75.5
518.095	82.5
518.311	90.5
518.527	97.5
518.742	95.5
518.958	90.5
519.173	96.5
519.389	97.5
519.605	92.5
519.82	94.5
520.036	96.5
520.251	121.5
520.467	123.5
520.682	98.5
520.898	102.5
521.113	110.5
521.329	124.5
521.544	170.5
521.76	445.5
521.975	1944.5
522.19	1161.5
522.406	264.5
522.621	109.5
522.836	87.5
523.052	89.5
523.267	92.5
523.482	84.5
523.698	84.5
523.913	110.5
524.128	104.5
524.343	85.5
524.559	109.5
524.774	98.5
524.989	88.5
525.204	90.5
525.419	93.5
525.634	90.5
525.849	97.5
526.064	88.5
526.28	73.5
526.495	80.5
526.71	84.5
526.925	97.5
527.14	84.5
527.355	84.5
527.57	83.5
527.785	86.5
527.999	85.5
528.214	105.5
528.429	91.5
528.644	87.5
528.859	96.5
529.074	89.5
529.289	133.5
529.503	138.5
529.718	99.5
529.933	94.5
530.148	91.5
530.363	79.5
530.577	96.5
530.792	90.5
531.007	80.5
531.221	93.5
531.436	98.5
531.651	94.5
531.865	86.5
532.08	85.5
532.295	100.5
532.509	104.5
532.724	84.5
532.938	93.5
533.153	101.5
533.367	101.5
533.582	101.5
533.796	92.5
534.011	87.5
534.225	89.5
534.44	100.5
534.654	80.5
534.868	93.5
535.083	83.5
535.297	79.5
535.511	91.5
535.726	104.5
535.94	98.5
536.154	92.5
536.369	87.5
536.583	92.5
