Data from Uncirc_1990_H10_HRD10591_00027.txt Node
Date: Wed Jan 03 11:53:57 EST 2024
User: Yrep
Spectrometer: HR+D1059
Trigger mode: 1
Integration Time (sec): 1.000000E-1
Scans to average: 1
Electric dark correction enabled: true
Nonlinearity correction enabled: false
Boxcar width: 0
XAxis mode: Wavelengths
Number of Pixels in Spectrum: 2048
>>>>>Begin Spectral Data<<<<<
223.165	-12.5
223.4	-12.5
223.635	-12.5
223.869	-27.5
224.104	-27.5
224.338	-12.5
224.573	-15.5
224.808	-4.5
225.042	-15.5
225.277	-6.5
225.511	3.5
225.746	3.5
225.98	0.5
226.215	11.5
226.449	16.5
226.683	17.5
226.918	35.5
227.152	33.5
227.387	25.5
227.621	26.5
227.856	55.5
228.09	38.5
228.324	39.5
228.559	48.5
228.793	49.5
229.027	46.5
229.262	59.5
229.496	56.5
229.73	79.5
229.964	84.5
230.199	73.5
230.433	86.5
230.667	75.5
230.901	68.5
231.136	83.5
231.37	62.5
231.604	65.5
231.838	59.5
232.072	75.5
232.306	80.5
232.541	79.5
232.775	84.5
233.009	81.5
233.243	69.5
233.477	75.5
233.711	66.5
233.945	64.5
234.179	83.5
234.413	75.5
234.647	85.5
234.881	68.5
235.115	81.5
235.349	65.5
235.583	72.5
235.817	65.5
236.051	77.5
236.285	80.5
236.519	83.5
236.753	78.5
236.987	84.5
237.221	76.5
237.455	74.5
237.689	73.5
237.922	79.5
238.156	67.5
238.39	68.5
238.624	77.5
238.858	76.5
239.091	65.5
239.325	78.5
239.559	69.5
239.793	72.5
240.027	87.5
240.26	70.5
240.494	90.5
240.728	77.5
240.961	72.5
241.195	80.5
241.429	53.5
241.662	78.5
241.896	75.5
242.13	75.5
242.363	76.5
242.597	73.5
242.83	62.5
243.064	79.5
243.298	77.5
243.531	86.5
243.765	72.5
243.998	70.5
244.232	80.5
244.465	80.5
244.699	82.5
244.932	63.5
245.166	66.5
245.399	89.5
245.633	62.5
245.866	66.5
246.099	72.5
246.333	60.5
246.566	61.5
246.8	68.5
247.033	81.5
247.266	62.5
247.5	78.5
247.733	80.5
247.966	85.5
248.2	79.5
248.433	66.5
248.666	81.5
248.899	92.5
249.133	78.5
249.366	88.5
249.599	93.5
249.832	81.5
250.066	86.5
250.299	74.5
250.532	91.5
250.765	76.5
250.998	82.5
251.231	64.5
251.465	66.5
251.698	86.5
251.931	80.5
252.164	82.5
252.397	77.5
252.63	93.5
252.863	83.5
253.096	76.5
253.329	93.5
253.562	84.5
253.795	70.5
254.028	84.5
254.261	80.5
254.494	83.5
254.727	82.5
254.96	62.5
255.193	81.5
255.426	80.5
255.659	78.5
255.892	75.5
256.124	85.5
256.357	79.5
256.59	73.5
256.823	75.5
257.056	88.5
257.289	70.5
257.521	78.5
257.754	89.5
257.987	65.5
258.22	74.5
258.452	76.5
258.685	69.5
258.918	75.5
259.151	89.5
259.383	78.5
259.616	81.5
259.849	82.5
260.081	83.5
260.314	84.5
260.547	83.5
260.779	71.5
261.012	72.5
261.244	85.5
261.477	84.5
261.71	89.5
261.942	96.5
262.175	105.5
262.407	87.5
262.64	64.5
262.872	84.5
263.105	82.5
263.337	87.5
263.57	87.5
263.802	89.5
264.035	77.5
264.267	70.5
264.499	56.5
264.732	86.5
264.964	78.5
265.197	79.5
265.429	84.5
265.661	69.5
265.894	79.5
266.126	97.5
266.358	86.5
266.591	83.5
266.823	82.5
267.055	72.5
267.287	84.5
267.52	86.5
267.752	90.5
267.984	87.5
268.216	82.5
268.448	79.5
268.681	88.5
268.913	80.5
269.145	80.5
269.377	72.5
269.609	90.5
269.841	80.5
270.073	79.5
270.306	88.5
270.538	85.5
270.77	83.5
271.002	67.5
271.234	68.5
271.466	66.5
271.698	90.5
271.93	85.5
272.162	66.5
272.394	82.5
272.626	69.5
272.858	90.5
273.09	84.5
273.322	88.5
273.553	90.5
273.785	81.5
274.017	68.5
274.249	70.5
274.481	89.5
274.713	84.5
274.945	80.5
275.176	84.5
275.408	76.5
275.64	92.5
275.872	83.5
276.104	78.5
276.335	96.5
276.567	75.5
276.799	106.5
277.031	81.5
277.262	80.5
277.494	86.5
277.726	89.5
277.957	95.5
278.189	82.5
278.421	75.5
278.652	63.5
278.884	88.5
279.115	79.5
279.347	91.5
279.579	76.5
279.81	78.5
280.042	79.5
280.273	85.5
280.505	89.5
280.736	74.5
280.968	69.5
281.199	92.5
281.431	83.5
281.662	93.5
281.894	92.5
282.125	94.5
282.356	106.5
282.588	122.5
282.819	104.5
283.051	77.5
283.282	90.5
283.513	88.5
283.745	79.5
283.976	90.5
284.207	83.5
284.439	92.5
284.67	86.5
284.901	84.5
285.132	82.5
285.364	78.5
285.595	81.5
285.826	86.5
286.057	84.5
286.288	90.5
286.52	86.5
286.751	80.5
286.982	81.5
287.213	92.5
287.444	85.5
287.675	97.5
287.906	88.5
288.138	82.5
288.369	91.5
288.6	96.5
288.831	87.5
289.062	95.5
289.293	86.5
289.524	77.5
289.755	80.5
289.986	81.5
290.217	86.5
290.448	90.5
290.679	95.5
290.91	78.5
291.141	96.5
291.371	82.5
291.602	96.5
291.833	78.5
292.064	91.5
292.295	94.5
292.526	93.5
292.757	90.5
292.987	70.5
293.218	71.5
293.449	82.5
293.68	89.5
293.91	90.5
294.141	101.5
294.372	87.5
294.603	84.5
294.833	96.5
295.064	78.5
295.295	87.5
295.525	91.5
295.756	94.5
295.987	109.5
296.217	130.5
296.448	100.5
296.679	99.5
296.909	98.5
297.14	91.5
297.37	92.5
297.601	91.5
297.831	89.5
298.062	86.5
298.292	78.5
298.523	69.5
298.753	100.5
298.984	88.5
299.214	92.5
299.445	100.5
299.675	90.5
299.905	90.5
300.136	93.5
300.366	90.5
300.597	90.5
300.827	90.5
301.057	89.5
301.288	102.5
301.518	90.5
301.748	91.5
301.979	110.5
302.209	86.5
302.439	89.5
302.669	68.5
302.9	84.5
303.13	99.5
303.36	85.5
303.59	90.5
303.82	101.5
304.051	91.5
304.281	85.5
304.511	88.5
304.741	89.5
304.971	89.5
305.201	76.5
305.431	86.5
305.661	96.5
305.891	97.5
306.121	82.5
306.352	97.5
306.582	93.5
306.812	95.5
307.042	91.5
307.272	100.5
307.502	81.5
307.731	93.5
307.961	90.5
308.191	100.5
308.421	86.5
308.651	92.5
308.881	82.5
309.111	75.5
309.341	94.5
309.571	84.5
309.8	97.5
310.03	99.5
310.26	82.5
310.49	87.5
310.72	99.5
310.949	97.5
311.179	99.5
311.409	95.5
311.639	85.5
311.868	95.5
312.098	99.5
312.328	87.5
312.557	102.5
312.787	105.5
313.017	89.5
313.246	79.5
313.476	84.5
313.706	84.5
313.935	84.5
314.165	93.5
314.394	88.5
314.624	82.5
314.853	83.5
315.083	87.5
315.312	75.5
315.542	83.5
315.771	89.5
316.001	86.5
316.23	92.5
316.46	80.5
316.689	85.5
316.919	82.5
317.148	94.5
317.377	101.5
317.607	97.5
317.836	78.5
318.065	96.5
318.295	96.5
318.524	79.5
318.753	77.5
318.983	79.5
319.212	102.5
319.441	92.5
319.67	96.5
319.9	79.5
320.129	91.5
320.358	92.5
320.587	93.5
320.816	102.5
321.046	87.5
321.275	98.5
321.504	71.5
321.733	68.5
321.962	104.5
322.191	113.5
322.42	99.5
322.649	111.5
322.878	98.5
323.108	110.5
323.337	116.5
323.566	119.5
323.795	130.5
324.024	187.5
324.253	374.5
324.482	705.5
324.71	1478.5
324.939	1981.5
325.168	732.5
325.397	208.5
325.626	155.5
325.855	122.5
326.084	107.5
326.313	116.5
326.542	148.5
326.77	221.5
326.999	422.5
327.228	840.5
327.457	1530.5
327.686	1237.5
327.914	331.5
328.143	177.5
328.372	123.5
328.6	106.5
328.829	106.5
329.058	124.5
329.287	125.5
329.515	105.5
329.744	97.5
329.972	96.5
330.201	93.5
330.43	114.5
330.658	105.5
330.887	134.5
331.115	116.5
331.344	89.5
331.572	101.5
331.801	106.5
332.03	122.5
332.258	94.5
332.486	94.5
332.715	96.5
332.943	104.5
333.172	100.5
333.4	88.5
333.629	88.5
333.857	99.5
334.085	99.5
334.314	92.5
334.542	97.5
334.771	85.5
334.999	83.5
335.227	89.5
335.455	88.5
335.684	104.5
335.912	92.5
336.14	100.5
336.369	96.5
336.597	93.5
336.825	103.5
337.053	98.5
337.281	90.5
337.51	96.5
337.738	84.5
337.966	90.5
338.194	82.5
338.422	95.5
338.65	94.5
338.878	75.5
339.106	78.5
339.334	101.5
339.562	97.5
339.79	83.5
340.018	101.5
340.246	82.5
340.474	87.5
340.702	93.5
340.93	88.5
341.158	82.5
341.386	97.5
341.614	96.5
341.842	95.5
342.07	95.5
342.298	91.5
342.526	88.5
342.754	84.5
342.981	88.5
343.209	92.5
343.437	96.5
343.665	87.5
343.893	77.5
344.12	94.5
344.348	97.5
344.576	97.5
344.804	95.5
345.031	88.5
345.259	88.5
345.487	98.5
345.714	85.5
345.942	102.5
346.17	87.5
346.397	96.5
346.625	81.5
346.853	105.5
347.08	89.5
347.308	80.5
347.535	92.5
347.763	96.5
347.99	102.5
348.218	87.5
348.445	98.5
348.673	106.5
348.9	87.5
349.128	106.5
349.355	92.5
349.583	85.5
349.81	93.5
350.037	87.5
350.265	95.5
350.492	81.5
350.72	78.5
350.947	91.5
351.174	117.5
351.402	104.5
351.629	107.5
351.856	96.5
352.083	105.5
352.311	101.5
352.538	93.5
352.765	106.5
352.992	106.5
353.22	103.5
353.447	97.5
353.674	93.5
353.901	99.5
354.128	94.5
354.355	93.5
354.583	90.5
354.81	102.5
355.037	107.5
355.264	94.5
355.491	88.5
355.718	89.5
355.945	84.5
356.172	87.5
356.399	98.5
356.626	106.5
356.853	88.5
357.08	93.5
357.307	100.5
357.534	99.5
357.761	101.5
357.988	86.5
358.215	99.5
358.441	86.5
358.668	90.5
358.895	92.5
359.122	94.5
359.349	97.5
359.576	80.5
359.802	89.5
360.029	104.5
360.256	109.5
360.483	93.5
360.709	87.5
360.936	89.5
361.163	80.5
361.39	74.5
361.616	94.5
361.843	87.5
362.07	96.5
362.296	91.5
362.523	99.5
362.749	92.5
362.976	88.5
363.203	94.5
363.429	89.5
363.656	75.5
363.882	90.5
364.109	81.5
364.335	88.5
364.562	72.5
364.788	84.5
365.015	80.5
365.241	96.5
365.468	123.5
365.694	101.5
365.92	91.5
366.147	84.5
366.373	91.5
366.599	90.5
366.826	92.5
367.052	97.5
367.278	95.5
367.505	90.5
367.731	89.5
367.957	82.5
368.184	90.5
368.41	112.5
368.636	115.5
368.862	115.5
369.089	104.5
369.315	97.5
369.541	88.5
369.767	102.5
369.993	90.5
370.219	89.5
370.445	83.5
370.672	86.5
370.898	96.5
371.124	95.5
371.35	100.5
371.576	78.5
371.802	96.5
372.028	91.5
372.254	96.5
372.48	89.5
372.706	76.5
372.932	89.5
373.158	87.5
373.384	84.5
373.61	75.5
373.835	92.5
374.061	90.5
374.287	94.5
374.513	82.5
374.739	88.5
374.965	86.5
375.191	93.5
375.416	99.5
375.642	91.5
375.868	83.5
376.094	78.5
376.319	89.5
376.545	89.5
376.771	89.5
376.997	77.5
377.222	100.5
377.448	88.5
377.674	85.5
377.899	88.5
378.125	81.5
378.35	81.5
378.576	84.5
378.802	85.5
379.027	89.5
379.253	97.5
379.478	95.5
379.704	97.5
379.929	91.5
380.155	98.5
380.38	88.5
380.606	93.5
380.831	100.5
381.057	75.5
381.282	92.5
381.507	97.5
381.733	95.5
381.958	96.5
382.184	101.5
382.409	92.5
382.634	106.5
382.86	97.5
383.085	95.5
383.31	112.5
383.535	101.5
383.761	102.5
383.986	86.5
384.211	91.5
384.436	88.5
384.662	99.5
384.887	93.5
385.112	88.5
385.337	102.5
385.562	93.5
385.787	108.5
386.013	90.5
386.238	96.5
386.463	104.5
386.688	97.5
386.913	104.5
387.138	82.5
387.363	95.5
387.588	97.5
387.813	93.5
388.038	111.5
388.263	112.5
388.488	97.5
388.713	96.5
388.938	96.5
389.163	107.5
389.387	98.5
389.612	82.5
389.837	81.5
390.062	91.5
390.287	83.5
390.512	98.5
390.736	106.5
390.961	92.5
391.186	94.5
391.411	77.5
391.636	77.5
391.86	90.5
392.085	92.5
392.31	88.5
392.534	89.5
392.759	92.5
392.984	92.5
393.208	84.5
393.433	91.5
393.658	92.5
393.882	75.5
394.107	85.5
394.331	91.5
394.556	92.5
394.78	91.5
395.005	98.5
395.229	94.5
395.454	82.5
395.678	78.5
395.903	83.5
396.127	86.5
396.352	81.5
396.576	82.5
396.801	88.5
397.025	91.5
397.249	94.5
397.474	94.5
397.698	84.5
397.922	84.5
398.147	82.5
398.371	82.5
398.595	81.5
398.82	89.5
399.044	86.5
399.268	84.5
399.492	84.5
399.717	82.5
399.941	84.5
400.165	99.5
400.389	95.5
400.613	86.5
400.837	86.5
401.062	86.5
401.286	81.5
401.51	86.5
401.734	87.5
401.958	91.5
402.182	114.5
402.406	139.5
402.63	108.5
402.854	77.5
403.078	84.5
403.302	75.5
403.526	94.5
403.75	92.5
403.974	96.5
404.198	88.5
404.422	88.5
404.645	80.5
404.869	87.5
405.093	93.5
405.317	90.5
405.541	89.5
405.765	80.5
405.988	112.5
406.212	151.5
406.436	173.5
406.66	128.5
406.883	99.5
407.107	79.5
407.331	99.5
407.555	115.5
407.778	95.5
408.002	85.5
408.226	82.5
408.449	78.5
408.673	80.5
408.896	98.5
409.12	96.5
409.344	90.5
409.567	87.5
409.791	93.5
410.014	101.5
410.238	92.5
410.461	95.5
410.685	91.5
410.908	101.5
411.132	95.5
411.355	100.5
411.578	83.5
411.802	79.5
412.025	76.5
412.249	97.5
412.472	76.5
412.695	101.5
412.919	93.5
413.142	102.5
413.365	85.5
413.589	87.5
413.812	88.5
414.035	98.5
414.258	84.5
414.482	86.5
414.705	73.5
414.928	89.5
415.151	91.5
415.374	74.5
415.597	83.5
415.821	88.5
416.044	81.5
416.267	101.5
416.49	85.5
416.713	91.5
416.936	85.5
417.159	95.5
417.382	87.5
417.605	90.5
417.828	95.5
418.051	98.5
418.274	78.5
418.497	82.5
418.72	94.5
418.943	88.5
419.166	88.5
419.389	83.5
419.611	88.5
419.834	86.5
420.057	82.5
420.28	94.5
420.503	83.5
420.726	101.5
420.948	84.5
421.171	88.5
421.394	90.5
421.617	73.5
421.839	76.5
422.062	77.5
422.285	100.5
422.507	110.5
422.73	98.5
422.953	100.5
423.175	92.5
423.398	83.5
423.621	80.5
423.843	74.5
424.066	93.5
424.288	93.5
424.511	92.5
424.733	79.5
424.956	102.5
425.178	78.5
425.401	101.5
425.623	92.5
425.846	92.5
426.068	80.5
426.291	99.5
426.513	87.5
426.735	86.5
426.958	107.5
427.18	101.5
427.402	128.5
427.625	148.5
427.847	122.5
428.069	104.5
428.292	106.5
428.514	95.5
428.736	90.5
428.958	80.5
429.181	94.5
429.403	87.5
429.625	73.5
429.847	76.5
430.069	77.5
430.292	82.5
430.514	90.5
430.736	90.5
430.958	87.5
431.18	85.5
431.402	84.5
431.624	91.5
431.846	81.5
432.068	84.5
432.29	88.5
432.512	92.5
432.734	77.5
432.956	74.5
433.178	107.5
433.4	106.5
433.622	85.5
433.844	89.5
434.066	93.5
434.287	91.5
434.509	93.5
434.731	100.5
434.953	84.5
435.175	95.5
435.397	80.5
435.618	88.5
435.84	112.5
436.062	110.5
436.284	111.5
436.505	108.5
436.727	101.5
436.949	90.5
437.17	72.5
437.392	83.5
437.614	96.5
437.835	93.5
438.057	113.5
438.278	115.5
438.5	107.5
438.721	129.5
438.943	104.5
439.165	96.5
439.386	94.5
439.608	90.5
439.829	97.5
440.05	124.5
440.272	136.5
440.493	99.5
440.715	69.5
440.936	72.5
441.158	95.5
441.379	91.5
441.6	83.5
441.822	86.5
442.043	91.5
442.264	101.5
442.486	91.5
442.707	84.5
442.928	95.5
443.149	113.5
443.371	113.5
443.592	95.5
443.813	93.5
444.034	86.5
444.255	84.5
444.476	84.5
444.698	85.5
444.919	84.5
445.14	137.5
445.361	115.5
445.582	104.5
445.803	140.5
446.024	124.5
446.245	101.5
446.466	91.5
446.687	80.5
446.908	85.5
447.129	97.5
447.35	80.5
447.571	92.5
447.792	87.5
448.013	82.5
448.234	101.5
448.455	101.5
448.675	104.5
448.896	114.5
449.117	80.5
449.338	99.5
449.559	133.5
449.779	125.5
450	102.5
450.221	93.5
450.442	98.5
450.662	83.5
450.883	90.5
451.104	95.5
451.324	77.5
451.545	72.5
451.766	88.5
451.986	80.5
452.207	85.5
452.428	86.5
452.648	102.5
452.869	94.5
453.089	108.5
453.31	110.5
453.53	80.5
453.751	85.5
453.971	96.5
454.192	104.5
454.412	80.5
454.633	85.5
454.853	86.5
455.073	89.5
455.294	86.5
455.514	97.5
455.734	98.5
455.955	88.5
456.175	78.5
456.395	84.5
456.616	69.5
456.836	99.5
457.056	77.5
457.276	80.5
457.497	81.5
457.717	90.5
457.937	83.5
458.157	94.5
458.377	90.5
458.598	109.5
458.818	126.5
459.038	140.5
459.258	99.5
459.478	83.5
459.698	94.5
459.918	92.5
460.138	84.5
460.358	78.5
460.578	92.5
460.798	98.5
461.018	75.5
461.238	78.5
461.458	68.5
461.678	84.5
461.898	81.5
462.118	76.5
462.338	80.5
462.558	81.5
462.777	82.5
462.997	79.5
463.217	79.5
463.437	86.5
463.657	81.5
463.876	86.5
464.096	89.5
464.316	88.5
464.536	89.5
464.755	85.5
464.975	92.5
465.195	142.5
465.414	142.5
465.634	103.5
465.854	72.5
466.073	96.5
466.293	87.5
466.512	79.5
466.732	92.5
466.951	79.5
467.171	84.5
467.391	98.5
467.61	88.5
467.829	90.5
468.049	72.5
468.268	81.5
468.488	76.5
468.707	89.5
468.927	87.5
469.146	74.5
469.365	93.5
469.585	92.5
469.804	85.5
470.023	107.5
470.243	85.5
470.462	97.5
470.681	105.5
470.901	87.5
471.12	79.5
471.339	89.5
471.558	81.5
471.777	81.5
471.997	79.5
472.216	83.5
472.435	84.5
472.654	87.5
472.873	102.5
473.092	91.5
473.311	86.5
473.53	80.5
473.749	99.5
473.968	88.5
474.187	90.5
474.406	78.5
474.625	75.5
474.844	82.5
475.063	89.5
475.282	94.5
475.501	88.5
475.72	89.5
475.939	82.5
476.158	86.5
476.377	71.5
476.596	82.5
476.814	96.5
477.033	77.5
477.252	84.5
477.471	88.5
477.69	69.5
477.908	90.5
478.127	78.5
478.346	90.5
478.564	98.5
478.783	74.5
479.002	98.5
479.22	94.5
479.439	102.5
479.658	102.5
479.876	101.5
480.095	78.5
480.313	96.5
480.532	90.5
480.751	94.5
480.969	82.5
481.188	90.5
481.406	101.5
481.624	93.5
481.843	65.5
482.061	88.5
482.28	60.5
482.498	87.5
482.717	94.5
482.935	64.5
483.153	84.5
483.372	82.5
483.59	90.5
483.808	82.5
484.027	98.5
484.245	90.5
484.463	92.5
484.681	91.5
484.9	102.5
485.118	88.5
485.336	97.5
485.554	103.5
485.772	92.5
485.99	94.5
486.209	98.5
486.427	96.5
486.645	109.5
486.863	110.5
487.081	92.5
487.299	99.5
487.517	86.5
487.735	78.5
487.953	75.5
488.171	82.5
488.389	86.5
488.607	89.5
488.825	86.5
489.043	95.5
489.261	97.5
489.479	80.5
489.696	90.5
489.914	88.5
490.132	66.5
490.35	80.5
490.568	85.5
490.786	82.5
491.003	80.5
491.221	86.5
491.439	108.5
491.657	98.5
491.874	99.5
492.092	98.5
492.31	92.5
492.527	95.5
492.745	84.5
492.963	69.5
493.18	72.5
493.398	92.5
493.615	93.5
493.833	85.5
494.05	75.5
494.268	89.5
494.485	97.5
494.703	97.5
494.92	93.5
495.138	81.5
495.355	85.5
495.573	92.5
495.79	83.5
496.008	97.5
496.225	87.5
496.442	74.5
496.66	91.5
496.877	88.5
497.094	106.5
497.312	89.5
497.529	102.5
497.746	97.5
497.963	94.5
498.181	91.5
498.398	102.5
498.615	101.5
498.832	99.5
499.049	88.5
499.267	93.5
499.484	74.5
499.701	87.5
499.918	98.5
500.135	78.5
500.352	88.5
500.569	91.5
500.786	91.5
501.003	95.5
501.22	65.5
501.437	80.5
501.654	94.5
501.871	98.5
502.088	91.5
502.305	87.5
502.522	113.5
502.739	95.5
502.956	94.5
503.172	82.5
503.389	87.5
503.606	89.5
503.823	98.5
504.04	96.5
504.256	92.5
504.473	89.5
504.69	92.5
504.907	78.5
505.123	74.5
505.34	97.5
505.557	93.5
505.773	89.5
505.99	95.5
506.207	94.5
506.423	93.5
506.64	94.5
506.856	78.5
507.073	78.5
507.289	101.5
507.506	106.5
507.722	107.5
507.939	105.5
508.155	88.5
508.372	80.5
508.588	83.5
508.805	95.5
509.021	87.5
509.238	95.5
509.454	81.5
509.67	88.5
509.887	91.5
510.103	118.5
510.319	180.5
510.536	669.5
510.752	2069.5
510.968	586.5
511.184	136.5
511.401	103.5
511.617	87.5
511.833	90.5
512.049	93.5
512.265	88.5
512.481	87.5
512.698	89.5
512.914	105.5
513.13	85.5
513.346	76.5
513.562	89.5
513.778	87.5
513.994	99.5
514.21	92.5
514.426	97.5
514.642	118.5
514.858	112.5
515.074	140.5
515.29	363.5
515.506	1211.5
515.721	448.5
515.937	124.5
516.153	103.5
516.369	102.5
516.585	80.5
516.801	90.5
517.016	98.5
517.232	95.5
517.448	95.5
517.664	76.5
517.879	93.5
518.095	94.5
518.311	94.5
518.527	92.5
518.742	80.5
518.958	87.5
519.173	100.5
519.389	95.5
519.605	86.5
519.82	100.5
520.036	101.5
520.251	111.5
520.467	104.5
520.682	97.5
520.898	100.5
521.113	100.5
521.329	125.5
521.544	182.5
521.76	440.5
521.975	1984.5
522.19	1218.5
522.406	267.5
522.621	122.5
522.836	121.5
523.052	81.5
523.267	85.5
523.482	100.5
523.698	109.5
523.913	114.5
524.128	101.5
524.343	92.5
524.559	94.5
524.774	90.5
524.989	102.5
525.204	96.5
525.419	90.5
525.634	79.5
525.849	84.5
526.064	94.5
526.28	86.5
526.495	101.5
526.71	80.5
526.925	90.5
527.14	100.5
527.355	86.5
527.57	78.5
527.785	92.5
527.999	91.5
528.214	101.5
528.429	96.5
528.644	93.5
528.859	88.5
529.074	94.5
529.289	131.5
529.503	156.5
529.718	107.5
529.933	94.5
530.148	89.5
530.363	93.5
530.577	89.5
530.792	100.5
531.007	82.5
531.221	104.5
531.436	98.5
531.651	88.5
531.865	89.5
532.08	98.5
532.295	94.5
532.509	88.5
532.724	85.5
532.938	90.5
533.153	97.5
533.367	90.5
533.582	88.5
533.796	82.5
534.011	87.5
534.225	97.5
534.44	108.5
534.654	94.5
534.868	90.5
535.083	79.5
535.297	79.5
535.511	95.5
535.726	101.5
535.94	99.5
536.154	88.5
536.369	70.5
536.583	89.5
