Data from Uncirc_1990_H10_HRD10591_00075.txt Node
Date: Wed Jan 03 11:54:06 EST 2024
User: Yrep
Spectrometer: HR+D1059
Trigger mode: 1
Integration Time (sec): 1.000000E-1
Scans to average: 1
Electric dark correction enabled: true
Nonlinearity correction enabled: false
Boxcar width: 0
XAxis mode: Wavelengths
Number of Pixels in Spectrum: 2048
>>>>>Begin Spectral Data<<<<<
223.165	-12.75
223.4	-12.75
223.635	-12.75
223.869	-23.75
224.104	-17.75
224.338	-18.75
224.573	-19.75
224.808	-10.75
225.042	-7.75
225.277	-0.75
225.511	-8.75
225.746	-5.75
225.98	5.25
226.215	9.25
226.449	28.25
226.683	12.25
226.918	30.25
227.152	41.25
227.387	50.25
227.621	28.25
227.856	54.25
228.09	45.25
228.324	49.25
228.559	53.25
228.793	50.25
229.027	65.25
229.262	87.25
229.496	71.25
229.73	79.25
229.964	78.25
230.199	69.25
230.433	84.25
230.667	71.25
230.901	75.25
231.136	68.25
231.37	76.25
231.604	72.25
231.838	74.25
232.072	86.25
232.306	99.25
232.541	88.25
232.775	91.25
233.009	91.25
233.243	77.25
233.477	90.25
233.711	98.25
233.945	75.25
234.179	64.25
234.413	81.25
234.647	76.25
234.881	87.25
235.115	92.25
235.349	78.25
235.583	72.25
235.817	74.25
236.051	60.25
236.285	69.25
236.519	81.25
236.753	72.25
236.987	83.25
237.221	87.25
237.455	82.25
237.689	76.25
237.922	76.25
238.156	80.25
238.39	75.25
238.624	70.25
238.858	66.25
239.091	71.25
239.325	81.25
239.559	76.25
239.793	80.25
240.027	84.25
240.26	78.25
240.494	83.25
240.728	68.25
240.961	70.25
241.195	76.25
241.429	83.25
241.662	82.25
241.896	84.25
242.13	84.25
242.363	68.25
242.597	75.25
242.83	78.25
243.064	93.25
243.298	62.25
243.531	79.25
243.765	79.25
243.998	79.25
244.232	79.25
244.465	86.25
244.699	79.25
244.932	62.25
245.166	63.25
245.399	76.25
245.633	80.25
245.866	89.25
246.099	70.25
246.333	96.25
246.566	76.25
246.8	79.25
247.033	82.25
247.266	71.25
247.5	85.25
247.733	76.25
247.966	74.25
248.2	67.25
248.433	82.25
248.666	73.25
248.899	61.25
249.133	90.25
249.366	97.25
249.599	96.25
249.832	83.25
250.066	71.25
250.299	66.25
250.532	84.25
250.765	77.25
250.998	74.25
251.231	76.25
251.465	84.25
251.698	62.25
251.931	83.25
252.164	76.25
252.397	70.25
252.63	81.25
252.863	89.25
253.096	71.25
253.329	76.25
253.562	93.25
253.795	87.25
254.028	80.25
254.261	68.25
254.494	91.25
254.727	95.25
254.96	76.25
255.193	79.25
255.426	88.25
255.659	97.25
255.892	83.25
256.124	76.25
256.357	76.25
256.59	96.25
256.823	67.25
257.056	78.25
257.289	70.25
257.521	76.25
257.754	80.25
257.987	87.25
258.22	88.25
258.452	99.25
258.685	95.25
258.918	81.25
259.151	76.25
259.383	75.25
259.616	80.25
259.849	90.25
260.081	79.25
260.314	90.25
260.547	78.25
260.779	88.25
261.012	88.25
261.244	78.25
261.477	100.25
261.71	95.25
261.942	103.25
262.175	105.25
262.407	84.25
262.64	80.25
262.872	76.25
263.105	78.25
263.337	83.25
263.57	86.25
263.802	74.25
264.035	84.25
264.267	87.25
264.499	78.25
264.732	87.25
264.964	80.25
265.197	72.25
265.429	88.25
265.661	96.25
265.894	91.25
266.126	92.25
266.358	101.25
266.591	78.25
266.823	82.25
267.055	60.25
267.287	66.25
267.52	81.25
267.752	84.25
267.984	89.25
268.216	86.25
268.448	78.25
268.681	76.25
268.913	93.25
269.145	85.25
269.377	70.25
269.609	83.25
269.841	83.25
270.073	76.25
270.306	78.25
270.538	90.25
270.77	91.25
271.002	79.25
271.234	96.25
271.466	70.25
271.698	87.25
271.93	79.25
272.162	97.25
272.394	73.25
272.626	79.25
272.858	102.25
273.09	88.25
273.322	90.25
273.553	84.25
273.785	70.25
274.017	86.25
274.249	81.25
274.481	78.25
274.713	80.25
274.945	95.25
275.176	84.25
275.408	106.25
275.64	95.25
275.872	62.25
276.104	97.25
276.335	96.25
276.567	102.25
276.799	111.25
277.031	94.25
277.262	84.25
277.494	84.25
277.726	91.25
277.957	89.25
278.189	91.25
278.421	81.25
278.652	93.25
278.884	84.25
279.115	82.25
279.347	85.25
279.579	72.25
279.81	107.25
280.042	83.25
280.273	96.25
280.505	88.25
280.736	98.25
280.968	94.25
281.199	88.25
281.431	88.25
281.662	80.25
281.894	87.25
282.125	101.25
282.356	102.25
282.588	130.25
282.819	108.25
283.051	85.25
283.282	66.25
283.513	88.25
283.745	93.25
283.976	77.25
284.207	92.25
284.439	83.25
284.67	81.25
284.901	91.25
285.132	97.25
285.364	86.25
285.595	93.25
285.826	86.25
286.057	97.25
286.288	88.25
286.52	98.25
286.751	77.25
286.982	74.25
287.213	81.25
287.444	91.25
287.675	101.25
287.906	91.25
288.138	96.25
288.369	93.25
288.6	93.25
288.831	93.25
289.062	70.25
289.293	93.25
289.524	91.25
289.755	75.25
289.986	90.25
290.217	93.25
290.448	96.25
290.679	88.25
290.91	92.25
291.141	87.25
291.371	84.25
291.602	87.25
291.833	85.25
292.064	83.25
292.295	80.25
292.526	82.25
292.757	95.25
292.987	85.25
293.218	80.25
293.449	77.25
293.68	64.25
293.91	80.25
294.141	88.25
294.372	88.25
294.603	97.25
294.833	80.25
295.064	94.25
295.295	93.25
295.525	91.25
295.756	87.25
295.987	102.25
296.217	112.25
296.448	125.25
296.679	82.25
296.909	99.25
297.14	103.25
297.37	96.25
297.601	80.25
297.831	101.25
298.062	96.25
298.292	96.25
298.523	86.25
298.753	95.25
298.984	99.25
299.214	86.25
299.445	96.25
299.675	87.25
299.905	86.25
300.136	86.25
300.366	86.25
300.597	103.25
300.827	109.25
301.057	98.25
301.288	91.25
301.518	103.25
301.748	98.25
301.979	111.25
302.209	89.25
302.439	90.25
302.669	96.25
302.9	102.25
303.13	78.25
303.36	89.25
303.59	94.25
303.82	97.25
304.051	90.25
304.281	69.25
304.511	84.25
304.741	98.25
304.971	109.25
305.201	85.25
305.431	86.25
305.661	98.25
305.891	92.25
306.121	106.25
306.352	90.25
306.582	101.25
306.812	100.25
307.042	102.25
307.272	105.25
307.502	92.25
307.731	100.25
307.961	75.25
308.191	77.25
308.421	98.25
308.651	87.25
308.881	80.25
309.111	90.25
309.341	78.25
309.571	103.25
309.8	87.25
310.03	81.25
310.26	109.25
310.49	94.25
310.72	94.25
310.949	109.25
311.179	92.25
311.409	85.25
311.639	98.25
311.868	94.25
312.098	87.25
312.328	91.25
312.557	95.25
312.787	93.25
313.017	101.25
313.246	112.25
313.476	95.25
313.706	94.25
313.935	91.25
314.165	92.25
314.394	76.25
314.624	100.25
314.853	99.25
315.083	78.25
315.312	97.25
315.542	93.25
315.771	84.25
316.001	79.25
316.23	82.25
316.46	100.25
316.689	85.25
316.919	84.25
317.148	80.25
317.377	95.25
317.607	96.25
317.836	76.25
318.065	90.25
318.295	83.25
318.524	93.25
318.753	91.25
318.983	93.25
319.212	92.25
319.441	103.25
319.67	103.25
319.9	85.25
320.129	99.25
320.358	96.25
320.587	87.25
320.816	108.25
321.046	76.25
321.275	95.25
321.504	93.25
321.733	99.25
321.962	87.25
322.191	100.25
322.42	99.25
322.649	97.25
322.878	100.25
323.108	114.25
323.337	102.25
323.566	128.25
323.795	132.25
324.024	179.25
324.253	342.25
324.482	712.25
324.71	1493.25
324.939	1954.25
325.168	725.25
325.397	221.25
325.626	142.25
325.855	128.25
326.084	104.25
326.313	122.25
326.542	138.25
326.77	211.25
326.999	387.25
327.228	814.25
327.457	1533.25
327.686	1207.25
327.914	332.25
328.143	177.25
328.372	136.25
328.6	106.25
328.829	119.25
329.058	99.25
329.287	108.25
329.515	111.25
329.744	96.25
329.972	102.25
330.201	107.25
330.43	118.25
330.658	116.25
330.887	117.25
331.115	98.25
331.344	95.25
331.572	92.25
331.801	106.25
332.03	110.25
332.258	103.25
332.486	107.25
332.715	87.25
332.943	97.25
333.172	86.25
333.4	94.25
333.629	100.25
333.857	110.25
334.085	106.25
334.314	108.25
334.542	110.25
334.771	116.25
334.999	95.25
335.227	102.25
335.455	117.25
335.684	97.25
335.912	77.25
336.14	110.25
336.369	112.25
336.597	101.25
336.825	92.25
337.053	103.25
337.281	88.25
337.51	83.25
337.738	101.25
337.966	91.25
338.194	83.25
338.422	84.25
338.65	89.25
338.878	96.25
339.106	86.25
339.334	96.25
339.562	101.25
339.79	86.25
340.018	83.25
340.246	92.25
340.474	83.25
340.702	91.25
340.93	86.25
341.158	99.25
341.386	88.25
341.614	98.25
341.842	95.25
342.07	101.25
342.298	94.25
342.526	98.25
342.754	95.25
342.981	96.25
343.209	90.25
343.437	86.25
343.665	99.25
343.893	99.25
344.12	88.25
344.348	108.25
344.576	89.25
344.804	79.25
345.031	84.25
345.259	86.25
345.487	80.25
345.714	94.25
345.942	108.25
346.17	98.25
346.397	92.25
346.625	86.25
346.853	79.25
347.08	78.25
347.308	94.25
347.535	101.25
347.763	104.25
347.99	98.25
348.218	87.25
348.445	102.25
348.673	95.25
348.9	108.25
349.128	80.25
349.355	110.25
349.583	94.25
349.81	81.25
350.037	82.25
350.265	94.25
350.492	103.25
350.72	106.25
350.947	112.25
351.174	108.25
351.402	108.25
351.629	100.25
351.856	98.25
352.083	108.25
352.311	104.25
352.538	97.25
352.765	100.25
352.992	107.25
353.22	105.25
353.447	106.25
353.674	97.25
353.901	85.25
354.128	96.25
354.355	93.25
354.583	99.25
354.81	99.25
355.037	95.25
355.264	86.25
355.491	93.25
355.718	95.25
355.945	93.25
356.172	88.25
356.399	107.25
356.626	105.25
356.853	91.25
357.08	102.25
357.307	95.25
357.534	86.25
357.761	99.25
357.988	90.25
358.215	83.25
358.441	85.25
358.668	91.25
358.895	94.25
359.122	89.25
359.349	88.25
359.576	84.25
359.802	87.25
360.029	89.25
360.256	112.25
360.483	85.25
360.709	83.25
360.936	94.25
361.163	106.25
361.39	86.25
361.616	83.25
361.843	92.25
362.07	86.25
362.296	85.25
362.523	96.25
362.749	87.25
362.976	96.25
363.203	91.25
363.429	86.25
363.656	100.25
363.882	90.25
364.109	88.25
364.335	90.25
364.562	95.25
364.788	89.25
365.015	93.25
365.241	100.25
365.468	119.25
365.694	88.25
365.92	91.25
366.147	94.25
366.373	81.25
366.599	84.25
366.826	101.25
367.052	94.25
367.278	93.25
367.505	86.25
367.731	88.25
367.957	89.25
368.184	88.25
368.41	102.25
368.636	102.25
368.862	104.25
369.089	97.25
369.315	93.25
369.541	103.25
369.767	92.25
369.993	99.25
370.219	93.25
370.445	87.25
370.672	97.25
370.898	92.25
371.124	96.25
371.35	86.25
371.576	82.25
371.802	92.25
372.028	87.25
372.254	94.25
372.48	79.25
372.706	76.25
372.932	85.25
373.158	79.25
373.384	90.25
373.61	89.25
373.835	75.25
374.061	101.25
374.287	82.25
374.513	75.25
374.739	86.25
374.965	87.25
375.191	99.25
375.416	84.25
375.642	96.25
375.868	78.25
376.094	83.25
376.319	94.25
376.545	80.25
376.771	85.25
376.997	86.25
377.222	103.25
377.448	96.25
377.674	95.25
377.899	76.25
378.125	87.25
378.35	94.25
378.576	88.25
378.802	84.25
379.027	70.25
379.253	95.25
379.478	76.25
379.704	100.25
379.929	78.25
380.155	88.25
380.38	78.25
380.606	87.25
380.831	78.25
381.057	107.25
381.282	90.25
381.507	113.25
381.733	94.25
381.958	74.25
382.184	93.25
382.409	111.25
382.634	100.25
382.86	100.25
383.085	102.25
383.31	104.25
383.535	93.25
383.761	98.25
383.986	87.25
384.211	96.25
384.436	100.25
384.662	108.25
384.887	94.25
385.112	101.25
385.337	92.25
385.562	101.25
385.787	99.25
386.013	99.25
386.238	106.25
386.463	84.25
386.688	101.25
386.913	103.25
387.138	86.25
387.363	90.25
387.588	109.25
387.813	116.25
388.038	103.25
388.263	100.25
388.488	100.25
388.713	105.25
388.938	90.25
389.163	112.25
389.387	83.25
389.612	97.25
389.837	95.25
390.062	85.25
390.287	81.25
390.512	87.25
390.736	82.25
390.961	96.25
391.186	105.25
391.411	90.25
391.636	102.25
391.86	87.25
392.085	87.25
392.31	81.25
392.534	88.25
392.759	95.25
392.984	86.25
393.208	78.25
393.433	82.25
393.658	71.25
393.882	85.25
394.107	90.25
394.331	83.25
394.556	83.25
394.78	100.25
395.005	74.25
395.229	86.25
395.454	85.25
395.678	92.25
395.903	86.25
396.127	84.25
396.352	91.25
396.576	87.25
396.801	92.25
397.025	98.25
397.249	83.25
397.474	79.25
397.698	71.25
397.922	92.25
398.147	85.25
398.371	77.25
398.595	88.25
398.82	80.25
399.044	91.25
399.268	101.25
399.492	97.25
399.717	94.25
399.941	85.25
400.165	102.25
400.389	108.25
400.613	99.25
400.837	84.25
401.062	79.25
401.286	74.25
401.51	95.25
401.734	92.25
401.958	94.25
402.182	119.25
402.406	157.25
402.63	119.25
402.854	105.25
403.078	95.25
403.302	76.25
403.526	95.25
403.75	99.25
403.974	82.25
404.198	82.25
404.422	87.25
404.645	85.25
404.869	93.25
405.093	94.25
405.317	88.25
405.541	87.25
405.765	83.25
405.988	102.25
406.212	135.25
406.436	206.25
406.66	122.25
406.883	91.25
407.107	99.25
407.331	95.25
407.555	103.25
407.778	98.25
408.002	71.25
408.226	90.25
408.449	80.25
408.673	84.25
408.896	81.25
409.12	102.25
409.344	78.25
409.567	94.25
409.791	88.25
410.014	101.25
410.238	94.25
410.461	92.25
410.685	91.25
410.908	97.25
411.132	94.25
411.355	90.25
411.578	104.25
411.802	97.25
412.025	103.25
412.249	94.25
412.472	79.25
412.695	92.25
412.919	73.25
413.142	94.25
413.365	86.25
413.589	104.25
413.812	98.25
414.035	88.25
414.258	84.25
414.482	91.25
414.705	78.25
414.928	107.25
415.151	82.25
415.374	89.25
415.597	84.25
415.821	89.25
416.044	82.25
416.267	94.25
416.49	96.25
416.713	91.25
416.936	97.25
417.159	91.25
417.382	84.25
417.605	75.25
417.828	77.25
418.051	98.25
418.274	92.25
418.497	99.25
418.72	90.25
418.943	97.25
419.166	75.25
419.389	67.25
419.611	80.25
419.834	99.25
420.057	71.25
420.28	78.25
420.503	88.25
420.726	90.25
420.948	94.25
421.171	107.25
421.394	92.25
421.617	90.25
421.839	86.25
422.062	70.25
422.285	79.25
422.507	108.25
422.73	106.25
422.953	77.25
423.175	94.25
423.398	96.25
423.621	91.25
423.843	96.25
424.066	82.25
424.288	96.25
424.511	86.25
424.733	106.25
424.956	98.25
425.178	91.25
425.401	79.25
425.623	87.25
425.846	82.25
426.068	95.25
426.291	97.25
426.513	68.25
426.735	82.25
426.958	87.25
427.18	100.25
427.402	128.25
427.625	140.25
427.847	129.25
428.069	102.25
428.292	91.25
428.514	98.25
428.736	76.25
428.958	71.25
429.181	85.25
429.403	85.25
429.625	99.25
429.847	85.25
430.069	94.25
430.292	81.25
430.514	90.25
430.736	87.25
430.958	84.25
431.18	92.25
431.402	88.25
431.624	82.25
431.846	74.25
432.068	78.25
432.29	86.25
432.512	78.25
432.734	95.25
432.956	93.25
433.178	98.25
433.4	82.25
433.622	105.25
433.844	92.25
434.066	97.25
434.287	90.25
434.509	83.25
434.731	92.25
434.953	83.25
435.175	86.25
435.397	82.25
435.618	91.25
435.84	92.25
436.062	112.25
436.284	114.25
436.505	91.25
436.727	101.25
436.949	94.25
437.17	91.25
437.392	95.25
437.614	75.25
437.835	100.25
438.057	108.25
438.278	104.25
438.5	95.25
438.721	104.25
438.943	93.25
439.165	100.25
439.386	87.25
439.608	101.25
439.829	88.25
440.05	118.25
440.272	120.25
440.493	90.25
440.715	78.25
440.936	76.25
441.158	93.25
441.379	99.25
441.6	104.25
441.822	94.25
442.043	103.25
442.264	98.25
442.486	90.25
442.707	81.25
442.928	80.25
443.149	123.25
443.371	118.25
443.592	106.25
443.813	98.25
444.034	97.25
444.255	86.25
444.476	96.25
444.698	84.25
444.919	87.25
445.14	111.25
445.361	116.25
445.582	109.25
445.803	119.25
446.024	124.25
446.245	131.25
446.466	96.25
446.687	92.25
446.908	82.25
447.129	91.25
447.35	87.25
447.571	90.25
447.792	94.25
448.013	95.25
448.234	95.25
448.455	100.25
448.675	116.25
448.896	110.25
449.117	86.25
449.338	104.25
449.559	109.25
449.779	131.25
450	102.25
450.221	81.25
450.442	77.25
450.662	93.25
450.883	107.25
451.104	105.25
451.324	74.25
451.545	92.25
451.766	81.25
451.986	88.25
452.207	90.25
452.428	95.25
452.648	90.25
452.869	93.25
453.089	90.25
453.31	116.25
453.53	83.25
453.751	88.25
453.971	104.25
454.192	105.25
454.412	88.25
454.633	89.25
454.853	95.25
455.073	84.25
455.294	82.25
455.514	90.25
455.734	78.25
455.955	79.25
456.175	83.25
456.395	82.25
456.616	71.25
456.836	77.25
457.056	82.25
457.276	95.25
457.497	92.25
457.717	87.25
457.937	90.25
458.157	91.25
458.377	86.25
458.598	84.25
458.818	142.25
459.038	146.25
459.258	107.25
459.478	94.25
459.698	82.25
459.918	99.25
460.138	70.25
460.358	59.25
460.578	86.25
460.798	68.25
461.018	87.25
461.238	98.25
461.458	80.25
461.678	91.25
461.898	86.25
462.118	89.25
462.338	79.25
462.558	79.25
462.777	85.25
462.997	94.25
463.217	83.25
463.437	87.25
463.657	95.25
463.876	90.25
464.096	74.25
464.316	90.25
464.536	95.25
464.755	82.25
464.975	99.25
465.195	147.25
465.414	138.25
465.634	100.25
465.854	83.25
466.073	80.25
466.293	79.25
466.512	85.25
466.732	95.25
466.951	91.25
467.171	105.25
467.391	102.25
467.61	98.25
467.829	91.25
468.049	99.25
468.268	99.25
468.488	93.25
468.707	76.25
468.927	85.25
469.146	84.25
469.365	88.25
469.585	69.25
469.804	99.25
470.023	91.25
470.243	82.25
470.462	95.25
470.681	90.25
470.901	87.25
471.12	80.25
471.339	74.25
471.558	93.25
471.777	88.25
471.997	87.25
472.216	97.25
472.435	115.25
472.654	91.25
472.873	83.25
473.092	86.25
473.311	83.25
473.53	80.25
473.749	87.25
473.968	93.25
474.187	87.25
474.406	85.25
474.625	90.25
474.844	91.25
475.063	81.25
475.282	96.25
475.501	78.25
475.72	92.25
475.939	83.25
476.158	98.25
476.377	91.25
476.596	86.25
476.814	83.25
477.033	78.25
477.252	81.25
477.471	76.25
477.69	92.25
477.908	92.25
478.127	82.25
478.346	87.25
478.564	87.25
478.783	87.25
479.002	92.25
479.22	95.25
479.439	93.25
479.658	108.25
479.876	110.25
480.095	96.25
480.313	101.25
480.532	97.25
480.751	100.25
480.969	110.25
481.188	131.25
481.406	136.25
481.624	93.25
481.843	81.25
482.061	110.25
482.28	102.25
482.498	78.25
482.717	93.25
482.935	102.25
483.153	88.25
483.372	94.25
483.59	90.25
483.808	84.25
484.027	90.25
484.245	94.25
484.463	93.25
484.681	98.25
484.9	105.25
485.118	85.25
485.336	84.25
485.554	81.25
485.772	106.25
485.99	100.25
486.209	82.25
486.427	85.25
486.645	101.25
486.863	106.25
487.081	85.25
487.299	98.25
487.517	87.25
487.735	95.25
487.953	100.25
488.171	92.25
488.389	90.25
488.607	78.25
488.825	85.25
489.043	92.25
489.261	87.25
489.479	76.25
489.696	102.25
489.914	98.25
490.132	92.25
490.35	95.25
490.568	97.25
490.786	93.25
491.003	91.25
491.221	95.25
491.439	95.25
491.657	87.25
491.874	104.25
492.092	100.25
492.31	94.25
492.527	83.25
492.745	74.25
492.963	92.25
493.18	100.25
493.398	85.25
493.615	108.25
493.833	82.25
494.05	93.25
494.268	94.25
494.485	97.25
494.703	92.25
494.92	89.25
495.138	100.25
495.355	89.25
495.573	90.25
495.79	77.25
496.008	92.25
496.225	90.25
496.442	84.25
496.66	94.25
496.877	95.25
497.094	103.25
497.312	95.25
497.529	76.25
497.746	84.25
497.963	81.25
498.181	86.25
498.398	88.25
498.615	91.25
498.832	103.25
499.049	92.25
499.267	71.25
499.484	95.25
499.701	82.25
499.918	90.25
500.135	75.25
500.352	91.25
500.569	91.25
500.786	101.25
501.003	104.25
501.22	98.25
501.437	79.25
501.654	82.25
501.871	101.25
502.088	92.25
502.305	70.25
502.522	80.25
502.739	87.25
502.956	98.25
503.172	86.25
503.389	95.25
503.606	100.25
503.823	82.25
504.04	104.25
504.256	85.25
504.473	98.25
504.69	84.25
504.907	96.25
505.123	82.25
505.34	79.25
505.557	99.25
505.773	88.25
505.99	87.25
506.207	84.25
506.423	93.25
506.64	86.25
506.856	91.25
507.073	86.25
507.289	102.25
507.506	93.25
507.722	104.25
507.939	110.25
508.155	94.25
508.372	70.25
508.588	100.25
508.805	101.25
509.021	93.25
509.238	94.25
509.454	111.25
509.67	92.25
509.887	118.25
510.103	111.25
510.319	198.25
510.536	637.25
510.752	1992.25
510.968	562.25
511.184	123.25
511.401	104.25
511.617	99.25
511.833	83.25
512.049	95.25
512.265	83.25
512.481	96.25
512.698	113.25
512.914	105.25
513.13	92.25
513.346	110.25
513.562	87.25
513.778	87.25
513.994	97.25
514.21	97.25
514.426	110.25
514.642	111.25
514.858	121.25
515.074	144.25
515.29	362.25
515.506	1159.25
515.721	423.25
515.937	142.25
516.153	101.25
