Data from Uncirc_1990_H10_HRD10591_00052.txt Node
Date: Wed Jan 03 11:54:02 EST 2024
User: Yrep
Spectrometer: HR+D1059
Trigger mode: 1
Integration Time (sec): 1.000000E-1
Scans to average: 1
Electric dark correction enabled: true
Nonlinearity correction enabled: false
Boxcar width: 0
XAxis mode: Wavelengths
Number of Pixels in Spectrum: 2048
>>>>>Begin Spectral Data<<<<<
223.165	-20.44
223.4	-20.44
223.635	-20.44
223.869	-18.44
224.104	-21.44
224.338	-24.44
224.573	-12.44
224.808	-5.44
225.042	-2.44
225.277	-6.44
225.511	-2.44
225.746	-2.44
225.98	5.56
226.215	14.56
226.449	15.56
226.683	15.56
226.918	25.56
227.152	39.56
227.387	36.56
227.621	39.56
227.856	47.56
228.09	41.56
228.324	47.56
228.559	41.56
228.793	31.56
229.027	79.56
229.262	67.56
229.496	68.56
229.73	75.56
229.964	69.56
230.199	75.56
230.433	79.56
230.667	64.56
230.901	72.56
231.136	81.56
231.37	86.56
231.604	83.56
231.838	83.56
232.072	80.56
232.306	83.56
232.541	87.56
232.775	94.56
233.009	69.56
233.243	67.56
233.477	81.56
233.711	80.56
233.945	74.56
234.179	71.56
234.413	91.56
234.647	72.56
234.881	76.56
235.115	77.56
235.349	75.56
235.583	78.56
235.817	62.56
236.051	78.56
236.285	76.56
236.519	81.56
236.753	92.56
236.987	79.56
237.221	80.56
237.455	69.56
237.689	81.56
237.922	84.56
238.156	72.56
238.39	81.56
238.624	81.56
238.858	84.56
239.091	82.56
239.325	76.56
239.559	68.56
239.793	63.56
240.027	83.56
240.26	75.56
240.494	82.56
240.728	59.56
240.961	77.56
241.195	77.56
241.429	80.56
241.662	86.56
241.896	77.56
242.13	59.56
242.363	68.56
242.597	83.56
242.83	79.56
243.064	80.56
243.298	76.56
243.531	84.56
243.765	69.56
243.998	75.56
244.232	75.56
244.465	80.56
244.699	84.56
244.932	81.56
245.166	67.56
245.399	87.56
245.633	83.56
245.866	82.56
246.099	79.56
246.333	68.56
246.566	88.56
246.8	65.56
247.033	70.56
247.266	76.56
247.5	95.56
247.733	82.56
247.966	76.56
248.2	82.56
248.433	68.56
248.666	65.56
248.899	79.56
249.133	91.56
249.366	93.56
249.599	108.56
249.832	87.56
250.066	83.56
250.299	96.56
250.532	103.56
250.765	81.56
250.998	70.56
251.231	88.56
251.465	72.56
251.698	82.56
251.931	70.56
252.164	89.56
252.397	88.56
252.63	70.56
252.863	73.56
253.096	91.56
253.329	83.56
253.562	79.56
253.795	79.56
254.028	81.56
254.261	83.56
254.494	77.56
254.727	75.56
254.96	75.56
255.193	87.56
255.426	81.56
255.659	91.56
255.892	92.56
256.124	91.56
256.357	93.56
256.59	73.56
256.823	82.56
257.056	80.56
257.289	81.56
257.521	82.56
257.754	84.56
257.987	86.56
258.22	77.56
258.452	72.56
258.685	79.56
258.918	88.56
259.151	79.56
259.383	70.56
259.616	83.56
259.849	80.56
260.081	96.56
260.314	85.56
260.547	79.56
260.779	64.56
261.012	85.56
261.244	77.56
261.477	72.56
261.71	93.56
261.942	103.56
262.175	112.56
262.407	87.56
262.64	80.56
262.872	78.56
263.105	89.56
263.337	90.56
263.57	94.56
263.802	80.56
264.035	95.56
264.267	79.56
264.499	96.56
264.732	74.56
264.964	79.56
265.197	69.56
265.429	79.56
265.661	78.56
265.894	90.56
266.126	63.56
266.358	83.56
266.591	79.56
266.823	76.56
267.055	83.56
267.287	81.56
267.52	76.56
267.752	79.56
267.984	83.56
268.216	83.56
268.448	70.56
268.681	84.56
268.913	81.56
269.145	100.56
269.377	69.56
269.609	80.56
269.841	83.56
270.073	92.56
270.306	99.56
270.538	84.56
270.77	72.56
271.002	78.56
271.234	91.56
271.466	93.56
271.698	96.56
271.93	77.56
272.162	88.56
272.394	80.56
272.626	89.56
272.858	86.56
273.09	85.56
273.322	75.56
273.553	67.56
273.785	83.56
274.017	91.56
274.249	79.56
274.481	86.56
274.713	76.56
274.945	68.56
275.176	92.56
275.408	95.56
275.64	91.56
275.872	99.56
276.104	97.56
276.335	94.56
276.567	98.56
276.799	101.56
277.031	100.56
277.262	72.56
277.494	96.56
277.726	88.56
277.957	97.56
278.189	82.56
278.421	92.56
278.652	88.56
278.884	88.56
279.115	80.56
279.347	92.56
279.579	95.56
279.81	87.56
280.042	98.56
280.273	81.56
280.505	90.56
280.736	80.56
280.968	84.56
281.199	85.56
281.431	83.56
281.662	88.56
281.894	89.56
282.125	90.56
282.356	132.56
282.588	129.56
282.819	116.56
283.051	77.56
283.282	87.56
283.513	88.56
283.745	98.56
283.976	88.56
284.207	77.56
284.439	88.56
284.67	100.56
284.901	84.56
285.132	85.56
285.364	78.56
285.595	79.56
285.826	76.56
286.057	87.56
286.288	90.56
286.52	98.56
286.751	95.56
286.982	69.56
287.213	68.56
287.444	78.56
287.675	76.56
287.906	78.56
288.138	82.56
288.369	91.56
288.6	100.56
288.831	88.56
289.062	91.56
289.293	73.56
289.524	76.56
289.755	89.56
289.986	89.56
290.217	87.56
290.448	83.56
290.679	87.56
290.91	89.56
291.141	101.56
291.371	91.56
291.602	88.56
291.833	85.56
292.064	94.56
292.295	77.56
292.526	80.56
292.757	90.56
292.987	88.56
293.218	84.56
293.449	92.56
293.68	101.56
293.91	75.56
294.141	89.56
294.372	96.56
294.603	99.56
294.833	94.56
295.064	88.56
295.295	86.56
295.525	102.56
295.756	98.56
295.987	110.56
296.217	127.56
296.448	117.56
296.679	99.56
296.909	99.56
297.14	73.56
297.37	86.56
297.601	99.56
297.831	81.56
298.062	99.56
298.292	89.56
298.523	89.56
298.753	93.56
298.984	101.56
299.214	70.56
299.445	92.56
299.675	100.56
299.905	84.56
300.136	92.56
300.366	90.56
300.597	93.56
300.827	101.56
301.057	96.56
301.288	113.56
301.518	86.56
301.748	85.56
301.979	100.56
302.209	97.56
302.439	98.56
302.669	88.56
302.9	87.56
303.13	89.56
303.36	77.56
303.59	98.56
303.82	93.56
304.051	95.56
304.281	86.56
304.511	85.56
304.741	92.56
304.971	84.56
305.201	93.56
305.431	81.56
305.661	83.56
305.891	94.56
306.121	89.56
306.352	104.56
306.582	112.56
306.812	101.56
307.042	107.56
307.272	108.56
307.502	97.56
307.731	98.56
307.961	97.56
308.191	93.56
308.421	99.56
308.651	95.56
308.881	89.56
309.111	78.56
309.341	85.56
309.571	86.56
309.8	93.56
310.03	115.56
310.26	100.56
310.49	90.56
310.72	105.56
310.949	118.56
311.179	91.56
311.409	94.56
311.639	91.56
311.868	87.56
312.098	94.56
312.328	93.56
312.557	100.56
312.787	102.56
313.017	110.56
313.246	95.56
313.476	85.56
313.706	91.56
313.935	95.56
314.165	109.56
314.394	113.56
314.624	109.56
314.853	103.56
315.083	95.56
315.312	99.56
315.542	80.56
315.771	95.56
316.001	94.56
316.23	99.56
316.46	91.56
316.689	97.56
316.919	110.56
317.148	112.56
317.377	85.56
317.607	79.56
317.836	100.56
318.065	102.56
318.295	96.56
318.524	79.56
318.753	88.56
318.983	102.56
319.212	98.56
319.441	93.56
319.67	97.56
319.9	80.56
320.129	98.56
320.358	96.56
320.587	92.56
320.816	104.56
321.046	112.56
321.275	104.56
321.504	96.56
321.733	119.56
321.962	114.56
322.191	102.56
322.42	105.56
322.649	120.56
322.878	112.56
323.108	116.56
323.337	130.56
323.566	128.56
323.795	153.56
324.024	191.56
324.253	370.56
324.482	775.56
324.71	1595.56
324.939	2086.56
325.168	759.56
325.397	225.56
325.626	147.56
325.855	130.56
326.084	118.56
326.313	131.56
326.542	147.56
326.77	209.56
326.999	424.56
327.228	893.56
327.457	1656.56
327.686	1279.56
327.914	360.56
328.143	185.56
328.372	151.56
328.6	132.56
328.829	120.56
329.058	128.56
329.287	135.56
329.515	110.56
329.744	98.56
329.972	87.56
330.201	92.56
330.43	124.56
330.658	117.56
330.887	142.56
331.115	113.56
331.344	107.56
331.572	104.56
331.801	104.56
332.03	113.56
332.258	95.56
332.486	94.56
332.715	98.56
332.943	96.56
333.172	89.56
333.4	88.56
333.629	89.56
333.857	112.56
334.085	100.56
334.314	99.56
334.542	117.56
334.771	99.56
334.999	116.56
335.227	96.56
335.455	95.56
335.684	97.56
335.912	104.56
336.14	93.56
336.369	93.56
336.597	102.56
336.825	91.56
337.053	83.56
337.281	87.56
337.51	94.56
337.738	92.56
337.966	101.56
338.194	100.56
338.422	106.56
338.65	99.56
338.878	95.56
339.106	91.56
339.334	94.56
339.562	84.56
339.79	91.56
340.018	79.56
340.246	91.56
340.474	91.56
340.702	92.56
340.93	95.56
341.158	96.56
341.386	92.56
341.614	89.56
341.842	101.56
342.07	95.56
342.298	100.56
342.526	93.56
342.754	93.56
342.981	91.56
343.209	84.56
343.437	102.56
343.665	103.56
343.893	83.56
344.12	97.56
344.348	87.56
344.576	100.56
344.804	97.56
345.031	101.56
345.259	104.56
345.487	84.56
345.714	96.56
345.942	94.56
346.17	96.56
346.397	85.56
346.625	86.56
346.853	97.56
347.08	102.56
347.308	100.56
347.535	88.56
347.763	101.56
347.99	104.56
348.218	119.56
348.445	110.56
348.673	88.56
348.9	98.56
349.128	93.56
349.355	110.56
349.583	103.56
349.81	103.56
350.037	103.56
350.265	100.56
350.492	91.56
350.72	99.56
350.947	118.56
351.174	97.56
351.402	100.56
351.629	100.56
351.856	100.56
352.083	110.56
352.311	108.56
352.538	109.56
352.765	102.56
352.992	123.56
353.22	115.56
353.447	104.56
353.674	101.56
353.901	80.56
354.128	101.56
354.355	91.56
354.583	96.56
354.81	94.56
355.037	105.56
355.264	107.56
355.491	93.56
355.718	100.56
355.945	93.56
356.172	104.56
356.399	100.56
356.626	97.56
356.853	93.56
357.08	104.56
357.307	88.56
357.534	100.56
357.761	102.56
357.988	100.56
358.215	104.56
358.441	88.56
358.668	101.56
358.895	93.56
359.122	101.56
359.349	103.56
359.576	83.56
359.802	99.56
360.029	97.56
360.256	91.56
360.483	95.56
360.709	96.56
360.936	93.56
361.163	97.56
361.39	99.56
361.616	85.56
361.843	112.56
362.07	100.56
362.296	85.56
362.523	102.56
362.749	105.56
362.976	108.56
363.203	98.56
363.429	89.56
363.656	93.56
363.882	93.56
364.109	105.56
364.335	96.56
364.562	89.56
364.788	83.56
365.015	99.56
365.241	91.56
365.468	99.56
365.694	94.56
365.92	93.56
366.147	87.56
366.373	85.56
366.599	103.56
366.826	90.56
367.052	89.56
367.278	92.56
367.505	91.56
367.731	100.56
367.957	106.56
368.184	91.56
368.41	94.56
368.636	108.56
368.862	120.56
369.089	99.56
369.315	92.56
369.541	85.56
369.767	92.56
369.993	97.56
370.219	96.56
370.445	90.56
370.672	82.56
370.898	93.56
371.124	90.56
371.35	84.56
371.576	83.56
371.802	96.56
372.028	87.56
372.254	99.56
372.48	92.56
372.706	82.56
372.932	91.56
373.158	91.56
373.384	88.56
373.61	86.56
373.835	95.56
374.061	91.56
374.287	104.56
374.513	95.56
374.739	82.56
374.965	81.56
375.191	91.56
375.416	77.56
375.642	95.56
375.868	98.56
376.094	89.56
376.319	92.56
376.545	85.56
376.771	98.56
376.997	92.56
377.222	87.56
377.448	95.56
377.674	102.56
377.899	98.56
378.125	103.56
378.35	103.56
378.576	107.56
378.802	73.56
379.027	90.56
379.253	97.56
379.478	88.56
379.704	86.56
379.929	85.56
380.155	91.56
380.38	84.56
380.606	100.56
380.831	96.56
381.057	102.56
381.282	95.56
381.507	82.56
381.733	96.56
381.958	95.56
382.184	86.56
382.409	107.56
382.634	100.56
382.86	91.56
383.085	93.56
383.31	111.56
383.535	97.56
383.761	115.56
383.986	95.56
384.211	93.56
384.436	85.56
384.662	94.56
384.887	121.56
385.112	115.56
385.337	96.56
385.562	104.56
385.787	90.56
386.013	90.56
386.238	125.56
386.463	98.56
386.688	107.56
386.913	108.56
387.138	96.56
387.363	104.56
387.588	98.56
387.813	102.56
388.038	98.56
388.263	104.56
388.488	108.56
388.713	97.56
388.938	102.56
389.163	98.56
389.387	95.56
389.612	88.56
389.837	94.56
390.062	86.56
390.287	92.56
390.512	95.56
390.736	86.56
390.961	99.56
391.186	98.56
391.411	105.56
391.636	95.56
391.86	80.56
392.085	84.56
392.31	93.56
392.534	94.56
392.759	87.56
392.984	86.56
393.208	83.56
393.433	99.56
393.658	90.56
393.882	87.56
394.107	105.56
394.331	98.56
394.556	81.56
394.78	91.56
395.005	90.56
395.229	73.56
395.454	78.56
395.678	81.56
395.903	86.56
396.127	100.56
396.352	100.56
396.576	80.56
396.801	91.56
397.025	92.56
397.249	89.56
397.474	86.56
397.698	98.56
397.922	73.56
398.147	83.56
398.371	90.56
398.595	88.56
398.82	94.56
399.044	96.56
399.268	89.56
399.492	95.56
399.717	89.56
399.941	75.56
400.165	96.56
400.389	94.56
400.613	83.56
400.837	90.56
401.062	87.56
401.286	89.56
401.51	96.56
401.734	77.56
401.958	102.56
402.182	117.56
402.406	137.56
402.63	126.56
402.854	105.56
403.078	102.56
403.302	99.56
403.526	95.56
403.75	90.56
403.974	97.56
404.198	104.56
404.422	98.56
404.645	97.56
404.869	91.56
405.093	86.56
405.317	84.56
405.541	95.56
405.765	104.56
405.988	100.56
406.212	142.56
406.436	212.56
406.66	126.56
406.883	96.56
407.107	100.56
407.331	89.56
407.555	89.56
407.778	100.56
408.002	105.56
408.226	91.56
408.449	98.56
408.673	92.56
408.896	83.56
409.12	96.56
409.344	91.56
409.567	88.56
409.791	96.56
410.014	111.56
410.238	88.56
410.461	94.56
410.685	110.56
410.908	87.56
411.132	93.56
411.355	89.56
411.578	92.56
411.802	73.56
412.025	88.56
412.249	96.56
412.472	99.56
412.695	89.56
412.919	93.56
413.142	92.56
413.365	87.56
413.589	98.56
413.812	98.56
414.035	85.56
414.258	90.56
414.482	95.56
414.705	92.56
414.928	99.56
415.151	80.56
415.374	104.56
415.597	85.56
415.821	93.56
416.044	100.56
416.267	91.56
416.49	86.56
416.713	91.56
416.936	90.56
417.159	77.56
417.382	82.56
417.605	97.56
417.828	99.56
418.051	89.56
418.274	99.56
418.497	103.56
418.72	97.56
418.943	98.56
419.166	88.56
419.389	91.56
419.611	77.56
419.834	94.56
420.057	90.56
420.28	84.56
420.503	88.56
420.726	97.56
420.948	84.56
421.171	86.56
421.394	94.56
421.617	105.56
421.839	96.56
422.062	84.56
422.285	83.56
422.507	99.56
422.73	108.56
422.953	93.56
423.175	83.56
423.398	88.56
423.621	91.56
423.843	87.56
424.066	76.56
424.288	79.56
424.511	85.56
424.733	89.56
424.956	99.56
425.178	103.56
425.401	100.56
425.623	96.56
425.846	95.56
426.068	101.56
426.291	96.56
426.513	85.56
426.735	95.56
426.958	96.56
427.18	104.56
427.402	133.56
427.625	153.56
427.847	123.56
428.069	91.56
428.292	81.56
428.514	87.56
428.736	74.56
428.958	88.56
429.181	86.56
429.403	76.56
429.625	77.56
429.847	82.56
430.069	93.56
430.292	94.56
430.514	84.56
430.736	96.56
430.958	89.56
431.18	95.56
431.402	91.56
431.624	80.56
431.846	88.56
432.068	95.56
432.29	103.56
432.512	71.56
432.734	68.56
432.956	82.56
433.178	91.56
433.4	89.56
433.622	89.56
433.844	100.56
434.066	96.56
434.287	92.56
434.509	86.56
434.731	91.56
434.953	110.56
435.175	79.56
435.397	99.56
435.618	109.56
435.84	88.56
436.062	110.56
436.284	111.56
436.505	97.56
436.727	114.56
436.949	101.56
437.17	96.56
437.392	88.56
437.614	93.56
437.835	116.56
438.057	111.56
438.278	98.56
438.5	103.56
438.721	113.56
438.943	99.56
439.165	92.56
439.386	100.56
439.608	98.56
439.829	89.56
440.05	107.56
440.272	137.56
440.493	104.56
440.715	88.56
440.936	89.56
441.158	91.56
441.379	95.56
441.6	95.56
441.822	95.56
442.043	100.56
442.264	98.56
442.486	99.56
442.707	93.56
442.928	95.56
443.149	130.56
443.371	127.56
443.592	108.56
443.813	109.56
444.034	99.56
444.255	87.56
444.476	83.56
444.698	97.56
444.919	99.56
445.14	130.56
445.361	124.56
445.582	107.56
445.803	136.56
446.024	131.56
446.245	139.56
446.466	100.56
446.687	90.56
446.908	89.56
447.129	90.56
447.35	85.56
447.571	100.56
447.792	89.56
448.013	98.56
448.234	111.56
448.455	95.56
448.675	96.56
448.896	106.56
449.117	96.56
449.338	102.56
449.559	135.56
449.779	133.56
450	94.56
450.221	81.56
450.442	76.56
450.662	86.56
450.883	103.56
451.104	105.56
451.324	110.56
451.545	80.56
451.766	94.56
451.986	89.56
452.207	84.56
452.428	94.56
452.648	96.56
452.869	112.56
453.089	104.56
453.31	114.56
453.53	88.56
453.751	99.56
453.971	107.56
454.192	111.56
454.412	108.56
454.633	92.56
454.853	92.56
455.073	100.56
455.294	96.56
455.514	104.56
455.734	82.56
455.955	88.56
456.175	71.56
456.395	76.56
456.616	82.56
456.836	94.56
457.056	79.56
457.276	83.56
457.497	65.56
457.717	101.56
457.937	81.56
458.157	92.56
458.377	98.56
458.598	98.56
458.818	135.56
459.038	144.56
459.258	102.56
459.478	101.56
459.698	84.56
459.918	76.56
460.138	92.56
460.358	88.56
460.578	86.56
460.798	92.56
461.018	86.56
461.238	97.56
461.458	90.56
461.678	103.56
461.898	86.56
462.118	76.56
462.338	87.56
462.558	86.56
462.777	87.56
462.997	92.56
463.217	85.56
463.437	91.56
463.657	83.56
463.876	88.56
464.096	87.56
464.316	73.56
464.536	84.56
464.755	92.56
464.975	113.56
465.195	151.56
465.414	148.56
465.634	87.56
465.854	91.56
466.073	83.56
466.293	91.56
466.512	100.56
466.732	95.56
466.951	86.56
467.171	97.56
467.391	100.56
467.61	81.56
467.829	90.56
468.049	102.56
468.268	92.56
468.488	88.56
468.707	102.56
468.927	84.56
469.146	78.56
469.365	86.56
469.585	81.56
469.804	90.56
470.023	87.56
470.243	84.56
470.462	98.56
470.681	102.56
470.901	98.56
471.12	85.56
471.339	87.56
471.558	89.56
471.777	77.56
471.997	78.56
472.216	95.56
472.435	105.56
472.654	97.56
472.873	86.56
473.092	85.56
473.311	88.56
473.53	95.56
473.749	90.56
473.968	100.56
474.187	95.56
474.406	102.56
474.625	88.56
474.844	73.56
475.063	85.56
475.282	97.56
475.501	93.56
475.72	87.56
475.939	79.56
476.158	100.56
476.377	85.56
476.596	90.56
476.814	92.56
477.033	93.56
477.252	93.56
477.471	90.56
477.69	95.56
477.908	81.56
478.127	87.56
478.346	89.56
478.564	90.56
478.783	85.56
479.002	83.56
479.22	93.56
479.439	100.56
479.658	105.56
479.876	80.56
480.095	98.56
480.313	99.56
480.532	97.56
480.751	86.56
480.969	100.56
481.188	116.56
481.406	105.56
481.624	87.56
481.843	93.56
482.061	71.56
482.28	78.56
482.498	84.56
482.717	95.56
482.935	82.56
483.153	92.56
483.372	96.56
483.59	95.56
483.808	87.56
484.027	71.56
484.245	100.56
484.463	99.56
484.681	93.56
484.9	83.56
485.118	98.56
485.336	97.56
485.554	102.56
485.772	96.56
485.99	104.56
486.209	110.56
486.427	103.56
486.645	104.56
486.863	108.56
487.081	103.56
487.299	95.56
487.517	94.56
487.735	99.56
487.953	102.56
488.171	108.56
488.389	77.56
488.607	84.56
488.825	81.56
489.043	98.56
489.261	95.56
489.479	96.56
489.696	96.56
489.914	91.56
490.132	93.56
490.35	97.56
490.568	89.56
490.786	94.56
491.003	95.56
491.221	89.56
491.439	97.56
491.657	96.56
491.874	84.56
492.092	99.56
492.31	89.56
492.527	92.56
492.745	76.56
492.963	84.56
493.18	86.56
493.398	98.56
493.615	102.56
493.833	93.56
494.05	79.56
494.268	98.56
494.485	98.56
494.703	81.56
494.92	87.56
495.138	91.56
495.355	79.56
495.573	112.56
495.79	85.56
496.008	87.56
496.225	85.56
496.442	90.56
496.66	98.56
496.877	95.56
497.094	97.56
497.312	86.56
497.529	98.56
497.746	86.56
497.963	80.56
498.181	94.56
498.398	105.56
498.615	105.56
498.832	104.56
499.049	85.56
499.267	96.56
499.484	78.56
499.701	95.56
499.918	91.56
500.135	94.56
500.352	84.56
500.569	83.56
500.786	95.56
501.003	96.56
501.22	89.56
501.437	92.56
501.654	111.56
501.871	107.56
502.088	101.56
502.305	82.56
502.522	91.56
502.739	92.56
502.956	96.56
503.172	86.56
503.389	101.56
503.606	107.56
503.823	82.56
504.04	88.56
504.256	81.56
504.473	79.56
504.69	86.56
504.907	104.56
505.123	79.56
505.34	98.56
505.557	75.56
505.773	87.56
505.99	85.56
506.207	81.56
506.423	92.56
506.64	93.56
506.856	93.56
507.073	87.56
507.289	87.56
507.506	86.56
507.722	101.56
507.939	89.56
508.155	84.56
508.372	91.56
508.588	93.56
508.805	111.56
509.021	91.56
509.238	110.56
509.454	91.56
509.67	99.56
509.887	100.56
510.103	128.56
510.319	181.56
510.536	697.56
510.752	2223.56
510.968	607.56
511.184	161.56
511.401	110.56
511.617	105.56
511.833	88.56
512.049	92.56
512.265	94.56
512.481	72.56
512.698	92.56
512.914	108.56
513.13	94.56
513.346	90.56
513.562	91.56
513.778	87.56
513.994	101.56
514.21	103.56
514.426	115.56
514.642	114.56
514.858	116.56
515.074	150.56
515.29	407.56
515.506	1343.56
