Data from Uncirc_1990_H10_HRD10591_00004.txt Node
Date: Wed Jan 03 11:53:52 EST 2024
User: Yrep
Spectrometer: HR+D1059
Trigger mode: 1
Integration Time (sec): 1.000000E-1
Scans to average: 1
Electric dark correction enabled: true
Nonlinearity correction enabled: false
Boxcar width: 0
XAxis mode: Wavelengths
Number of Pixels in Spectrum: 2048
>>>>>Begin Spectral Data<<<<<
223.165	-17
223.4	-17
223.635	-17
223.869	-19
224.104	-25
224.338	-29
224.573	-21
224.808	-8
225.042	8
225.277	-1
225.511	-11
225.746	-4
225.98	13
226.215	15
226.449	8
226.683	37
226.918	28
227.152	26
227.387	26
227.621	20
227.856	53
228.09	51
228.324	62
228.559	48
228.793	46
229.027	71
229.262	62
229.496	63
229.73	61
229.964	64
230.199	66
230.433	62
230.667	67
230.901	89
231.136	65
231.37	80
231.604	91
231.838	67
232.072	90
232.306	75
232.541	73
232.775	89
233.009	85
233.243	75
233.477	68
233.711	78
233.945	71
234.179	76
234.413	94
234.647	83
234.881	72
235.115	74
235.349	72
235.583	60
235.817	90
236.051	83
236.285	68
236.519	64
236.753	77
236.987	79
237.221	80
237.455	80
237.689	84
237.922	63
238.156	83
238.39	69
238.624	81
238.858	87
239.091	84
239.325	75
239.559	59
239.793	61
240.027	75
240.26	52
240.494	77
240.728	72
240.961	84
241.195	88
241.429	71
241.662	71
241.896	74
242.13	82
242.363	82
242.597	70
242.83	75
243.064	77
243.298	74
243.531	85
243.765	94
243.998	84
244.232	64
244.465	78
244.699	84
244.932	89
245.166	64
245.399	89
245.633	79
245.866	85
246.099	70
246.333	60
246.566	80
246.8	70
247.033	82
247.266	68
247.5	79
247.733	76
247.966	79
248.2	90
248.433	69
248.666	77
248.899	67
249.133	73
249.366	89
249.599	89
249.832	75
250.066	81
250.299	96
250.532	92
250.765	64
250.998	60
251.231	76
251.465	65
251.698	75
251.931	75
252.164	65
252.397	66
252.63	74
252.863	76
253.096	83
253.329	71
253.562	72
253.795	82
254.028	60
254.261	71
254.494	73
254.727	78
254.96	76
255.193	67
255.426	62
255.659	75
255.892	79
256.124	81
256.357	87
256.59	80
256.823	75
257.056	80
257.289	81
257.521	92
257.754	77
257.987	60
258.22	83
258.452	77
258.685	83
258.918	78
259.151	87
259.383	80
259.616	84
259.849	80
260.081	83
260.314	94
260.547	72
260.779	71
261.012	71
261.244	83
261.477	80
261.71	92
261.942	104
262.175	109
262.407	77
262.64	77
262.872	83
263.105	81
263.337	75
263.57	76
263.802	75
264.035	65
264.267	72
264.499	79
264.732	75
264.964	79
265.197	79
265.429	79
265.661	82
265.894	73
266.126	87
266.358	74
266.591	75
266.823	82
267.055	75
267.287	65
267.52	96
267.752	79
267.984	93
268.216	75
268.448	80
268.681	87
268.913	85
269.145	82
269.377	70
269.609	88
269.841	69
270.073	68
270.306	83
270.538	73
270.77	74
271.002	86
271.234	83
271.466	85
271.698	75
271.93	71
272.162	87
272.394	75
272.626	79
272.858	81
273.09	67
273.322	89
273.553	83
273.785	85
274.017	75
274.249	90
274.481	81
274.713	94
274.945	95
275.176	89
275.408	88
275.64	92
275.872	78
276.104	93
276.335	85
276.567	88
276.799	83
277.031	87
277.262	83
277.494	83
277.726	80
277.957	88
278.189	84
278.421	79
278.652	74
278.884	88
279.115	98
279.347	83
279.579	75
279.81	82
280.042	80
280.273	87
280.505	78
280.736	80
280.968	78
281.199	84
281.431	72
281.662	88
281.894	83
282.125	98
282.356	106
282.588	119
282.819	95
283.051	74
283.282	67
283.513	84
283.745	80
283.976	85
284.207	79
284.439	87
284.67	97
284.901	87
285.132	77
285.364	76
285.595	82
285.826	72
286.057	89
286.288	91
286.52	75
286.751	81
286.982	81
287.213	81
287.444	95
287.675	75
287.906	78
288.138	82
288.369	95
288.6	98
288.831	72
289.062	75
289.293	71
289.524	84
289.755	64
289.986	72
290.217	84
290.448	81
290.679	87
290.91	89
291.141	95
291.371	90
291.602	83
291.833	92
292.064	100
292.295	83
292.526	89
292.757	77
292.987	88
293.218	84
293.449	87
293.68	91
293.91	101
294.141	96
294.372	79
294.603	77
294.833	84
295.064	97
295.295	83
295.525	77
295.756	107
295.987	98
296.217	116
296.448	97
296.679	107
296.909	93
297.14	94
297.37	86
297.601	86
297.831	82
298.062	73
298.292	87
298.523	81
298.753	80
298.984	89
299.214	83
299.445	100
299.675	91
299.905	87
300.136	82
300.366	91
300.597	76
300.827	96
301.057	96
301.288	87
301.518	88
301.748	91
301.979	79
302.209	100
302.439	92
302.669	83
302.9	81
303.13	85
303.36	77
303.59	96
303.82	96
304.051	98
304.281	97
304.511	79
304.741	71
304.971	84
305.201	88
305.431	87
305.661	77
305.891	76
306.121	99
306.352	88
306.582	92
306.812	83
307.042	87
307.272	75
307.502	85
307.731	99
307.961	83
308.191	84
308.421	85
308.651	91
308.881	94
309.111	89
309.341	99
309.571	91
309.8	96
310.03	95
310.26	85
310.49	83
310.72	77
310.949	94
311.179	90
311.409	83
311.639	93
311.868	88
312.098	89
312.328	84
312.557	98
312.787	92
313.017	88
313.246	76
313.476	91
313.706	87
313.935	81
314.165	99
314.394	100
314.624	82
314.853	89
315.083	84
315.312	83
315.542	81
315.771	82
316.001	81
316.23	88
316.46	78
316.689	75
316.919	94
317.148	99
317.377	81
317.607	89
317.836	95
318.065	88
318.295	90
318.524	79
318.753	63
318.983	95
319.212	100
319.441	100
319.67	88
319.9	87
320.129	84
320.358	78
320.587	75
320.816	73
321.046	97
321.275	89
321.504	93
321.733	99
321.962	93
322.191	98
322.42	91
322.649	108
322.878	95
323.108	114
323.337	115
323.566	101
323.795	135
324.024	167
324.253	307
324.482	632
324.71	1280
324.939	1696
325.168	633
325.397	202
325.626	135
325.855	125
326.084	103
326.313	109
326.542	127
326.77	167
326.999	354
327.228	745
327.457	1355
327.686	1063
327.914	299
328.143	165
328.372	116
328.6	101
328.829	96
329.058	96
329.287	106
329.515	106
329.744	96
329.972	76
330.201	82
330.43	107
330.658	105
330.887	106
331.115	110
331.344	87
331.572	87
331.801	94
332.03	107
332.258	104
332.486	94
332.715	83
332.943	80
333.172	84
333.4	90
333.629	77
333.857	90
334.085	91
334.314	86
334.542	100
334.771	91
334.999	102
335.227	84
335.455	91
335.684	94
335.912	88
336.14	77
336.369	88
336.597	76
336.825	64
337.053	90
337.281	77
337.51	77
337.738	91
337.966	95
338.194	90
338.422	74
338.65	90
338.878	77
339.106	80
339.334	81
339.562	84
339.79	100
340.018	92
340.246	88
340.474	80
340.702	100
340.93	74
341.158	91
341.386	94
341.614	94
341.842	78
342.07	89
342.298	77
342.526	88
342.754	79
342.981	87
343.209	76
343.437	88
343.665	79
343.893	75
344.12	92
344.348	93
344.576	86
344.804	99
345.031	93
345.259	91
345.487	90
345.714	83
345.942	84
346.17	75
346.397	92
346.625	70
346.853	84
347.08	85
347.308	85
347.535	91
347.763	81
347.99	81
348.218	108
348.445	98
348.673	92
348.9	104
349.128	75
349.355	87
349.583	100
349.81	96
350.037	101
350.265	87
350.492	91
350.72	87
350.947	97
351.174	92
351.402	90
351.629	85
351.856	103
352.083	106
352.311	109
352.538	100
352.765	85
352.992	101
353.22	108
353.447	99
353.674	108
353.901	95
354.128	99
354.355	81
354.583	101
354.81	89
355.037	97
355.264	95
355.491	86
355.718	91
355.945	112
356.172	90
356.399	99
356.626	94
356.853	91
357.08	89
357.307	108
357.534	83
357.761	81
357.988	110
358.215	103
358.441	96
358.668	96
358.895	81
359.122	96
359.349	88
359.576	88
359.802	98
360.029	89
360.256	84
360.483	80
360.709	87
360.936	94
361.163	79
361.39	81
361.616	97
361.843	92
362.07	76
362.296	103
362.523	77
362.749	79
362.976	68
363.203	76
363.429	93
363.656	90
363.882	77
364.109	82
364.335	83
364.562	69
364.788	67
365.015	90
365.241	93
365.468	103
365.694	86
365.92	93
366.147	95
366.373	76
366.599	68
366.826	86
367.052	87
367.278	90
367.505	94
367.731	86
367.957	85
368.184	87
368.41	92
368.636	98
368.862	108
369.089	105
369.315	84
369.541	83
369.767	87
369.993	78
370.219	96
370.445	85
370.672	97
370.898	93
371.124	96
371.35	75
371.576	78
371.802	83
372.028	84
372.254	67
372.48	83
372.706	67
372.932	80
373.158	80
373.384	83
373.61	97
373.835	84
374.061	76
374.287	79
374.513	98
374.739	92
374.965	89
375.191	91
375.416	99
375.642	94
375.868	95
376.094	91
376.319	84
376.545	84
376.771	86
376.997	81
377.222	93
377.448	81
377.674	81
377.899	84
378.125	80
378.35	91
378.576	96
378.802	82
379.027	83
379.253	97
379.478	98
379.704	78
379.929	105
380.155	86
380.38	75
380.606	89
380.831	107
381.057	98
381.282	82
381.507	90
381.733	110
381.958	99
382.184	86
382.409	88
382.634	106
382.86	79
383.085	95
383.31	91
383.535	91
383.761	92
383.986	95
384.211	91
384.436	95
384.662	95
384.887	99
385.112	95
385.337	116
385.562	103
385.787	91
386.013	95
386.238	122
386.463	93
386.688	101
386.913	94
387.138	115
387.363	99
387.588	105
387.813	112
388.038	100
388.263	115
388.488	94
388.713	81
388.938	104
389.163	93
389.387	82
389.612	111
389.837	96
390.062	79
390.287	96
390.512	82
390.736	91
390.961	96
391.186	94
391.411	90
391.636	91
391.86	84
392.085	91
392.31	79
392.534	90
392.759	93
392.984	92
393.208	83
393.433	107
393.658	96
393.882	92
394.107	79
394.331	89
394.556	88
394.78	85
395.005	94
395.229	97
395.454	90
395.678	81
395.903	85
396.127	89
396.352	98
396.576	95
396.801	88
397.025	81
397.249	99
397.474	85
397.698	100
397.922	81
398.147	90
398.371	84
398.595	75
398.82	87
399.044	83
399.268	81
399.492	96
399.717	72
399.941	76
400.165	76
400.389	93
400.613	79
400.837	91
401.062	85
401.286	98
401.51	85
401.734	88
401.958	90
402.182	100
402.406	139
402.63	104
402.854	90
403.078	82
403.302	95
403.526	84
403.75	86
403.974	84
404.198	86
404.422	74
404.645	80
404.869	88
405.093	86
405.317	96
405.541	99
405.765	87
405.988	103
406.212	139
406.436	167
406.66	122
406.883	94
407.107	103
407.331	86
407.555	97
407.778	75
408.002	80
408.226	83
408.449	92
408.673	90
408.896	78
409.12	100
409.344	77
409.567	80
409.791	97
410.014	90
410.238	97
410.461	90
410.685	89
410.908	99
411.132	88
411.355	107
411.578	104
411.802	85
412.025	91
412.249	83
412.472	88
412.695	83
412.919	82
413.142	82
413.365	83
413.589	99
413.812	101
414.035	85
414.258	80
414.482	89
414.705	87
414.928	83
415.151	98
415.374	96
415.597	80
415.821	88
416.044	71
416.267	79
416.49	84
416.713	82
416.936	98
417.159	81
417.382	84
417.605	83
417.828	83
418.051	72
418.274	86
418.497	75
418.72	75
418.943	89
419.166	95
419.389	87
419.611	80
419.834	77
420.057	83
420.28	74
420.503	86
420.726	97
420.948	88
421.171	88
421.394	92
421.617	97
421.839	85
422.062	81
422.285	91
422.507	89
422.73	97
422.953	88
423.175	73
423.398	85
423.621	81
423.843	84
424.066	85
424.288	89
424.511	91
424.733	97
424.956	104
425.178	94
425.401	83
425.623	98
425.846	72
426.068	95
426.291	79
426.513	87
426.735	78
426.958	85
427.18	79
427.402	111
427.625	148
427.847	108
428.069	98
428.292	81
428.514	91
428.736	84
428.958	73
429.181	79
429.403	77
429.625	84
429.847	72
430.069	87
430.292	85
430.514	87
430.736	85
430.958	90
431.18	100
431.402	72
431.624	87
431.846	82
432.068	90
432.29	78
432.512	81
432.734	80
432.956	95
433.178	91
433.4	91
433.622	90
433.844	74
434.066	99
434.287	84
434.509	74
434.731	97
434.953	78
435.175	85
435.397	95
435.618	78
435.84	91
436.062	108
436.284	103
436.505	89
436.727	70
436.949	88
437.17	78
437.392	83
437.614	89
437.835	94
438.057	95
438.278	99
438.5	85
438.721	109
438.943	99
439.165	90
439.386	82
439.608	89
439.829	88
440.05	107
440.272	126
440.493	95
440.715	99
440.936	88
441.158	91
441.379	89
441.6	83
441.822	79
442.043	78
442.264	89
442.486	102
442.707	93
442.928	86
443.149	105
443.371	103
443.592	100
443.813	89
444.034	94
444.255	85
444.476	80
444.698	82
444.919	88
445.14	127
445.361	109
445.582	95
445.803	110
446.024	106
446.245	116
446.466	97
446.687	90
446.908	84
447.129	79
447.35	84
447.571	90
447.792	110
448.013	84
448.234	114
448.455	105
448.675	93
448.896	119
449.117	88
449.338	101
449.559	111
449.779	114
450	97
450.221	96
450.442	96
450.662	82
450.883	91
451.104	105
451.324	81
451.545	100
451.766	83
451.986	88
452.207	91
452.428	92
452.648	98
452.869	117
453.089	90
453.31	99
453.53	89
453.751	99
453.971	89
454.192	104
454.412	92
454.633	84
454.853	77
455.073	92
455.294	80
455.514	113
455.734	89
455.955	84
456.175	103
456.395	73
456.616	79
456.836	81
457.056	82
457.276	89
457.497	80
457.717	88
457.937	80
458.157	88
458.377	92
458.598	100
458.818	129
459.038	131
459.258	102
459.478	64
459.698	88
459.918	76
460.138	70
460.358	95
460.578	96
460.798	81
461.018	89
461.238	80
461.458	83
461.678	84
461.898	82
462.118	84
462.338	72
462.558	85
462.777	79
462.997	87
463.217	85
463.437	90
463.657	81
463.876	91
464.096	99
464.316	91
464.536	84
464.755	64
464.975	99
465.195	115
465.414	141
465.634	100
465.854	96
466.073	81
466.293	77
466.512	83
466.732	77
466.951	97
467.171	94
467.391	95
467.61	89
467.829	92
468.049	77
468.268	76
468.488	98
468.707	92
468.927	84
469.146	83
469.365	94
469.585	97
469.804	111
470.023	87
470.243	82
470.462	87
470.681	96
470.901	84
471.12	76
471.339	88
471.558	81
471.777	84
471.997	83
472.216	93
472.435	86
472.654	85
472.873	86
473.092	87
473.311	98
473.53	101
473.749	101
473.968	86
474.187	84
474.406	90
474.625	85
474.844	75
475.063	77
475.282	92
475.501	94
475.72	97
475.939	87
476.158	75
476.377	78
476.596	80
476.814	69
477.033	79
477.252	93
477.471	77
477.69	89
477.908	89
478.127	66
478.346	82
478.564	91
478.783	92
479.002	100
479.22	97
479.439	91
479.658	80
479.876	101
480.095	87
480.313	90
480.532	84
480.751	83
480.969	92
481.188	107
481.406	90
481.624	95
481.843	75
482.061	73
482.28	87
482.498	96
482.717	83
482.935	84
483.153	77
483.372	80
483.59	82
483.808	90
484.027	77
484.245	86
484.463	85
484.681	93
484.9	100
485.118	105
485.336	106
485.554	88
485.772	95
485.99	91
486.209	90
486.427	87
486.645	104
486.863	102
487.081	96
487.299	83
487.517	89
487.735	95
487.953	97
488.171	88
488.389	93
488.607	94
488.825	107
489.043	91
489.261	95
489.479	84
489.696	70
489.914	73
490.132	83
490.35	88
490.568	74
490.786	87
491.003	101
491.221	92
491.439	80
491.657	86
491.874	87
492.092	84
492.31	105
492.527	82
492.745	80
492.963	97
493.18	76
493.398	71
493.615	91
493.833	96
494.05	88
494.268	91
494.485	98
494.703	100
494.92	74
495.138	91
495.355	80
495.573	89
495.79	78
496.008	84
496.225	84
496.442	94
496.66	76
496.877	93
497.094	96
497.312	91
497.529	99
497.746	95
497.963	84
498.181	95
498.398	89
498.615	91
498.832	94
499.049	86
499.267	85
499.484	88
499.701	85
499.918	92
500.135	79
500.352	89
500.569	98
500.786	105
501.003	78
501.22	79
501.437	77
501.654	89
501.871	95
502.088	98
502.305	99
502.522	90
502.739	77
502.956	90
503.172	89
503.389	83
503.606	97
503.823	88
504.04	81
504.256	93
504.473	86
504.69	82
504.907	103
505.123	81
505.34	88
505.557	87
505.773	92
505.99	66
506.207	92
506.423	103
506.64	97
506.856	96
507.073	76
507.289	93
507.506	108
507.722	107
507.939	98
508.155	98
508.372	79
508.588	83
508.805	81
509.021	88
509.238	78
509.454	87
509.67	95
509.887	105
510.103	120
510.319	179
510.536	579
510.752	1821
510.968	533
511.184	132
511.401	93
511.617	94
511.833	94
512.049	89
512.265	78
512.481	61
512.698	85
512.914	83
513.13	90
513.346	109
513.562	87
513.778	83
513.994	92
514.21	112
514.426	107
514.642	103
514.858	107
515.074	140
515.29	327
515.506	1026
515.721	395
515.937	148
516.153	107
516.369	85
516.585	93
516.801	78
517.016	91
517.232	96
517.448	101
517.664	91
517.879	79
518.095	89
518.311	99
518.527	87
518.742	101
518.958	83
519.173	80
519.389	79
519.605	89
519.82	97
520.036	102
520.251	104
520.467	85
520.682	103
520.898	105
521.113	103
521.329	108
521.544	164
521.76	407
521.975	1691
522.19	1015
522.406	248
522.621	112
522.836	80
523.052	92
523.267	84
523.482	91
523.698	89
523.913	117
524.128	99
524.343	105
524.559	99
524.774	99
524.989	96
525.204	97
525.419	88
525.634	79
525.849	99
526.064	92
526.28	79
526.495	69
526.71	90
526.925	87
527.14	84
527.355	89
527.57	82
527.785	96
527.999	92
528.214	99
528.429	87
528.644	89
528.859	80
529.074	82
529.289	100
529.503	125
529.718	92
529.933	85
530.148	90
530.363	80
530.577	92
530.792	96
531.007	89
531.221	83
531.436	78
531.651	95
531.865	100
532.08	84
532.295	81
532.509	97
532.724	95
532.938	74
533.153	98
533.367	87
533.582	73
533.796	90
534.011	96
534.225	91
534.44	99
534.654	88
534.868	91
535.083	91
535.297	87
535.511	88
535.726	89
535.94	97
536.154	99
536.369	87
536.583	99
536.797	80
537.011	90
537.225	86
537.44	83
537.654	91
537.868	78
538.082	87
538.296	92
538.51	98
538.724	74
538.938	78
539.153	67
539.367	96
539.581	84
539.795	73
540.009	70
540.222	75
540.436	83
540.65	89
540.864	67
541.078	87
541.292	91
541.506	92
541.72	88
541.934	97
542.147	79
542.361	81
542.575	74
542.789	97
543.002	96
543.216	92
543.43	87
543.644	101
543.857	94
544.071	83
544.285	93
544.498	83
544.712	93
544.925	85
545.139	76
545.352	76
545.566	77
545.779	87
545.993	76
546.206	73
546.42	68
546.633	89
546.847	93
547.06	88
547.274	89
547.487	92
547.7	95
547.914	83
548.127	100
548.34	89
548.554	84
548.767	94
548.98	101
549.193	83
549.407	88
549.62	80
549.833	92
550.046	83
550.259	63
550.473	92
550.686	85
550.899	84
551.112	75
551.325	96
551.538	78
551.751	78
551.964	76
552.177	89
552.39	63
552.603	81
552.816	75
553.029	82
553.242	98
553.455	93
553.667	91
553.88	99
554.093	89
554.306	83
554.519	76
554.732	93
554.944	86
555.157	73
555.37	91
555.583	71
555.795	87
556.008	79
556.221	91
556.433	91
556.646	97
556.859	85
557.071	72
557.284	87
557.496	101
557.709	88
557.921	91
558.134	97
558.346	81
558.559	92
558.771	81
558.984	94
559.196	86
559.409	68
559.621	88
559.833	88
560.046	93
560.258	83
560.47	88
560.683	75
560.895	103
561.107	95
561.32	83
561.532	66
561.744	89
561.956	85
562.168	81
562.381	80
562.593	83
562.805	89
563.017	83
563.229	85
563.441	80
563.653	90
563.865	77
564.077	88
564.289	94
564.501	74
564.713	89
564.925	99
565.137	95
565.349	67
565.561	80
565.773	77
565.985	82
566.197	92
566.408	77
566.62	84
566.832	95
567.044	91
567.255	77
567.467	76
567.679	84
567.891	88
568.102	95
568.314	83
568.526	79
568.737	105
568.949	84
569.161	94
569.372	89
569.584	97
569.795	87
570.007	105
570.218	208
570.43	127
570.641	93
570.853	89
571.064	72
571.276	81
571.487	66
571.698	87
571.91	87
572.121	87
572.333	73
572.544	79
572.755	84
572.966	87
573.178	79
573.389	75
573.6	79
573.811	102
574.023	87
574.234	83
574.445	98
574.656	83
574.867	91
575.078	87
575.289	76
575.501	79
575.712	83
575.923	88
576.134	71
576.345	98
576.556	89
576.767	81
576.978	88
577.188	79
577.399	95
577.61	84
577.821	98
578.032	96
578.243	244
578.454	604
578.665	188
578.875	84
579.086	84
579.297	81
579.508	104
579.718	91
579.929	81
580.14	81
580.35	77
580.561	85
580.772	85
580.982	83
581.193	80
581.403	79
581.614	79
581.825	81
582.035	81
582.246	88
582.456	93
582.667	92
582.877	90
583.087	86
583.298	69
583.508	85
583.719	74
583.929	85
584.139	88
584.35	91
584.56	78
584.77	87
584.981	76
585.191	77
585.401	74
585.611	86
585.821	77
586.032	89
586.242	82
586.452	88
586.662	81
586.872	91
587.082	82
