Data from Uncirc_1990_H10_HRD10591_00100.txt Node
Date: Wed Jan 03 11:54:11 EST 2024
User: Yrep
Spectrometer: HR+D1059
Trigger mode: 1
Integration Time (sec): 1.000000E-1
Scans to average: 1
Electric dark correction enabled: true
Nonlinearity correction enabled: false
Boxcar width: 0
XAxis mode: Wavelengths
Number of Pixels in Spectrum: 2048
>>>>>Begin Spectral Data<<<<<
223.165	-15.12
223.4	-15.12
223.635	-15.12
223.869	-21.12
224.104	-17.12
224.338	-14.12
224.573	-9.12
224.808	-21.12
225.042	-11.12
225.277	-3.12
225.511	-12.12
225.746	-3.12
225.98	5.88
226.215	19.88
226.449	16.88
226.683	18.88
226.918	29.88
227.152	35.88
227.387	34.88
227.621	41.88
227.856	61.88
228.09	47.88
228.324	45.88
228.559	48.88
228.793	62.88
229.027	61.88
229.262	71.88
229.496	70.88
229.73	90.88
229.964	84.88
230.199	85.88
230.433	62.88
230.667	98.88
230.901	70.88
231.136	61.88
231.37	74.88
231.604	89.88
231.838	76.88
232.072	73.88
232.306	75.88
232.541	87.88
232.775	91.88
233.009	92.88
233.243	83.88
233.477	89.88
233.711	98.88
233.945	79.88
234.179	73.88
234.413	84.88
234.647	79.88
234.881	79.88
235.115	86.88
235.349	69.88
235.583	65.88
235.817	73.88
236.051	87.88
236.285	69.88
236.519	82.88
236.753	91.88
236.987	70.88
237.221	83.88
237.455	82.88
237.689	77.88
237.922	81.88
238.156	84.88
238.39	78.88
238.624	82.88
238.858	68.88
239.091	77.88
239.325	73.88
239.559	75.88
239.793	79.88
240.027	74.88
240.26	69.88
240.494	70.88
240.728	69.88
240.961	77.88
241.195	81.88
241.429	78.88
241.662	68.88
241.896	74.88
242.13	73.88
242.363	69.88
242.597	73.88
242.83	74.88
243.064	63.88
243.298	89.88
243.531	86.88
243.765	91.88
243.998	54.88
244.232	87.88
244.465	81.88
244.699	83.88
244.932	80.88
245.166	81.88
245.399	78.88
245.633	84.88
245.866	74.88
246.099	83.88
246.333	81.88
246.566	76.88
246.8	65.88
247.033	74.88
247.266	81.88
247.5	73.88
247.733	57.88
247.966	66.88
248.2	58.88
248.433	85.88
248.666	79.88
248.899	76.88
249.133	91.88
249.366	96.88
249.599	102.88
249.832	88.88
250.066	74.88
250.299	75.88
250.532	77.88
250.765	78.88
250.998	78.88
251.231	80.88
251.465	82.88
251.698	71.88
251.931	75.88
252.164	83.88
252.397	83.88
252.63	76.88
252.863	89.88
253.096	76.88
253.329	91.88
253.562	83.88
253.795	79.88
254.028	65.88
254.261	85.88
254.494	77.88
254.727	80.88
254.96	85.88
255.193	95.88
255.426	84.88
255.659	80.88
255.892	81.88
256.124	80.88
256.357	73.88
256.59	85.88
256.823	90.88
257.056	92.88
257.289	89.88
257.521	82.88
257.754	70.88
257.987	86.88
258.22	101.88
258.452	83.88
258.685	72.88
258.918	75.88
259.151	93.88
259.383	90.88
259.616	77.88
259.849	76.88
260.081	95.88
260.314	82.88
260.547	77.88
260.779	94.88
261.012	89.88
261.244	73.88
261.477	88.88
261.71	97.88
261.942	115.88
262.175	104.88
262.407	87.88
262.64	92.88
262.872	86.88
263.105	81.88
263.337	82.88
263.57	91.88
263.802	90.88
264.035	75.88
264.267	87.88
264.499	86.88
264.732	83.88
264.964	90.88
265.197	83.88
265.429	98.88
265.661	83.88
265.894	79.88
266.126	78.88
266.358	89.88
266.591	79.88
266.823	82.88
267.055	90.88
267.287	65.88
267.52	66.88
267.752	101.88
267.984	79.88
268.216	81.88
268.448	81.88
268.681	74.88
268.913	85.88
269.145	87.88
269.377	84.88
269.609	87.88
269.841	75.88
270.073	75.88
270.306	90.88
270.538	90.88
270.77	85.88
271.002	66.88
271.234	74.88
271.466	77.88
271.698	86.88
271.93	78.88
272.162	61.88
272.394	77.88
272.626	66.88
272.858	83.88
273.09	91.88
273.322	84.88
273.553	77.88
273.785	68.88
274.017	81.88
274.249	82.88
274.481	83.88
274.713	82.88
274.945	82.88
275.176	99.88
275.408	83.88
275.64	82.88
275.872	93.88
276.104	93.88
276.335	84.88
276.567	96.88
276.799	90.88
277.031	93.88
277.262	81.88
277.494	85.88
277.726	74.88
277.957	93.88
278.189	87.88
278.421	75.88
278.652	82.88
278.884	100.88
279.115	67.88
279.347	85.88
279.579	94.88
279.81	67.88
280.042	93.88
280.273	81.88
280.505	91.88
280.736	83.88
280.968	95.88
281.199	73.88
281.431	83.88
281.662	107.88
281.894	92.88
282.125	101.88
282.356	110.88
282.588	131.88
282.819	112.88
283.051	89.88
283.282	75.88
283.513	81.88
283.745	94.88
283.976	81.88
284.207	98.88
284.439	86.88
284.67	78.88
284.901	98.88
285.132	96.88
285.364	95.88
285.595	93.88
285.826	75.88
286.057	82.88
286.288	69.88
286.52	88.88
286.751	87.88
286.982	85.88
287.213	89.88
287.444	84.88
287.675	90.88
287.906	85.88
288.138	78.88
288.369	90.88
288.6	89.88
288.831	93.88
289.062	93.88
289.293	86.88
289.524	70.88
289.755	106.88
289.986	95.88
290.217	90.88
290.448	87.88
290.679	89.88
290.91	88.88
291.141	80.88
291.371	89.88
291.602	79.88
291.833	81.88
292.064	77.88
292.295	90.88
292.526	84.88
292.757	72.88
292.987	75.88
293.218	95.88
293.449	77.88
293.68	86.88
293.91	87.88
294.141	93.88
294.372	95.88
294.603	91.88
294.833	75.88
295.064	81.88
295.295	71.88
295.525	93.88
295.756	94.88
295.987	122.88
296.217	138.88
296.448	119.88
296.679	92.88
296.909	85.88
297.14	92.88
297.37	86.88
297.601	97.88
297.831	79.88
298.062	95.88
298.292	81.88
298.523	81.88
298.753	89.88
298.984	71.88
299.214	99.88
299.445	97.88
299.675	89.88
299.905	85.88
300.136	97.88
300.366	91.88
300.597	93.88
300.827	91.88
301.057	86.88
301.288	106.88
301.518	95.88
301.748	74.88
301.979	80.88
302.209	67.88
302.439	85.88
302.669	77.88
302.9	94.88
303.13	94.88
303.36	92.88
303.59	102.88
303.82	109.88
304.051	102.88
304.281	96.88
304.511	95.88
304.741	74.88
304.971	87.88
305.201	81.88
305.431	89.88
305.661	80.88
305.891	82.88
306.121	85.88
306.352	93.88
306.582	86.88
306.812	93.88
307.042	85.88
307.272	96.88
307.502	95.88
307.731	100.88
307.961	99.88
308.191	74.88
308.421	89.88
308.651	90.88
308.881	81.88
309.111	86.88
309.341	89.88
309.571	86.88
309.8	99.88
310.03	97.88
310.26	83.88
310.49	99.88
310.72	108.88
310.949	89.88
311.179	97.88
311.409	87.88
311.639	85.88
311.868	105.88
312.098	90.88
312.328	102.88
312.557	94.88
312.787	88.88
313.017	77.88
313.246	95.88
313.476	81.88
313.706	89.88
313.935	100.88
314.165	92.88
314.394	102.88
314.624	100.88
314.853	110.88
315.083	83.88
315.312	101.88
315.542	82.88
315.771	88.88
316.001	75.88
316.23	101.88
316.46	94.88
316.689	81.88
316.919	90.88
317.148	93.88
317.377	102.88
317.607	100.88
317.836	87.88
318.065	86.88
318.295	94.88
318.524	93.88
318.753	105.88
318.983	71.88
319.212	107.88
319.441	107.88
319.67	107.88
319.9	85.88
320.129	91.88
320.358	83.88
320.587	85.88
320.816	108.88
321.046	100.88
321.275	88.88
321.504	107.88
321.733	101.88
321.962	94.88
322.191	96.88
322.42	104.88
322.649	107.88
322.878	87.88
323.108	99.88
323.337	113.88
323.566	119.88
323.795	152.88
324.024	201.88
324.253	385.88
324.482	800.88
324.71	1604.88
324.939	2145.88
325.168	787.88
325.397	231.88
325.626	141.88
325.855	109.88
326.084	124.88
326.313	133.88
326.542	137.88
326.77	205.88
326.999	445.88
327.228	903.88
327.457	1654.88
327.686	1309.88
327.914	354.88
328.143	181.88
328.372	144.88
328.6	137.88
328.829	115.88
329.058	111.88
329.287	116.88
329.515	83.88
329.744	95.88
329.972	102.88
330.201	118.88
330.43	139.88
330.658	128.88
330.887	138.88
331.115	112.88
331.344	96.88
331.572	95.88
331.801	95.88
332.03	94.88
332.258	93.88
332.486	87.88
332.715	89.88
332.943	94.88
333.172	98.88
333.4	98.88
333.629	103.88
333.857	105.88
334.085	130.88
334.314	134.88
334.542	133.88
334.771	128.88
334.999	98.88
335.227	76.88
335.455	89.88
335.684	93.88
335.912	99.88
336.14	85.88
336.369	97.88
336.597	95.88
336.825	103.88
337.053	96.88
337.281	90.88
337.51	87.88
337.738	89.88
337.966	82.88
338.194	92.88
338.422	80.88
338.65	85.88
338.878	102.88
339.106	97.88
339.334	91.88
339.562	82.88
339.79	89.88
340.018	91.88
340.246	101.88
340.474	83.88
340.702	80.88
340.93	93.88
341.158	80.88
341.386	80.88
341.614	102.88
341.842	93.88
342.07	87.88
342.298	82.88
342.526	98.88
342.754	95.88
342.981	91.88
343.209	95.88
343.437	92.88
343.665	99.88
343.893	89.88
344.12	100.88
344.348	98.88
344.576	89.88
344.804	99.88
345.031	103.88
345.259	95.88
345.487	106.88
345.714	102.88
345.942	83.88
346.17	90.88
346.397	89.88
346.625	96.88
346.853	85.88
347.08	102.88
347.308	94.88
347.535	97.88
347.763	85.88
347.99	82.88
348.218	94.88
348.445	99.88
348.673	100.88
348.9	91.88
349.128	103.88
349.355	85.88
349.583	91.88
349.81	98.88
350.037	100.88
350.265	105.88
350.492	79.88
350.72	97.88
350.947	85.88
351.174	110.88
351.402	111.88
351.629	103.88
351.856	80.88
352.083	102.88
352.311	94.88
352.538	111.88
352.765	108.88
352.992	98.88
353.22	96.88
353.447	118.88
353.674	107.88
353.901	89.88
354.128	98.88
354.355	93.88
354.583	87.88
354.81	102.88
355.037	83.88
355.264	88.88
355.491	86.88
355.718	90.88
355.945	97.88
356.172	83.88
356.399	106.88
356.626	92.88
356.853	77.88
357.08	77.88
357.307	90.88
357.534	95.88
357.761	90.88
357.988	81.88
358.215	90.88
358.441	85.88
358.668	67.88
358.895	86.88
359.122	89.88
359.349	78.88
359.576	93.88
359.802	113.88
360.029	96.88
360.256	115.88
360.483	98.88
360.709	84.88
360.936	108.88
361.163	91.88
361.39	88.88
361.616	101.88
361.843	89.88
362.07	112.88
362.296	98.88
362.523	89.88
362.749	86.88
362.976	73.88
363.203	87.88
363.429	90.88
363.656	91.88
363.882	89.88
364.109	84.88
364.335	93.88
364.562	95.88
364.788	97.88
365.015	102.88
365.241	95.88
365.468	109.88
365.694	93.88
365.92	108.88
366.147	91.88
366.373	82.88
366.599	96.88
366.826	95.88
367.052	89.88
367.278	89.88
367.505	95.88
367.731	99.88
367.957	85.88
368.184	85.88
368.41	83.88
368.636	99.88
368.862	117.88
369.089	94.88
369.315	79.88
369.541	85.88
369.767	87.88
369.993	104.88
370.219	90.88
370.445	78.88
370.672	88.88
370.898	79.88
371.124	87.88
371.35	91.88
371.576	97.88
371.802	70.88
372.028	79.88
372.254	89.88
372.48	81.88
372.706	88.88
372.932	90.88
373.158	90.88
373.384	90.88
373.61	83.88
373.835	84.88
374.061	68.88
374.287	99.88
374.513	88.88
374.739	103.88
374.965	89.88
375.191	95.88
375.416	83.88
375.642	79.88
375.868	91.88
376.094	100.88
376.319	84.88
376.545	90.88
376.771	90.88
376.997	90.88
377.222	77.88
377.448	86.88
377.674	93.88
377.899	96.88
378.125	86.88
378.35	89.88
378.576	83.88
378.802	68.88
379.027	81.88
379.253	73.88
379.478	91.88
379.704	93.88
379.929	96.88
380.155	96.88
380.38	85.88
380.606	94.88
380.831	94.88
381.057	81.88
381.282	101.88
381.507	89.88
381.733	94.88
381.958	98.88
382.184	98.88
382.409	88.88
382.634	101.88
382.86	84.88
383.085	90.88
383.31	89.88
383.535	87.88
383.761	94.88
383.986	93.88
384.211	91.88
384.436	106.88
384.662	86.88
384.887	102.88
385.112	97.88
385.337	107.88
385.562	101.88
385.787	84.88
386.013	100.88
386.238	103.88
386.463	107.88
386.688	99.88
386.913	92.88
387.138	86.88
387.363	103.88
387.588	94.88
387.813	89.88
388.038	111.88
388.263	102.88
388.488	89.88
388.713	93.88
388.938	84.88
389.163	101.88
389.387	100.88
389.612	93.88
389.837	73.88
390.062	96.88
390.287	89.88
390.512	87.88
390.736	68.88
390.961	87.88
391.186	92.88
391.411	84.88
391.636	97.88
391.86	83.88
392.085	84.88
392.31	87.88
392.534	88.88
392.759	89.88
392.984	78.88
393.208	76.88
393.433	88.88
393.658	83.88
393.882	70.88
394.107	80.88
394.331	82.88
394.556	78.88
394.78	108.88
395.005	81.88
395.229	89.88
395.454	85.88
395.678	91.88
395.903	85.88
396.127	82.88
396.352	86.88
396.576	92.88
396.801	83.88
397.025	86.88
397.249	80.88
397.474	97.88
397.698	94.88
397.922	94.88
398.147	87.88
398.371	75.88
398.595	86.88
398.82	84.88
399.044	81.88
399.268	89.88
399.492	77.88
399.717	95.88
399.941	95.88
400.165	99.88
400.389	91.88
400.613	99.88
400.837	92.88
401.062	84.88
401.286	83.88
401.51	82.88
401.734	97.88
401.958	95.88
402.182	124.88
402.406	149.88
402.63	111.88
402.854	87.88
403.078	98.88
403.302	99.88
403.526	85.88
403.75	87.88
403.974	86.88
404.198	87.88
404.422	92.88
404.645	82.88
404.869	78.88
405.093	93.88
405.317	86.88
405.541	75.88
405.765	110.88
405.988	114.88
406.212	143.88
406.436	211.88
406.66	126.88
406.883	97.88
407.107	90.88
407.331	85.88
407.555	106.88
407.778	96.88
408.002	89.88
408.226	84.88
408.449	79.88
408.673	93.88
408.896	96.88
409.12	89.88
409.344	89.88
409.567	84.88
409.791	84.88
410.014	92.88
410.238	80.88
410.461	85.88
410.685	77.88
410.908	95.88
411.132	108.88
411.355	88.88
411.578	97.88
411.802	83.88
412.025	98.88
412.249	90.88
412.472	83.88
412.695	94.88
412.919	83.88
413.142	90.88
413.365	81.88
413.589	83.88
413.812	102.88
414.035	89.88
414.258	87.88
414.482	81.88
414.705	80.88
414.928	84.88
415.151	80.88
415.374	92.88
415.597	94.88
415.821	102.88
416.044	100.88
416.267	87.88
416.49	79.88
416.713	71.88
416.936	99.88
417.159	98.88
417.382	92.88
417.605	75.88
417.828	107.88
418.051	83.88
418.274	84.88
418.497	73.88
418.72	90.88
418.943	85.88
419.166	97.88
419.389	86.88
419.611	90.88
419.834	78.88
420.057	98.88
420.28	77.88
420.503	79.88
420.726	101.88
420.948	85.88
421.171	101.88
421.394	97.88
421.617	74.88
421.839	99.88
422.062	68.88
422.285	81.88
422.507	90.88
422.73	88.88
422.953	100.88
423.175	91.88
423.398	98.88
423.621	93.88
423.843	85.88
424.066	114.88
424.288	73.88
424.511	92.88
424.733	84.88
424.956	97.88
425.178	103.88
425.401	97.88
425.623	99.88
425.846	86.88
426.068	90.88
426.291	94.88
426.513	89.88
426.735	83.88
426.958	82.88
427.18	93.88
427.402	127.88
427.625	142.88
427.847	128.88
428.069	99.88
428.292	98.88
428.514	92.88
428.736	73.88
428.958	81.88
429.181	78.88
429.403	82.88
429.625	71.88
429.847	90.88
430.069	92.88
430.292	75.88
430.514	87.88
430.736	87.88
430.958	80.88
431.18	85.88
431.402	95.88
431.624	79.88
431.846	77.88
432.068	89.88
432.29	79.88
432.512	69.88
432.734	90.88
432.956	79.88
433.178	91.88
433.4	103.88
433.622	85.88
433.844	84.88
434.066	96.88
434.287	85.88
434.509	87.88
434.731	89.88
434.953	77.88
435.175	95.88
435.397	79.88
435.618	102.88
435.84	93.88
436.062	102.88
436.284	117.88
436.505	102.88
436.727	98.88
436.949	109.88
437.17	102.88
437.392	78.88
437.614	78.88
437.835	100.88
438.057	119.88
438.278	106.88
438.5	103.88
438.721	123.88
438.943	102.88
439.165	85.88
439.386	75.88
439.608	87.88
439.829	88.88
440.05	110.88
440.272	132.88
440.493	83.88
440.715	79.88
440.936	86.88
441.158	96.88
441.379	97.88
441.6	86.88
441.822	61.88
442.043	88.88
442.264	98.88
442.486	83.88
442.707	83.88
442.928	96.88
443.149	127.88
443.371	126.88
443.592	99.88
443.813	111.88
444.034	101.88
444.255	82.88
444.476	83.88
444.698	83.88
444.919	78.88
445.14	134.88
445.361	106.88
445.582	109.88
445.803	124.88
446.024	124.88
446.245	138.88
446.466	114.88
446.687	85.88
446.908	80.88
447.129	81.88
447.35	82.88
447.571	89.88
447.792	98.88
448.013	92.88
448.234	102.88
448.455	91.88
448.675	99.88
448.896	123.88
449.117	100.88
449.338	100.88
449.559	114.88
449.779	140.88
450	94.88
450.221	90.88
450.442	95.88
450.662	87.88
450.883	95.88
451.104	94.88
451.324	82.88
451.545	101.88
451.766	74.88
451.986	90.88
452.207	80.88
452.428	89.88
452.648	95.88
452.869	93.88
453.089	92.88
453.31	122.88
453.53	78.88
453.751	89.88
453.971	92.88
454.192	98.88
454.412	85.88
454.633	93.88
454.853	103.88
455.073	85.88
455.294	87.88
455.514	109.88
455.734	86.88
455.955	85.88
456.175	81.88
456.395	87.88
456.616	92.88
456.836	89.88
457.056	95.88
457.276	79.88
457.497	86.88
457.717	80.88
457.937	92.88
458.157	88.88
458.377	100.88
458.598	112.88
458.818	144.88
459.038	155.88
459.258	101.88
459.478	87.88
459.698	82.88
459.918	79.88
460.138	94.88
460.358	83.88
460.578	85.88
460.798	85.88
461.018	82.88
461.238	87.88
461.458	83.88
461.678	77.88
461.898	82.88
462.118	70.88
462.338	90.88
462.558	65.88
462.777	84.88
462.997	80.88
463.217	89.88
463.437	98.88
463.657	67.88
463.876	93.88
464.096	85.88
464.316	111.88
464.536	81.88
464.755	99.88
464.975	102.88
465.195	147.88
465.414	145.88
465.634	91.88
465.854	78.88
466.073	81.88
466.293	88.88
466.512	90.88
466.732	77.88
466.951	76.88
467.171	61.88
467.391	87.88
467.61	98.88
467.829	104.88
468.049	109.88
468.268	107.88
468.488	85.88
468.707	89.88
468.927	97.88
469.146	80.88
469.365	96.88
469.585	97.88
469.804	94.88
470.023	85.88
470.243	83.88
470.462	102.88
470.681	106.88
470.901	83.88
471.12	81.88
471.339	89.88
471.558	75.88
471.777	91.88
471.997	96.88
472.216	97.88
472.435	135.88
472.654	95.88
472.873	82.88
473.092	95.88
473.311	100.88
473.53	90.88
473.749	95.88
473.968	89.88
474.187	89.88
474.406	92.88
474.625	88.88
474.844	89.88
475.063	83.88
475.282	96.88
475.501	89.88
475.72	80.88
475.939	89.88
476.158	82.88
476.377	95.88
476.596	73.88
476.814	98.88
477.033	98.88
477.252	84.88
477.471	86.88
477.69	86.88
477.908	83.88
478.127	78.88
478.346	63.88
478.564	97.88
478.783	93.88
479.002	77.88
479.22	89.88
479.439	95.88
479.658	97.88
479.876	103.88
480.095	85.88
480.313	91.88
480.532	82.88
480.751	113.88
480.969	99.88
481.188	199.88
481.406	146.88
481.624	87.88
481.843	77.88
482.061	89.88
482.28	70.88
482.498	74.88
482.717	90.88
482.935	101.88
483.153	81.88
483.372	81.88
483.59	82.88
483.808	84.88
484.027	79.88
484.245	90.88
484.463	69.88
484.681	102.88
484.9	81.88
485.118	103.88
485.336	91.88
485.554	100.88
485.772	94.88
485.99	91.88
486.209	106.88
486.427	91.88
486.645	75.88
486.863	102.88
487.081	100.88
487.299	99.88
487.517	87.88
487.735	90.88
487.953	82.88
488.171	90.88
488.389	92.88
488.607	101.88
488.825	78.88
489.043	90.88
489.261	91.88
489.479	88.88
489.696	89.88
489.914	75.88
490.132	91.88
490.35	79.88
490.568	85.88
490.786	100.88
491.003	87.88
491.221	93.88
491.439	78.88
491.657	98.88
491.874	83.88
492.092	81.88
492.31	98.88
492.527	83.88
492.745	91.88
492.963	84.88
493.18	85.88
493.398	88.88
493.615	88.88
493.833	83.88
494.05	84.88
494.268	85.88
494.485	84.88
494.703	85.88
494.92	106.88
495.138	93.88
495.355	91.88
495.573	86.88
495.79	87.88
496.008	101.88
496.225	104.88
496.442	93.88
496.66	90.88
496.877	89.88
497.094	89.88
497.312	89.88
497.529	89.88
497.746	95.88
497.963	75.88
498.181	77.88
498.398	95.88
498.615	109.88
498.832	105.88
499.049	77.88
499.267	95.88
499.484	80.88
499.701	97.88
499.918	95.88
500.135	86.88
500.352	85.88
500.569	90.88
500.786	99.88
501.003	94.88
501.22	92.88
501.437	85.88
501.654	96.88
501.871	94.88
502.088	98.88
502.305	100.88
502.522	89.88
502.739	107.88
502.956	75.88
503.172	87.88
503.389	85.88
503.606	87.88
503.823	90.88
504.04	100.88
504.256	90.88
504.473	83.88
504.69	90.88
504.907	107.88
505.123	90.88
505.34	97.88
505.557	93.88
505.773	85.88
505.99	95.88
506.207	91.88
506.423	97.88
506.64	97.88
506.856	84.88
507.073	89.88
507.289	95.88
507.506	90.88
507.722	112.88
507.939	103.88
508.155	97.88
508.372	95.88
508.588	96.88
508.805	84.88
509.021	83.88
509.238	99.88
509.454	104.88
509.67	89.88
509.887	97.88
510.103	122.88
510.319	209.88
510.536	717.88
510.752	2276.88
510.968	617.88
511.184	145.88
511.401	103.88
511.617	107.88
511.833	101.88
512.049	76.88
512.265	91.88
512.481	86.88
512.698	102.88
512.914	99.88
513.13	103.88
513.346	93.88
513.562	88.88
513.778	113.88
513.994	87.88
514.21	102.88
514.426	102.88
514.642	122.88
514.858	113.88
515.074	146.88
515.29	401.88
515.506	1358.88
515.721	494.88
515.937	150.88
516.153	105.88
516.369	81.88
