Data from Uncirc_1990_H10_HRD10591_00026.txt Node
Date: Wed Jan 03 11:53:56 EST 2024
User: Yrep
Spectrometer: HR+D1059
Trigger mode: 1
Integration Time (sec): 1.000000E-1
Scans to average: 1
Electric dark correction enabled: true
Nonlinearity correction enabled: false
Boxcar width: 0
XAxis mode: Wavelengths
Number of Pixels in Spectrum: 2048
>>>>>Begin Spectral Data<<<<<
223.165	-15.38
223.4	-15.38
223.635	-15.38
223.869	-4.38
224.104	-16.38
224.338	-18.38
224.573	-23.38
224.808	-15.38
225.042	-25.38
225.277	-8.38
225.511	5.62
225.746	-4.38
225.98	22.62
226.215	5.62
226.449	7.62
226.683	27.62
226.918	31.62
227.152	30.62
227.387	50.62
227.621	32.62
227.856	51.62
228.09	51.62
228.324	56.62
228.559	48.62
228.793	52.62
229.027	56.62
229.262	67.62
229.496	59.62
229.73	83.62
229.964	76.62
230.199	90.62
230.433	84.62
230.667	75.62
230.901	80.62
231.136	80.62
231.37	77.62
231.604	77.62
231.838	71.62
232.072	82.62
232.306	70.62
232.541	76.62
232.775	80.62
233.009	83.62
233.243	88.62
233.477	72.62
233.711	79.62
233.945	85.62
234.179	67.62
234.413	81.62
234.647	84.62
234.881	82.62
235.115	95.62
235.349	74.62
235.583	65.62
235.817	84.62
236.051	75.62
236.285	81.62
236.519	74.62
236.753	84.62
236.987	67.62
237.221	75.62
237.455	76.62
237.689	71.62
237.922	78.62
238.156	69.62
238.39	75.62
238.624	69.62
238.858	77.62
239.091	70.62
239.325	75.62
239.559	86.62
239.793	76.62
240.027	66.62
240.26	67.62
240.494	83.62
240.728	86.62
240.961	85.62
241.195	74.62
241.429	66.62
241.662	74.62
241.896	89.62
242.13	72.62
242.363	83.62
242.597	62.62
242.83	72.62
243.064	69.62
243.298	84.62
243.531	71.62
243.765	76.62
243.998	84.62
244.232	77.62
244.465	79.62
244.699	69.62
244.932	96.62
245.166	72.62
245.399	72.62
245.633	80.62
245.866	69.62
246.099	77.62
246.333	75.62
246.566	77.62
246.8	69.62
247.033	74.62
247.266	78.62
247.5	80.62
247.733	71.62
247.966	83.62
248.2	81.62
248.433	96.62
248.666	86.62
248.899	84.62
249.133	87.62
249.366	96.62
249.599	98.62
249.832	67.62
250.066	77.62
250.299	81.62
250.532	87.62
250.765	64.62
250.998	67.62
251.231	79.62
251.465	66.62
251.698	74.62
251.931	80.62
252.164	81.62
252.397	78.62
252.63	79.62
252.863	68.62
253.096	82.62
253.329	82.62
253.562	82.62
253.795	67.62
254.028	63.62
254.261	80.62
254.494	71.62
254.727	81.62
254.96	77.62
255.193	75.62
255.426	81.62
255.659	78.62
255.892	70.62
256.124	76.62
256.357	68.62
256.59	88.62
256.823	82.62
257.056	73.62
257.289	77.62
257.521	96.62
257.754	69.62
257.987	84.62
258.22	64.62
258.452	71.62
258.685	83.62
258.918	84.62
259.151	96.62
259.383	84.62
259.616	78.62
259.849	83.62
260.081	69.62
260.314	83.62
260.547	78.62
260.779	83.62
261.012	102.62
261.244	93.62
261.477	94.62
261.71	83.62
261.942	102.62
262.175	114.62
262.407	82.62
262.64	81.62
262.872	61.62
263.105	85.62
263.337	79.62
263.57	84.62
263.802	90.62
264.035	69.62
264.267	81.62
264.499	74.62
264.732	82.62
264.964	88.62
265.197	79.62
265.429	81.62
265.661	93.62
265.894	75.62
266.126	82.62
266.358	88.62
266.591	76.62
266.823	88.62
267.055	86.62
267.287	91.62
267.52	90.62
267.752	95.62
267.984	78.62
268.216	95.62
268.448	84.62
268.681	68.62
268.913	76.62
269.145	72.62
269.377	89.62
269.609	78.62
269.841	79.62
270.073	74.62
270.306	87.62
270.538	78.62
270.77	77.62
271.002	78.62
271.234	83.62
271.466	84.62
271.698	68.62
271.93	63.62
272.162	76.62
272.394	75.62
272.626	99.62
272.858	96.62
273.09	79.62
273.322	84.62
273.553	78.62
273.785	85.62
274.017	82.62
274.249	81.62
274.481	82.62
274.713	79.62
274.945	87.62
275.176	80.62
275.408	75.62
275.64	82.62
275.872	74.62
276.104	87.62
276.335	87.62
276.567	91.62
276.799	103.62
277.031	98.62
277.262	93.62
277.494	80.62
277.726	92.62
277.957	74.62
278.189	87.62
278.421	81.62
278.652	82.62
278.884	82.62
279.115	89.62
279.347	93.62
279.579	79.62
279.81	79.62
280.042	77.62
280.273	79.62
280.505	81.62
280.736	106.62
280.968	86.62
281.199	85.62
281.431	93.62
281.662	92.62
281.894	87.62
282.125	117.62
282.356	97.62
282.588	129.62
282.819	107.62
283.051	87.62
283.282	91.62
283.513	100.62
283.745	96.62
283.976	86.62
284.207	88.62
284.439	94.62
284.67	82.62
284.901	77.62
285.132	72.62
285.364	86.62
285.595	79.62
285.826	89.62
286.057	75.62
286.288	83.62
286.52	90.62
286.751	92.62
286.982	86.62
287.213	80.62
287.444	72.62
287.675	74.62
287.906	85.62
288.138	91.62
288.369	80.62
288.6	104.62
288.831	93.62
289.062	95.62
289.293	86.62
289.524	91.62
289.755	92.62
289.986	104.62
290.217	87.62
290.448	79.62
290.679	67.62
290.91	84.62
291.141	93.62
291.371	80.62
291.602	86.62
291.833	94.62
292.064	84.62
292.295	90.62
292.526	94.62
292.757	79.62
292.987	92.62
293.218	89.62
293.449	79.62
293.68	80.62
293.91	92.62
294.141	82.62
294.372	91.62
294.603	79.62
294.833	87.62
295.064	70.62
295.295	98.62
295.525	79.62
295.756	92.62
295.987	114.62
296.217	118.62
296.448	114.62
296.679	85.62
296.909	90.62
297.14	86.62
297.37	93.62
297.601	89.62
297.831	82.62
298.062	86.62
298.292	68.62
298.523	83.62
298.753	71.62
298.984	93.62
299.214	83.62
299.445	86.62
299.675	86.62
299.905	104.62
300.136	88.62
300.366	95.62
300.597	89.62
300.827	91.62
301.057	99.62
301.288	115.62
301.518	102.62
301.748	89.62
301.979	92.62
302.209	82.62
302.439	93.62
302.669	91.62
302.9	91.62
303.13	86.62
303.36	86.62
303.59	101.62
303.82	93.62
304.051	101.62
304.281	104.62
304.511	100.62
304.741	75.62
304.971	86.62
305.201	86.62
305.431	87.62
305.661	96.62
305.891	85.62
306.121	88.62
306.352	93.62
306.582	102.62
306.812	75.62
307.042	91.62
307.272	99.62
307.502	86.62
307.731	90.62
307.961	89.62
308.191	92.62
308.421	94.62
308.651	84.62
308.881	93.62
309.111	85.62
309.341	84.62
309.571	93.62
309.8	96.62
310.03	101.62
310.26	94.62
310.49	92.62
310.72	86.62
310.949	95.62
311.179	99.62
311.409	103.62
311.639	89.62
311.868	101.62
312.098	95.62
312.328	73.62
312.557	94.62
312.787	100.62
313.017	108.62
313.246	101.62
313.476	101.62
313.706	85.62
313.935	99.62
314.165	93.62
314.394	101.62
314.624	109.62
314.853	97.62
315.083	92.62
315.312	104.62
315.542	92.62
315.771	86.62
316.001	97.62
316.23	85.62
316.46	96.62
316.689	85.62
316.919	89.62
317.148	95.62
317.377	100.62
317.607	81.62
317.836	91.62
318.065	98.62
318.295	90.62
318.524	84.62
318.753	78.62
318.983	89.62
319.212	98.62
319.441	97.62
319.67	105.62
319.9	98.62
320.129	89.62
320.358	100.62
320.587	97.62
320.816	96.62
321.046	105.62
321.275	98.62
321.504	86.62
321.733	92.62
321.962	99.62
322.191	106.62
322.42	102.62
322.649	104.62
322.878	107.62
323.108	102.62
323.337	123.62
323.566	118.62
323.795	128.62
324.024	198.62
324.253	350.62
324.482	720.62
324.71	1505.62
324.939	1967.62
325.168	732.62
325.397	222.62
325.626	147.62
325.855	109.62
326.084	128.62
326.313	125.62
326.542	158.62
326.77	208.62
326.999	421.62
327.228	879.62
327.457	1551.62
327.686	1255.62
327.914	353.62
328.143	188.62
328.372	125.62
328.6	128.62
328.829	126.62
329.058	113.62
329.287	114.62
329.515	109.62
329.744	94.62
329.972	102.62
330.201	111.62
330.43	112.62
330.658	120.62
330.887	133.62
331.115	122.62
331.344	96.62
331.572	100.62
331.801	96.62
332.03	102.62
332.258	88.62
332.486	93.62
332.715	85.62
332.943	86.62
333.172	78.62
333.4	103.62
333.629	98.62
333.857	108.62
334.085	91.62
334.314	92.62
334.542	98.62
334.771	87.62
334.999	84.62
335.227	109.62
335.455	95.62
335.684	100.62
335.912	98.62
336.14	93.62
336.369	94.62
336.597	88.62
336.825	95.62
337.053	79.62
337.281	84.62
337.51	104.62
337.738	85.62
337.966	86.62
338.194	101.62
338.422	81.62
338.65	90.62
338.878	96.62
339.106	90.62
339.334	88.62
339.562	78.62
339.79	96.62
340.018	93.62
340.246	91.62
340.474	101.62
340.702	108.62
340.93	86.62
341.158	82.62
341.386	92.62
341.614	88.62
341.842	86.62
342.07	85.62
342.298	91.62
342.526	84.62
342.754	88.62
342.981	93.62
343.209	86.62
343.437	102.62
343.665	92.62
343.893	77.62
344.12	82.62
344.348	82.62
344.576	109.62
344.804	92.62
345.031	88.62
345.259	99.62
345.487	92.62
345.714	101.62
345.942	97.62
346.17	104.62
346.397	85.62
346.625	82.62
346.853	85.62
347.08	80.62
347.308	93.62
347.535	98.62
347.763	90.62
347.99	93.62
348.218	103.62
348.445	94.62
348.673	97.62
348.9	112.62
349.128	97.62
349.355	86.62
349.583	89.62
349.81	89.62
350.037	101.62
350.265	107.62
350.492	83.62
350.72	108.62
350.947	102.62
351.174	106.62
351.402	107.62
351.629	104.62
351.856	104.62
352.083	89.62
352.311	81.62
352.538	102.62
352.765	115.62
352.992	98.62
353.22	108.62
353.447	100.62
353.674	101.62
353.901	106.62
354.128	98.62
354.355	92.62
354.583	91.62
354.81	95.62
355.037	97.62
355.264	93.62
355.491	104.62
355.718	82.62
355.945	86.62
356.172	95.62
356.399	96.62
356.626	94.62
356.853	91.62
357.08	88.62
357.307	98.62
357.534	90.62
357.761	106.62
357.988	101.62
358.215	95.62
358.441	94.62
358.668	96.62
358.895	79.62
359.122	94.62
359.349	105.62
359.576	96.62
359.802	100.62
360.029	114.62
360.256	100.62
360.483	83.62
360.709	76.62
360.936	100.62
361.163	103.62
361.39	104.62
361.616	94.62
361.843	71.62
362.07	94.62
362.296	99.62
362.523	90.62
362.749	94.62
362.976	87.62
363.203	106.62
363.429	84.62
363.656	93.62
363.882	78.62
364.109	90.62
364.335	84.62
364.562	98.62
364.788	93.62
365.015	92.62
365.241	96.62
365.468	119.62
365.694	109.62
365.92	91.62
366.147	93.62
366.373	91.62
366.599	99.62
366.826	96.62
367.052	97.62
367.278	96.62
367.505	89.62
367.731	93.62
367.957	100.62
368.184	91.62
368.41	102.62
368.636	110.62
368.862	103.62
369.089	104.62
369.315	90.62
369.541	93.62
369.767	94.62
369.993	81.62
370.219	97.62
370.445	82.62
370.672	80.62
370.898	103.62
371.124	91.62
371.35	84.62
371.576	99.62
371.802	85.62
372.028	80.62
372.254	101.62
372.48	74.62
372.706	98.62
372.932	85.62
373.158	82.62
373.384	89.62
373.61	88.62
373.835	93.62
374.061	88.62
374.287	83.62
374.513	96.62
374.739	85.62
374.965	101.62
375.191	88.62
375.416	75.62
375.642	95.62
375.868	87.62
376.094	82.62
376.319	70.62
376.545	94.62
376.771	77.62
376.997	82.62
377.222	82.62
377.448	101.62
377.674	90.62
377.899	95.62
378.125	104.62
378.35	95.62
378.576	86.62
378.802	90.62
379.027	97.62
379.253	76.62
379.478	88.62
379.704	91.62
379.929	97.62
380.155	91.62
380.38	97.62
380.606	89.62
380.831	84.62
381.057	96.62
381.282	108.62
381.507	104.62
381.733	100.62
381.958	101.62
382.184	110.62
382.409	93.62
382.634	97.62
382.86	86.62
383.085	101.62
383.31	94.62
383.535	92.62
383.761	82.62
383.986	95.62
384.211	95.62
384.436	94.62
384.662	101.62
384.887	98.62
385.112	107.62
385.337	92.62
385.562	119.62
385.787	101.62
386.013	90.62
386.238	117.62
386.463	100.62
386.688	104.62
386.913	100.62
387.138	109.62
387.363	108.62
387.588	100.62
387.813	93.62
388.038	116.62
388.263	102.62
388.488	102.62
388.713	99.62
388.938	96.62
389.163	96.62
389.387	97.62
389.612	100.62
389.837	99.62
390.062	94.62
390.287	84.62
390.512	99.62
390.736	116.62
390.961	93.62
391.186	90.62
391.411	100.62
391.636	88.62
391.86	89.62
392.085	78.62
392.31	80.62
392.534	85.62
392.759	88.62
392.984	94.62
393.208	76.62
393.433	90.62
393.658	112.62
393.882	72.62
394.107	90.62
394.331	86.62
394.556	99.62
394.78	102.62
395.005	87.62
395.229	88.62
395.454	85.62
395.678	93.62
395.903	85.62
396.127	104.62
396.352	95.62
396.576	102.62
396.801	100.62
397.025	96.62
397.249	95.62
397.474	77.62
397.698	102.62
397.922	93.62
398.147	90.62
398.371	95.62
398.595	87.62
398.82	82.62
399.044	90.62
399.268	93.62
399.492	78.62
399.717	83.62
399.941	78.62
400.165	88.62
400.389	93.62
400.613	87.62
400.837	86.62
401.062	92.62
401.286	92.62
401.51	92.62
401.734	103.62
401.958	108.62
402.182	114.62
402.406	142.62
402.63	106.62
402.854	100.62
403.078	92.62
403.302	100.62
403.526	100.62
403.75	104.62
403.974	95.62
404.198	93.62
404.422	99.62
404.645	80.62
404.869	80.62
405.093	95.62
405.317	93.62
405.541	97.62
405.765	101.62
405.988	108.62
406.212	150.62
406.436	203.62
406.66	125.62
406.883	105.62
407.107	106.62
407.331	100.62
407.555	99.62
407.778	107.62
408.002	91.62
408.226	78.62
408.449	83.62
408.673	92.62
408.896	95.62
409.12	87.62
409.344	91.62
409.567	86.62
409.791	94.62
410.014	99.62
410.238	99.62
410.461	101.62
410.685	87.62
410.908	79.62
411.132	99.62
411.355	108.62
411.578	92.62
411.802	87.62
412.025	74.62
412.249	94.62
412.472	92.62
412.695	92.62
412.919	102.62
413.142	85.62
413.365	82.62
413.589	97.62
413.812	95.62
414.035	106.62
414.258	85.62
414.482	107.62
414.705	81.62
414.928	87.62
415.151	90.62
415.374	105.62
415.597	83.62
415.821	95.62
416.044	98.62
416.267	86.62
416.49	91.62
416.713	95.62
416.936	84.62
417.159	78.62
417.382	87.62
417.605	81.62
417.828	107.62
418.051	86.62
418.274	82.62
418.497	83.62
418.72	76.62
418.943	93.62
419.166	85.62
419.389	94.62
419.611	86.62
419.834	86.62
420.057	92.62
420.28	86.62
420.503	77.62
420.726	78.62
420.948	80.62
421.171	106.62
421.394	108.62
421.617	90.62
421.839	86.62
422.062	86.62
422.285	95.62
422.507	94.62
422.73	80.62
422.953	99.62
423.175	90.62
423.398	78.62
423.621	83.62
423.843	86.62
424.066	91.62
424.288	96.62
424.511	79.62
424.733	90.62
424.956	96.62
425.178	94.62
425.401	98.62
425.623	102.62
425.846	85.62
426.068	86.62
426.291	94.62
426.513	86.62
426.735	93.62
426.958	100.62
427.18	107.62
427.402	124.62
427.625	154.62
427.847	116.62
428.069	101.62
428.292	93.62
428.514	80.62
428.736	96.62
428.958	85.62
429.181	104.62
429.403	80.62
429.625	83.62
429.847	86.62
430.069	84.62
430.292	85.62
430.514	85.62
430.736	95.62
430.958	90.62
431.18	80.62
431.402	79.62
431.624	95.62
431.846	81.62
432.068	90.62
432.29	84.62
432.512	95.62
432.734	80.62
432.956	87.62
433.178	98.62
433.4	99.62
433.622	90.62
433.844	94.62
434.066	97.62
434.287	102.62
434.509	94.62
434.731	92.62
434.953	95.62
435.175	93.62
435.397	92.62
435.618	82.62
435.84	108.62
436.062	115.62
436.284	123.62
436.505	103.62
436.727	79.62
436.949	94.62
437.17	90.62
437.392	88.62
437.614	93.62
437.835	98.62
438.057	117.62
438.278	102.62
438.5	86.62
438.721	121.62
438.943	98.62
439.165	98.62
439.386	79.62
439.608	89.62
439.829	101.62
440.05	107.62
440.272	134.62
440.493	97.62
440.715	92.62
440.936	86.62
441.158	87.62
441.379	65.62
441.6	92.62
441.822	100.62
442.043	90.62
442.264	108.62
442.486	102.62
442.707	93.62
442.928	107.62
443.149	122.62
443.371	120.62
443.592	87.62
443.813	106.62
444.034	98.62
444.255	92.62
444.476	90.62
444.698	87.62
444.919	85.62
445.14	133.62
445.361	114.62
445.582	96.62
445.803	124.62
446.024	116.62
446.245	114.62
446.466	97.62
446.687	84.62
446.908	97.62
447.129	94.62
447.35	82.62
447.571	83.62
447.792	92.62
448.013	97.62
448.234	105.62
448.455	89.62
448.675	115.62
448.896	116.62
449.117	90.62
449.338	81.62
449.559	115.62
449.779	127.62
450	83.62
450.221	84.62
450.442	94.62
450.662	98.62
450.883	105.62
451.104	94.62
451.324	85.62
451.545	93.62
451.766	99.62
451.986	70.62
452.207	90.62
452.428	92.62
452.648	98.62
452.869	103.62
453.089	91.62
453.31	105.62
453.53	83.62
453.751	74.62
453.971	94.62
454.192	92.62
454.412	89.62
454.633	77.62
454.853	77.62
455.073	88.62
455.294	84.62
455.514	84.62
455.734	86.62
455.955	80.62
456.175	83.62
456.395	72.62
456.616	80.62
456.836	79.62
457.056	77.62
457.276	92.62
457.497	70.62
457.717	87.62
457.937	86.62
458.157	89.62
458.377	90.62
458.598	99.62
458.818	131.62
459.038	139.62
459.258	104.62
459.478	83.62
459.698	96.62
459.918	80.62
460.138	91.62
460.358	90.62
460.578	86.62
460.798	88.62
461.018	84.62
461.238	86.62
461.458	90.62
461.678	86.62
461.898	88.62
462.118	88.62
462.338	100.62
462.558	90.62
462.777	92.62
462.997	99.62
463.217	81.62
463.437	89.62
463.657	84.62
463.876	98.62
464.096	112.62
464.316	84.62
464.536	90.62
464.755	89.62
464.975	104.62
465.195	134.62
465.414	138.62
465.634	92.62
465.854	85.62
466.073	83.62
466.293	84.62
466.512	86.62
466.732	109.62
466.951	90.62
467.171	93.62
467.391	88.62
467.61	89.62
467.829	85.62
468.049	97.62
468.268	92.62
468.488	86.62
468.707	71.62
468.927	90.62
469.146	90.62
469.365	76.62
469.585	81.62
469.804	92.62
470.023	76.62
470.243	99.62
470.462	97.62
470.681	120.62
470.901	96.62
471.12	85.62
471.339	79.62
471.558	83.62
471.777	83.62
471.997	92.62
472.216	104.62
472.435	103.62
472.654	75.62
472.873	85.62
473.092	72.62
473.311	88.62
473.53	83.62
473.749	89.62
473.968	88.62
474.187	94.62
474.406	97.62
474.625	91.62
474.844	91.62
475.063	93.62
475.282	93.62
475.501	88.62
475.72	88.62
475.939	93.62
476.158	74.62
476.377	62.62
476.596	85.62
476.814	78.62
477.033	98.62
477.252	95.62
477.471	89.62
477.69	71.62
477.908	97.62
478.127	85.62
478.346	88.62
478.564	78.62
478.783	88.62
479.002	93.62
479.22	101.62
479.439	92.62
479.658	117.62
479.876	79.62
480.095	88.62
480.313	97.62
480.532	88.62
480.751	93.62
480.969	90.62
481.188	83.62
481.406	72.62
481.624	78.62
481.843	87.62
482.061	69.62
482.28	65.62
482.498	88.62
482.717	82.62
482.935	91.62
483.153	90.62
483.372	82.62
483.59	82.62
483.808	87.62
484.027	93.62
484.245	87.62
484.463	101.62
484.681	85.62
484.9	84.62
485.118	109.62
485.336	92.62
485.554	86.62
485.772	103.62
485.99	89.62
486.209	100.62
486.427	97.62
486.645	109.62
486.863	110.62
487.081	103.62
487.299	88.62
487.517	93.62
487.735	106.62
487.953	91.62
488.171	94.62
488.389	74.62
488.607	98.62
488.825	99.62
489.043	94.62
489.261	87.62
489.479	80.62
489.696	94.62
489.914	91.62
490.132	89.62
490.35	90.62
490.568	94.62
490.786	97.62
491.003	111.62
491.221	88.62
491.439	73.62
491.657	88.62
491.874	92.62
492.092	90.62
492.31	106.62
492.527	92.62
492.745	87.62
492.963	78.62
493.18	82.62
493.398	82.62
493.615	105.62
493.833	86.62
494.05	94.62
494.268	91.62
494.485	80.62
494.703	92.62
494.92	94.62
495.138	70.62
495.355	74.62
495.573	85.62
495.79	84.62
496.008	86.62
496.225	92.62
496.442	94.62
496.66	82.62
496.877	87.62
497.094	102.62
497.312	93.62
497.529	91.62
497.746	101.62
497.963	90.62
498.181	89.62
498.398	100.62
498.615	112.62
498.832	102.62
499.049	103.62
499.267	87.62
499.484	98.62
499.701	98.62
499.918	93.62
500.135	80.62
500.352	87.62
500.569	84.62
500.786	85.62
501.003	96.62
501.22	79.62
501.437	91.62
501.654	83.62
501.871	95.62
502.088	100.62
502.305	80.62
502.522	93.62
502.739	87.62
502.956	91.62
503.172	100.62
503.389	98.62
503.606	104.62
503.823	87.62
504.04	91.62
504.256	103.62
504.473	86.62
504.69	95.62
504.907	93.62
505.123	72.62
505.34	82.62
505.557	99.62
505.773	96.62
505.99	85.62
506.207	96.62
506.423	101.62
506.64	103.62
506.856	92.62
507.073	93.62
507.289	88.62
507.506	86.62
507.722	109.62
507.939	107.62
508.155	110.62
508.372	94.62
508.588	87.62
508.805	96.62
509.021	94.62
509.238	93.62
509.454	88.62
509.67	82.62
509.887	90.62
510.103	123.62
510.319	203.62
510.536	681.62
510.752	2110.62
510.968	588.62
511.184	146.62
511.401	111.62
511.617	90.62
511.833	95.62
512.049	105.62
512.265	94.62
512.481	80.62
512.698	90.62
512.914	93.62
513.13	92.62
513.346	90.62
513.562	84.62
513.778	86.62
513.994	89.62
514.21	104.62
514.426	116.62
514.642	125.62
514.858	106.62
515.074	156.62
515.29	388.62
515.506	1219.62
515.721	476.62
515.937	143.62
516.153	114.62
