Data from Uncirc_1990_H10_HRD10591_00061.txt Node
Date: Wed Jan 03 11:54:03 EST 2024
User: Yrep
Spectrometer: HR+D1059
Trigger mode: 1
Integration Time (sec): 1.000000E-1
Scans to average: 1
Electric dark correction enabled: true
Nonlinearity correction enabled: false
Boxcar width: 0
XAxis mode: Wavelengths
Number of Pixels in Spectrum: 2048
>>>>>Begin Spectral Data<<<<<
223.165	-15.94
223.4	-15.94
223.635	-15.94
223.869	-14.94
224.104	-22.94
224.338	-22.94
224.573	-10.94
224.808	4.06
225.042	-14.94
225.277	-19.94
225.511	-1.94
225.746	8.06
225.98	7.06
226.215	6.06
226.449	18.06
226.683	24.06
226.918	32.06
227.152	25.06
227.387	36.06
227.621	43.06
227.856	52.06
228.09	33.06
228.324	61.06
228.559	57.06
228.793	65.06
229.027	56.06
229.262	64.06
229.496	57.06
229.73	87.06
229.964	93.06
230.199	62.06
230.433	86.06
230.667	89.06
230.901	75.06
231.136	82.06
231.37	90.06
231.604	78.06
231.838	80.06
232.072	93.06
232.306	87.06
232.541	92.06
232.775	85.06
233.009	94.06
233.243	57.06
233.477	83.06
233.711	75.06
233.945	72.06
234.179	96.06
234.413	77.06
234.647	83.06
234.881	101.06
235.115	83.06
235.349	83.06
235.583	79.06
235.817	55.06
236.051	65.06
236.285	62.06
236.519	65.06
236.753	77.06
236.987	87.06
237.221	94.06
237.455	90.06
237.689	82.06
237.922	67.06
238.156	76.06
238.39	63.06
238.624	70.06
238.858	71.06
239.091	81.06
239.325	93.06
239.559	70.06
239.793	73.06
240.027	70.06
240.26	77.06
240.494	84.06
240.728	80.06
240.961	85.06
241.195	88.06
241.429	86.06
241.662	70.06
241.896	84.06
242.13	85.06
242.363	71.06
242.597	91.06
242.83	76.06
243.064	65.06
243.298	81.06
243.531	83.06
243.765	88.06
243.998	82.06
244.232	80.06
244.465	79.06
244.699	76.06
244.932	80.06
245.166	85.06
245.399	72.06
245.633	73.06
245.866	86.06
246.099	72.06
246.333	79.06
246.566	67.06
246.8	50.06
247.033	88.06
247.266	75.06
247.5	75.06
247.733	73.06
247.966	71.06
248.2	72.06
248.433	87.06
248.666	69.06
248.899	92.06
249.133	83.06
249.366	89.06
249.599	91.06
249.832	87.06
250.066	82.06
250.299	77.06
250.532	97.06
250.765	77.06
250.998	77.06
251.231	89.06
251.465	74.06
251.698	81.06
251.931	80.06
252.164	84.06
252.397	77.06
252.63	65.06
252.863	70.06
253.096	77.06
253.329	80.06
253.562	82.06
253.795	71.06
254.028	77.06
254.261	73.06
254.494	75.06
254.727	79.06
254.96	84.06
255.193	72.06
255.426	77.06
255.659	91.06
255.892	95.06
256.124	83.06
256.357	75.06
256.59	79.06
256.823	91.06
257.056	81.06
257.289	81.06
257.521	87.06
257.754	92.06
257.987	85.06
258.22	81.06
258.452	84.06
258.685	81.06
258.918	75.06
259.151	72.06
259.383	83.06
259.616	77.06
259.849	78.06
260.081	81.06
260.314	82.06
260.547	80.06
260.779	80.06
261.012	81.06
261.244	84.06
261.477	91.06
261.71	83.06
261.942	110.06
262.175	107.06
262.407	96.06
262.64	88.06
262.872	85.06
263.105	88.06
263.337	80.06
263.57	81.06
263.802	77.06
264.035	73.06
264.267	81.06
264.499	87.06
264.732	82.06
264.964	83.06
265.197	69.06
265.429	75.06
265.661	86.06
265.894	81.06
266.126	82.06
266.358	71.06
266.591	86.06
266.823	77.06
267.055	77.06
267.287	73.06
267.52	98.06
267.752	75.06
267.984	84.06
268.216	88.06
268.448	98.06
268.681	88.06
268.913	92.06
269.145	71.06
269.377	91.06
269.609	79.06
269.841	71.06
270.073	80.06
270.306	89.06
270.538	72.06
270.77	75.06
271.002	86.06
271.234	81.06
271.466	92.06
271.698	103.06
271.93	77.06
272.162	79.06
272.394	76.06
272.626	76.06
272.858	87.06
273.09	84.06
273.322	96.06
273.553	84.06
273.785	85.06
274.017	87.06
274.249	93.06
274.481	85.06
274.713	91.06
274.945	70.06
275.176	86.06
275.408	89.06
275.64	92.06
275.872	79.06
276.104	92.06
276.335	86.06
276.567	94.06
276.799	85.06
277.031	101.06
277.262	99.06
277.494	87.06
277.726	83.06
277.957	85.06
278.189	88.06
278.421	84.06
278.652	78.06
278.884	83.06
279.115	83.06
279.347	85.06
279.579	75.06
279.81	104.06
280.042	79.06
280.273	77.06
280.505	84.06
280.736	81.06
280.968	91.06
281.199	108.06
281.431	72.06
281.662	84.06
281.894	104.06
282.125	105.06
282.356	119.06
282.588	121.06
282.819	122.06
283.051	85.06
283.282	83.06
283.513	93.06
283.745	87.06
283.976	92.06
284.207	94.06
284.439	71.06
284.67	87.06
284.901	89.06
285.132	87.06
285.364	85.06
285.595	89.06
285.826	87.06
286.057	95.06
286.288	83.06
286.52	87.06
286.751	78.06
286.982	80.06
287.213	99.06
287.444	93.06
287.675	103.06
287.906	75.06
288.138	81.06
288.369	92.06
288.6	80.06
288.831	90.06
289.062	94.06
289.293	87.06
289.524	86.06
289.755	83.06
289.986	85.06
290.217	89.06
290.448	72.06
290.679	81.06
290.91	94.06
291.141	109.06
291.371	95.06
291.602	79.06
291.833	83.06
292.064	91.06
292.295	98.06
292.526	97.06
292.757	89.06
292.987	75.06
293.218	71.06
293.449	83.06
293.68	87.06
293.91	81.06
294.141	91.06
294.372	92.06
294.603	81.06
294.833	97.06
295.064	85.06
295.295	81.06
295.525	89.06
295.756	97.06
295.987	101.06
296.217	139.06
296.448	109.06
296.679	87.06
296.909	94.06
297.14	92.06
297.37	87.06
297.601	81.06
297.831	87.06
298.062	100.06
298.292	85.06
298.523	80.06
298.753	86.06
298.984	89.06
299.214	89.06
299.445	83.06
299.675	92.06
299.905	104.06
300.136	87.06
300.366	75.06
300.597	85.06
300.827	87.06
301.057	99.06
301.288	116.06
301.518	107.06
301.748	90.06
301.979	120.06
302.209	93.06
302.439	97.06
302.669	84.06
302.9	81.06
303.13	82.06
303.36	89.06
303.59	106.06
303.82	91.06
304.051	105.06
304.281	95.06
304.511	91.06
304.741	78.06
304.971	100.06
305.201	87.06
305.431	102.06
305.661	76.06
305.891	91.06
306.121	93.06
306.352	91.06
306.582	114.06
306.812	83.06
307.042	89.06
307.272	102.06
307.502	91.06
307.731	101.06
307.961	116.06
308.191	81.06
308.421	109.06
308.651	85.06
308.881	100.06
309.111	102.06
309.341	96.06
309.571	96.06
309.8	98.06
310.03	90.06
310.26	99.06
310.49	112.06
310.72	98.06
310.949	97.06
311.179	93.06
311.409	91.06
311.639	105.06
311.868	91.06
312.098	96.06
312.328	100.06
312.557	106.06
312.787	94.06
313.017	90.06
313.246	92.06
313.476	94.06
313.706	108.06
313.935	86.06
314.165	99.06
314.394	113.06
314.624	95.06
314.853	101.06
315.083	91.06
315.312	103.06
315.542	94.06
315.771	95.06
316.001	79.06
316.23	80.06
316.46	88.06
316.689	86.06
316.919	89.06
317.148	100.06
317.377	84.06
317.607	92.06
317.836	90.06
318.065	92.06
318.295	77.06
318.524	89.06
318.753	108.06
318.983	79.06
319.212	107.06
319.441	107.06
319.67	97.06
319.9	83.06
320.129	103.06
320.358	95.06
320.587	104.06
320.816	111.06
321.046	86.06
321.275	100.06
321.504	83.06
321.733	103.06
321.962	94.06
322.191	92.06
322.42	103.06
322.649	111.06
322.878	103.06
323.108	108.06
323.337	121.06
323.566	127.06
323.795	139.06
324.024	195.06
324.253	350.06
324.482	747.06
324.71	1499.06
324.939	2012.06
325.168	745.06
325.397	221.06
325.626	155.06
325.855	125.06
326.084	132.06
326.313	136.06
326.542	145.06
326.77	221.06
326.999	426.06
327.228	875.06
327.457	1576.06
327.686	1231.06
327.914	337.06
328.143	189.06
328.372	134.06
328.6	116.06
328.829	116.06
329.058	128.06
329.287	117.06
329.515	100.06
329.744	92.06
329.972	95.06
330.201	114.06
330.43	110.06
330.658	118.06
330.887	124.06
331.115	124.06
331.344	90.06
331.572	103.06
331.801	96.06
332.03	118.06
332.258	103.06
332.486	93.06
332.715	103.06
332.943	98.06
333.172	77.06
333.4	97.06
333.629	109.06
333.857	108.06
334.085	109.06
334.314	116.06
334.542	116.06
334.771	101.06
334.999	95.06
335.227	99.06
335.455	93.06
335.684	98.06
335.912	108.06
336.14	94.06
336.369	99.06
336.597	99.06
336.825	92.06
337.053	97.06
337.281	95.06
337.51	96.06
337.738	88.06
337.966	99.06
338.194	84.06
338.422	98.06
338.65	112.06
338.878	99.06
339.106	86.06
339.334	95.06
339.562	79.06
339.79	88.06
340.018	99.06
340.246	79.06
340.474	96.06
340.702	100.06
340.93	98.06
341.158	95.06
341.386	91.06
341.614	91.06
341.842	96.06
342.07	89.06
342.298	93.06
342.526	103.06
342.754	98.06
342.981	88.06
343.209	87.06
343.437	88.06
343.665	93.06
343.893	87.06
344.12	86.06
344.348	91.06
344.576	98.06
344.804	100.06
345.031	87.06
345.259	97.06
345.487	82.06
345.714	91.06
345.942	91.06
346.17	87.06
346.397	81.06
346.625	85.06
346.853	92.06
347.08	97.06
347.308	86.06
347.535	85.06
347.763	93.06
347.99	97.06
348.218	105.06
348.445	113.06
348.673	111.06
348.9	74.06
349.128	95.06
349.355	77.06
349.583	85.06
349.81	96.06
350.037	99.06
350.265	92.06
350.492	101.06
350.72	104.06
350.947	92.06
351.174	104.06
351.402	101.06
351.629	95.06
351.856	93.06
352.083	93.06
352.311	107.06
352.538	119.06
352.765	109.06
352.992	102.06
353.22	105.06
353.447	102.06
353.674	95.06
353.901	100.06
354.128	106.06
354.355	87.06
354.583	91.06
354.81	103.06
355.037	87.06
355.264	93.06
355.491	87.06
355.718	97.06
355.945	100.06
356.172	85.06
356.399	99.06
356.626	95.06
356.853	88.06
357.08	82.06
357.307	88.06
357.534	77.06
357.761	102.06
357.988	84.06
358.215	89.06
358.441	101.06
358.668	95.06
358.895	96.06
359.122	81.06
359.349	88.06
359.576	93.06
359.802	88.06
360.029	101.06
360.256	117.06
360.483	95.06
360.709	99.06
360.936	92.06
361.163	75.06
361.39	91.06
361.616	91.06
361.843	90.06
362.07	110.06
362.296	99.06
362.523	83.06
362.749	96.06
362.976	95.06
363.203	93.06
363.429	88.06
363.656	95.06
363.882	82.06
364.109	85.06
364.335	91.06
364.562	80.06
364.788	83.06
365.015	100.06
365.241	95.06
365.468	97.06
365.694	104.06
365.92	96.06
366.147	99.06
366.373	93.06
366.599	92.06
366.826	106.06
367.052	89.06
367.278	87.06
367.505	94.06
367.731	83.06
367.957	85.06
368.184	102.06
368.41	103.06
368.636	109.06
368.862	103.06
369.089	97.06
369.315	86.06
369.541	88.06
369.767	84.06
369.993	104.06
370.219	100.06
370.445	86.06
370.672	91.06
370.898	87.06
371.124	84.06
371.35	92.06
371.576	87.06
371.802	70.06
372.028	72.06
372.254	77.06
372.48	86.06
372.706	98.06
372.932	72.06
373.158	90.06
373.384	100.06
373.61	81.06
373.835	92.06
374.061	101.06
374.287	79.06
374.513	97.06
374.739	75.06
374.965	87.06
375.191	90.06
375.416	88.06
375.642	79.06
375.868	109.06
376.094	78.06
376.319	91.06
376.545	84.06
376.771	95.06
376.997	84.06
377.222	87.06
377.448	96.06
377.674	81.06
377.899	92.06
378.125	84.06
378.35	99.06
378.576	92.06
378.802	95.06
379.027	91.06
379.253	95.06
379.478	76.06
379.704	93.06
379.929	94.06
380.155	95.06
380.38	93.06
380.606	96.06
380.831	108.06
381.057	92.06
381.282	91.06
381.507	83.06
381.733	93.06
381.958	90.06
382.184	102.06
382.409	92.06
382.634	91.06
382.86	92.06
383.085	80.06
383.31	91.06
383.535	102.06
383.761	96.06
383.986	96.06
384.211	105.06
384.436	96.06
384.662	100.06
384.887	105.06
385.112	88.06
385.337	99.06
385.562	101.06
385.787	94.06
386.013	81.06
386.238	99.06
386.463	101.06
386.688	104.06
386.913	118.06
387.138	88.06
387.363	103.06
387.588	100.06
387.813	98.06
388.038	113.06
388.263	101.06
388.488	113.06
388.713	86.06
388.938	94.06
389.163	80.06
389.387	104.06
389.612	98.06
389.837	103.06
390.062	90.06
390.287	96.06
390.512	91.06
390.736	95.06
390.961	97.06
391.186	101.06
391.411	94.06
391.636	102.06
391.86	90.06
392.085	87.06
392.31	102.06
392.534	93.06
392.759	82.06
392.984	94.06
393.208	78.06
393.433	77.06
393.658	96.06
393.882	90.06
394.107	86.06
394.331	93.06
394.556	79.06
394.78	79.06
395.005	99.06
395.229	88.06
395.454	91.06
395.678	88.06
395.903	85.06
396.127	79.06
396.352	75.06
396.576	89.06
396.801	92.06
397.025	86.06
397.249	97.06
397.474	87.06
397.698	83.06
397.922	88.06
398.147	71.06
398.371	85.06
398.595	93.06
398.82	89.06
399.044	80.06
399.268	91.06
399.492	84.06
399.717	95.06
399.941	87.06
400.165	94.06
400.389	78.06
400.613	94.06
400.837	81.06
401.062	86.06
401.286	106.06
401.51	101.06
401.734	81.06
401.958	88.06
402.182	117.06
402.406	156.06
402.63	122.06
402.854	84.06
403.078	89.06
403.302	89.06
403.526	88.06
403.75	107.06
403.974	92.06
404.198	87.06
404.422	81.06
404.645	92.06
404.869	83.06
405.093	91.06
405.317	98.06
405.541	90.06
405.765	95.06
405.988	109.06
406.212	159.06
406.436	198.06
406.66	140.06
406.883	101.06
407.107	96.06
407.331	103.06
407.555	90.06
407.778	102.06
408.002	102.06
408.226	94.06
408.449	86.06
408.673	96.06
408.896	88.06
409.12	75.06
409.344	83.06
409.567	90.06
409.791	94.06
410.014	101.06
410.238	92.06
410.461	105.06
410.685	86.06
410.908	92.06
411.132	103.06
411.355	101.06
411.578	95.06
411.802	87.06
412.025	91.06
412.249	101.06
412.472	99.06
412.695	91.06
412.919	83.06
413.142	91.06
413.365	103.06
413.589	94.06
413.812	84.06
414.035	95.06
414.258	81.06
414.482	71.06
414.705	89.06
414.928	92.06
415.151	102.06
415.374	95.06
415.597	85.06
415.821	90.06
416.044	72.06
416.267	97.06
416.49	92.06
416.713	86.06
416.936	95.06
417.159	87.06
417.382	82.06
417.605	93.06
417.828	89.06
418.051	102.06
418.274	83.06
418.497	69.06
418.72	93.06
418.943	102.06
419.166	89.06
419.389	94.06
419.611	89.06
419.834	87.06
420.057	96.06
420.28	81.06
420.503	77.06
420.726	82.06
420.948	88.06
421.171	84.06
421.394	89.06
421.617	93.06
421.839	99.06
422.062	99.06
422.285	91.06
422.507	101.06
422.73	114.06
422.953	101.06
423.175	94.06
423.398	89.06
423.621	84.06
423.843	90.06
424.066	73.06
424.288	101.06
424.511	86.06
424.733	94.06
424.956	101.06
425.178	103.06
425.401	91.06
425.623	107.06
425.846	90.06
426.068	90.06
426.291	94.06
426.513	88.06
426.735	92.06
426.958	94.06
427.18	107.06
427.402	134.06
427.625	160.06
427.847	118.06
428.069	99.06
428.292	93.06
428.514	100.06
428.736	83.06
428.958	79.06
429.181	92.06
429.403	76.06
429.625	91.06
429.847	89.06
430.069	92.06
430.292	90.06
430.514	90.06
430.736	78.06
430.958	80.06
431.18	82.06
431.402	88.06
431.624	88.06
431.846	92.06
432.068	85.06
432.29	79.06
432.512	86.06
432.734	93.06
432.956	92.06
433.178	110.06
433.4	95.06
433.622	82.06
433.844	80.06
434.066	82.06
434.287	86.06
434.509	92.06
434.731	98.06
434.953	81.06
435.175	93.06
435.397	97.06
435.618	85.06
435.84	103.06
436.062	111.06
436.284	105.06
436.505	95.06
436.727	103.06
436.949	94.06
437.17	84.06
437.392	67.06
437.614	93.06
437.835	105.06
438.057	109.06
438.278	114.06
438.5	99.06
438.721	107.06
438.943	97.06
439.165	81.06
439.386	85.06
439.608	89.06
439.829	102.06
440.05	130.06
440.272	119.06
440.493	99.06
440.715	91.06
440.936	95.06
441.158	87.06
441.379	83.06
441.6	92.06
441.822	95.06
442.043	92.06
442.264	101.06
442.486	103.06
442.707	102.06
442.928	93.06
443.149	132.06
443.371	125.06
443.592	101.06
443.813	123.06
444.034	92.06
444.255	108.06
444.476	89.06
444.698	81.06
444.919	94.06
445.14	120.06
445.361	124.06
445.582	113.06
445.803	116.06
446.024	119.06
446.245	123.06
446.466	98.06
446.687	78.06
446.908	99.06
447.129	83.06
447.35	92.06
447.571	87.06
447.792	105.06
448.013	92.06
448.234	112.06
448.455	92.06
448.675	99.06
448.896	105.06
449.117	100.06
449.338	96.06
449.559	129.06
449.779	125.06
450	103.06
450.221	88.06
450.442	92.06
450.662	93.06
450.883	85.06
451.104	103.06
451.324	101.06
451.545	75.06
451.766	82.06
451.986	95.06
452.207	79.06
452.428	85.06
452.648	95.06
452.869	107.06
453.089	99.06
453.31	109.06
453.53	77.06
453.751	79.06
453.971	82.06
454.192	96.06
454.412	101.06
454.633	89.06
454.853	73.06
455.073	84.06
455.294	95.06
455.514	109.06
455.734	81.06
455.955	79.06
456.175	77.06
456.395	67.06
456.616	87.06
456.836	86.06
457.056	95.06
457.276	92.06
457.497	89.06
457.717	89.06
457.937	97.06
458.157	83.06
458.377	79.06
458.598	104.06
458.818	117.06
459.038	145.06
459.258	109.06
459.478	95.06
459.698	105.06
459.918	92.06
460.138	105.06
460.358	84.06
460.578	87.06
460.798	89.06
461.018	98.06
461.238	88.06
461.458	78.06
461.678	90.06
461.898	98.06
462.118	93.06
462.338	78.06
462.558	93.06
462.777	83.06
462.997	81.06
463.217	92.06
463.437	88.06
463.657	96.06
463.876	89.06
464.096	95.06
464.316	90.06
464.536	90.06
464.755	97.06
464.975	114.06
465.195	159.06
465.414	142.06
465.634	100.06
465.854	101.06
466.073	96.06
466.293	100.06
466.512	85.06
466.732	68.06
466.951	81.06
467.171	88.06
467.391	88.06
467.61	90.06
467.829	104.06
468.049	105.06
468.268	83.06
468.488	93.06
468.707	94.06
468.927	76.06
469.146	83.06
469.365	87.06
469.585	91.06
469.804	82.06
470.023	88.06
470.243	99.06
470.462	102.06
470.681	106.06
470.901	83.06
471.12	88.06
471.339	82.06
471.558	84.06
471.777	99.06
471.997	96.06
472.216	103.06
472.435	116.06
472.654	96.06
472.873	84.06
473.092	91.06
473.311	95.06
473.53	79.06
473.749	76.06
473.968	91.06
474.187	105.06
474.406	96.06
474.625	99.06
474.844	82.06
475.063	90.06
475.282	96.06
475.501	88.06
475.72	91.06
475.939	86.06
476.158	81.06
476.377	78.06
476.596	92.06
476.814	91.06
477.033	83.06
477.252	96.06
477.471	77.06
477.69	79.06
477.908	92.06
478.127	90.06
478.346	86.06
478.564	95.06
478.783	94.06
479.002	106.06
479.22	97.06
479.439	120.06
479.658	103.06
479.876	103.06
480.095	98.06
480.313	95.06
480.532	89.06
480.751	84.06
480.969	102.06
481.188	130.06
481.406	110.06
481.624	77.06
481.843	92.06
482.061	79.06
482.28	88.06
482.498	84.06
482.717	87.06
482.935	97.06
483.153	81.06
483.372	86.06
483.59	91.06
483.808	91.06
484.027	99.06
484.245	99.06
484.463	92.06
484.681	96.06
484.9	93.06
485.118	94.06
485.336	93.06
485.554	90.06
485.772	95.06
485.99	107.06
486.209	101.06
486.427	105.06
486.645	132.06
486.863	116.06
487.081	103.06
487.299	97.06
487.517	100.06
487.735	102.06
487.953	94.06
488.171	99.06
488.389	91.06
488.607	84.06
488.825	92.06
489.043	93.06
489.261	98.06
489.479	85.06
489.696	88.06
489.914	89.06
490.132	87.06
490.35	85.06
490.568	91.06
490.786	92.06
491.003	97.06
491.221	99.06
491.439	84.06
491.657	81.06
491.874	97.06
492.092	98.06
492.31	95.06
492.527	84.06
492.745	84.06
492.963	91.06
493.18	96.06
493.398	94.06
493.615	92.06
493.833	88.06
494.05	88.06
494.268	83.06
494.485	100.06
494.703	85.06
494.92	82.06
495.138	83.06
495.355	94.06
495.573	89.06
495.79	75.06
496.008	85.06
496.225	80.06
496.442	81.06
496.66	84.06
496.877	92.06
497.094	97.06
497.312	91.06
497.529	103.06
497.746	98.06
497.963	88.06
498.181	88.06
498.398	95.06
498.615	119.06
498.832	102.06
499.049	89.06
499.267	105.06
499.484	97.06
499.701	98.06
499.918	95.06
500.135	87.06
500.352	91.06
500.569	88.06
500.786	80.06
501.003	102.06
501.22	108.06
501.437	93.06
501.654	100.06
501.871	103.06
502.088	93.06
502.305	100.06
502.522	91.06
502.739	109.06
502.956	91.06
503.172	76.06
503.389	96.06
503.606	101.06
503.823	90.06
504.04	84.06
504.256	96.06
504.473	95.06
504.69	101.06
504.907	94.06
505.123	94.06
505.34	92.06
505.557	91.06
505.773	89.06
505.99	93.06
506.207	86.06
506.423	92.06
506.64	74.06
506.856	85.06
507.073	100.06
507.289	88.06
507.506	100.06
507.722	105.06
507.939	101.06
508.155	94.06
508.372	87.06
508.588	88.06
508.805	94.06
509.021	104.06
509.238	106.06
509.454	95.06
509.67	103.06
509.887	108.06
510.103	120.06
510.319	225.06
510.536	686.06
510.752	2113.06
510.968	601.06
511.184	148.06
511.401	113.06
511.617	98.06
511.833	89.06
512.049	92.06
512.265	98.06
512.481	92.06
512.698	87.06
512.914	100.06
513.13	92.06
513.346	89.06
513.562	98.06
513.778	109.06
513.994	94.06
514.21	104.06
514.426	98.06
514.642	113.06
514.858	121.06
515.074	148.06
515.29	396.06
515.506	1262.06
515.721	471.06
