Data from Uncirc_1990_H10_HRD10591_00096.txt Node
Date: Wed Jan 03 11:54:10 EST 2024
User: Yrep
Spectrometer: HR+D1059
Trigger mode: 1
Integration Time (sec): 1.000000E-1
Scans to average: 1
Electric dark correction enabled: true
Nonlinearity correction enabled: false
Boxcar width: 0
XAxis mode: Wavelengths
Number of Pixels in Spectrum: 2048
>>>>>Begin Spectral Data<<<<<
223.165	-20.25
223.4	-20.25
223.635	-20.25
223.869	-12.25
224.104	-19.25
224.338	-17.25
224.573	-4.25
224.808	-19.25
225.042	-17.25
225.277	4.75
225.511	8.75
225.746	5.75
225.98	16.75
226.215	-0.25
226.449	3.75
226.683	15.75
226.918	34.75
227.152	19.75
227.387	30.75
227.621	30.75
227.856	57.75
228.09	45.75
228.324	40.75
228.559	56.75
228.793	50.75
229.027	68.75
229.262	49.75
229.496	57.75
229.73	80.75
229.964	81.75
230.199	74.75
230.433	91.75
230.667	76.75
230.901	76.75
231.136	79.75
231.37	57.75
231.604	78.75
231.838	83.75
232.072	72.75
232.306	73.75
232.541	60.75
232.775	72.75
233.009	88.75
233.243	83.75
233.477	71.75
233.711	76.75
233.945	83.75
234.179	82.75
234.413	66.75
234.647	70.75
234.881	62.75
235.115	74.75
235.349	69.75
235.583	80.75
235.817	73.75
236.051	64.75
236.285	71.75
236.519	74.75
236.753	84.75
236.987	85.75
237.221	76.75
237.455	87.75
237.689	76.75
237.922	79.75
238.156	67.75
238.39	56.75
238.624	73.75
238.858	74.75
239.091	70.75
239.325	101.75
239.559	69.75
239.793	76.75
240.027	77.75
240.26	61.75
240.494	71.75
240.728	70.75
240.961	72.75
241.195	72.75
241.429	76.75
241.662	78.75
241.896	55.75
242.13	60.75
242.363	65.75
242.597	69.75
242.83	65.75
243.064	68.75
243.298	69.75
243.531	79.75
243.765	76.75
243.998	82.75
244.232	94.75
244.465	89.75
244.699	79.75
244.932	87.75
245.166	79.75
245.399	75.75
245.633	69.75
245.866	82.75
246.099	72.75
246.333	80.75
246.566	76.75
246.8	68.75
247.033	84.75
247.266	65.75
247.5	78.75
247.733	81.75
247.966	89.75
248.2	81.75
248.433	89.75
248.666	66.75
248.899	89.75
249.133	85.75
249.366	81.75
249.599	95.75
249.832	83.75
250.066	86.75
250.299	88.75
250.532	80.75
250.765	83.75
250.998	87.75
251.231	68.75
251.465	87.75
251.698	78.75
251.931	88.75
252.164	77.75
252.397	83.75
252.63	85.75
252.863	89.75
253.096	82.75
253.329	77.75
253.562	84.75
253.795	64.75
254.028	70.75
254.261	83.75
254.494	80.75
254.727	81.75
254.96	73.75
255.193	78.75
255.426	79.75
255.659	81.75
255.892	84.75
256.124	86.75
256.357	62.75
256.59	84.75
256.823	87.75
257.056	84.75
257.289	81.75
257.521	85.75
257.754	77.75
257.987	73.75
258.22	70.75
258.452	80.75
258.685	78.75
258.918	101.75
259.151	72.75
259.383	74.75
259.616	66.75
259.849	67.75
260.081	80.75
260.314	82.75
260.547	84.75
260.779	98.75
261.012	82.75
261.244	80.75
261.477	83.75
261.71	92.75
261.942	87.75
262.175	114.75
262.407	84.75
262.64	81.75
262.872	76.75
263.105	85.75
263.337	80.75
263.57	90.75
263.802	91.75
264.035	73.75
264.267	74.75
264.499	81.75
264.732	82.75
264.964	86.75
265.197	75.75
265.429	64.75
265.661	79.75
265.894	92.75
266.126	80.75
266.358	84.75
266.591	83.75
266.823	95.75
267.055	76.75
267.287	83.75
267.52	71.75
267.752	95.75
267.984	65.75
268.216	72.75
268.448	84.75
268.681	85.75
268.913	73.75
269.145	81.75
269.377	81.75
269.609	69.75
269.841	72.75
270.073	87.75
270.306	77.75
270.538	76.75
270.77	77.75
271.002	78.75
271.234	77.75
271.466	82.75
271.698	88.75
271.93	82.75
272.162	98.75
272.394	92.75
272.626	92.75
272.858	81.75
273.09	90.75
273.322	88.75
273.553	80.75
273.785	79.75
274.017	84.75
274.249	84.75
274.481	85.75
274.713	89.75
274.945	93.75
275.176	74.75
275.408	79.75
275.64	94.75
275.872	78.75
276.104	85.75
276.335	82.75
276.567	108.75
276.799	108.75
277.031	97.75
277.262	93.75
277.494	79.75
277.726	83.75
277.957	85.75
278.189	81.75
278.421	88.75
278.652	81.75
278.884	84.75
279.115	92.75
279.347	82.75
279.579	96.75
279.81	86.75
280.042	90.75
280.273	85.75
280.505	97.75
280.736	68.75
280.968	89.75
281.199	97.75
281.431	78.75
281.662	91.75
281.894	81.75
282.125	89.75
282.356	91.75
282.588	120.75
282.819	110.75
283.051	94.75
283.282	75.75
283.513	90.75
283.745	80.75
283.976	98.75
284.207	81.75
284.439	78.75
284.67	90.75
284.901	87.75
285.132	89.75
285.364	91.75
285.595	84.75
285.826	67.75
286.057	88.75
286.288	84.75
286.52	88.75
286.751	88.75
286.982	95.75
287.213	88.75
287.444	75.75
287.675	92.75
287.906	76.75
288.138	88.75
288.369	84.75
288.6	86.75
288.831	94.75
289.062	101.75
289.293	84.75
289.524	86.75
289.755	85.75
289.986	65.75
290.217	78.75
290.448	91.75
290.679	84.75
290.91	88.75
291.141	81.75
291.371	86.75
291.602	80.75
291.833	98.75
292.064	78.75
292.295	88.75
292.526	84.75
292.757	77.75
292.987	73.75
293.218	97.75
293.449	88.75
293.68	80.75
293.91	68.75
294.141	89.75
294.372	72.75
294.603	96.75
294.833	84.75
295.064	82.75
295.295	86.75
295.525	105.75
295.756	101.75
295.987	115.75
296.217	114.75
296.448	115.75
296.679	92.75
296.909	92.75
297.14	81.75
297.37	84.75
297.601	89.75
297.831	84.75
298.062	88.75
298.292	85.75
298.523	85.75
298.753	99.75
298.984	64.75
299.214	81.75
299.445	98.75
299.675	91.75
299.905	92.75
300.136	90.75
300.366	84.75
300.597	86.75
300.827	98.75
301.057	113.75
301.288	108.75
301.518	107.75
301.748	86.75
301.979	94.75
302.209	84.75
302.439	84.75
302.669	95.75
302.9	89.75
303.13	66.75
303.36	86.75
303.59	100.75
303.82	107.75
304.051	74.75
304.281	81.75
304.511	86.75
304.741	83.75
304.971	72.75
305.201	88.75
305.431	82.75
305.661	93.75
305.891	99.75
306.121	105.75
306.352	89.75
306.582	100.75
306.812	83.75
307.042	92.75
307.272	92.75
307.502	89.75
307.731	88.75
307.961	84.75
308.191	78.75
308.421	82.75
308.651	88.75
308.881	92.75
309.111	81.75
309.341	94.75
309.571	88.75
309.8	92.75
310.03	95.75
310.26	96.75
310.49	94.75
310.72	82.75
310.949	101.75
311.179	104.75
311.409	94.75
311.639	95.75
311.868	97.75
312.098	102.75
312.328	86.75
312.557	91.75
312.787	102.75
313.017	101.75
313.246	107.75
313.476	99.75
313.706	93.75
313.935	85.75
314.165	97.75
314.394	84.75
314.624	97.75
314.853	88.75
315.083	83.75
315.312	104.75
315.542	93.75
315.771	79.75
316.001	105.75
316.23	84.75
316.46	89.75
316.689	79.75
316.919	93.75
317.148	97.75
317.377	87.75
317.607	82.75
317.836	88.75
318.065	76.75
318.295	89.75
318.524	79.75
318.753	85.75
318.983	94.75
319.212	109.75
319.441	101.75
319.67	94.75
319.9	87.75
320.129	95.75
320.358	89.75
320.587	108.75
320.816	97.75
321.046	98.75
321.275	92.75
321.504	102.75
321.733	97.75
321.962	99.75
322.191	104.75
322.42	93.75
322.649	106.75
322.878	99.75
323.108	112.75
323.337	116.75
323.566	112.75
323.795	134.75
324.024	180.75
324.253	361.75
324.482	750.75
324.71	1550.75
324.939	2069.75
325.168	741.75
325.397	248.75
325.626	154.75
325.855	131.75
326.084	116.75
326.313	125.75
326.542	158.75
326.77	214.75
326.999	422.75
327.228	875.75
327.457	1602.75
327.686	1282.75
327.914	338.75
328.143	177.75
328.372	149.75
328.6	115.75
328.829	103.75
329.058	120.75
329.287	114.75
329.515	106.75
329.744	107.75
329.972	102.75
330.201	99.75
330.43	130.75
330.658	118.75
330.887	129.75
331.115	109.75
331.344	94.75
331.572	94.75
331.801	84.75
332.03	83.75
332.258	95.75
332.486	93.75
332.715	84.75
332.943	88.75
333.172	95.75
333.4	94.75
333.629	107.75
333.857	102.75
334.085	102.75
334.314	112.75
334.542	123.75
334.771	115.75
334.999	90.75
335.227	88.75
335.455	106.75
335.684	106.75
335.912	108.75
336.14	98.75
336.369	100.75
336.597	77.75
336.825	79.75
337.053	86.75
337.281	93.75
337.51	108.75
337.738	93.75
337.966	100.75
338.194	101.75
338.422	107.75
338.65	92.75
338.878	92.75
339.106	89.75
339.334	81.75
339.562	87.75
339.79	90.75
340.018	91.75
340.246	85.75
340.474	86.75
340.702	82.75
340.93	81.75
341.158	84.75
341.386	91.75
341.614	84.75
341.842	77.75
342.07	96.75
342.298	83.75
342.526	85.75
342.754	72.75
342.981	83.75
343.209	89.75
343.437	106.75
343.665	80.75
343.893	92.75
344.12	93.75
344.348	86.75
344.576	82.75
344.804	92.75
345.031	85.75
345.259	100.75
345.487	99.75
345.714	94.75
345.942	90.75
346.17	102.75
346.397	92.75
346.625	93.75
346.853	82.75
347.08	76.75
347.308	89.75
347.535	102.75
347.763	99.75
347.99	94.75
348.218	102.75
348.445	86.75
348.673	86.75
348.9	94.75
349.128	79.75
349.355	109.75
349.583	97.75
349.81	80.75
350.037	101.75
350.265	101.75
350.492	104.75
350.72	106.75
350.947	93.75
351.174	97.75
351.402	114.75
351.629	101.75
351.856	99.75
352.083	99.75
352.311	100.75
352.538	102.75
352.765	89.75
352.992	104.75
353.22	94.75
353.447	110.75
353.674	110.75
353.901	76.75
354.128	98.75
354.355	97.75
354.583	98.75
354.81	99.75
355.037	90.75
355.264	85.75
355.491	94.75
355.718	95.75
355.945	92.75
356.172	93.75
356.399	78.75
356.626	104.75
356.853	84.75
357.08	95.75
357.307	99.75
357.534	86.75
357.761	93.75
357.988	85.75
358.215	90.75
358.441	83.75
358.668	89.75
358.895	80.75
359.122	81.75
359.349	66.75
359.576	79.75
359.802	87.75
360.029	120.75
360.256	94.75
360.483	104.75
360.709	93.75
360.936	79.75
361.163	100.75
361.39	94.75
361.616	94.75
361.843	90.75
362.07	96.75
362.296	88.75
362.523	99.75
362.749	100.75
362.976	92.75
363.203	91.75
363.429	79.75
363.656	92.75
363.882	82.75
364.109	105.75
364.335	98.75
364.562	86.75
364.788	82.75
365.015	75.75
365.241	100.75
365.468	102.75
365.694	99.75
365.92	86.75
366.147	88.75
366.373	74.75
366.599	85.75
366.826	87.75
367.052	99.75
367.278	93.75
367.505	92.75
367.731	93.75
367.957	99.75
368.184	92.75
368.41	91.75
368.636	108.75
368.862	109.75
369.089	102.75
369.315	92.75
369.541	73.75
369.767	91.75
369.993	79.75
370.219	83.75
370.445	82.75
370.672	82.75
370.898	83.75
371.124	90.75
371.35	95.75
371.576	82.75
371.802	89.75
372.028	87.75
372.254	93.75
372.48	93.75
372.706	68.75
372.932	83.75
373.158	92.75
373.384	95.75
373.61	94.75
373.835	84.75
374.061	93.75
374.287	108.75
374.513	89.75
374.739	86.75
374.965	86.75
375.191	78.75
375.416	84.75
375.642	78.75
375.868	80.75
376.094	86.75
376.319	73.75
376.545	84.75
376.771	91.75
376.997	85.75
377.222	88.75
377.448	90.75
377.674	95.75
377.899	81.75
378.125	76.75
378.35	88.75
378.576	92.75
378.802	78.75
379.027	87.75
379.253	90.75
379.478	97.75
379.704	89.75
379.929	91.75
380.155	81.75
380.38	82.75
380.606	83.75
380.831	84.75
381.057	95.75
381.282	93.75
381.507	88.75
381.733	86.75
381.958	92.75
382.184	85.75
382.409	93.75
382.634	94.75
382.86	97.75
383.085	86.75
383.31	92.75
383.535	98.75
383.761	98.75
383.986	99.75
384.211	88.75
384.436	108.75
384.662	106.75
384.887	99.75
385.112	92.75
385.337	93.75
385.562	85.75
385.787	85.75
386.013	101.75
386.238	104.75
386.463	95.75
386.688	95.75
386.913	89.75
387.138	92.75
387.363	105.75
387.588	104.75
387.813	102.75
388.038	111.75
388.263	92.75
388.488	101.75
388.713	97.75
388.938	93.75
389.163	92.75
389.387	86.75
389.612	100.75
389.837	82.75
390.062	86.75
390.287	96.75
390.512	84.75
390.736	83.75
390.961	85.75
391.186	84.75
391.411	112.75
391.636	97.75
391.86	88.75
392.085	80.75
392.31	85.75
392.534	84.75
392.759	100.75
392.984	76.75
393.208	89.75
393.433	89.75
393.658	86.75
393.882	91.75
394.107	80.75
394.331	81.75
394.556	89.75
394.78	86.75
395.005	93.75
395.229	74.75
395.454	89.75
395.678	81.75
395.903	74.75
396.127	87.75
396.352	85.75
396.576	84.75
396.801	89.75
397.025	96.75
397.249	70.75
397.474	85.75
397.698	77.75
397.922	80.75
398.147	87.75
398.371	80.75
398.595	82.75
398.82	83.75
399.044	90.75
399.268	92.75
399.492	91.75
399.717	93.75
399.941	95.75
400.165	96.75
400.389	97.75
400.613	77.75
400.837	76.75
401.062	70.75
401.286	95.75
401.51	99.75
401.734	96.75
401.958	97.75
402.182	117.75
402.406	132.75
402.63	96.75
402.854	97.75
403.078	94.75
403.302	81.75
403.526	94.75
403.75	90.75
403.974	92.75
404.198	78.75
404.422	92.75
404.645	104.75
404.869	83.75
405.093	93.75
405.317	84.75
405.541	99.75
405.765	95.75
405.988	92.75
406.212	152.75
406.436	182.75
406.66	114.75
406.883	95.75
407.107	93.75
407.331	91.75
407.555	93.75
407.778	99.75
408.002	83.75
408.226	82.75
408.449	95.75
408.673	88.75
408.896	76.75
409.12	95.75
409.344	87.75
409.567	86.75
409.791	88.75
410.014	94.75
410.238	89.75
410.461	100.75
410.685	89.75
410.908	97.75
411.132	104.75
411.355	105.75
411.578	98.75
411.802	88.75
412.025	84.75
412.249	80.75
412.472	95.75
412.695	97.75
412.919	94.75
413.142	81.75
413.365	76.75
413.589	77.75
413.812	94.75
414.035	93.75
414.258	84.75
414.482	99.75
414.705	88.75
414.928	98.75
415.151	73.75
415.374	91.75
415.597	77.75
415.821	95.75
416.044	82.75
416.267	75.75
416.49	82.75
416.713	93.75
416.936	93.75
417.159	86.75
417.382	84.75
417.605	97.75
417.828	77.75
418.051	86.75
418.274	89.75
418.497	93.75
418.72	97.75
418.943	97.75
419.166	83.75
419.389	98.75
419.611	84.75
419.834	84.75
420.057	92.75
420.28	72.75
420.503	83.75
420.726	74.75
420.948	80.75
421.171	83.75
421.394	87.75
421.617	87.75
421.839	102.75
422.062	81.75
422.285	88.75
422.507	94.75
422.73	108.75
422.953	91.75
423.175	78.75
423.398	79.75
423.621	102.75
423.843	86.75
424.066	87.75
424.288	83.75
424.511	106.75
424.733	94.75
424.956	105.75
425.178	88.75
425.401	101.75
425.623	88.75
425.846	93.75
426.068	99.75
426.291	95.75
426.513	89.75
426.735	86.75
426.958	81.75
427.18	99.75
427.402	140.75
427.625	148.75
427.847	120.75
428.069	109.75
428.292	96.75
428.514	100.75
428.736	90.75
428.958	72.75
429.181	64.75
429.403	76.75
429.625	92.75
429.847	97.75
430.069	94.75
430.292	88.75
430.514	76.75
430.736	74.75
430.958	85.75
431.18	84.75
431.402	88.75
431.624	76.75
431.846	81.75
432.068	76.75
432.29	88.75
432.512	96.75
432.734	83.75
432.956	90.75
433.178	69.75
433.4	94.75
433.622	70.75
433.844	94.75
434.066	86.75
434.287	72.75
434.509	87.75
434.731	75.75
434.953	93.75
435.175	80.75
435.397	87.75
435.618	90.75
435.84	106.75
436.062	112.75
436.284	101.75
436.505	94.75
436.727	96.75
436.949	77.75
437.17	83.75
437.392	87.75
437.614	91.75
437.835	99.75
438.057	108.75
438.278	102.75
438.5	104.75
438.721	107.75
438.943	101.75
439.165	89.75
439.386	72.75
439.608	86.75
439.829	87.75
440.05	114.75
440.272	120.75
440.493	87.75
440.715	94.75
440.936	96.75
441.158	74.75
441.379	91.75
441.6	77.75
441.822	94.75
442.043	88.75
442.264	118.75
442.486	93.75
442.707	86.75
442.928	104.75
443.149	110.75
443.371	132.75
443.592	99.75
443.813	102.75
444.034	101.75
444.255	82.75
444.476	77.75
444.698	76.75
444.919	67.75
445.14	125.75
445.361	99.75
445.582	116.75
445.803	106.75
446.024	127.75
446.245	115.75
446.466	112.75
446.687	80.75
446.908	77.75
447.129	84.75
447.35	90.75
447.571	95.75
447.792	91.75
448.013	102.75
448.234	97.75
448.455	102.75
448.675	99.75
448.896	106.75
449.117	97.75
449.338	98.75
449.559	127.75
449.779	132.75
450	99.75
450.221	86.75
450.442	92.75
450.662	77.75
450.883	100.75
451.104	110.75
451.324	91.75
451.545	98.75
451.766	107.75
451.986	83.75
452.207	84.75
452.428	91.75
452.648	87.75
452.869	92.75
453.089	116.75
453.31	105.75
453.53	85.75
453.751	111.75
453.971	95.75
454.192	101.75
454.412	77.75
454.633	80.75
454.853	68.75
455.073	82.75
455.294	96.75
455.514	100.75
455.734	87.75
455.955	80.75
456.175	88.75
456.395	83.75
456.616	78.75
456.836	76.75
457.056	71.75
457.276	82.75
457.497	78.75
457.717	86.75
457.937	80.75
458.157	91.75
458.377	94.75
458.598	95.75
458.818	125.75
459.038	130.75
459.258	113.75
459.478	85.75
459.698	82.75
459.918	74.75
460.138	78.75
460.358	82.75
460.578	102.75
460.798	89.75
461.018	89.75
461.238	80.75
461.458	89.75
461.678	86.75
461.898	91.75
462.118	89.75
462.338	104.75
462.558	78.75
462.777	89.75
462.997	81.75
463.217	83.75
463.437	95.75
463.657	83.75
463.876	76.75
464.096	82.75
464.316	99.75
464.536	107.75
464.755	94.75
464.975	97.75
465.195	151.75
465.414	138.75
465.634	102.75
465.854	79.75
466.073	63.75
466.293	93.75
466.512	82.75
466.732	94.75
466.951	85.75
467.171	97.75
467.391	104.75
467.61	95.75
467.829	93.75
468.049	106.75
468.268	106.75
468.488	83.75
468.707	75.75
468.927	77.75
469.146	82.75
469.365	81.75
469.585	79.75
469.804	83.75
470.023	91.75
470.243	85.75
470.462	93.75
470.681	101.75
470.901	91.75
471.12	85.75
471.339	79.75
471.558	77.75
471.777	84.75
471.997	83.75
472.216	83.75
472.435	114.75
472.654	92.75
472.873	86.75
473.092	86.75
473.311	99.75
473.53	88.75
473.749	90.75
473.968	79.75
474.187	100.75
474.406	82.75
474.625	94.75
474.844	88.75
475.063	70.75
475.282	85.75
475.501	72.75
475.72	96.75
475.939	80.75
476.158	75.75
476.377	66.75
476.596	85.75
476.814	101.75
477.033	94.75
477.252	88.75
477.471	74.75
477.69	88.75
477.908	95.75
478.127	83.75
478.346	85.75
478.564	85.75
478.783	96.75
479.002	82.75
479.22	81.75
479.439	98.75
479.658	86.75
479.876	91.75
480.095	96.75
480.313	101.75
480.532	92.75
480.751	92.75
480.969	112.75
481.188	168.75
481.406	148.75
481.624	103.75
481.843	87.75
482.061	92.75
482.28	83.75
482.498	91.75
482.717	92.75
482.935	97.75
483.153	89.75
483.372	84.75
483.59	85.75
483.808	107.75
484.027	96.75
484.245	87.75
484.463	89.75
484.681	101.75
484.9	91.75
485.118	89.75
485.336	81.75
485.554	90.75
485.772	89.75
485.99	107.75
486.209	95.75
486.427	97.75
486.645	92.75
486.863	104.75
487.081	109.75
487.299	105.75
487.517	106.75
487.735	88.75
487.953	94.75
488.171	89.75
488.389	103.75
488.607	96.75
488.825	80.75
489.043	82.75
489.261	92.75
489.479	76.75
489.696	82.75
489.914	89.75
490.132	92.75
490.35	89.75
490.568	89.75
490.786	89.75
491.003	90.75
491.221	81.75
491.439	93.75
491.657	95.75
491.874	96.75
492.092	79.75
492.31	92.75
492.527	91.75
492.745	88.75
492.963	86.75
493.18	91.75
493.398	91.75
493.615	92.75
493.833	101.75
494.05	76.75
494.268	85.75
494.485	85.75
494.703	99.75
494.92	83.75
495.138	90.75
495.355	91.75
495.573	95.75
495.79	86.75
496.008	93.75
496.225	90.75
496.442	83.75
496.66	88.75
496.877	94.75
497.094	92.75
497.312	90.75
497.529	101.75
497.746	98.75
497.963	84.75
498.181	90.75
498.398	112.75
498.615	103.75
498.832	113.75
499.049	94.75
499.267	89.75
499.484	96.75
499.701	99.75
499.918	74.75
500.135	83.75
500.352	101.75
500.569	89.75
500.786	77.75
501.003	95.75
501.22	86.75
501.437	78.75
501.654	85.75
501.871	102.75
502.088	91.75
502.305	101.75
502.522	80.75
502.739	88.75
502.956	95.75
503.172	92.75
503.389	86.75
503.606	103.75
503.823	90.75
504.04	96.75
504.256	100.75
504.473	85.75
504.69	88.75
504.907	92.75
505.123	84.75
505.34	79.75
505.557	88.75
505.773	84.75
505.99	72.75
506.207	76.75
506.423	77.75
506.64	96.75
506.856	94.75
507.073	86.75
507.289	93.75
507.506	98.75
507.722	95.75
507.939	126.75
508.155	105.75
508.372	73.75
508.588	85.75
508.805	78.75
509.021	101.75
509.238	90.75
509.454	93.75
509.67	88.75
509.887	102.75
510.103	130.75
510.319	193.75
510.536	687.75
510.752	2060.75
510.968	586.75
511.184	129.75
511.401	114.75
511.617	100.75
511.833	92.75
512.049	92.75
512.265	93.75
512.481	103.75
512.698	91.75
512.914	94.75
513.13	106.75
513.346	80.75
513.562	80.75
513.778	87.75
513.994	98.75
514.21	102.75
514.426	115.75
514.642	114.75
514.858	119.75
515.074	150.75
515.29	378.75
515.506	1240.75
515.721	481.75
515.937	153.75
516.153	110.75
516.369	95.75
516.585	87.75
