Data from Uncirc_1990_H10_HRD10591_00071.txt Node
Date: Wed Jan 03 11:54:05 EST 2024
User: Yrep
Spectrometer: HR+D1059
Trigger mode: 1
Integration Time (sec): 1.000000E-1
Scans to average: 1
Electric dark correction enabled: true
Nonlinearity correction enabled: false
Boxcar width: 0
XAxis mode: Wavelengths
Number of Pixels in Spectrum: 2048
>>>>>Begin Spectral Data<<<<<
223.165	-1.31
223.4	-1.31
223.635	-1.31
223.869	-27.31
224.104	-28.31
224.338	-27.31
224.573	-19.31
224.808	-11.31
225.042	-0.31
225.277	0.69
225.511	0.69
225.746	3.69
225.98	18.69
226.215	5.69
226.449	11.69
226.683	18.69
226.918	27.69
227.152	27.69
227.387	28.69
227.621	45.69
227.856	42.69
228.09	47.69
228.324	51.69
228.559	58.69
228.793	66.69
229.027	66.69
229.262	66.69
229.496	81.69
229.73	87.69
229.964	65.69
230.199	63.69
230.433	84.69
230.667	73.69
230.901	86.69
231.136	81.69
231.37	66.69
231.604	77.69
231.838	86.69
232.072	84.69
232.306	82.69
232.541	96.69
232.775	87.69
233.009	85.69
233.243	85.69
233.477	83.69
233.711	85.69
233.945	89.69
234.179	81.69
234.413	83.69
234.647	93.69
234.881	91.69
235.115	79.69
235.349	73.69
235.583	85.69
235.817	98.69
236.051	75.69
236.285	85.69
236.519	72.69
236.753	69.69
236.987	86.69
237.221	84.69
237.455	75.69
237.689	69.69
237.922	75.69
238.156	79.69
238.39	76.69
238.624	76.69
238.858	61.69
239.091	74.69
239.325	85.69
239.559	76.69
239.793	71.69
240.027	81.69
240.26	85.69
240.494	74.69
240.728	72.69
240.961	86.69
241.195	77.69
241.429	89.69
241.662	82.69
241.896	68.69
242.13	71.69
242.363	58.69
242.597	74.69
242.83	80.69
243.064	74.69
243.298	85.69
243.531	91.69
243.765	69.69
243.998	73.69
244.232	86.69
244.465	85.69
244.699	70.69
244.932	71.69
245.166	92.69
245.399	85.69
245.633	85.69
245.866	76.69
246.099	71.69
246.333	80.69
246.566	93.69
246.8	90.69
247.033	83.69
247.266	82.69
247.5	91.69
247.733	86.69
247.966	91.69
248.2	82.69
248.433	61.69
248.666	80.69
248.899	86.69
249.133	87.69
249.366	102.69
249.599	95.69
249.832	78.69
250.066	87.69
250.299	83.69
250.532	83.69
250.765	94.69
250.998	73.69
251.231	77.69
251.465	86.69
251.698	78.69
251.931	77.69
252.164	77.69
252.397	81.69
252.63	82.69
252.863	89.69
253.096	83.69
253.329	89.69
253.562	68.69
253.795	87.69
254.028	74.69
254.261	77.69
254.494	81.69
254.727	81.69
254.96	71.69
255.193	81.69
255.426	72.69
255.659	86.69
255.892	88.69
256.124	88.69
256.357	81.69
256.59	90.69
256.823	85.69
257.056	93.69
257.289	83.69
257.521	81.69
257.754	77.69
257.987	86.69
258.22	92.69
258.452	84.69
258.685	77.69
258.918	66.69
259.151	91.69
259.383	85.69
259.616	81.69
259.849	101.69
260.081	88.69
260.314	76.69
260.547	78.69
260.779	81.69
261.012	80.69
261.244	89.69
261.477	91.69
261.71	101.69
261.942	113.69
262.175	115.69
262.407	89.69
262.64	93.69
262.872	81.69
263.105	70.69
263.337	95.69
263.57	81.69
263.802	89.69
264.035	84.69
264.267	91.69
264.499	84.69
264.732	77.69
264.964	89.69
265.197	85.69
265.429	84.69
265.661	83.69
265.894	91.69
266.126	85.69
266.358	72.69
266.591	94.69
266.823	77.69
267.055	79.69
267.287	97.69
267.52	92.69
267.752	81.69
267.984	97.69
268.216	88.69
268.448	87.69
268.681	81.69
268.913	90.69
269.145	93.69
269.377	93.69
269.609	76.69
269.841	83.69
270.073	99.69
270.306	92.69
270.538	81.69
270.77	81.69
271.002	73.69
271.234	68.69
271.466	81.69
271.698	93.69
271.93	85.69
272.162	93.69
272.394	89.69
272.626	91.69
272.858	89.69
273.09	80.69
273.322	89.69
273.553	91.69
273.785	85.69
274.017	77.69
274.249	104.69
274.481	77.69
274.713	77.69
274.945	96.69
275.176	81.69
275.408	74.69
275.64	83.69
275.872	79.69
276.104	90.69
276.335	88.69
276.567	95.69
276.799	109.69
277.031	109.69
277.262	99.69
277.494	103.69
277.726	90.69
277.957	90.69
278.189	88.69
278.421	82.69
278.652	100.69
278.884	88.69
279.115	77.69
279.347	87.69
279.579	95.69
279.81	93.69
280.042	98.69
280.273	95.69
280.505	110.69
280.736	74.69
280.968	94.69
281.199	88.69
281.431	83.69
281.662	98.69
281.894	85.69
282.125	96.69
282.356	118.69
282.588	148.69
282.819	121.69
283.051	97.69
283.282	94.69
283.513	79.69
283.745	74.69
283.976	95.69
284.207	92.69
284.439	84.69
284.67	91.69
284.901	99.69
285.132	84.69
285.364	88.69
285.595	101.69
285.826	102.69
286.057	82.69
286.288	93.69
286.52	89.69
286.751	72.69
286.982	99.69
287.213	98.69
287.444	95.69
287.675	90.69
287.906	104.69
288.138	83.69
288.369	89.69
288.6	94.69
288.831	97.69
289.062	86.69
289.293	82.69
289.524	82.69
289.755	101.69
289.986	81.69
290.217	82.69
290.448	85.69
290.679	99.69
290.91	107.69
291.141	100.69
291.371	94.69
291.602	91.69
291.833	83.69
292.064	79.69
292.295	95.69
292.526	82.69
292.757	92.69
292.987	96.69
293.218	94.69
293.449	82.69
293.68	80.69
293.91	96.69
294.141	99.69
294.372	87.69
294.603	77.69
294.833	88.69
295.064	98.69
295.295	94.69
295.525	84.69
295.756	97.69
295.987	104.69
296.217	136.69
296.448	116.69
296.679	107.69
296.909	99.69
297.14	78.69
297.37	88.69
297.601	88.69
297.831	87.69
298.062	93.69
298.292	88.69
298.523	97.69
298.753	80.69
298.984	90.69
299.214	90.69
299.445	88.69
299.675	80.69
299.905	102.69
300.136	101.69
300.366	96.69
300.597	91.69
300.827	99.69
301.057	106.69
301.288	105.69
301.518	91.69
301.748	89.69
301.979	97.69
302.209	103.69
302.439	81.69
302.669	96.69
302.9	87.69
303.13	98.69
303.36	109.69
303.59	95.69
303.82	109.69
304.051	98.69
304.281	91.69
304.511	98.69
304.741	84.69
304.971	88.69
305.201	96.69
305.431	89.69
305.661	97.69
305.891	86.69
306.121	85.69
306.352	93.69
306.582	104.69
306.812	90.69
307.042	94.69
307.272	82.69
307.502	90.69
307.731	83.69
307.961	94.69
308.191	79.69
308.421	94.69
308.651	97.69
308.881	79.69
309.111	93.69
309.341	84.69
309.571	102.69
309.8	99.69
310.03	109.69
310.26	96.69
310.49	87.69
310.72	93.69
310.949	97.69
311.179	93.69
311.409	88.69
311.639	96.69
311.868	103.69
312.098	111.69
312.328	109.69
312.557	100.69
312.787	114.69
313.017	114.69
313.246	97.69
313.476	91.69
313.706	80.69
313.935	88.69
314.165	85.69
314.394	91.69
314.624	96.69
314.853	105.69
315.083	113.69
315.312	105.69
315.542	93.69
315.771	99.69
316.001	86.69
316.23	98.69
316.46	90.69
316.689	98.69
316.919	98.69
317.148	85.69
317.377	91.69
317.607	92.69
317.836	77.69
318.065	94.69
318.295	78.69
318.524	86.69
318.753	96.69
318.983	102.69
319.212	89.69
319.441	104.69
319.67	115.69
319.9	83.69
320.129	100.69
320.358	104.69
320.587	103.69
320.816	97.69
321.046	110.69
321.275	92.69
321.504	112.69
321.733	94.69
321.962	91.69
322.191	96.69
322.42	112.69
322.649	125.69
322.878	111.69
323.108	115.69
323.337	117.69
323.566	145.69
323.795	153.69
324.024	217.69
324.253	391.69
324.482	827.69
324.71	1716.69
324.939	2290.69
325.168	823.69
325.397	246.69
325.626	145.69
325.855	137.69
326.084	137.69
326.313	109.69
326.542	151.69
326.77	229.69
326.999	472.69
327.228	954.69
327.457	1739.69
327.686	1377.69
327.914	385.69
328.143	184.69
328.372	159.69
328.6	129.69
328.829	136.69
329.058	122.69
329.287	136.69
329.515	112.69
329.744	92.69
329.972	109.69
330.201	99.69
330.43	113.69
330.658	120.69
330.887	132.69
331.115	121.69
331.344	95.69
331.572	101.69
331.801	101.69
332.03	99.69
332.258	97.69
332.486	75.69
332.715	102.69
332.943	95.69
333.172	96.69
333.4	110.69
333.629	112.69
333.857	112.69
334.085	118.69
334.314	102.69
334.542	112.69
334.771	113.69
334.999	105.69
335.227	105.69
335.455	103.69
335.684	104.69
335.912	103.69
336.14	106.69
336.369	106.69
336.597	98.69
336.825	102.69
337.053	103.69
337.281	92.69
337.51	95.69
337.738	116.69
337.966	94.69
338.194	98.69
338.422	92.69
338.65	94.69
338.878	94.69
339.106	87.69
339.334	94.69
339.562	90.69
339.79	97.69
340.018	99.69
340.246	94.69
340.474	108.69
340.702	91.69
340.93	87.69
341.158	94.69
341.386	97.69
341.614	87.69
341.842	107.69
342.07	91.69
342.298	95.69
342.526	105.69
342.754	99.69
342.981	107.69
343.209	90.69
343.437	106.69
343.665	104.69
343.893	98.69
344.12	101.69
344.348	90.69
344.576	98.69
344.804	83.69
345.031	94.69
345.259	100.69
345.487	94.69
345.714	100.69
345.942	83.69
346.17	89.69
346.397	103.69
346.625	82.69
346.853	97.69
347.08	92.69
347.308	106.69
347.535	95.69
347.763	97.69
347.99	107.69
348.218	93.69
348.445	95.69
348.673	98.69
348.9	109.69
349.128	101.69
349.355	90.69
349.583	97.69
349.81	88.69
350.037	99.69
350.265	95.69
350.492	109.69
350.72	94.69
350.947	114.69
351.174	102.69
351.402	104.69
351.629	108.69
351.856	113.69
352.083	116.69
352.311	100.69
352.538	111.69
352.765	104.69
352.992	102.69
353.22	104.69
353.447	112.69
353.674	108.69
353.901	102.69
354.128	94.69
354.355	98.69
354.583	96.69
354.81	102.69
355.037	100.69
355.264	99.69
355.491	94.69
355.718	103.69
355.945	95.69
356.172	105.69
356.399	101.69
356.626	91.69
356.853	107.69
357.08	98.69
357.307	82.69
357.534	101.69
357.761	85.69
357.988	96.69
358.215	107.69
358.441	91.69
358.668	93.69
358.895	87.69
359.122	87.69
359.349	97.69
359.576	99.69
359.802	96.69
360.029	123.69
360.256	111.69
360.483	101.69
360.709	111.69
360.936	100.69
361.163	91.69
361.39	99.69
361.616	94.69
361.843	89.69
362.07	92.69
362.296	93.69
362.523	109.69
362.749	92.69
362.976	103.69
363.203	105.69
363.429	91.69
363.656	83.69
363.882	89.69
364.109	105.69
364.335	87.69
364.562	103.69
364.788	91.69
365.015	109.69
365.241	104.69
365.468	97.69
365.694	111.69
365.92	102.69
366.147	96.69
366.373	101.69
366.599	106.69
366.826	104.69
367.052	100.69
367.278	98.69
367.505	88.69
367.731	94.69
367.957	103.69
368.184	93.69
368.41	93.69
368.636	105.69
368.862	136.69
369.089	125.69
369.315	93.69
369.541	91.69
369.767	93.69
369.993	100.69
370.219	89.69
370.445	91.69
370.672	84.69
370.898	96.69
371.124	94.69
371.35	84.69
371.576	100.69
371.802	104.69
372.028	86.69
372.254	100.69
372.48	78.69
372.706	85.69
372.932	98.69
373.158	93.69
373.384	90.69
373.61	90.69
373.835	107.69
374.061	95.69
374.287	107.69
374.513	107.69
374.739	86.69
374.965	99.69
375.191	98.69
375.416	85.69
375.642	81.69
375.868	100.69
376.094	104.69
376.319	87.69
376.545	87.69
376.771	87.69
376.997	93.69
377.222	83.69
377.448	99.69
377.674	89.69
377.899	89.69
378.125	96.69
378.35	95.69
378.576	89.69
378.802	101.69
379.027	85.69
379.253	98.69
379.478	91.69
379.704	105.69
379.929	89.69
380.155	104.69
380.38	91.69
380.606	100.69
380.831	94.69
381.057	99.69
381.282	93.69
381.507	102.69
381.733	100.69
381.958	96.69
382.184	103.69
382.409	87.69
382.634	103.69
382.86	101.69
383.085	114.69
383.31	103.69
383.535	94.69
383.761	99.69
383.986	104.69
384.211	99.69
384.436	106.69
384.662	96.69
384.887	104.69
385.112	110.69
385.337	119.69
385.562	91.69
385.787	96.69
386.013	102.69
386.238	112.69
386.463	113.69
386.688	99.69
386.913	105.69
387.138	102.69
387.363	95.69
387.588	104.69
387.813	104.69
388.038	98.69
388.263	103.69
388.488	106.69
388.713	105.69
388.938	94.69
389.163	90.69
389.387	106.69
389.612	94.69
389.837	80.69
390.062	94.69
390.287	103.69
390.512	104.69
390.736	89.69
390.961	86.69
391.186	88.69
391.411	98.69
391.636	96.69
391.86	97.69
392.085	96.69
392.31	107.69
392.534	92.69
392.759	95.69
392.984	86.69
393.208	89.69
393.433	87.69
393.658	74.69
393.882	87.69
394.107	88.69
394.331	88.69
394.556	69.69
394.78	98.69
395.005	104.69
395.229	88.69
395.454	77.69
395.678	94.69
395.903	105.69
396.127	95.69
396.352	89.69
396.576	82.69
396.801	81.69
397.025	99.69
397.249	89.69
397.474	92.69
397.698	91.69
397.922	84.69
398.147	85.69
398.371	90.69
398.595	85.69
398.82	88.69
399.044	105.69
399.268	89.69
399.492	86.69
399.717	89.69
399.941	85.69
400.165	101.69
400.389	86.69
400.613	88.69
400.837	86.69
401.062	89.69
401.286	76.69
401.51	92.69
401.734	89.69
401.958	93.69
402.182	128.69
402.406	160.69
402.63	121.69
402.854	89.69
403.078	73.69
403.302	96.69
403.526	91.69
403.75	107.69
403.974	97.69
404.198	89.69
404.422	93.69
404.645	102.69
404.869	98.69
405.093	104.69
405.317	106.69
405.541	97.69
405.765	101.69
405.988	112.69
406.212	165.69
406.436	240.69
406.66	137.69
406.883	98.69
407.107	101.69
407.331	88.69
407.555	112.69
407.778	106.69
408.002	85.69
408.226	85.69
408.449	96.69
408.673	90.69
408.896	96.69
409.12	100.69
409.344	105.69
409.567	89.69
409.791	98.69
410.014	95.69
410.238	95.69
410.461	101.69
410.685	94.69
410.908	94.69
411.132	119.69
411.355	99.69
411.578	89.69
411.802	107.69
412.025	90.69
412.249	87.69
412.472	93.69
412.695	92.69
412.919	83.69
413.142	102.69
413.365	83.69
413.589	87.69
413.812	80.69
414.035	109.69
414.258	96.69
414.482	95.69
414.705	84.69
414.928	83.69
415.151	91.69
415.374	104.69
415.597	88.69
415.821	86.69
416.044	89.69
416.267	95.69
416.49	99.69
416.713	82.69
416.936	110.69
417.159	97.69
417.382	95.69
417.605	100.69
417.828	93.69
418.051	100.69
418.274	90.69
418.497	73.69
418.72	88.69
418.943	86.69
419.166	93.69
419.389	97.69
419.611	86.69
419.834	91.69
420.057	75.69
420.28	90.69
420.503	96.69
420.726	81.69
420.948	87.69
421.171	96.69
421.394	100.69
421.617	91.69
421.839	101.69
422.062	80.69
422.285	92.69
422.507	90.69
422.73	115.69
422.953	83.69
423.175	92.69
423.398	89.69
423.621	84.69
423.843	89.69
424.066	96.69
424.288	94.69
424.511	84.69
424.733	103.69
424.956	103.69
425.178	86.69
425.401	97.69
425.623	108.69
425.846	89.69
426.068	90.69
426.291	93.69
426.513	82.69
426.735	77.69
426.958	103.69
427.18	118.69
427.402	129.69
427.625	167.69
427.847	129.69
428.069	106.69
428.292	86.69
428.514	82.69
428.736	93.69
428.958	79.69
429.181	85.69
429.403	94.69
429.625	83.69
429.847	98.69
430.069	95.69
430.292	98.69
430.514	79.69
430.736	93.69
430.958	85.69
431.18	94.69
431.402	82.69
431.624	91.69
431.846	81.69
432.068	85.69
432.29	93.69
432.512	96.69
432.734	95.69
432.956	90.69
433.178	115.69
433.4	94.69
433.622	84.69
433.844	103.69
434.066	84.69
434.287	108.69
434.509	92.69
434.731	94.69
434.953	78.69
435.175	79.69
435.397	102.69
435.618	82.69
435.84	99.69
436.062	118.69
436.284	128.69
436.505	103.69
436.727	101.69
436.949	96.69
437.17	94.69
437.392	101.69
437.614	93.69
437.835	105.69
438.057	114.69
438.278	110.69
438.5	109.69
438.721	119.69
438.943	94.69
439.165	91.69
439.386	94.69
439.608	94.69
439.829	89.69
440.05	126.69
440.272	142.69
440.493	99.69
440.715	91.69
440.936	91.69
441.158	94.69
441.379	96.69
441.6	95.69
441.822	89.69
442.043	95.69
442.264	102.69
442.486	99.69
442.707	96.69
442.928	111.69
443.149	119.69
443.371	139.69
443.592	112.69
443.813	105.69
444.034	109.69
444.255	94.69
444.476	88.69
444.698	85.69
444.919	92.69
445.14	134.69
445.361	134.69
445.582	123.69
445.803	134.69
446.024	124.69
446.245	134.69
446.466	108.69
446.687	81.69
446.908	116.69
447.129	95.69
447.35	82.69
447.571	92.69
447.792	94.69
448.013	99.69
448.234	101.69
448.455	116.69
448.675	118.69
448.896	111.69
449.117	96.69
449.338	118.69
449.559	120.69
449.779	132.69
450	95.69
450.221	97.69
450.442	97.69
450.662	105.69
450.883	111.69
451.104	116.69
451.324	92.69
451.545	91.69
451.766	90.69
451.986	86.69
452.207	101.69
452.428	85.69
452.648	110.69
452.869	99.69
453.089	118.69
453.31	117.69
453.53	97.69
453.751	101.69
453.971	104.69
454.192	112.69
454.412	92.69
454.633	89.69
454.853	85.69
455.073	80.69
455.294	101.69
455.514	89.69
455.734	89.69
455.955	74.69
456.175	85.69
456.395	101.69
456.616	97.69
456.836	85.69
457.056	101.69
457.276	73.69
457.497	74.69
457.717	82.69
457.937	95.69
458.157	97.69
458.377	95.69
458.598	104.69
458.818	137.69
459.038	147.69
459.258	119.69
459.478	91.69
459.698	76.69
459.918	90.69
460.138	101.69
460.358	84.69
460.578	104.69
460.798	67.69
461.018	88.69
461.238	95.69
461.458	90.69
461.678	82.69
461.898	88.69
462.118	80.69
462.338	87.69
462.558	81.69
462.777	92.69
462.997	95.69
463.217	86.69
463.437	81.69
463.657	95.69
463.876	83.69
464.096	94.69
464.316	103.69
464.536	102.69
464.755	97.69
464.975	99.69
465.195	162.69
465.414	162.69
465.634	90.69
465.854	81.69
466.073	81.69
466.293	78.69
466.512	73.69
466.732	81.69
466.951	78.69
467.171	110.69
467.391	97.69
467.61	101.69
467.829	95.69
468.049	106.69
468.268	104.69
468.488	89.69
468.707	74.69
468.927	97.69
469.146	88.69
469.365	78.69
469.585	96.69
469.804	83.69
470.023	93.69
470.243	89.69
470.462	91.69
470.681	116.69
470.901	82.69
471.12	77.69
471.339	97.69
471.558	93.69
471.777	86.69
471.997	98.69
472.216	98.69
472.435	126.69
472.654	78.69
472.873	83.69
473.092	102.69
473.311	98.69
473.53	87.69
473.749	95.69
473.968	99.69
474.187	85.69
474.406	95.69
474.625	95.69
474.844	93.69
475.063	95.69
475.282	96.69
475.501	90.69
475.72	93.69
475.939	83.69
476.158	85.69
476.377	96.69
476.596	82.69
476.814	80.69
477.033	82.69
477.252	88.69
477.471	91.69
477.69	102.69
477.908	94.69
478.127	88.69
478.346	93.69
478.564	87.69
478.783	96.69
479.002	102.69
479.22	98.69
479.439	101.69
479.658	107.69
479.876	97.69
480.095	89.69
480.313	87.69
480.532	76.69
480.751	79.69
480.969	99.69
481.188	139.69
481.406	125.69
481.624	94.69
481.843	95.69
482.061	72.69
482.28	107.69
482.498	84.69
482.717	86.69
482.935	89.69
483.153	88.69
483.372	101.69
483.59	78.69
483.808	79.69
484.027	92.69
484.245	100.69
484.463	101.69
484.681	80.69
484.9	98.69
485.118	93.69
485.336	90.69
485.554	108.69
485.772	100.69
485.99	95.69
486.209	112.69
486.427	97.69
486.645	110.69
486.863	101.69
487.081	120.69
487.299	109.69
487.517	99.69
487.735	98.69
487.953	84.69
488.171	87.69
488.389	108.69
488.607	96.69
488.825	94.69
489.043	87.69
489.261	77.69
489.479	105.69
489.696	86.69
489.914	73.69
490.132	84.69
490.35	97.69
490.568	101.69
490.786	103.69
491.003	92.69
491.221	105.69
491.439	85.69
491.657	93.69
491.874	91.69
492.092	89.69
492.31	102.69
492.527	90.69
492.745	81.69
492.963	98.69
493.18	94.69
493.398	99.69
493.615	93.69
493.833	98.69
494.05	105.69
494.268	84.69
494.485	89.69
494.703	106.69
494.92	92.69
495.138	89.69
495.355	74.69
495.573	92.69
495.79	90.69
496.008	83.69
496.225	87.69
496.442	83.69
496.66	96.69
496.877	97.69
497.094	109.69
497.312	79.69
497.529	83.69
497.746	85.69
497.963	77.69
498.181	86.69
498.398	95.69
498.615	107.69
498.832	115.69
499.049	104.69
499.267	90.69
499.484	98.69
499.701	108.69
499.918	95.69
500.135	81.69
500.352	98.69
500.569	98.69
500.786	98.69
501.003	101.69
501.22	97.69
501.437	91.69
501.654	95.69
501.871	88.69
502.088	85.69
502.305	93.69
502.522	93.69
502.739	101.69
502.956	85.69
503.172	77.69
503.389	97.69
503.606	111.69
503.823	96.69
504.04	83.69
504.256	103.69
504.473	79.69
504.69	86.69
504.907	99.69
505.123	86.69
505.34	94.69
505.557	88.69
505.773	91.69
505.99	89.69
506.207	91.69
506.423	82.69
506.64	94.69
506.856	102.69
507.073	91.69
507.289	97.69
507.506	103.69
507.722	118.69
507.939	107.69
508.155	88.69
508.372	81.69
508.588	105.69
508.805	108.69
509.021	92.69
509.238	93.69
509.454	117.69
509.67	96.69
509.887	117.69
510.103	137.69
510.319	217.69
510.536	762.69
510.752	2447.69
510.968	650.69
511.184	161.69
511.401	120.69
511.617	90.69
511.833	106.69
512.049	99.69
512.265	110.69
512.481	100.69
512.698	77.69
512.914	79.69
513.13	87.69
513.346	105.69
513.562	97.69
513.778	92.69
513.994	104.69
514.21	101.69
514.426	105.69
514.642	134.69
514.858	117.69
