Data from Uncirc_1990_H10_HRD10591_00078.txt Node
Date: Wed Jan 03 11:54:07 EST 2024
User: Yrep
Spectrometer: HR+D1059
Trigger mode: 1
Integration Time (sec): 1.000000E-1
Scans to average: 1
Electric dark correction enabled: true
Nonlinearity correction enabled: false
Boxcar width: 0
XAxis mode: Wavelengths
Number of Pixels in Spectrum: 2048
>>>>>Begin Spectral Data<<<<<
223.165	-20.62
223.4	-20.62
223.635	-20.62
223.869	-17.62
224.104	-25.62
224.338	-23.62
224.573	-13.62
224.808	-0.62
225.042	-3.62
225.277	-5.62
225.511	-4.62
225.746	-2.62
225.98	11.38
226.215	18.38
226.449	27.38
226.683	16.38
226.918	21.38
227.152	23.38
227.387	45.38
227.621	49.38
227.856	34.38
228.09	54.38
228.324	48.38
228.559	53.38
228.793	53.38
229.027	58.38
229.262	74.38
229.496	68.38
229.73	82.38
229.964	75.38
230.199	70.38
230.433	72.38
230.667	85.38
230.901	71.38
231.136	87.38
231.37	82.38
231.604	66.38
231.838	86.38
232.072	86.38
232.306	93.38
232.541	74.38
232.775	62.38
233.009	87.38
233.243	69.38
233.477	89.38
233.711	83.38
233.945	67.38
234.179	70.38
234.413	87.38
234.647	83.38
234.881	77.38
235.115	71.38
235.349	74.38
235.583	93.38
235.817	88.38
236.051	92.38
236.285	66.38
236.519	75.38
236.753	78.38
236.987	78.38
237.221	90.38
237.455	95.38
237.689	80.38
237.922	83.38
238.156	81.38
238.39	74.38
238.624	69.38
238.858	82.38
239.091	78.38
239.325	68.38
239.559	88.38
239.793	72.38
240.027	80.38
240.26	88.38
240.494	79.38
240.728	74.38
240.961	79.38
241.195	85.38
241.429	79.38
241.662	71.38
241.896	68.38
242.13	85.38
242.363	83.38
242.597	81.38
242.83	77.38
243.064	69.38
243.298	62.38
243.531	81.38
243.765	77.38
243.998	93.38
244.232	69.38
244.465	102.38
244.699	87.38
244.932	75.38
245.166	86.38
245.399	81.38
245.633	75.38
245.866	75.38
246.099	63.38
246.333	70.38
246.566	72.38
246.8	79.38
247.033	66.38
247.266	86.38
247.5	70.38
247.733	76.38
247.966	74.38
248.2	80.38
248.433	90.38
248.666	86.38
248.899	90.38
249.133	82.38
249.366	81.38
249.599	87.38
249.832	95.38
250.066	86.38
250.299	96.38
250.532	82.38
250.765	75.38
250.998	62.38
251.231	63.38
251.465	68.38
251.698	93.38
251.931	82.38
252.164	91.38
252.397	64.38
252.63	77.38
252.863	78.38
253.096	83.38
253.329	80.38
253.562	85.38
253.795	63.38
254.028	84.38
254.261	87.38
254.494	78.38
254.727	90.38
254.96	73.38
255.193	79.38
255.426	86.38
255.659	95.38
255.892	85.38
256.124	74.38
256.357	86.38
256.59	96.38
256.823	81.38
257.056	82.38
257.289	87.38
257.521	80.38
257.754	80.38
257.987	84.38
258.22	96.38
258.452	82.38
258.685	85.38
258.918	88.38
259.151	84.38
259.383	82.38
259.616	72.38
259.849	84.38
260.081	87.38
260.314	79.38
260.547	84.38
260.779	71.38
261.012	81.38
261.244	74.38
261.477	76.38
261.71	83.38
261.942	109.38
262.175	120.38
262.407	94.38
262.64	86.38
262.872	80.38
263.105	94.38
263.337	88.38
263.57	78.38
263.802	94.38
264.035	82.38
264.267	96.38
264.499	89.38
264.732	70.38
264.964	104.38
265.197	85.38
265.429	88.38
265.661	77.38
265.894	76.38
266.126	87.38
266.358	83.38
266.591	76.38
266.823	76.38
267.055	91.38
267.287	87.38
267.52	80.38
267.752	72.38
267.984	84.38
268.216	79.38
268.448	79.38
268.681	90.38
268.913	90.38
269.145	81.38
269.377	84.38
269.609	71.38
269.841	95.38
270.073	91.38
270.306	83.38
270.538	75.38
270.77	86.38
271.002	78.38
271.234	75.38
271.466	80.38
271.698	100.38
271.93	93.38
272.162	78.38
272.394	91.38
272.626	69.38
272.858	82.38
273.09	90.38
273.322	103.38
273.553	78.38
273.785	77.38
274.017	77.38
274.249	80.38
274.481	86.38
274.713	90.38
274.945	100.38
275.176	99.38
275.408	85.38
275.64	92.38
275.872	88.38
276.104	94.38
276.335	90.38
276.567	102.38
276.799	103.38
277.031	96.38
277.262	91.38
277.494	84.38
277.726	88.38
277.957	80.38
278.189	82.38
278.421	86.38
278.652	87.38
278.884	82.38
279.115	95.38
279.347	90.38
279.579	71.38
279.81	91.38
280.042	80.38
280.273	89.38
280.505	78.38
280.736	93.38
280.968	82.38
281.199	83.38
281.431	84.38
281.662	86.38
281.894	93.38
282.125	96.38
282.356	114.38
282.588	133.38
282.819	121.38
283.051	100.38
283.282	78.38
283.513	90.38
283.745	88.38
283.976	77.38
284.207	96.38
284.439	78.38
284.67	82.38
284.901	84.38
285.132	79.38
285.364	100.38
285.595	95.38
285.826	80.38
286.057	84.38
286.288	90.38
286.52	84.38
286.751	73.38
286.982	85.38
287.213	85.38
287.444	100.38
287.675	87.38
287.906	94.38
288.138	93.38
288.369	87.38
288.6	90.38
288.831	84.38
289.062	91.38
289.293	82.38
289.524	87.38
289.755	93.38
289.986	86.38
290.217	78.38
290.448	86.38
290.679	94.38
290.91	88.38
291.141	84.38
291.371	83.38
291.602	82.38
291.833	92.38
292.064	83.38
292.295	93.38
292.526	86.38
292.757	84.38
292.987	89.38
293.218	77.38
293.449	74.38
293.68	83.38
293.91	90.38
294.141	82.38
294.372	86.38
294.603	87.38
294.833	83.38
295.064	67.38
295.295	95.38
295.525	89.38
295.756	92.38
295.987	116.38
296.217	124.38
296.448	122.38
296.679	85.38
296.909	91.38
297.14	88.38
297.37	99.38
297.601	91.38
297.831	70.38
298.062	82.38
298.292	91.38
298.523	84.38
298.753	91.38
298.984	88.38
299.214	80.38
299.445	81.38
299.675	102.38
299.905	96.38
300.136	84.38
300.366	90.38
300.597	82.38
300.827	119.38
301.057	125.38
301.288	91.38
301.518	102.38
301.748	98.38
301.979	79.38
302.209	82.38
302.439	76.38
302.669	82.38
302.9	88.38
303.13	93.38
303.36	77.38
303.59	105.38
303.82	100.38
304.051	105.38
304.281	90.38
304.511	94.38
304.741	92.38
304.971	81.38
305.201	91.38
305.431	92.38
305.661	91.38
305.891	98.38
306.121	94.38
306.352	101.38
306.582	88.38
306.812	101.38
307.042	94.38
307.272	101.38
307.502	91.38
307.731	99.38
307.961	86.38
308.191	86.38
308.421	99.38
308.651	103.38
308.881	91.38
309.111	81.38
309.341	92.38
309.571	102.38
309.8	104.38
310.03	104.38
310.26	92.38
310.49	92.38
310.72	104.38
310.949	99.38
311.179	99.38
311.409	114.38
311.639	95.38
311.868	80.38
312.098	76.38
312.328	100.38
312.557	99.38
312.787	102.38
313.017	100.38
313.246	101.38
313.476	79.38
313.706	87.38
313.935	88.38
314.165	81.38
314.394	99.38
314.624	90.38
314.853	101.38
315.083	90.38
315.312	87.38
315.542	99.38
315.771	97.38
316.001	74.38
316.23	69.38
316.46	86.38
316.689	100.38
316.919	97.38
317.148	92.38
317.377	93.38
317.607	101.38
317.836	99.38
318.065	90.38
318.295	84.38
318.524	78.38
318.753	111.38
318.983	98.38
319.212	110.38
319.441	99.38
319.67	98.38
319.9	87.38
320.129	66.38
320.358	86.38
320.587	80.38
320.816	95.38
321.046	92.38
321.275	99.38
321.504	75.38
321.733	108.38
321.962	87.38
322.191	102.38
322.42	94.38
322.649	93.38
322.878	108.38
323.108	119.38
323.337	115.38
323.566	124.38
323.795	154.38
324.024	207.38
324.253	373.38
324.482	803.38
324.71	1654.38
324.939	2167.38
325.168	791.38
325.397	238.38
325.626	148.38
325.855	145.38
326.084	110.38
326.313	127.38
326.542	160.38
326.77	223.38
326.999	433.38
327.228	926.38
327.457	1673.38
327.686	1351.38
327.914	359.38
328.143	182.38
328.372	156.38
328.6	118.38
328.829	110.38
329.058	116.38
329.287	119.38
329.515	101.38
329.744	112.38
329.972	92.38
330.201	110.38
330.43	122.38
330.658	107.38
330.887	123.38
331.115	104.38
331.344	93.38
331.572	103.38
331.801	110.38
332.03	95.38
332.258	99.38
332.486	92.38
332.715	90.38
332.943	104.38
333.172	110.38
333.4	96.38
333.629	87.38
333.857	98.38
334.085	96.38
334.314	110.38
334.542	115.38
334.771	113.38
334.999	100.38
335.227	94.38
335.455	97.38
335.684	98.38
335.912	101.38
336.14	93.38
336.369	99.38
336.597	92.38
336.825	99.38
337.053	82.38
337.281	102.38
337.51	86.38
337.738	92.38
337.966	80.38
338.194	96.38
338.422	94.38
338.65	80.38
338.878	94.38
339.106	84.38
339.334	100.38
339.562	101.38
339.79	89.38
340.018	90.38
340.246	82.38
340.474	87.38
340.702	106.38
340.93	102.38
341.158	86.38
341.386	91.38
341.614	98.38
341.842	85.38
342.07	99.38
342.298	76.38
342.526	96.38
342.754	81.38
342.981	90.38
343.209	100.38
343.437	97.38
343.665	81.38
343.893	93.38
344.12	88.38
344.348	90.38
344.576	90.38
344.804	90.38
345.031	92.38
345.259	98.38
345.487	98.38
345.714	111.38
345.942	97.38
346.17	92.38
346.397	108.38
346.625	97.38
346.853	110.38
347.08	79.38
347.308	92.38
347.535	93.38
347.763	109.38
347.99	89.38
348.218	103.38
348.445	83.38
348.673	89.38
348.9	94.38
349.128	95.38
349.355	87.38
349.583	104.38
349.81	93.38
350.037	95.38
350.265	91.38
350.492	98.38
350.72	91.38
350.947	91.38
351.174	97.38
351.402	94.38
351.629	96.38
351.856	103.38
352.083	103.38
352.311	110.38
352.538	99.38
352.765	110.38
352.992	122.38
353.22	107.38
353.447	92.38
353.674	108.38
353.901	93.38
354.128	96.38
354.355	109.38
354.583	94.38
354.81	103.38
355.037	102.38
355.264	92.38
355.491	85.38
355.718	90.38
355.945	104.38
356.172	80.38
356.399	99.38
356.626	80.38
356.853	97.38
357.08	78.38
357.307	79.38
357.534	83.38
357.761	76.38
357.988	91.38
358.215	94.38
358.441	86.38
358.668	88.38
358.895	91.38
359.122	82.38
359.349	86.38
359.576	78.38
359.802	103.38
360.029	102.38
360.256	86.38
360.483	90.38
360.709	94.38
360.936	95.38
361.163	93.38
361.39	82.38
361.616	96.38
361.843	96.38
362.07	96.38
362.296	91.38
362.523	80.38
362.749	97.38
362.976	93.38
363.203	88.38
363.429	104.38
363.656	86.38
363.882	82.38
364.109	83.38
364.335	95.38
364.562	94.38
364.788	98.38
365.015	93.38
365.241	97.38
365.468	105.38
365.694	96.38
365.92	87.38
366.147	94.38
366.373	94.38
366.599	101.38
366.826	90.38
367.052	91.38
367.278	87.38
367.505	94.38
367.731	86.38
367.957	91.38
368.184	90.38
368.41	88.38
368.636	119.38
368.862	116.38
369.089	110.38
369.315	93.38
369.541	93.38
369.767	75.38
369.993	87.38
370.219	76.38
370.445	87.38
370.672	88.38
370.898	98.38
371.124	92.38
371.35	81.38
371.576	92.38
371.802	89.38
372.028	87.38
372.254	88.38
372.48	95.38
372.706	89.38
372.932	93.38
373.158	82.38
373.384	94.38
373.61	86.38
373.835	78.38
374.061	91.38
374.287	90.38
374.513	79.38
374.739	91.38
374.965	93.38
375.191	91.38
375.416	80.38
375.642	81.38
375.868	96.38
376.094	69.38
376.319	78.38
376.545	92.38
376.771	96.38
376.997	76.38
377.222	87.38
377.448	95.38
377.674	78.38
377.899	106.38
378.125	84.38
378.35	86.38
378.576	89.38
378.802	100.38
379.027	85.38
379.253	102.38
379.478	92.38
379.704	100.38
379.929	89.38
380.155	85.38
380.38	87.38
380.606	102.38
380.831	91.38
381.057	102.38
381.282	92.38
381.507	97.38
381.733	96.38
381.958	98.38
382.184	86.38
382.409	85.38
382.634	104.38
382.86	84.38
383.085	97.38
383.31	112.38
383.535	104.38
383.761	95.38
383.986	92.38
384.211	103.38
384.436	92.38
384.662	89.38
384.887	103.38
385.112	99.38
385.337	109.38
385.562	97.38
385.787	82.38
386.013	104.38
386.238	111.38
386.463	117.38
386.688	111.38
386.913	91.38
387.138	102.38
387.363	102.38
387.588	82.38
387.813	80.38
388.038	105.38
388.263	105.38
388.488	97.38
388.713	98.38
388.938	93.38
389.163	97.38
389.387	91.38
389.612	96.38
389.837	81.38
390.062	90.38
390.287	76.38
390.512	96.38
390.736	81.38
390.961	79.38
391.186	84.38
391.411	98.38
391.636	89.38
391.86	79.38
392.085	85.38
392.31	84.38
392.534	75.38
392.759	93.38
392.984	94.38
393.208	98.38
393.433	75.38
393.658	71.38
393.882	96.38
394.107	89.38
394.331	82.38
394.556	92.38
394.78	80.38
395.005	91.38
395.229	86.38
395.454	87.38
395.678	90.38
395.903	84.38
396.127	92.38
396.352	87.38
396.576	90.38
396.801	91.38
397.025	70.38
397.249	93.38
397.474	82.38
397.698	81.38
397.922	94.38
398.147	98.38
398.371	87.38
398.595	95.38
398.82	88.38
399.044	85.38
399.268	82.38
399.492	92.38
399.717	87.38
399.941	86.38
400.165	87.38
400.389	100.38
400.613	83.38
400.837	90.38
401.062	87.38
401.286	101.38
401.51	78.38
401.734	86.38
401.958	99.38
402.182	124.38
402.406	162.38
402.63	110.38
402.854	84.38
403.078	76.38
403.302	76.38
403.526	80.38
403.75	86.38
403.974	99.38
404.198	85.38
404.422	104.38
404.645	87.38
404.869	85.38
405.093	98.38
405.317	91.38
405.541	108.38
405.765	92.38
405.988	112.38
406.212	168.38
406.436	216.38
406.66	134.38
406.883	101.38
407.107	89.38
407.331	96.38
407.555	97.38
407.778	94.38
408.002	93.38
408.226	76.38
408.449	89.38
408.673	90.38
408.896	93.38
409.12	104.38
409.344	92.38
409.567	84.38
409.791	92.38
410.014	90.38
410.238	82.38
410.461	90.38
410.685	86.38
410.908	99.38
411.132	113.38
411.355	110.38
411.578	87.38
411.802	86.38
412.025	77.38
412.249	80.38
412.472	74.38
412.695	108.38
412.919	97.38
413.142	92.38
413.365	82.38
413.589	92.38
413.812	92.38
414.035	100.38
414.258	79.38
414.482	91.38
414.705	87.38
414.928	93.38
415.151	94.38
415.374	86.38
415.597	101.38
415.821	82.38
416.044	95.38
416.267	86.38
416.49	93.38
416.713	90.38
416.936	88.38
417.159	95.38
417.382	78.38
417.605	90.38
417.828	86.38
418.051	88.38
418.274	93.38
418.497	91.38
418.72	83.38
418.943	83.38
419.166	86.38
419.389	102.38
419.611	96.38
419.834	76.38
420.057	92.38
420.28	93.38
420.503	84.38
420.726	102.38
420.948	86.38
421.171	87.38
421.394	102.38
421.617	86.38
421.839	87.38
422.062	94.38
422.285	88.38
422.507	100.38
422.73	103.38
422.953	94.38
423.175	99.38
423.398	95.38
423.621	97.38
423.843	94.38
424.066	69.38
424.288	79.38
424.511	84.38
424.733	92.38
424.956	91.38
425.178	102.38
425.401	98.38
425.623	109.38
425.846	103.38
426.068	86.38
426.291	99.38
426.513	98.38
426.735	102.38
426.958	80.38
427.18	89.38
427.402	135.38
427.625	162.38
427.847	125.38
428.069	115.38
428.292	104.38
428.514	94.38
428.736	78.38
428.958	88.38
429.181	94.38
429.403	67.38
429.625	92.38
429.847	80.38
430.069	91.38
430.292	82.38
430.514	78.38
430.736	91.38
430.958	82.38
431.18	81.38
431.402	92.38
431.624	92.38
431.846	98.38
432.068	92.38
432.29	76.38
432.512	77.38
432.734	78.38
432.956	101.38
433.178	88.38
433.4	96.38
433.622	85.38
433.844	91.38
434.066	87.38
434.287	94.38
434.509	94.38
434.731	91.38
434.953	103.38
435.175	82.38
435.397	96.38
435.618	102.38
435.84	95.38
436.062	122.38
436.284	116.38
436.505	91.38
436.727	98.38
436.949	94.38
437.17	90.38
437.392	88.38
437.614	93.38
437.835	95.38
438.057	116.38
438.278	117.38
438.5	105.38
438.721	121.38
438.943	109.38
439.165	76.38
439.386	84.38
439.608	82.38
439.829	105.38
440.05	115.38
440.272	147.38
440.493	102.38
440.715	92.38
440.936	103.38
441.158	79.38
441.379	78.38
441.6	95.38
441.822	89.38
442.043	86.38
442.264	117.38
442.486	113.38
442.707	85.38
442.928	122.38
443.149	126.38
443.371	119.38
443.592	88.38
443.813	107.38
444.034	116.38
444.255	105.38
444.476	98.38
444.698	86.38
444.919	103.38
445.14	130.38
445.361	118.38
445.582	124.38
445.803	130.38
446.024	114.38
446.245	124.38
446.466	107.38
446.687	92.38
446.908	105.38
447.129	89.38
447.35	84.38
447.571	91.38
447.792	96.38
448.013	94.38
448.234	95.38
448.455	106.38
448.675	104.38
448.896	101.38
449.117	93.38
449.338	94.38
449.559	130.38
449.779	126.38
450	91.38
450.221	88.38
450.442	95.38
450.662	87.38
450.883	108.38
451.104	108.38
451.324	94.38
451.545	80.38
451.766	83.38
451.986	82.38
452.207	81.38
452.428	88.38
452.648	106.38
452.869	95.38
453.089	108.38
453.31	112.38
453.53	95.38
453.751	104.38
453.971	107.38
454.192	100.38
454.412	87.38
454.633	87.38
454.853	84.38
455.073	75.38
455.294	96.38
455.514	97.38
455.734	92.38
455.955	79.38
456.175	89.38
456.395	94.38
456.616	81.38
456.836	85.38
457.056	78.38
457.276	98.38
457.497	88.38
457.717	91.38
457.937	86.38
458.157	88.38
458.377	94.38
458.598	86.38
458.818	142.38
459.038	161.38
459.258	108.38
459.478	81.38
459.698	84.38
459.918	80.38
460.138	88.38
460.358	88.38
460.578	82.38
460.798	99.38
461.018	86.38
461.238	90.38
461.458	92.38
461.678	93.38
461.898	83.38
462.118	74.38
462.338	81.38
462.558	86.38
462.777	84.38
462.997	87.38
463.217	78.38
463.437	69.38
463.657	87.38
463.876	79.38
464.096	93.38
464.316	95.38
464.536	92.38
464.755	95.38
464.975	98.38
465.195	151.38
465.414	137.38
465.634	90.38
465.854	80.38
466.073	107.38
466.293	101.38
466.512	79.38
466.732	91.38
466.951	87.38
467.171	86.38
467.391	98.38
467.61	100.38
467.829	111.38
468.049	94.38
468.268	95.38
468.488	82.38
468.707	96.38
468.927	100.38
469.146	84.38
469.365	82.38
469.585	88.38
469.804	95.38
470.023	96.38
470.243	87.38
470.462	85.38
470.681	99.38
470.901	85.38
471.12	90.38
471.339	91.38
471.558	74.38
471.777	90.38
471.997	99.38
472.216	104.38
472.435	119.38
472.654	96.38
472.873	88.38
473.092	90.38
473.311	101.38
473.53	84.38
473.749	85.38
473.968	88.38
474.187	88.38
474.406	102.38
474.625	88.38
474.844	94.38
475.063	79.38
475.282	90.38
475.501	67.38
475.72	87.38
475.939	87.38
476.158	94.38
476.377	87.38
476.596	84.38
476.814	89.38
477.033	78.38
477.252	92.38
477.471	87.38
477.69	94.38
477.908	95.38
478.127	94.38
478.346	82.38
478.564	87.38
478.783	93.38
479.002	98.38
479.22	90.38
479.439	84.38
479.658	102.38
479.876	97.38
480.095	85.38
480.313	94.38
480.532	83.38
480.751	100.38
480.969	103.38
481.188	164.38
481.406	131.38
481.624	98.38
481.843	88.38
482.061	85.38
482.28	101.38
482.498	99.38
482.717	102.38
482.935	79.38
483.153	100.38
483.372	88.38
483.59	95.38
483.808	98.38
484.027	95.38
484.245	103.38
484.463	82.38
484.681	95.38
484.9	109.38
485.118	95.38
485.336	106.38
485.554	99.38
485.772	101.38
485.99	91.38
486.209	103.38
486.427	122.38
486.645	121.38
486.863	120.38
487.081	103.38
487.299	100.38
487.517	92.38
487.735	88.38
487.953	90.38
488.171	97.38
488.389	103.38
488.607	103.38
488.825	107.38
489.043	100.38
489.261	109.38
489.479	80.38
489.696	90.38
489.914	98.38
490.132	90.38
490.35	80.38
490.568	93.38
490.786	91.38
491.003	95.38
491.221	80.38
491.439	83.38
491.657	103.38
491.874	90.38
492.092	91.38
492.31	96.38
492.527	83.38
492.745	97.38
492.963	94.38
493.18	90.38
493.398	82.38
493.615	97.38
493.833	109.38
494.05	90.38
494.268	87.38
494.485	100.38
494.703	94.38
494.92	71.38
495.138	86.38
495.355	102.38
495.573	111.38
495.79	82.38
496.008	95.38
496.225	90.38
496.442	81.38
496.66	91.38
496.877	94.38
497.094	105.38
497.312	84.38
497.529	93.38
497.746	101.38
497.963	99.38
498.181	98.38
498.398	96.38
498.615	105.38
498.832	103.38
499.049	101.38
499.267	77.38
499.484	88.38
499.701	88.38
499.918	97.38
500.135	86.38
500.352	85.38
500.569	86.38
500.786	76.38
501.003	90.38
501.22	72.38
501.437	96.38
501.654	102.38
501.871	104.38
502.088	96.38
502.305	81.38
502.522	99.38
502.739	104.38
502.956	92.38
503.172	92.38
503.389	97.38
503.606	114.38
503.823	87.38
504.04	94.38
504.256	106.38
504.473	92.38
504.69	85.38
504.907	96.38
505.123	87.38
505.34	91.38
505.557	88.38
505.773	98.38
505.99	86.38
506.207	85.38
506.423	74.38
506.64	84.38
506.856	98.38
507.073	104.38
507.289	107.38
507.506	103.38
507.722	114.38
507.939	101.38
508.155	95.38
508.372	92.38
508.588	93.38
508.805	103.38
509.021	94.38
509.238	107.38
509.454	97.38
509.67	91.38
509.887	87.38
510.103	130.38
510.319	210.38
510.536	721.38
510.752	2318.38
510.968	638.38
511.184	141.38
511.401	122.38
511.617	99.38
511.833	102.38
512.049	95.38
512.265	99.38
512.481	87.38
512.698	92.38
512.914	91.38
513.13	93.38
513.346	94.38
513.562	103.38
513.778	89.38
513.994	92.38
514.21	104.38
514.426	114.38
514.642	123.38
514.858	128.38
515.074	155.38
515.29	414.38
515.506	1361.38
515.721	506.38
515.937	148.38
