Data from Uncirc_1990_H10_HRD10591_00031.txt Node
Date: Wed Jan 03 11:53:57 EST 2024
User: Yrep
Spectrometer: HR+D1059
Trigger mode: 1
Integration Time (sec): 1.000000E-1
Scans to average: 1
Electric dark correction enabled: true
Nonlinearity correction enabled: false
Boxcar width: 0
XAxis mode: Wavelengths
Number of Pixels in Spectrum: 2048
>>>>>Begin Spectral Data<<<<<
223.165	-40.62
223.4	-40.62
223.635	-40.62
223.869	-12.62
224.104	-10.62
224.338	-11.62
224.573	-12.62
224.808	-5.62
225.042	-6.62
225.277	-8.62
225.511	-9.62
225.746	3.38
225.98	7.38
226.215	11.38
226.449	21.38
226.683	21.38
226.918	24.38
227.152	29.38
227.387	39.38
227.621	21.38
227.856	40.38
228.09	45.38
228.324	57.38
228.559	67.38
228.793	62.38
229.027	72.38
229.262	72.38
229.496	82.38
229.73	79.38
229.964	83.38
230.199	72.38
230.433	77.38
230.667	85.38
230.901	79.38
231.136	81.38
231.37	84.38
231.604	82.38
231.838	86.38
232.072	73.38
232.306	78.38
232.541	80.38
232.775	98.38
233.009	83.38
233.243	81.38
233.477	88.38
233.711	98.38
233.945	77.38
234.179	86.38
234.413	87.38
234.647	79.38
234.881	84.38
235.115	96.38
235.349	78.38
235.583	68.38
235.817	80.38
236.051	71.38
236.285	78.38
236.519	86.38
236.753	81.38
236.987	92.38
237.221	81.38
237.455	96.38
237.689	90.38
237.922	64.38
238.156	65.38
238.39	79.38
238.624	82.38
238.858	85.38
239.091	77.38
239.325	85.38
239.559	80.38
239.793	78.38
240.027	77.38
240.26	69.38
240.494	76.38
240.728	71.38
240.961	78.38
241.195	82.38
241.429	70.38
241.662	67.38
241.896	71.38
242.13	67.38
242.363	63.38
242.597	90.38
242.83	96.38
243.064	68.38
243.298	84.38
243.531	78.38
243.765	71.38
243.998	84.38
244.232	93.38
244.465	82.38
244.699	91.38
244.932	87.38
245.166	73.38
245.399	91.38
245.633	66.38
245.866	92.38
246.099	81.38
246.333	95.38
246.566	79.38
246.8	69.38
247.033	77.38
247.266	67.38
247.5	83.38
247.733	88.38
247.966	78.38
248.2	79.38
248.433	87.38
248.666	83.38
248.899	76.38
249.133	91.38
249.366	94.38
249.599	113.38
249.832	79.38
250.066	82.38
250.299	66.38
250.532	76.38
250.765	86.38
250.998	76.38
251.231	77.38
251.465	89.38
251.698	87.38
251.931	87.38
252.164	77.38
252.397	73.38
252.63	72.38
252.863	80.38
253.096	73.38
253.329	88.38
253.562	82.38
253.795	77.38
254.028	78.38
254.261	71.38
254.494	85.38
254.727	91.38
254.96	77.38
255.193	81.38
255.426	77.38
255.659	77.38
255.892	72.38
256.124	74.38
256.357	97.38
256.59	79.38
256.823	74.38
257.056	76.38
257.289	81.38
257.521	79.38
257.754	86.38
257.987	75.38
258.22	81.38
258.452	84.38
258.685	84.38
258.918	98.38
259.151	66.38
259.383	82.38
259.616	72.38
259.849	79.38
260.081	81.38
260.314	84.38
260.547	92.38
260.779	70.38
261.012	81.38
261.244	79.38
261.477	81.38
261.71	94.38
261.942	102.38
262.175	125.38
262.407	102.38
262.64	78.38
262.872	81.38
263.105	90.38
263.337	99.38
263.57	84.38
263.802	94.38
264.035	88.38
264.267	84.38
264.499	71.38
264.732	99.38
264.964	88.38
265.197	80.38
265.429	92.38
265.661	95.38
265.894	95.38
266.126	85.38
266.358	87.38
266.591	79.38
266.823	87.38
267.055	100.38
267.287	93.38
267.52	87.38
267.752	84.38
267.984	88.38
268.216	89.38
268.448	83.38
268.681	86.38
268.913	82.38
269.145	87.38
269.377	78.38
269.609	87.38
269.841	87.38
270.073	75.38
270.306	94.38
270.538	80.38
270.77	93.38
271.002	102.38
271.234	93.38
271.466	87.38
271.698	66.38
271.93	80.38
272.162	79.38
272.394	88.38
272.626	84.38
272.858	97.38
273.09	89.38
273.322	88.38
273.553	84.38
273.785	102.38
274.017	87.38
274.249	82.38
274.481	81.38
274.713	81.38
274.945	85.38
275.176	94.38
275.408	88.38
275.64	99.38
275.872	83.38
276.104	87.38
276.335	93.38
276.567	111.38
276.799	90.38
277.031	91.38
277.262	67.38
277.494	78.38
277.726	76.38
277.957	94.38
278.189	96.38
278.421	79.38
278.652	87.38
278.884	78.38
279.115	96.38
279.347	91.38
279.579	79.38
279.81	96.38
280.042	79.38
280.273	93.38
280.505	85.38
280.736	81.38
280.968	81.38
281.199	88.38
281.431	94.38
281.662	83.38
281.894	92.38
282.125	101.38
282.356	126.38
282.588	143.38
282.819	107.38
283.051	76.38
283.282	96.38
283.513	93.38
283.745	90.38
283.976	95.38
284.207	83.38
284.439	95.38
284.67	84.38
284.901	86.38
285.132	81.38
285.364	90.38
285.595	98.38
285.826	94.38
286.057	100.38
286.288	92.38
286.52	71.38
286.751	75.38
286.982	102.38
287.213	95.38
287.444	78.38
287.675	102.38
287.906	99.38
288.138	75.38
288.369	94.38
288.6	87.38
288.831	88.38
289.062	100.38
289.293	92.38
289.524	91.38
289.755	80.38
289.986	92.38
290.217	73.38
290.448	87.38
290.679	87.38
290.91	72.38
291.141	83.38
291.371	95.38
291.602	80.38
291.833	84.38
292.064	92.38
292.295	88.38
292.526	102.38
292.757	100.38
292.987	79.38
293.218	115.38
293.449	98.38
293.68	104.38
293.91	98.38
294.141	98.38
294.372	93.38
294.603	91.38
294.833	103.38
295.064	90.38
295.295	94.38
295.525	89.38
295.756	107.38
295.987	115.38
296.217	149.38
296.448	112.38
296.679	91.38
296.909	101.38
297.14	92.38
297.37	93.38
297.601	92.38
297.831	84.38
298.062	84.38
298.292	105.38
298.523	91.38
298.753	84.38
298.984	97.38
299.214	90.38
299.445	108.38
299.675	100.38
299.905	88.38
300.136	94.38
300.366	85.38
300.597	85.38
300.827	87.38
301.057	92.38
301.288	111.38
301.518	99.38
301.748	105.38
301.979	109.38
302.209	88.38
302.439	95.38
302.669	85.38
302.9	93.38
303.13	90.38
303.36	88.38
303.59	99.38
303.82	112.38
304.051	109.38
304.281	93.38
304.511	84.38
304.741	97.38
304.971	105.38
305.201	92.38
305.431	97.38
305.661	93.38
305.891	110.38
306.121	99.38
306.352	99.38
306.582	117.38
306.812	86.38
307.042	99.38
307.272	79.38
307.502	100.38
307.731	91.38
307.961	79.38
308.191	105.38
308.421	85.38
308.651	79.38
308.881	90.38
309.111	97.38
309.341	84.38
309.571	91.38
309.8	84.38
310.03	114.38
310.26	93.38
310.49	111.38
310.72	85.38
310.949	105.38
311.179	106.38
311.409	95.38
311.639	97.38
311.868	95.38
312.098	101.38
312.328	87.38
312.557	109.38
312.787	101.38
313.017	107.38
313.246	95.38
313.476	99.38
313.706	87.38
313.935	96.38
314.165	100.38
314.394	103.38
314.624	91.38
314.853	102.38
315.083	98.38
315.312	99.38
315.542	105.38
315.771	94.38
316.001	100.38
316.23	86.38
316.46	85.38
316.689	85.38
316.919	82.38
317.148	98.38
317.377	89.38
317.607	94.38
317.836	91.38
318.065	88.38
318.295	98.38
318.524	97.38
318.753	92.38
318.983	84.38
319.212	88.38
319.441	112.38
319.67	121.38
319.9	106.38
320.129	92.38
320.358	96.38
320.587	117.38
320.816	104.38
321.046	99.38
321.275	96.38
321.504	99.38
321.733	88.38
321.962	102.38
322.191	113.38
322.42	107.38
322.649	115.38
322.878	112.38
323.108	97.38
323.337	139.38
323.566	134.38
323.795	163.38
324.024	218.38
324.253	382.38
324.482	843.38
324.71	1774.38
324.939	2364.38
325.168	881.38
325.397	257.38
325.626	173.38
325.855	132.38
326.084	125.38
326.313	131.38
326.542	168.38
326.77	218.38
326.999	447.38
327.228	985.38
327.457	1853.38
327.686	1452.38
327.914	379.38
328.143	189.38
328.372	149.38
328.6	119.38
328.829	108.38
329.058	114.38
329.287	119.38
329.515	114.38
329.744	100.38
329.972	98.38
330.201	111.38
330.43	121.38
330.658	126.38
330.887	122.38
331.115	108.38
331.344	97.38
331.572	87.38
331.801	105.38
332.03	103.38
332.258	101.38
332.486	94.38
332.715	84.38
332.943	93.38
333.172	92.38
333.4	91.38
333.629	100.38
333.857	105.38
334.085	104.38
334.314	83.38
334.542	104.38
334.771	107.38
334.999	106.38
335.227	99.38
335.455	80.38
335.684	106.38
335.912	94.38
336.14	115.38
336.369	111.38
336.597	106.38
336.825	98.38
337.053	100.38
337.281	94.38
337.51	83.38
337.738	97.38
337.966	104.38
338.194	101.38
338.422	98.38
338.65	93.38
338.878	108.38
339.106	89.38
339.334	93.38
339.562	100.38
339.79	87.38
340.018	96.38
340.246	95.38
340.474	84.38
340.702	91.38
340.93	91.38
341.158	88.38
341.386	98.38
341.614	108.38
341.842	87.38
342.07	92.38
342.298	101.38
342.526	99.38
342.754	100.38
342.981	93.38
343.209	90.38
343.437	111.38
343.665	85.38
343.893	86.38
344.12	85.38
344.348	84.38
344.576	92.38
344.804	93.38
345.031	108.38
345.259	92.38
345.487	100.38
345.714	89.38
345.942	102.38
346.17	99.38
346.397	96.38
346.625	94.38
346.853	104.38
347.08	84.38
347.308	101.38
347.535	94.38
347.763	97.38
347.99	103.38
348.218	98.38
348.445	101.38
348.673	104.38
348.9	93.38
349.128	104.38
349.355	94.38
349.583	91.38
349.81	102.38
350.037	101.38
350.265	111.38
350.492	87.38
350.72	84.38
350.947	105.38
351.174	115.38
351.402	104.38
351.629	114.38
351.856	108.38
352.083	100.38
352.311	102.38
352.538	119.38
352.765	124.38
352.992	114.38
353.22	117.38
353.447	102.38
353.674	102.38
353.901	91.38
354.128	92.38
354.355	98.38
354.583	107.38
354.81	98.38
355.037	93.38
355.264	94.38
355.491	97.38
355.718	100.38
355.945	107.38
356.172	96.38
356.399	96.38
356.626	94.38
356.853	91.38
357.08	98.38
357.307	72.38
357.534	97.38
357.761	98.38
357.988	93.38
358.215	99.38
358.441	94.38
358.668	96.38
358.895	94.38
359.122	96.38
359.349	105.38
359.576	85.38
359.802	98.38
360.029	100.38
360.256	118.38
360.483	109.38
360.709	95.38
360.936	92.38
361.163	95.38
361.39	96.38
361.616	83.38
361.843	101.38
362.07	99.38
362.296	91.38
362.523	94.38
362.749	98.38
362.976	95.38
363.203	86.38
363.429	75.38
363.656	96.38
363.882	88.38
364.109	91.38
364.335	97.38
364.562	94.38
364.788	101.38
365.015	109.38
365.241	99.38
365.468	115.38
365.694	94.38
365.92	88.38
366.147	89.38
366.373	100.38
366.599	93.38
366.826	95.38
367.052	88.38
367.278	91.38
367.505	92.38
367.731	105.38
367.957	89.38
368.184	93.38
368.41	93.38
368.636	111.38
368.862	114.38
369.089	98.38
369.315	99.38
369.541	92.38
369.767	90.38
369.993	96.38
370.219	94.38
370.445	90.38
370.672	86.38
370.898	85.38
371.124	95.38
371.35	102.38
371.576	89.38
371.802	96.38
372.028	90.38
372.254	96.38
372.48	102.38
372.706	94.38
372.932	83.38
373.158	97.38
373.384	86.38
373.61	99.38
373.835	92.38
374.061	93.38
374.287	97.38
374.513	95.38
374.739	96.38
374.965	84.38
375.191	93.38
375.416	93.38
375.642	95.38
375.868	95.38
376.094	99.38
376.319	83.38
376.545	104.38
376.771	97.38
376.997	80.38
377.222	91.38
377.448	95.38
377.674	97.38
377.899	93.38
378.125	79.38
378.35	85.38
378.576	95.38
378.802	86.38
379.027	103.38
379.253	104.38
379.478	101.38
379.704	94.38
379.929	81.38
380.155	100.38
380.38	81.38
380.606	81.38
380.831	107.38
381.057	105.38
381.282	101.38
381.507	96.38
381.733	84.38
381.958	91.38
382.184	99.38
382.409	88.38
382.634	109.38
382.86	98.38
383.085	95.38
383.31	86.38
383.535	101.38
383.761	100.38
383.986	94.38
384.211	105.38
384.436	99.38
384.662	92.38
384.887	97.38
385.112	105.38
385.337	105.38
385.562	97.38
385.787	93.38
386.013	100.38
386.238	108.38
386.463	97.38
386.688	115.38
386.913	110.38
387.138	98.38
387.363	107.38
387.588	101.38
387.813	104.38
388.038	96.38
388.263	113.38
388.488	91.38
388.713	99.38
388.938	100.38
389.163	101.38
389.387	101.38
389.612	94.38
389.837	105.38
390.062	102.38
390.287	98.38
390.512	94.38
390.736	85.38
390.961	83.38
391.186	84.38
391.411	99.38
391.636	100.38
391.86	102.38
392.085	88.38
392.31	97.38
392.534	83.38
392.759	90.38
392.984	82.38
393.208	85.38
393.433	81.38
393.658	92.38
393.882	83.38
394.107	77.38
394.331	88.38
394.556	84.38
394.78	80.38
395.005	93.38
395.229	102.38
395.454	92.38
395.678	95.38
395.903	100.38
396.127	80.38
396.352	95.38
396.576	92.38
396.801	90.38
397.025	84.38
397.249	88.38
397.474	95.38
397.698	88.38
397.922	91.38
398.147	93.38
398.371	82.38
398.595	89.38
398.82	81.38
399.044	84.38
399.268	80.38
399.492	95.38
399.717	89.38
399.941	91.38
400.165	89.38
400.389	94.38
400.613	84.38
400.837	85.38
401.062	99.38
401.286	97.38
401.51	69.38
401.734	93.38
401.958	112.38
402.182	127.38
402.406	151.38
402.63	102.38
402.854	87.38
403.078	84.38
403.302	83.38
403.526	101.38
403.75	93.38
403.974	85.38
404.198	103.38
404.422	83.38
404.645	95.38
404.869	72.38
405.093	103.38
405.317	102.38
405.541	102.38
405.765	102.38
405.988	119.38
406.212	161.38
406.436	217.38
406.66	141.38
406.883	104.38
407.107	87.38
407.331	99.38
407.555	99.38
407.778	111.38
408.002	91.38
408.226	107.38
408.449	84.38
408.673	94.38
408.896	90.38
409.12	108.38
409.344	92.38
409.567	90.38
409.791	83.38
410.014	97.38
410.238	75.38
410.461	83.38
410.685	87.38
410.908	113.38
411.132	112.38
411.355	99.38
411.578	98.38
411.802	85.38
412.025	89.38
412.249	84.38
412.472	89.38
412.695	82.38
412.919	83.38
413.142	98.38
413.365	73.38
413.589	91.38
413.812	87.38
414.035	95.38
414.258	99.38
414.482	90.38
414.705	101.38
414.928	100.38
415.151	95.38
415.374	96.38
415.597	75.38
415.821	96.38
416.044	90.38
416.267	88.38
416.49	81.38
416.713	83.38
416.936	99.38
417.159	87.38
417.382	79.38
417.605	97.38
417.828	113.38
418.051	100.38
418.274	95.38
418.497	98.38
418.72	79.38
418.943	86.38
419.166	89.38
419.389	96.38
419.611	91.38
419.834	73.38
420.057	79.38
420.28	84.38
420.503	107.38
420.726	101.38
420.948	85.38
421.171	94.38
421.394	87.38
421.617	93.38
421.839	80.38
422.062	81.38
422.285	110.38
422.507	104.38
422.73	96.38
422.953	91.38
423.175	98.38
423.398	107.38
423.621	82.38
423.843	88.38
424.066	92.38
424.288	85.38
424.511	90.38
424.733	96.38
424.956	113.38
425.178	94.38
425.401	102.38
425.623	93.38
425.846	77.38
426.068	100.38
426.291	96.38
426.513	81.38
426.735	94.38
426.958	99.38
427.18	115.38
427.402	142.38
427.625	157.38
427.847	117.38
428.069	101.38
428.292	105.38
428.514	88.38
428.736	85.38
428.958	95.38
429.181	102.38
429.403	68.38
429.625	93.38
429.847	86.38
430.069	92.38
430.292	104.38
430.514	83.38
430.736	97.38
430.958	95.38
431.18	79.38
431.402	65.38
431.624	80.38
431.846	78.38
432.068	71.38
432.29	78.38
432.512	77.38
432.734	90.38
432.956	79.38
433.178	96.38
433.4	89.38
433.622	91.38
433.844	81.38
434.066	95.38
434.287	86.38
434.509	79.38
434.731	97.38
434.953	79.38
435.175	88.38
435.397	95.38
435.618	87.38
435.84	107.38
436.062	132.38
436.284	103.38
436.505	103.38
436.727	102.38
436.949	114.38
437.17	98.38
437.392	86.38
437.614	91.38
437.835	104.38
438.057	124.38
438.278	128.38
438.5	91.38
438.721	131.38
438.943	100.38
439.165	91.38
439.386	79.38
439.608	96.38
439.829	98.38
440.05	124.38
440.272	136.38
440.493	99.38
440.715	93.38
440.936	86.38
441.158	99.38
441.379	95.38
441.6	84.38
441.822	85.38
442.043	94.38
442.264	86.38
442.486	105.38
442.707	101.38
442.928	104.38
443.149	118.38
443.371	122.38
443.592	107.38
443.813	114.38
444.034	98.38
444.255	105.38
444.476	88.38
444.698	83.38
444.919	97.38
445.14	130.38
445.361	129.38
445.582	129.38
445.803	143.38
446.024	139.38
446.245	137.38
446.466	128.38
446.687	99.38
446.908	95.38
447.129	99.38
447.35	93.38
447.571	84.38
447.792	98.38
448.013	95.38
448.234	115.38
448.455	111.38
448.675	106.38
448.896	111.38
449.117	103.38
449.338	99.38
449.559	137.38
449.779	134.38
450	98.38
450.221	71.38
450.442	88.38
450.662	103.38
450.883	101.38
451.104	119.38
451.324	93.38
451.545	87.38
451.766	84.38
451.986	91.38
452.207	89.38
452.428	98.38
452.648	103.38
452.869	109.38
453.089	106.38
453.31	110.38
453.53	95.38
453.751	96.38
453.971	103.38
454.192	106.38
454.412	86.38
454.633	87.38
454.853	88.38
455.073	98.38
455.294	85.38
455.514	75.38
455.734	81.38
455.955	90.38
456.175	79.38
456.395	81.38
456.616	80.38
456.836	79.38
457.056	75.38
457.276	84.38
457.497	88.38
457.717	83.38
457.937	88.38
458.157	84.38
458.377	89.38
458.598	107.38
458.818	160.38
459.038	151.38
459.258	112.38
459.478	90.38
459.698	87.38
459.918	84.38
460.138	89.38
460.358	84.38
460.578	90.38
460.798	99.38
461.018	88.38
461.238	85.38
461.458	76.38
461.678	79.38
461.898	91.38
462.118	87.38
462.338	97.38
462.558	91.38
462.777	79.38
462.997	78.38
463.217	78.38
463.437	90.38
463.657	89.38
463.876	83.38
464.096	104.38
464.316	93.38
464.536	86.38
464.755	101.38
464.975	92.38
465.195	165.38
465.414	159.38
465.634	103.38
465.854	94.38
466.073	96.38
466.293	92.38
466.512	97.38
466.732	91.38
466.951	94.38
467.171	91.38
467.391	83.38
467.61	91.38
467.829	97.38
468.049	92.38
468.268	88.38
468.488	82.38
468.707	91.38
468.927	82.38
469.146	96.38
469.365	81.38
469.585	86.38
469.804	95.38
470.023	98.38
470.243	76.38
470.462	96.38
470.681	97.38
470.901	102.38
471.12	92.38
471.339	95.38
471.558	91.38
471.777	81.38
471.997	91.38
472.216	81.38
472.435	102.38
472.654	86.38
472.873	87.38
473.092	91.38
473.311	87.38
473.53	89.38
473.749	85.38
473.968	109.38
474.187	104.38
474.406	91.38
474.625	97.38
474.844	87.38
475.063	99.38
475.282	82.38
475.501	87.38
475.72	86.38
475.939	80.38
476.158	86.38
476.377	68.38
476.596	89.38
476.814	80.38
477.033	102.38
477.252	104.38
477.471	97.38
477.69	101.38
477.908	82.38
478.127	93.38
478.346	81.38
478.564	85.38
478.783	104.38
479.002	97.38
479.22	85.38
479.439	95.38
479.658	96.38
479.876	114.38
480.095	92.38
480.313	90.38
480.532	97.38
480.751	97.38
480.969	95.38
481.188	112.38
481.406	80.38
481.624	81.38
481.843	93.38
482.061	86.38
482.28	88.38
482.498	96.38
482.717	80.38
482.935	79.38
483.153	90.38
483.372	71.38
483.59	82.38
483.808	91.38
484.027	95.38
484.245	114.38
484.463	95.38
484.681	103.38
484.9	103.38
485.118	98.38
485.336	101.38
485.554	97.38
485.772	102.38
485.99	111.38
486.209	107.38
486.427	102.38
486.645	110.38
486.863	108.38
487.081	107.38
487.299	93.38
487.517	95.38
487.735	83.38
487.953	95.38
488.171	98.38
488.389	93.38
488.607	87.38
488.825	85.38
489.043	94.38
489.261	96.38
489.479	98.38
489.696	95.38
489.914	95.38
490.132	85.38
490.35	94.38
490.568	89.38
490.786	96.38
491.003	90.38
491.221	94.38
491.439	88.38
491.657	106.38
491.874	93.38
492.092	93.38
492.31	94.38
492.527	92.38
492.745	96.38
492.963	81.38
493.18	91.38
493.398	92.38
493.615	90.38
493.833	104.38
494.05	84.38
494.268	88.38
494.485	94.38
494.703	81.38
494.92	97.38
495.138	89.38
495.355	87.38
495.573	89.38
495.79	99.38
496.008	89.38
496.225	88.38
496.442	95.38
496.66	93.38
496.877	91.38
497.094	90.38
497.312	93.38
497.529	85.38
497.746	77.38
497.963	100.38
498.181	91.38
498.398	97.38
498.615	110.38
498.832	100.38
499.049	109.38
499.267	93.38
499.484	85.38
499.701	102.38
499.918	95.38
500.135	100.38
500.352	95.38
500.569	93.38
500.786	92.38
501.003	97.38
501.22	99.38
501.437	95.38
501.654	94.38
501.871	119.38
502.088	99.38
502.305	69.38
502.522	89.38
502.739	101.38
502.956	82.38
503.172	98.38
503.389	104.38
503.606	109.38
503.823	105.38
504.04	88.38
504.256	93.38
504.473	93.38
504.69	87.38
504.907	89.38
505.123	85.38
505.34	79.38
505.557	88.38
505.773	102.38
505.99	91.38
506.207	92.38
506.423	95.38
506.64	102.38
506.856	87.38
507.073	85.38
507.289	88.38
507.506	96.38
507.722	120.38
507.939	114.38
508.155	98.38
508.372	94.38
508.588	103.38
508.805	99.38
509.021	100.38
509.238	90.38
509.454	100.38
509.67	96.38
509.887	109.38
510.103	142.38
510.319	205.38
510.536	711.38
510.752	2307.38
510.968	645.38
511.184	170.38
511.401	115.38
511.617	100.38
511.833	97.38
512.049	100.38
512.265	107.38
512.481	96.38
512.698	91.38
512.914	99.38
513.13	94.38
513.346	89.38
513.562	101.38
513.778	92.38
513.994	100.38
514.21	99.38
514.426	105.38
514.642	130.38
514.858	113.38
515.074	157.38
515.29	433.38
