Data from Uncirc_1990_H10_HRD10591_00039.txt Node
Date: Wed Jan 03 11:53:59 EST 2024
User: Yrep
Spectrometer: HR+D1059
Trigger mode: 1
Integration Time (sec): 1.000000E-1
Scans to average: 1
Electric dark correction enabled: true
Nonlinearity correction enabled: false
Boxcar width: 0
XAxis mode: Wavelengths
Number of Pixels in Spectrum: 2048
>>>>>Begin Spectral Data<<<<<
223.165	-22.69
223.4	-22.69
223.635	-22.69
223.869	-15.69
224.104	-12.69
224.338	-25.69
224.573	-11.69
224.808	-19.69
225.042	1.31
225.277	-14.69
225.511	-3.69
225.746	4.31
225.98	19.31
226.215	15.31
226.449	5.31
226.683	27.31
226.918	22.31
227.152	31.31
227.387	32.31
227.621	35.31
227.856	39.31
228.09	49.31
228.324	55.31
228.559	49.31
228.793	60.31
229.027	51.31
229.262	79.31
229.496	74.31
229.73	75.31
229.964	86.31
230.199	69.31
230.433	77.31
230.667	75.31
230.901	79.31
231.136	96.31
231.37	89.31
231.604	94.31
231.838	83.31
232.072	78.31
232.306	82.31
232.541	80.31
232.775	74.31
233.009	71.31
233.243	88.31
233.477	69.31
233.711	71.31
233.945	76.31
234.179	76.31
234.413	75.31
234.647	88.31
234.881	91.31
235.115	83.31
235.349	82.31
235.583	81.31
235.817	70.31
236.051	79.31
236.285	78.31
236.519	89.31
236.753	86.31
236.987	79.31
237.221	90.31
237.455	75.31
237.689	71.31
237.922	77.31
238.156	78.31
238.39	85.31
238.624	65.31
238.858	65.31
239.091	69.31
239.325	78.31
239.559	65.31
239.793	69.31
240.027	91.31
240.26	77.31
240.494	75.31
240.728	74.31
240.961	69.31
241.195	69.31
241.429	68.31
241.662	78.31
241.896	54.31
242.13	88.31
242.363	78.31
242.597	85.31
242.83	89.31
243.064	75.31
243.298	78.31
243.531	67.31
243.765	79.31
243.998	75.31
244.232	82.31
244.465	76.31
244.699	70.31
244.932	77.31
245.166	69.31
245.399	77.31
245.633	75.31
245.866	82.31
246.099	70.31
246.333	75.31
246.566	80.31
246.8	70.31
247.033	84.31
247.266	73.31
247.5	88.31
247.733	70.31
247.966	81.31
248.2	83.31
248.433	85.31
248.666	75.31
248.899	80.31
249.133	97.31
249.366	84.31
249.599	81.31
249.832	73.31
250.066	84.31
250.299	79.31
250.532	70.31
250.765	73.31
250.998	50.31
251.231	67.31
251.465	73.31
251.698	66.31
251.931	81.31
252.164	85.31
252.397	87.31
252.63	86.31
252.863	88.31
253.096	84.31
253.329	85.31
253.562	77.31
253.795	87.31
254.028	86.31
254.261	84.31
254.494	68.31
254.727	82.31
254.96	77.31
255.193	77.31
255.426	80.31
255.659	80.31
255.892	83.31
256.124	84.31
256.357	82.31
256.59	83.31
256.823	88.31
257.056	85.31
257.289	75.31
257.521	85.31
257.754	77.31
257.987	78.31
258.22	92.31
258.452	91.31
258.685	77.31
258.918	74.31
259.151	84.31
259.383	69.31
259.616	76.31
259.849	81.31
260.081	87.31
260.314	81.31
260.547	100.31
260.779	80.31
261.012	77.31
261.244	75.31
261.477	78.31
261.71	82.31
261.942	101.31
262.175	96.31
262.407	84.31
262.64	74.31
262.872	85.31
263.105	77.31
263.337	81.31
263.57	94.31
263.802	81.31
264.035	67.31
264.267	93.31
264.499	82.31
264.732	91.31
264.964	73.31
265.197	77.31
265.429	81.31
265.661	91.31
265.894	78.31
266.126	77.31
266.358	90.31
266.591	75.31
266.823	63.31
267.055	81.31
267.287	81.31
267.52	82.31
267.752	100.31
267.984	89.31
268.216	86.31
268.448	80.31
268.681	91.31
268.913	89.31
269.145	90.31
269.377	86.31
269.609	78.31
269.841	89.31
270.073	92.31
270.306	77.31
270.538	85.31
270.77	89.31
271.002	64.31
271.234	90.31
271.466	79.31
271.698	76.31
271.93	98.31
272.162	90.31
272.394	83.31
272.626	83.31
272.858	71.31
273.09	74.31
273.322	71.31
273.553	91.31
273.785	92.31
274.017	82.31
274.249	84.31
274.481	89.31
274.713	81.31
274.945	87.31
275.176	96.31
275.408	75.31
275.64	86.31
275.872	96.31
276.104	81.31
276.335	104.31
276.567	91.31
276.799	109.31
277.031	94.31
277.262	86.31
277.494	92.31
277.726	78.31
277.957	84.31
278.189	91.31
278.421	79.31
278.652	86.31
278.884	79.31
279.115	95.31
279.347	87.31
279.579	80.31
279.81	88.31
280.042	92.31
280.273	94.31
280.505	94.31
280.736	94.31
280.968	98.31
281.199	88.31
281.431	85.31
281.662	89.31
281.894	71.31
282.125	89.31
282.356	114.31
282.588	122.31
282.819	111.31
283.051	89.31
283.282	93.31
283.513	94.31
283.745	83.31
283.976	94.31
284.207	83.31
284.439	86.31
284.67	81.31
284.901	79.31
285.132	91.31
285.364	88.31
285.595	77.31
285.826	86.31
286.057	89.31
286.288	88.31
286.52	94.31
286.751	98.31
286.982	94.31
287.213	84.31
287.444	79.31
287.675	84.31
287.906	82.31
288.138	79.31
288.369	82.31
288.6	96.31
288.831	89.31
289.062	90.31
289.293	87.31
289.524	77.31
289.755	78.31
289.986	80.31
290.217	82.31
290.448	85.31
290.679	85.31
290.91	84.31
291.141	85.31
291.371	79.31
291.602	81.31
291.833	71.31
292.064	89.31
292.295	85.31
292.526	87.31
292.757	80.31
292.987	90.31
293.218	75.31
293.449	80.31
293.68	91.31
293.91	94.31
294.141	93.31
294.372	102.31
294.603	101.31
294.833	87.31
295.064	87.31
295.295	99.31
295.525	102.31
295.756	103.31
295.987	103.31
296.217	118.31
296.448	111.31
296.679	95.31
296.909	87.31
297.14	107.31
297.37	96.31
297.601	103.31
297.831	94.31
298.062	85.31
298.292	91.31
298.523	93.31
298.753	104.31
298.984	88.31
299.214	75.31
299.445	90.31
299.675	94.31
299.905	87.31
300.136	82.31
300.366	93.31
300.597	94.31
300.827	98.31
301.057	97.31
301.288	109.31
301.518	79.31
301.748	84.31
301.979	99.31
302.209	88.31
302.439	93.31
302.669	83.31
302.9	98.31
303.13	91.31
303.36	86.31
303.59	102.31
303.82	90.31
304.051	92.31
304.281	84.31
304.511	85.31
304.741	84.31
304.971	103.31
305.201	82.31
305.431	95.31
305.661	89.31
305.891	83.31
306.121	97.31
306.352	94.31
306.582	109.31
306.812	70.31
307.042	90.31
307.272	93.31
307.502	101.31
307.731	87.31
307.961	99.31
308.191	85.31
308.421	87.31
308.651	87.31
308.881	93.31
309.111	95.31
309.341	92.31
309.571	91.31
309.8	99.31
310.03	84.31
310.26	94.31
310.49	93.31
310.72	108.31
310.949	100.31
311.179	99.31
311.409	89.31
311.639	82.31
311.868	85.31
312.098	95.31
312.328	92.31
312.557	95.31
312.787	104.31
313.017	97.31
313.246	90.31
313.476	93.31
313.706	76.31
313.935	101.31
314.165	98.31
314.394	97.31
314.624	91.31
314.853	90.31
315.083	89.31
315.312	93.31
315.542	104.31
315.771	93.31
316.001	94.31
316.23	86.31
316.46	92.31
316.689	81.31
316.919	93.31
317.148	81.31
317.377	91.31
317.607	103.31
317.836	81.31
318.065	90.31
318.295	88.31
318.524	97.31
318.753	91.31
318.983	113.31
319.212	84.31
319.441	102.31
319.67	93.31
319.9	87.31
320.129	90.31
320.358	88.31
320.587	91.31
320.816	87.31
321.046	105.31
321.275	105.31
321.504	84.31
321.733	93.31
321.962	90.31
322.191	107.31
322.42	103.31
322.649	107.31
322.878	119.31
323.108	113.31
323.337	103.31
323.566	125.31
323.795	153.31
324.024	180.31
324.253	337.31
324.482	703.31
324.71	1456.31
324.939	1894.31
325.168	698.31
325.397	216.31
325.626	126.31
325.855	118.31
326.084	114.31
326.313	118.31
326.542	126.31
326.77	193.31
326.999	394.31
327.228	828.31
327.457	1459.31
327.686	1169.31
327.914	329.31
328.143	173.31
328.372	139.31
328.6	109.31
328.829	107.31
329.058	121.31
329.287	115.31
329.515	107.31
329.744	91.31
329.972	92.31
330.201	99.31
330.43	87.31
330.658	86.31
330.887	107.31
331.115	121.31
331.344	85.31
331.572	86.31
331.801	85.31
332.03	101.31
332.258	86.31
332.486	89.31
332.715	93.31
332.943	101.31
333.172	99.31
333.4	90.31
333.629	100.31
333.857	93.31
334.085	94.31
334.314	84.31
334.542	106.31
334.771	88.31
334.999	100.31
335.227	81.31
335.455	89.31
335.684	102.31
335.912	82.31
336.14	91.31
336.369	106.31
336.597	96.31
336.825	88.31
337.053	92.31
337.281	88.31
337.51	88.31
337.738	93.31
337.966	89.31
338.194	108.31
338.422	82.31
338.65	102.31
338.878	90.31
339.106	86.31
339.334	81.31
339.562	91.31
339.79	106.31
340.018	79.31
340.246	78.31
340.474	97.31
340.702	87.31
340.93	87.31
341.158	82.31
341.386	94.31
341.614	89.31
341.842	96.31
342.07	85.31
342.298	90.31
342.526	95.31
342.754	91.31
342.981	94.31
343.209	75.31
343.437	101.31
343.665	91.31
343.893	93.31
344.12	90.31
344.348	94.31
344.576	86.31
344.804	93.31
345.031	102.31
345.259	93.31
345.487	98.31
345.714	81.31
345.942	89.31
346.17	87.31
346.397	93.31
346.625	87.31
346.853	93.31
347.08	76.31
347.308	92.31
347.535	102.31
347.763	106.31
347.99	92.31
348.218	109.31
348.445	107.31
348.673	97.31
348.9	83.31
349.128	109.31
349.355	95.31
349.583	106.31
349.81	102.31
350.037	87.31
350.265	98.31
350.492	100.31
350.72	98.31
350.947	115.31
351.174	109.31
351.402	101.31
351.629	94.31
351.856	102.31
352.083	104.31
352.311	93.31
352.538	98.31
352.765	99.31
352.992	110.31
353.22	106.31
353.447	94.31
353.674	105.31
353.901	93.31
354.128	82.31
354.355	100.31
354.583	94.31
354.81	95.31
355.037	91.31
355.264	85.31
355.491	80.31
355.718	102.31
355.945	92.31
356.172	88.31
356.399	98.31
356.626	86.31
356.853	87.31
357.08	109.31
357.307	97.31
357.534	91.31
357.761	102.31
357.988	98.31
358.215	92.31
358.441	73.31
358.668	84.31
358.895	89.31
359.122	87.31
359.349	82.31
359.576	67.31
359.802	100.31
360.029	108.31
360.256	114.31
360.483	93.31
360.709	89.31
360.936	92.31
361.163	94.31
361.39	90.31
361.616	88.31
361.843	83.31
362.07	86.31
362.296	108.31
362.523	87.31
362.749	101.31
362.976	87.31
363.203	85.31
363.429	81.31
363.656	84.31
363.882	77.31
364.109	90.31
364.335	87.31
364.562	97.31
364.788	98.31
365.015	86.31
365.241	103.31
365.468	97.31
365.694	109.31
365.92	103.31
366.147	96.31
366.373	77.31
366.599	85.31
366.826	81.31
367.052	73.31
367.278	77.31
367.505	86.31
367.731	98.31
367.957	85.31
368.184	83.31
368.41	110.31
368.636	114.31
368.862	103.31
369.089	106.31
369.315	83.31
369.541	91.31
369.767	92.31
369.993	100.31
370.219	80.31
370.445	85.31
370.672	94.31
370.898	87.31
371.124	80.31
371.35	86.31
371.576	94.31
371.802	80.31
372.028	94.31
372.254	91.31
372.48	86.31
372.706	95.31
372.932	74.31
373.158	62.31
373.384	79.31
373.61	87.31
373.835	93.31
374.061	78.31
374.287	96.31
374.513	90.31
374.739	81.31
374.965	91.31
375.191	63.31
375.416	93.31
375.642	90.31
375.868	95.31
376.094	96.31
376.319	86.31
376.545	87.31
376.771	82.31
376.997	79.31
377.222	78.31
377.448	90.31
377.674	82.31
377.899	89.31
378.125	89.31
378.35	82.31
378.576	86.31
378.802	94.31
379.027	90.31
379.253	95.31
379.478	87.31
379.704	86.31
379.929	86.31
380.155	89.31
380.38	101.31
380.606	95.31
380.831	102.31
381.057	90.31
381.282	95.31
381.507	93.31
381.733	93.31
381.958	101.31
382.184	95.31
382.409	91.31
382.634	93.31
382.86	99.31
383.085	94.31
383.31	93.31
383.535	92.31
383.761	105.31
383.986	108.31
384.211	102.31
384.436	91.31
384.662	94.31
384.887	96.31
385.112	96.31
385.337	93.31
385.562	92.31
385.787	109.31
386.013	99.31
386.238	97.31
386.463	100.31
386.688	101.31
386.913	86.31
387.138	90.31
387.363	97.31
387.588	95.31
387.813	89.31
388.038	94.31
388.263	106.31
388.488	86.31
388.713	83.31
388.938	99.31
389.163	101.31
389.387	97.31
389.612	98.31
389.837	90.31
390.062	98.31
390.287	84.31
390.512	95.31
390.736	94.31
390.961	92.31
391.186	64.31
391.411	84.31
391.636	83.31
391.86	76.31
392.085	83.31
392.31	91.31
392.534	95.31
392.759	97.31
392.984	87.31
393.208	90.31
393.433	79.31
393.658	89.31
393.882	92.31
394.107	95.31
394.331	106.31
394.556	87.31
394.78	94.31
395.005	86.31
395.229	79.31
395.454	81.31
395.678	85.31
395.903	85.31
396.127	81.31
396.352	90.31
396.576	90.31
396.801	79.31
397.025	71.31
397.249	82.31
397.474	96.31
397.698	81.31
397.922	73.31
398.147	94.31
398.371	83.31
398.595	84.31
398.82	75.31
399.044	85.31
399.268	90.31
399.492	84.31
399.717	84.31
399.941	85.31
400.165	83.31
400.389	79.31
400.613	83.31
400.837	94.31
401.062	82.31
401.286	68.31
401.51	87.31
401.734	91.31
401.958	83.31
402.182	105.31
402.406	143.31
402.63	110.31
402.854	91.31
403.078	90.31
403.302	86.31
403.526	75.31
403.75	89.31
403.974	82.31
404.198	90.31
404.422	78.31
404.645	87.31
404.869	102.31
405.093	92.31
405.317	92.31
405.541	100.31
405.765	83.31
405.988	102.31
406.212	151.31
406.436	190.31
406.66	125.31
406.883	110.31
407.107	95.31
407.331	96.31
407.555	93.31
407.778	97.31
408.002	89.31
408.226	93.31
408.449	99.31
408.673	91.31
408.896	96.31
409.12	99.31
409.344	85.31
409.567	96.31
409.791	83.31
410.014	89.31
410.238	92.31
410.461	109.31
410.685	101.31
410.908	94.31
411.132	107.31
411.355	100.31
411.578	91.31
411.802	89.31
412.025	85.31
412.249	95.31
412.472	74.31
412.695	88.31
412.919	58.31
413.142	79.31
413.365	85.31
413.589	76.31
413.812	94.31
414.035	86.31
414.258	91.31
414.482	74.31
414.705	90.31
414.928	78.31
415.151	87.31
415.374	98.31
415.597	94.31
415.821	87.31
416.044	102.31
416.267	84.31
416.49	91.31
416.713	91.31
416.936	78.31
417.159	93.31
417.382	90.31
417.605	89.31
417.828	92.31
418.051	95.31
418.274	87.31
418.497	74.31
418.72	74.31
418.943	83.31
419.166	81.31
419.389	79.31
419.611	82.31
419.834	82.31
420.057	94.31
420.28	109.31
420.503	86.31
420.726	91.31
420.948	86.31
421.171	85.31
421.394	94.31
421.617	74.31
421.839	81.31
422.062	96.31
422.285	89.31
422.507	104.31
422.73	95.31
422.953	93.31
423.175	80.31
423.398	93.31
423.621	82.31
423.843	75.31
424.066	89.31
424.288	78.31
424.511	89.31
424.733	93.31
424.956	103.31
425.178	93.31
425.401	93.31
425.623	91.31
425.846	83.31
426.068	85.31
426.291	89.31
426.513	93.31
426.735	93.31
426.958	87.31
427.18	103.31
427.402	129.31
427.625	139.31
427.847	92.31
428.069	95.31
428.292	88.31
428.514	89.31
428.736	69.31
428.958	89.31
429.181	83.31
429.403	86.31
429.625	94.31
429.847	90.31
430.069	84.31
430.292	91.31
430.514	76.31
430.736	91.31
430.958	94.31
431.18	76.31
431.402	78.31
431.624	79.31
431.846	92.31
432.068	77.31
432.29	91.31
432.512	83.31
432.734	90.31
432.956	101.31
433.178	106.31
433.4	93.31
433.622	79.31
433.844	76.31
434.066	85.31
434.287	85.31
434.509	88.31
434.731	100.31
434.953	79.31
435.175	88.31
435.397	85.31
435.618	98.31
435.84	87.31
436.062	98.31
436.284	95.31
436.505	111.31
436.727	94.31
436.949	84.31
437.17	95.31
437.392	73.31
437.614	86.31
437.835	94.31
438.057	98.31
438.278	101.31
438.5	103.31
438.721	106.31
438.943	117.31
439.165	86.31
439.386	83.31
439.608	89.31
439.829	81.31
440.05	98.31
440.272	140.31
440.493	92.31
440.715	88.31
440.936	76.31
441.158	90.31
441.379	77.31
441.6	98.31
441.822	87.31
442.043	89.31
442.264	84.31
442.486	89.31
442.707	100.31
442.928	104.31
443.149	113.31
443.371	102.31
443.592	91.31
443.813	100.31
444.034	104.31
444.255	94.31
444.476	77.31
444.698	84.31
444.919	84.31
445.14	120.31
445.361	119.31
445.582	99.31
445.803	112.31
446.024	130.31
446.245	125.31
446.466	108.31
446.687	107.31
446.908	89.31
447.129	87.31
447.35	80.31
447.571	93.31
447.792	92.31
448.013	84.31
448.234	112.31
448.455	90.31
448.675	101.31
448.896	100.31
449.117	87.31
449.338	97.31
449.559	116.31
449.779	132.31
450	82.31
450.221	70.31
450.442	81.31
450.662	82.31
450.883	87.31
451.104	90.31
451.324	91.31
451.545	79.31
451.766	93.31
451.986	75.31
452.207	93.31
452.428	102.31
452.648	93.31
452.869	99.31
453.089	105.31
453.31	100.31
453.53	90.31
453.751	78.31
453.971	88.31
454.192	98.31
454.412	105.31
454.633	86.31
454.853	77.31
455.073	89.31
455.294	87.31
455.514	99.31
455.734	90.31
455.955	85.31
456.175	91.31
456.395	95.31
456.616	91.31
456.836	94.31
457.056	87.31
457.276	73.31
457.497	76.31
457.717	89.31
457.937	86.31
458.157	77.31
458.377	84.31
458.598	105.31
458.818	121.31
459.038	151.31
459.258	116.31
459.478	77.31
459.698	85.31
459.918	83.31
460.138	89.31
460.358	59.31
460.578	85.31
460.798	99.31
461.018	97.31
461.238	79.31
461.458	78.31
461.678	84.31
461.898	90.31
462.118	75.31
462.338	82.31
462.558	89.31
462.777	73.31
462.997	83.31
463.217	72.31
463.437	74.31
463.657	85.31
463.876	84.31
464.096	81.31
464.316	84.31
464.536	88.31
464.755	94.31
464.975	98.31
465.195	131.31
465.414	141.31
465.634	91.31
465.854	74.31
466.073	77.31
466.293	74.31
466.512	79.31
466.732	77.31
466.951	92.31
467.171	90.31
467.391	87.31
467.61	102.31
467.829	102.31
468.049	67.31
468.268	92.31
468.488	85.31
468.707	75.31
468.927	84.31
469.146	100.31
469.365	90.31
469.585	85.31
469.804	85.31
470.023	101.31
470.243	97.31
470.462	98.31
470.681	106.31
470.901	84.31
471.12	69.31
471.339	77.31
471.558	88.31
471.777	73.31
471.997	90.31
472.216	95.31
472.435	108.31
472.654	81.31
472.873	94.31
473.092	68.31
473.311	86.31
473.53	87.31
473.749	85.31
473.968	98.31
474.187	113.31
474.406	82.31
474.625	84.31
474.844	78.31
475.063	93.31
475.282	97.31
475.501	79.31
475.72	85.31
475.939	95.31
476.158	81.31
476.377	82.31
476.596	99.31
476.814	88.31
477.033	82.31
477.252	89.31
477.471	88.31
477.69	101.31
477.908	87.31
478.127	83.31
478.346	89.31
478.564	79.31
478.783	103.31
479.002	94.31
479.22	94.31
479.439	102.31
479.658	108.31
479.876	81.31
480.095	88.31
480.313	83.31
480.532	104.31
480.751	77.31
480.969	89.31
481.188	107.31
481.406	108.31
481.624	93.31
481.843	98.31
482.061	90.31
482.28	108.31
482.498	92.31
482.717	76.31
482.935	73.31
483.153	103.31
483.372	92.31
483.59	81.31
483.808	82.31
484.027	76.31
484.245	90.31
484.463	83.31
484.681	86.31
484.9	91.31
485.118	83.31
485.336	97.31
485.554	86.31
485.772	101.31
485.99	96.31
486.209	102.31
486.427	111.31
486.645	113.31
486.863	105.31
487.081	93.31
487.299	89.31
487.517	101.31
487.735	81.31
487.953	95.31
488.171	81.31
488.389	89.31
488.607	91.31
488.825	84.31
489.043	101.31
489.261	94.31
489.479	87.31
489.696	99.31
489.914	89.31
490.132	90.31
490.35	85.31
490.568	89.31
490.786	89.31
491.003	82.31
491.221	86.31
491.439	74.31
491.657	102.31
491.874	81.31
492.092	74.31
492.31	86.31
492.527	79.31
492.745	74.31
492.963	82.31
493.18	103.31
493.398	79.31
493.615	80.31
493.833	97.31
494.05	89.31
494.268	84.31
494.485	81.31
494.703	93.31
494.92	89.31
495.138	92.31
495.355	92.31
495.573	84.31
495.79	95.31
496.008	98.31
496.225	90.31
496.442	85.31
496.66	89.31
496.877	87.31
497.094	96.31
497.312	92.31
497.529	85.31
497.746	86.31
497.963	85.31
498.181	86.31
498.398	92.31
498.615	105.31
498.832	97.31
499.049	93.31
499.267	88.31
499.484	75.31
499.701	81.31
499.918	78.31
500.135	76.31
500.352	75.31
500.569	84.31
500.786	89.31
501.003	100.31
501.22	89.31
501.437	89.31
501.654	89.31
501.871	103.31
502.088	101.31
502.305	100.31
502.522	97.31
502.739	87.31
502.956	90.31
503.172	85.31
503.389	96.31
503.606	101.31
503.823	84.31
504.04	85.31
504.256	92.31
504.473	79.31
504.69	86.31
504.907	99.31
505.123	75.31
505.34	74.31
505.557	92.31
505.773	83.31
505.99	77.31
506.207	99.31
506.423	87.31
506.64	76.31
506.856	94.31
507.073	93.31
507.289	89.31
507.506	91.31
507.722	109.31
507.939	86.31
508.155	95.31
508.372	98.31
508.588	107.31
508.805	87.31
509.021	84.31
509.238	93.31
509.454	98.31
509.67	103.31
509.887	105.31
510.103	102.31
510.319	187.31
510.536	667.31
510.752	2059.31
510.968	559.31
511.184	145.31
511.401	91.31
511.617	97.31
511.833	89.31
512.049	98.31
512.265	104.31
512.481	95.31
512.698	94.31
512.914	89.31
513.13	97.31
513.346	88.31
513.562	80.31
513.778	100.31
513.994	99.31
514.21	100.31
514.426	105.31
514.642	115.31
514.858	118.31
515.074	140.31
515.29	364.31
515.506	1163.31
515.721	447.31
515.937	136.31
516.153	111.31
516.369	99.31
516.585	97.31
516.801	97.31
