Data from Uncirc_1990_H10_HRD10591_00020.txt Node
Date: Wed Jan 03 11:53:55 EST 2024
User: Yrep
Spectrometer: HR+D1059
Trigger mode: 1
Integration Time (sec): 1.000000E-1
Scans to average: 1
Electric dark correction enabled: true
Nonlinearity correction enabled: false
Boxcar width: 0
XAxis mode: Wavelengths
Number of Pixels in Spectrum: 2048
>>>>>Begin Spectral Data<<<<<
223.165	-25.38
223.4	-25.38
223.635	-25.38
223.869	-19.38
224.104	-15.38
224.338	-1.38
224.573	-5.38
224.808	-9.38
225.042	-15.38
225.277	-15.38
225.511	-6.38
225.746	10.62
225.98	-1.38
226.215	10.62
226.449	14.62
226.683	24.62
226.918	21.62
227.152	32.62
227.387	49.62
227.621	46.62
227.856	35.62
228.09	34.62
228.324	49.62
228.559	58.62
228.793	65.62
229.027	60.62
229.262	67.62
229.496	79.62
229.73	76.62
229.964	96.62
230.199	73.62
230.433	74.62
230.667	67.62
230.901	88.62
231.136	94.62
231.37	70.62
231.604	88.62
231.838	71.62
232.072	88.62
232.306	83.62
232.541	74.62
232.775	70.62
233.009	85.62
233.243	80.62
233.477	83.62
233.711	90.62
233.945	90.62
234.179	89.62
234.413	86.62
234.647	64.62
234.881	60.62
235.115	53.62
235.349	76.62
235.583	82.62
235.817	66.62
236.051	87.62
236.285	85.62
236.519	61.62
236.753	71.62
236.987	90.62
237.221	93.62
237.455	86.62
237.689	92.62
237.922	75.62
238.156	74.62
238.39	79.62
238.624	80.62
238.858	69.62
239.091	75.62
239.325	83.62
239.559	78.62
239.793	82.62
240.027	83.62
240.26	82.62
240.494	62.62
240.728	78.62
240.961	71.62
241.195	87.62
241.429	80.62
241.662	74.62
241.896	67.62
242.13	83.62
242.363	92.62
242.597	62.62
242.83	61.62
243.064	70.62
243.298	88.62
243.531	63.62
243.765	88.62
243.998	79.62
244.232	86.62
244.465	74.62
244.699	69.62
244.932	75.62
245.166	85.62
245.399	74.62
245.633	91.62
245.866	75.62
246.099	84.62
246.333	69.62
246.566	79.62
246.8	86.62
247.033	78.62
247.266	83.62
247.5	64.62
247.733	74.62
247.966	84.62
248.2	84.62
248.433	85.62
248.666	88.62
248.899	70.62
249.133	86.62
249.366	94.62
249.599	92.62
249.832	75.62
250.066	80.62
250.299	70.62
250.532	82.62
250.765	82.62
250.998	72.62
251.231	90.62
251.465	93.62
251.698	71.62
251.931	78.62
252.164	78.62
252.397	76.62
252.63	91.62
252.863	83.62
253.096	84.62
253.329	83.62
253.562	81.62
253.795	81.62
254.028	84.62
254.261	90.62
254.494	70.62
254.727	81.62
254.96	75.62
255.193	89.62
255.426	78.62
255.659	72.62
255.892	83.62
256.124	78.62
256.357	81.62
256.59	79.62
256.823	86.62
257.056	73.62
257.289	79.62
257.521	87.62
257.754	91.62
257.987	85.62
258.22	80.62
258.452	89.62
258.685	73.62
258.918	71.62
259.151	79.62
259.383	84.62
259.616	80.62
259.849	80.62
260.081	76.62
260.314	84.62
260.547	80.62
260.779	87.62
261.012	84.62
261.244	95.62
261.477	87.62
261.71	91.62
261.942	85.62
262.175	108.62
262.407	82.62
262.64	80.62
262.872	75.62
263.105	86.62
263.337	96.62
263.57	80.62
263.802	78.62
264.035	84.62
264.267	79.62
264.499	75.62
264.732	101.62
264.964	93.62
265.197	66.62
265.429	84.62
265.661	80.62
265.894	78.62
266.126	87.62
266.358	90.62
266.591	86.62
266.823	92.62
267.055	95.62
267.287	82.62
267.52	84.62
267.752	83.62
267.984	96.62
268.216	87.62
268.448	85.62
268.681	79.62
268.913	78.62
269.145	61.62
269.377	80.62
269.609	85.62
269.841	81.62
270.073	65.62
270.306	74.62
270.538	87.62
270.77	83.62
271.002	104.62
271.234	80.62
271.466	94.62
271.698	93.62
271.93	76.62
272.162	92.62
272.394	84.62
272.626	74.62
272.858	93.62
273.09	91.62
273.322	88.62
273.553	77.62
273.785	79.62
274.017	91.62
274.249	76.62
274.481	74.62
274.713	87.62
274.945	98.62
275.176	84.62
275.408	78.62
275.64	77.62
275.872	84.62
276.104	95.62
276.335	94.62
276.567	109.62
276.799	112.62
277.031	116.62
277.262	95.62
277.494	89.62
277.726	86.62
277.957	77.62
278.189	88.62
278.421	80.62
278.652	82.62
278.884	95.62
279.115	80.62
279.347	80.62
279.579	73.62
279.81	78.62
280.042	81.62
280.273	84.62
280.505	96.62
280.736	92.62
280.968	82.62
281.199	79.62
281.431	93.62
281.662	92.62
281.894	83.62
282.125	92.62
282.356	111.62
282.588	123.62
282.819	99.62
283.051	86.62
283.282	77.62
283.513	85.62
283.745	84.62
283.976	94.62
284.207	80.62
284.439	79.62
284.67	87.62
284.901	84.62
285.132	87.62
285.364	96.62
285.595	85.62
285.826	72.62
286.057	96.62
286.288	94.62
286.52	87.62
286.751	79.62
286.982	79.62
287.213	95.62
287.444	93.62
287.675	86.62
287.906	95.62
288.138	85.62
288.369	95.62
288.6	99.62
288.831	78.62
289.062	97.62
289.293	88.62
289.524	82.62
289.755	63.62
289.986	96.62
290.217	85.62
290.448	83.62
290.679	91.62
290.91	85.62
291.141	76.62
291.371	69.62
291.602	90.62
291.833	94.62
292.064	83.62
292.295	100.62
292.526	81.62
292.757	94.62
292.987	89.62
293.218	95.62
293.449	78.62
293.68	96.62
293.91	63.62
294.141	81.62
294.372	90.62
294.603	109.62
294.833	86.62
295.064	86.62
295.295	83.62
295.525	94.62
295.756	95.62
295.987	118.62
296.217	121.62
296.448	124.62
296.679	102.62
296.909	79.62
297.14	86.62
297.37	94.62
297.601	79.62
297.831	86.62
298.062	83.62
298.292	93.62
298.523	89.62
298.753	87.62
298.984	112.62
299.214	92.62
299.445	90.62
299.675	104.62
299.905	102.62
300.136	88.62
300.366	71.62
300.597	80.62
300.827	97.62
301.057	91.62
301.288	110.62
301.518	101.62
301.748	94.62
301.979	94.62
302.209	91.62
302.439	91.62
302.669	91.62
302.9	88.62
303.13	110.62
303.36	75.62
303.59	93.62
303.82	92.62
304.051	99.62
304.281	92.62
304.511	112.62
304.741	84.62
304.971	84.62
305.201	91.62
305.431	72.62
305.661	84.62
305.891	78.62
306.121	101.62
306.352	102.62
306.582	97.62
306.812	94.62
307.042	87.62
307.272	95.62
307.502	102.62
307.731	90.62
307.961	82.62
308.191	92.62
308.421	109.62
308.651	78.62
308.881	104.62
309.111	97.62
309.341	89.62
309.571	91.62
309.8	100.62
310.03	87.62
310.26	96.62
310.49	82.62
310.72	93.62
310.949	100.62
311.179	103.62
311.409	89.62
311.639	85.62
311.868	85.62
312.098	100.62
312.328	86.62
312.557	76.62
312.787	95.62
313.017	106.62
313.246	103.62
313.476	92.62
313.706	87.62
313.935	95.62
314.165	77.62
314.394	75.62
314.624	89.62
314.853	82.62
315.083	104.62
315.312	90.62
315.542	97.62
315.771	98.62
316.001	88.62
316.23	83.62
316.46	83.62
316.689	71.62
316.919	86.62
317.148	84.62
317.377	76.62
317.607	99.62
317.836	102.62
318.065	89.62
318.295	96.62
318.524	98.62
318.753	91.62
318.983	84.62
319.212	121.62
319.441	111.62
319.67	87.62
319.9	80.62
320.129	94.62
320.358	93.62
320.587	91.62
320.816	89.62
321.046	106.62
321.275	100.62
321.504	86.62
321.733	85.62
321.962	92.62
322.191	91.62
322.42	98.62
322.649	112.62
322.878	108.62
323.108	110.62
323.337	99.62
323.566	120.62
323.795	133.62
324.024	176.62
324.253	344.62
324.482	722.62
324.71	1423.62
324.939	1935.62
325.168	715.62
325.397	216.62
325.626	133.62
325.855	120.62
326.084	109.62
326.313	126.62
326.542	140.62
326.77	202.62
326.999	395.62
327.228	819.62
327.457	1498.62
327.686	1228.62
327.914	325.62
328.143	174.62
328.372	133.62
328.6	117.62
328.829	107.62
329.058	114.62
329.287	126.62
329.515	100.62
329.744	105.62
329.972	89.62
330.201	97.62
330.43	114.62
330.658	116.62
330.887	122.62
331.115	103.62
331.344	102.62
331.572	94.62
331.801	86.62
332.03	105.62
332.258	92.62
332.486	99.62
332.715	95.62
332.943	87.62
333.172	91.62
333.4	91.62
333.629	88.62
333.857	115.62
334.085	94.62
334.314	82.62
334.542	89.62
334.771	90.62
334.999	96.62
335.227	92.62
335.455	82.62
335.684	98.62
335.912	92.62
336.14	76.62
336.369	98.62
336.597	80.62
336.825	104.62
337.053	83.62
337.281	89.62
337.51	77.62
337.738	91.62
337.966	91.62
338.194	90.62
338.422	88.62
338.65	82.62
338.878	96.62
339.106	93.62
339.334	98.62
339.562	74.62
339.79	86.62
340.018	79.62
340.246	95.62
340.474	96.62
340.702	85.62
340.93	92.62
341.158	87.62
341.386	86.62
341.614	93.62
341.842	91.62
342.07	89.62
342.298	98.62
342.526	96.62
342.754	82.62
342.981	102.62
343.209	97.62
343.437	104.62
343.665	91.62
343.893	93.62
344.12	75.62
344.348	87.62
344.576	99.62
344.804	78.62
345.031	86.62
345.259	85.62
345.487	82.62
345.714	81.62
345.942	91.62
346.17	95.62
346.397	98.62
346.625	77.62
346.853	91.62
347.08	78.62
347.308	90.62
347.535	96.62
347.763	92.62
347.99	87.62
348.218	93.62
348.445	94.62
348.673	108.62
348.9	89.62
349.128	90.62
349.355	93.62
349.583	93.62
349.81	96.62
350.037	92.62
350.265	84.62
350.492	87.62
350.72	94.62
350.947	92.62
351.174	104.62
351.402	110.62
351.629	90.62
351.856	103.62
352.083	87.62
352.311	90.62
352.538	103.62
352.765	98.62
352.992	114.62
353.22	108.62
353.447	97.62
353.674	104.62
353.901	98.62
354.128	108.62
354.355	77.62
354.583	91.62
354.81	95.62
355.037	99.62
355.264	94.62
355.491	94.62
355.718	101.62
355.945	95.62
356.172	100.62
356.399	101.62
356.626	95.62
356.853	81.62
357.08	96.62
357.307	102.62
357.534	102.62
357.761	102.62
357.988	96.62
358.215	98.62
358.441	93.62
358.668	82.62
358.895	98.62
359.122	78.62
359.349	84.62
359.576	88.62
359.802	94.62
360.029	99.62
360.256	96.62
360.483	96.62
360.709	83.62
360.936	86.62
361.163	107.62
361.39	88.62
361.616	98.62
361.843	89.62
362.07	87.62
362.296	90.62
362.523	94.62
362.749	87.62
362.976	83.62
363.203	110.62
363.429	86.62
363.656	93.62
363.882	91.62
364.109	91.62
364.335	96.62
364.562	84.62
364.788	93.62
365.015	91.62
365.241	93.62
365.468	96.62
365.694	85.62
365.92	89.62
366.147	87.62
366.373	82.62
366.599	94.62
366.826	80.62
367.052	78.62
367.278	79.62
367.505	79.62
367.731	81.62
367.957	88.62
368.184	97.62
368.41	92.62
368.636	104.62
368.862	104.62
369.089	105.62
369.315	95.62
369.541	92.62
369.767	91.62
369.993	75.62
370.219	79.62
370.445	71.62
370.672	98.62
370.898	74.62
371.124	67.62
371.35	86.62
371.576	90.62
371.802	81.62
372.028	77.62
372.254	99.62
372.48	78.62
372.706	86.62
372.932	74.62
373.158	78.62
373.384	108.62
373.61	103.62
373.835	88.62
374.061	87.62
374.287	87.62
374.513	95.62
374.739	86.62
374.965	86.62
375.191	87.62
375.416	84.62
375.642	96.62
375.868	90.62
376.094	83.62
376.319	81.62
376.545	79.62
376.771	84.62
376.997	94.62
377.222	88.62
377.448	85.62
377.674	89.62
377.899	87.62
378.125	95.62
378.35	88.62
378.576	93.62
378.802	89.62
379.027	82.62
379.253	101.62
379.478	100.62
379.704	86.62
379.929	80.62
380.155	91.62
380.38	92.62
380.606	89.62
380.831	88.62
381.057	95.62
381.282	84.62
381.507	90.62
381.733	96.62
381.958	97.62
382.184	106.62
382.409	104.62
382.634	101.62
382.86	95.62
383.085	93.62
383.31	108.62
383.535	98.62
383.761	107.62
383.986	83.62
384.211	98.62
384.436	98.62
384.662	99.62
384.887	94.62
385.112	108.62
385.337	90.62
385.562	102.62
385.787	121.62
386.013	108.62
386.238	94.62
386.463	93.62
386.688	109.62
386.913	108.62
387.138	110.62
387.363	106.62
387.588	100.62
387.813	107.62
388.038	91.62
388.263	115.62
388.488	99.62
388.713	92.62
388.938	90.62
389.163	96.62
389.387	86.62
389.612	99.62
389.837	87.62
390.062	81.62
390.287	90.62
390.512	97.62
390.736	99.62
390.961	98.62
391.186	107.62
391.411	102.62
391.636	91.62
391.86	97.62
392.085	86.62
392.31	87.62
392.534	106.62
392.759	64.62
392.984	99.62
393.208	95.62
393.433	101.62
393.658	89.62
393.882	73.62
394.107	79.62
394.331	84.62
394.556	87.62
394.78	76.62
395.005	86.62
395.229	88.62
395.454	94.62
395.678	75.62
395.903	85.62
396.127	95.62
396.352	95.62
396.576	80.62
396.801	69.62
397.025	91.62
397.249	75.62
397.474	86.62
397.698	70.62
397.922	83.62
398.147	87.62
398.371	94.62
398.595	77.62
398.82	90.62
399.044	90.62
399.268	79.62
399.492	90.62
399.717	93.62
399.941	85.62
400.165	100.62
400.389	98.62
400.613	76.62
400.837	74.62
401.062	81.62
401.286	95.62
401.51	97.62
401.734	90.62
401.958	96.62
402.182	116.62
402.406	137.62
402.63	94.62
402.854	95.62
403.078	94.62
403.302	81.62
403.526	87.62
403.75	84.62
403.974	85.62
404.198	86.62
404.422	83.62
404.645	79.62
404.869	90.62
405.093	92.62
405.317	85.62
405.541	90.62
405.765	91.62
405.988	97.62
406.212	146.62
406.436	196.62
406.66	125.62
406.883	97.62
407.107	78.62
407.331	95.62
407.555	94.62
407.778	102.62
408.002	102.62
408.226	94.62
408.449	91.62
408.673	76.62
408.896	90.62
409.12	101.62
409.344	81.62
409.567	88.62
409.791	91.62
410.014	102.62
410.238	97.62
410.461	104.62
410.685	102.62
410.908	90.62
411.132	103.62
411.355	95.62
411.578	100.62
411.802	85.62
412.025	92.62
412.249	95.62
412.472	83.62
412.695	90.62
412.919	79.62
413.142	90.62
413.365	79.62
413.589	80.62
413.812	82.62
414.035	90.62
414.258	88.62
414.482	94.62
414.705	99.62
414.928	86.62
415.151	83.62
415.374	75.62
415.597	98.62
415.821	84.62
416.044	95.62
416.267	90.62
416.49	83.62
416.713	86.62
416.936	81.62
417.159	88.62
417.382	78.62
417.605	90.62
417.828	83.62
418.051	81.62
418.274	87.62
418.497	87.62
418.72	88.62
418.943	80.62
419.166	87.62
419.389	78.62
419.611	78.62
419.834	87.62
420.057	94.62
420.28	80.62
420.503	95.62
420.726	92.62
420.948	86.62
421.171	96.62
421.394	97.62
421.617	87.62
421.839	86.62
422.062	92.62
422.285	92.62
422.507	98.62
422.73	93.62
422.953	85.62
423.175	78.62
423.398	91.62
423.621	84.62
423.843	86.62
424.066	79.62
424.288	84.62
424.511	100.62
424.733	95.62
424.956	86.62
425.178	81.62
425.401	96.62
425.623	106.62
425.846	98.62
426.068	88.62
426.291	83.62
426.513	83.62
426.735	92.62
426.958	82.62
427.18	103.62
427.402	124.62
427.625	132.62
427.847	100.62
428.069	98.62
428.292	88.62
428.514	93.62
428.736	94.62
428.958	93.62
429.181	88.62
429.403	96.62
429.625	97.62
429.847	102.62
430.069	83.62
430.292	78.62
430.514	87.62
430.736	81.62
430.958	88.62
431.18	88.62
431.402	87.62
431.624	79.62
431.846	79.62
432.068	81.62
432.29	90.62
432.512	85.62
432.734	80.62
432.956	74.62
433.178	80.62
433.4	96.62
433.622	98.62
433.844	92.62
434.066	98.62
434.287	67.62
434.509	77.62
434.731	93.62
434.953	95.62
435.175	80.62
435.397	71.62
435.618	81.62
435.84	93.62
436.062	102.62
436.284	116.62
436.505	98.62
436.727	107.62
436.949	93.62
437.17	98.62
437.392	78.62
437.614	80.62
437.835	90.62
438.057	118.62
438.278	104.62
438.5	92.62
438.721	115.62
438.943	108.62
439.165	82.62
439.386	80.62
439.608	97.62
439.829	101.62
440.05	134.62
440.272	125.62
440.493	94.62
440.715	99.62
440.936	77.62
441.158	102.62
441.379	98.62
441.6	88.62
441.822	99.62
442.043	92.62
442.264	99.62
442.486	89.62
442.707	105.62
442.928	101.62
443.149	109.62
443.371	127.62
443.592	100.62
443.813	93.62
444.034	114.62
444.255	90.62
444.476	78.62
444.698	99.62
444.919	77.62
445.14	117.62
445.361	120.62
445.582	125.62
445.803	126.62
446.024	122.62
446.245	126.62
446.466	103.62
446.687	81.62
446.908	85.62
447.129	98.62
447.35	79.62
447.571	102.62
447.792	65.62
448.013	86.62
448.234	102.62
448.455	103.62
448.675	111.62
448.896	119.62
449.117	90.62
449.338	87.62
449.559	130.62
449.779	124.62
450	96.62
450.221	79.62
450.442	80.62
450.662	84.62
450.883	87.62
451.104	106.62
451.324	84.62
451.545	91.62
451.766	80.62
451.986	91.62
452.207	87.62
452.428	81.62
452.648	79.62
452.869	111.62
453.089	118.62
453.31	108.62
453.53	96.62
453.751	90.62
453.971	101.62
454.192	104.62
454.412	91.62
454.633	75.62
454.853	82.62
455.073	71.62
455.294	95.62
455.514	90.62
455.734	93.62
455.955	83.62
456.175	84.62
456.395	77.62
456.616	94.62
456.836	99.62
457.056	93.62
457.276	85.62
457.497	92.62
457.717	83.62
457.937	97.62
458.157	94.62
458.377	84.62
458.598	97.62
458.818	115.62
459.038	143.62
459.258	104.62
459.478	87.62
459.698	84.62
459.918	84.62
460.138	85.62
460.358	76.62
460.578	83.62
460.798	70.62
461.018	81.62
461.238	85.62
461.458	81.62
461.678	72.62
461.898	86.62
462.118	87.62
462.338	83.62
462.558	90.62
462.777	89.62
462.997	86.62
463.217	86.62
463.437	95.62
463.657	84.62
463.876	96.62
464.096	105.62
464.316	90.62
464.536	91.62
464.755	79.62
464.975	83.62
465.195	152.62
465.414	140.62
465.634	94.62
465.854	90.62
466.073	87.62
466.293	85.62
466.512	77.62
466.732	91.62
466.951	93.62
467.171	87.62
467.391	79.62
467.61	84.62
467.829	87.62
468.049	82.62
468.268	91.62
468.488	90.62
468.707	101.62
468.927	71.62
469.146	94.62
469.365	82.62
469.585	86.62
469.804	86.62
470.023	101.62
470.243	96.62
470.462	101.62
470.681	104.62
470.901	79.62
471.12	87.62
471.339	100.62
471.558	97.62
471.777	86.62
471.997	84.62
472.216	98.62
472.435	95.62
472.654	65.62
472.873	90.62
473.092	85.62
473.311	70.62
473.53	78.62
473.749	93.62
473.968	93.62
474.187	104.62
474.406	84.62
474.625	96.62
474.844	91.62
475.063	103.62
475.282	96.62
475.501	79.62
475.72	101.62
475.939	84.62
476.158	82.62
476.377	91.62
476.596	100.62
476.814	98.62
477.033	93.62
477.252	85.62
477.471	84.62
477.69	89.62
477.908	71.62
478.127	73.62
478.346	71.62
478.564	86.62
478.783	101.62
479.002	103.62
479.22	89.62
479.439	92.62
479.658	89.62
479.876	94.62
480.095	84.62
480.313	90.62
480.532	97.62
480.751	92.62
480.969	89.62
481.188	107.62
481.406	98.62
481.624	92.62
481.843	86.62
482.061	82.62
482.28	80.62
482.498	71.62
482.717	82.62
482.935	94.62
483.153	78.62
483.372	106.62
483.59	94.62
483.808	88.62
484.027	99.62
484.245	93.62
484.463	99.62
484.681	99.62
484.9	93.62
485.118	77.62
485.336	90.62
485.554	88.62
485.772	105.62
485.99	115.62
486.209	113.62
486.427	101.62
486.645	110.62
486.863	103.62
487.081	99.62
487.299	99.62
487.517	93.62
487.735	100.62
487.953	89.62
488.171	80.62
488.389	100.62
488.607	94.62
488.825	100.62
489.043	80.62
489.261	88.62
489.479	96.62
489.696	106.62
489.914	89.62
490.132	93.62
490.35	91.62
490.568	87.62
490.786	95.62
491.003	83.62
491.221	83.62
491.439	100.62
491.657	99.62
491.874	85.62
492.092	96.62
492.31	96.62
492.527	73.62
492.745	78.62
492.963	80.62
493.18	88.62
493.398	105.62
493.615	96.62
493.833	103.62
494.05	104.62
494.268	91.62
494.485	91.62
494.703	96.62
494.92	91.62
495.138	84.62
495.355	106.62
495.573	100.62
495.79	107.62
496.008	95.62
496.225	94.62
496.442	97.62
496.66	96.62
496.877	103.62
497.094	85.62
497.312	88.62
497.529	96.62
497.746	78.62
497.963	103.62
498.181	86.62
498.398	81.62
498.615	94.62
498.832	97.62
499.049	97.62
499.267	88.62
499.484	94.62
499.701	99.62
499.918	91.62
500.135	78.62
500.352	87.62
500.569	94.62
500.786	91.62
501.003	106.62
501.22	85.62
501.437	96.62
501.654	110.62
501.871	107.62
502.088	92.62
502.305	88.62
502.522	98.62
502.739	72.62
502.956	94.62
503.172	95.62
503.389	93.62
503.606	100.62
503.823	82.62
504.04	90.62
504.256	86.62
504.473	90.62
504.69	90.62
504.907	91.62
505.123	91.62
505.34	78.62
505.557	93.62
505.773	88.62
505.99	89.62
506.207	86.62
506.423	101.62
506.64	86.62
506.856	83.62
507.073	97.62
507.289	99.62
507.506	95.62
507.722	102.62
507.939	108.62
508.155	102.62
508.372	94.62
508.588	103.62
508.805	85.62
509.021	92.62
509.238	93.62
509.454	94.62
509.67	101.62
509.887	100.62
510.103	117.62
510.319	193.62
510.536	648.62
510.752	1978.62
510.968	562.62
511.184	144.62
511.401	108.62
511.617	102.62
511.833	91.62
512.049	83.62
512.265	86.62
512.481	94.62
512.698	84.62
512.914	90.62
513.13	88.62
513.346	88.62
513.562	84.62
513.778	91.62
513.994	98.62
514.21	94.62
514.426	111.62
514.642	115.62
514.858	124.62
515.074	158.62
515.29	375.62
515.506	1165.62
515.721	455.62
515.937	143.62
516.153	98.62
516.369	86.62
516.585	109.62
