Data from Uncirc_1990_H10_HRD10591_00032.txt Node
Date: Wed Jan 03 11:53:58 EST 2024
User: Yrep
Spectrometer: HR+D1059
Trigger mode: 1
Integration Time (sec): 1.000000E-1
Scans to average: 1
Electric dark correction enabled: true
Nonlinearity correction enabled: false
Boxcar width: 0
XAxis mode: Wavelengths
Number of Pixels in Spectrum: 2048
>>>>>Begin Spectral Data<<<<<
223.165	-22.38
223.4	-22.38
223.635	-22.38
223.869	-25.38
224.104	-18.38
224.338	-14.38
224.573	-15.38
224.808	-10.38
225.042	-3.38
225.277	-10.38
225.511	-2.38
225.746	-4.38
225.98	5.62
226.215	17.62
226.449	19.62
226.683	21.62
226.918	19.62
227.152	42.62
227.387	39.62
227.621	32.62
227.856	42.62
228.09	45.62
228.324	38.62
228.559	45.62
228.793	40.62
229.027	64.62
229.262	47.62
229.496	44.62
229.73	74.62
229.964	90.62
230.199	66.62
230.433	79.62
230.667	79.62
230.901	73.62
231.136	70.62
231.37	75.62
231.604	72.62
231.838	91.62
232.072	77.62
232.306	92.62
232.541	85.62
232.775	66.62
233.009	76.62
233.243	92.62
233.477	79.62
233.711	87.62
233.945	78.62
234.179	67.62
234.413	90.62
234.647	86.62
234.881	78.62
235.115	91.62
235.349	76.62
235.583	65.62
235.817	83.62
236.051	70.62
236.285	88.62
236.519	80.62
236.753	88.62
236.987	80.62
237.221	84.62
237.455	90.62
237.689	70.62
237.922	70.62
238.156	84.62
238.39	77.62
238.624	86.62
238.858	71.62
239.091	70.62
239.325	80.62
239.559	77.62
239.793	60.62
240.027	69.62
240.26	81.62
240.494	82.62
240.728	64.62
240.961	84.62
241.195	89.62
241.429	76.62
241.662	72.62
241.896	77.62
242.13	82.62
242.363	75.62
242.597	74.62
242.83	61.62
243.064	71.62
243.298	85.62
243.531	67.62
243.765	82.62
243.998	91.62
244.232	62.62
244.465	75.62
244.699	83.62
244.932	79.62
245.166	78.62
245.399	79.62
245.633	82.62
245.866	73.62
246.099	71.62
246.333	79.62
246.566	84.62
246.8	74.62
247.033	58.62
247.266	76.62
247.5	72.62
247.733	51.62
247.966	101.62
248.2	86.62
248.433	84.62
248.666	77.62
248.899	78.62
249.133	89.62
249.366	96.62
249.599	81.62
249.832	101.62
250.066	99.62
250.299	73.62
250.532	88.62
250.765	82.62
250.998	87.62
251.231	69.62
251.465	81.62
251.698	79.62
251.931	83.62
252.164	74.62
252.397	67.62
252.63	77.62
252.863	86.62
253.096	86.62
253.329	78.62
253.562	76.62
253.795	78.62
254.028	84.62
254.261	81.62
254.494	84.62
254.727	79.62
254.96	80.62
255.193	73.62
255.426	80.62
255.659	85.62
255.892	80.62
256.124	78.62
256.357	85.62
256.59	83.62
256.823	81.62
257.056	79.62
257.289	84.62
257.521	77.62
257.754	89.62
257.987	89.62
258.22	87.62
258.452	79.62
258.685	80.62
258.918	78.62
259.151	80.62
259.383	85.62
259.616	85.62
259.849	74.62
260.081	83.62
260.314	84.62
260.547	60.62
260.779	73.62
261.012	72.62
261.244	77.62
261.477	98.62
261.71	98.62
261.942	108.62
262.175	107.62
262.407	84.62
262.64	65.62
262.872	101.62
263.105	88.62
263.337	82.62
263.57	89.62
263.802	88.62
264.035	90.62
264.267	87.62
264.499	84.62
264.732	76.62
264.964	85.62
265.197	67.62
265.429	65.62
265.661	63.62
265.894	85.62
266.126	76.62
266.358	81.62
266.591	83.62
266.823	90.62
267.055	92.62
267.287	74.62
267.52	79.62
267.752	68.62
267.984	75.62
268.216	81.62
268.448	93.62
268.681	77.62
268.913	87.62
269.145	97.62
269.377	82.62
269.609	85.62
269.841	83.62
270.073	94.62
270.306	85.62
270.538	78.62
270.77	93.62
271.002	79.62
271.234	82.62
271.466	73.62
271.698	72.62
271.93	80.62
272.162	78.62
272.394	79.62
272.626	79.62
272.858	95.62
273.09	89.62
273.322	74.62
273.553	92.62
273.785	80.62
274.017	81.62
274.249	93.62
274.481	94.62
274.713	75.62
274.945	93.62
275.176	75.62
275.408	92.62
275.64	92.62
275.872	79.62
276.104	89.62
276.335	86.62
276.567	99.62
276.799	101.62
277.031	103.62
277.262	106.62
277.494	78.62
277.726	79.62
277.957	78.62
278.189	86.62
278.421	84.62
278.652	86.62
278.884	92.62
279.115	90.62
279.347	87.62
279.579	69.62
279.81	85.62
280.042	89.62
280.273	78.62
280.505	84.62
280.736	88.62
280.968	82.62
281.199	82.62
281.431	94.62
281.662	70.62
281.894	90.62
282.125	82.62
282.356	103.62
282.588	131.62
282.819	106.62
283.051	97.62
283.282	81.62
283.513	100.62
283.745	74.62
283.976	81.62
284.207	88.62
284.439	94.62
284.67	89.62
284.901	88.62
285.132	91.62
285.364	92.62
285.595	86.62
285.826	81.62
286.057	76.62
286.288	78.62
286.52	85.62
286.751	79.62
286.982	85.62
287.213	88.62
287.444	89.62
287.675	92.62
287.906	95.62
288.138	94.62
288.369	85.62
288.6	79.62
288.831	84.62
289.062	87.62
289.293	79.62
289.524	83.62
289.755	87.62
289.986	92.62
290.217	77.62
290.448	94.62
290.679	91.62
290.91	75.62
291.141	98.62
291.371	87.62
291.602	66.62
291.833	94.62
292.064	84.62
292.295	97.62
292.526	79.62
292.757	100.62
292.987	92.62
293.218	82.62
293.449	80.62
293.68	92.62
293.91	85.62
294.141	82.62
294.372	94.62
294.603	86.62
294.833	93.62
295.064	81.62
295.295	99.62
295.525	96.62
295.756	98.62
295.987	102.62
296.217	117.62
296.448	103.62
296.679	102.62
296.909	97.62
297.14	80.62
297.37	86.62
297.601	95.62
297.831	91.62
298.062	99.62
298.292	85.62
298.523	90.62
298.753	75.62
298.984	100.62
299.214	77.62
299.445	90.62
299.675	97.62
299.905	103.62
300.136	81.62
300.366	82.62
300.597	78.62
300.827	93.62
301.057	79.62
301.288	111.62
301.518	99.62
301.748	78.62
301.979	91.62
302.209	97.62
302.439	91.62
302.669	91.62
302.9	100.62
303.13	97.62
303.36	77.62
303.59	101.62
303.82	101.62
304.051	100.62
304.281	93.62
304.511	84.62
304.741	87.62
304.971	87.62
305.201	91.62
305.431	91.62
305.661	90.62
305.891	85.62
306.121	91.62
306.352	101.62
306.582	89.62
306.812	97.62
307.042	100.62
307.272	96.62
307.502	89.62
307.731	96.62
307.961	81.62
308.191	97.62
308.421	93.62
308.651	93.62
308.881	91.62
309.111	90.62
309.341	94.62
309.571	104.62
309.8	93.62
310.03	101.62
310.26	76.62
310.49	87.62
310.72	98.62
310.949	87.62
311.179	99.62
311.409	102.62
311.639	100.62
311.868	92.62
312.098	92.62
312.328	95.62
312.557	97.62
312.787	97.62
313.017	102.62
313.246	92.62
313.476	98.62
313.706	94.62
313.935	92.62
314.165	94.62
314.394	101.62
314.624	92.62
314.853	85.62
315.083	92.62
315.312	89.62
315.542	97.62
315.771	89.62
316.001	97.62
316.23	95.62
316.46	98.62
316.689	92.62
316.919	101.62
317.148	90.62
317.377	102.62
317.607	95.62
317.836	89.62
318.065	88.62
318.295	86.62
318.524	97.62
318.753	91.62
318.983	85.62
319.212	97.62
319.441	90.62
319.67	107.62
319.9	100.62
320.129	84.62
320.358	98.62
320.587	97.62
320.816	99.62
321.046	105.62
321.275	102.62
321.504	92.62
321.733	79.62
321.962	89.62
322.191	101.62
322.42	97.62
322.649	111.62
322.878	115.62
323.108	110.62
323.337	113.62
323.566	124.62
323.795	155.62
324.024	190.62
324.253	339.62
324.482	745.62
324.71	1542.62
324.939	2098.62
325.168	753.62
325.397	229.62
325.626	151.62
325.855	117.62
326.084	113.62
326.313	123.62
326.542	137.62
326.77	195.62
326.999	427.62
327.228	859.62
327.457	1588.62
327.686	1260.62
327.914	345.62
328.143	164.62
328.372	137.62
328.6	121.62
328.829	108.62
329.058	97.62
329.287	117.62
329.515	107.62
329.744	94.62
329.972	94.62
330.201	95.62
330.43	104.62
330.658	109.62
330.887	132.62
331.115	119.62
331.344	92.62
331.572	103.62
331.801	88.62
332.03	102.62
332.258	100.62
332.486	89.62
332.715	73.62
332.943	90.62
333.172	81.62
333.4	85.62
333.629	102.62
333.857	113.62
334.085	103.62
334.314	105.62
334.542	89.62
334.771	94.62
334.999	89.62
335.227	101.62
335.455	90.62
335.684	107.62
335.912	85.62
336.14	68.62
336.369	94.62
336.597	101.62
336.825	96.62
337.053	102.62
337.281	95.62
337.51	91.62
337.738	83.62
337.966	87.62
338.194	88.62
338.422	86.62
338.65	89.62
338.878	98.62
339.106	97.62
339.334	93.62
339.562	92.62
339.79	93.62
340.018	95.62
340.246	96.62
340.474	86.62
340.702	97.62
340.93	93.62
341.158	86.62
341.386	105.62
341.614	102.62
341.842	90.62
342.07	87.62
342.298	93.62
342.526	86.62
342.754	96.62
342.981	96.62
343.209	100.62
343.437	95.62
343.665	92.62
343.893	101.62
344.12	93.62
344.348	88.62
344.576	81.62
344.804	93.62
345.031	94.62
345.259	100.62
345.487	90.62
345.714	97.62
345.942	90.62
346.17	85.62
346.397	78.62
346.625	94.62
346.853	95.62
347.08	104.62
347.308	85.62
347.535	94.62
347.763	87.62
347.99	95.62
348.218	107.62
348.445	97.62
348.673	87.62
348.9	93.62
349.128	86.62
349.355	94.62
349.583	100.62
349.81	100.62
350.037	86.62
350.265	105.62
350.492	100.62
350.72	97.62
350.947	87.62
351.174	105.62
351.402	100.62
351.629	92.62
351.856	99.62
352.083	106.62
352.311	100.62
352.538	103.62
352.765	94.62
352.992	100.62
353.22	113.62
353.447	98.62
353.674	91.62
353.901	95.62
354.128	102.62
354.355	86.62
354.583	105.62
354.81	101.62
355.037	83.62
355.264	98.62
355.491	83.62
355.718	91.62
355.945	100.62
356.172	93.62
356.399	95.62
356.626	100.62
356.853	96.62
357.08	107.62
357.307	95.62
357.534	94.62
357.761	101.62
357.988	92.62
358.215	93.62
358.441	89.62
358.668	90.62
358.895	79.62
359.122	87.62
359.349	91.62
359.576	83.62
359.802	83.62
360.029	98.62
360.256	115.62
360.483	72.62
360.709	83.62
360.936	95.62
361.163	88.62
361.39	90.62
361.616	82.62
361.843	89.62
362.07	96.62
362.296	92.62
362.523	100.62
362.749	89.62
362.976	94.62
363.203	94.62
363.429	84.62
363.656	72.62
363.882	85.62
364.109	94.62
364.335	86.62
364.562	91.62
364.788	85.62
365.015	110.62
365.241	109.62
365.468	111.62
365.694	108.62
365.92	89.62
366.147	100.62
366.373	87.62
366.599	86.62
366.826	88.62
367.052	89.62
367.278	76.62
367.505	85.62
367.731	94.62
367.957	79.62
368.184	79.62
368.41	79.62
368.636	103.62
368.862	114.62
369.089	111.62
369.315	101.62
369.541	88.62
369.767	93.62
369.993	94.62
370.219	83.62
370.445	80.62
370.672	86.62
370.898	92.62
371.124	86.62
371.35	86.62
371.576	88.62
371.802	95.62
372.028	93.62
372.254	82.62
372.48	95.62
372.706	87.62
372.932	80.62
373.158	97.62
373.384	100.62
373.61	86.62
373.835	90.62
374.061	59.62
374.287	75.62
374.513	87.62
374.739	93.62
374.965	91.62
375.191	93.62
375.416	91.62
375.642	90.62
375.868	95.62
376.094	90.62
376.319	99.62
376.545	90.62
376.771	93.62
376.997	88.62
377.222	84.62
377.448	89.62
377.674	84.62
377.899	96.62
378.125	84.62
378.35	96.62
378.576	69.62
378.802	83.62
379.027	90.62
379.253	89.62
379.478	89.62
379.704	81.62
379.929	89.62
380.155	91.62
380.38	83.62
380.606	92.62
380.831	91.62
381.057	93.62
381.282	98.62
381.507	100.62
381.733	85.62
381.958	100.62
382.184	86.62
382.409	80.62
382.634	93.62
382.86	84.62
383.085	103.62
383.31	89.62
383.535	83.62
383.761	81.62
383.986	89.62
384.211	94.62
384.436	103.62
384.662	96.62
384.887	105.62
385.112	94.62
385.337	102.62
385.562	96.62
385.787	105.62
386.013	106.62
386.238	117.62
386.463	100.62
386.688	121.62
386.913	111.62
387.138	110.62
387.363	99.62
387.588	97.62
387.813	85.62
388.038	105.62
388.263	94.62
388.488	114.62
388.713	96.62
388.938	82.62
389.163	84.62
389.387	87.62
389.612	98.62
389.837	110.62
390.062	88.62
390.287	89.62
390.512	91.62
390.736	82.62
390.961	79.62
391.186	85.62
391.411	96.62
391.636	90.62
391.86	80.62
392.085	84.62
392.31	82.62
392.534	77.62
392.759	86.62
392.984	102.62
393.208	95.62
393.433	93.62
393.658	92.62
393.882	79.62
394.107	79.62
394.331	83.62
394.556	89.62
394.78	83.62
395.005	93.62
395.229	73.62
395.454	89.62
395.678	89.62
395.903	75.62
396.127	81.62
396.352	88.62
396.576	83.62
396.801	92.62
397.025	78.62
397.249	75.62
397.474	78.62
397.698	89.62
397.922	82.62
398.147	75.62
398.371	80.62
398.595	88.62
398.82	80.62
399.044	92.62
399.268	80.62
399.492	87.62
399.717	85.62
399.941	96.62
400.165	90.62
400.389	86.62
400.613	110.62
400.837	86.62
401.062	99.62
401.286	92.62
401.51	83.62
401.734	89.62
401.958	104.62
402.182	122.62
402.406	141.62
402.63	102.62
402.854	98.62
403.078	70.62
403.302	85.62
403.526	89.62
403.75	88.62
403.974	83.62
404.198	70.62
404.422	97.62
404.645	93.62
404.869	85.62
405.093	94.62
405.317	93.62
405.541	92.62
405.765	87.62
405.988	114.62
406.212	151.62
406.436	203.62
406.66	117.62
406.883	87.62
407.107	85.62
407.331	91.62
407.555	88.62
407.778	86.62
408.002	92.62
408.226	86.62
408.449	82.62
408.673	88.62
408.896	84.62
409.12	87.62
409.344	90.62
409.567	79.62
409.791	84.62
410.014	99.62
410.238	102.62
410.461	97.62
410.685	100.62
410.908	108.62
411.132	114.62
411.355	103.62
411.578	95.62
411.802	85.62
412.025	79.62
412.249	94.62
412.472	86.62
412.695	88.62
412.919	72.62
413.142	94.62
413.365	74.62
413.589	78.62
413.812	78.62
414.035	107.62
414.258	93.62
414.482	75.62
414.705	85.62
414.928	88.62
415.151	77.62
415.374	90.62
415.597	70.62
415.821	87.62
416.044	86.62
416.267	80.62
416.49	95.62
416.713	93.62
416.936	97.62
417.159	75.62
417.382	80.62
417.605	87.62
417.828	78.62
418.051	97.62
418.274	91.62
418.497	92.62
418.72	74.62
418.943	84.62
419.166	80.62
419.389	90.62
419.611	86.62
419.834	79.62
420.057	90.62
420.28	66.62
420.503	92.62
420.726	85.62
420.948	72.62
421.171	85.62
421.394	98.62
421.617	96.62
421.839	91.62
422.062	76.62
422.285	77.62
422.507	99.62
422.73	96.62
422.953	93.62
423.175	84.62
423.398	76.62
423.621	84.62
423.843	96.62
424.066	91.62
424.288	94.62
424.511	77.62
424.733	95.62
424.956	95.62
425.178	109.62
425.401	84.62
425.623	99.62
425.846	89.62
426.068	84.62
426.291	96.62
426.513	93.62
426.735	96.62
426.958	88.62
427.18	101.62
427.402	123.62
427.625	154.62
427.847	106.62
428.069	106.62
428.292	90.62
428.514	88.62
428.736	98.62
428.958	87.62
429.181	94.62
429.403	77.62
429.625	88.62
429.847	92.62
430.069	100.62
430.292	98.62
430.514	94.62
430.736	90.62
430.958	91.62
431.18	74.62
431.402	96.62
431.624	90.62
431.846	89.62
432.068	88.62
432.29	96.62
432.512	86.62
432.734	85.62
432.956	90.62
433.178	101.62
433.4	102.62
433.622	81.62
433.844	97.62
434.066	82.62
434.287	85.62
434.509	79.62
434.731	88.62
434.953	95.62
435.175	91.62
435.397	97.62
435.618	83.62
435.84	103.62
436.062	121.62
436.284	122.62
436.505	100.62
436.727	84.62
436.949	90.62
437.17	85.62
437.392	89.62
437.614	77.62
437.835	103.62
438.057	97.62
438.278	110.62
438.5	94.62
438.721	92.62
438.943	98.62
439.165	93.62
439.386	76.62
439.608	91.62
439.829	114.62
440.05	105.62
440.272	121.62
440.493	90.62
440.715	81.62
440.936	96.62
441.158	85.62
441.379	74.62
441.6	101.62
441.822	92.62
442.043	87.62
442.264	97.62
442.486	97.62
442.707	96.62
442.928	113.62
443.149	118.62
443.371	113.62
443.592	103.62
443.813	113.62
444.034	111.62
444.255	99.62
444.476	81.62
444.698	100.62
444.919	96.62
445.14	122.62
445.361	117.62
445.582	107.62
445.803	128.62
446.024	121.62
446.245	118.62
446.466	96.62
446.687	84.62
446.908	82.62
447.129	103.62
447.35	87.62
447.571	76.62
447.792	71.62
448.013	87.62
448.234	90.62
448.455	100.62
448.675	101.62
448.896	112.62
449.117	97.62
449.338	93.62
449.559	127.62
449.779	125.62
450	102.62
450.221	101.62
450.442	92.62
450.662	87.62
450.883	92.62
451.104	110.62
451.324	87.62
451.545	95.62
451.766	83.62
451.986	99.62
452.207	78.62
452.428	99.62
452.648	97.62
452.869	96.62
453.089	116.62
453.31	118.62
453.53	94.62
453.751	93.62
453.971	94.62
454.192	86.62
454.412	86.62
454.633	82.62
454.853	81.62
455.073	87.62
455.294	88.62
455.514	83.62
455.734	81.62
455.955	75.62
456.175	87.62
456.395	78.62
456.616	90.62
456.836	86.62
457.056	84.62
457.276	93.62
457.497	93.62
457.717	81.62
457.937	90.62
458.157	79.62
458.377	88.62
458.598	102.62
458.818	154.62
459.038	135.62
459.258	113.62
459.478	91.62
459.698	85.62
459.918	79.62
460.138	67.62
460.358	86.62
460.578	77.62
460.798	72.62
461.018	78.62
461.238	78.62
461.458	76.62
461.678	78.62
461.898	97.62
462.118	92.62
462.338	93.62
462.558	101.62
462.777	88.62
462.997	85.62
463.217	77.62
463.437	77.62
463.657	95.62
463.876	83.62
464.096	87.62
464.316	94.62
464.536	95.62
464.755	89.62
464.975	95.62
465.195	144.62
465.414	140.62
465.634	94.62
465.854	84.62
466.073	92.62
466.293	84.62
466.512	90.62
466.732	88.62
466.951	82.62
467.171	99.62
467.391	100.62
467.61	98.62
467.829	96.62
468.049	90.62
468.268	94.62
468.488	94.62
468.707	79.62
468.927	87.62
469.146	78.62
469.365	89.62
469.585	81.62
469.804	93.62
470.023	85.62
470.243	95.62
470.462	100.62
470.681	108.62
470.901	74.62
471.12	77.62
471.339	95.62
471.558	93.62
471.777	91.62
471.997	90.62
472.216	83.62
472.435	77.62
472.654	89.62
472.873	77.62
473.092	69.62
473.311	69.62
473.53	81.62
473.749	97.62
473.968	106.62
474.187	97.62
474.406	87.62
474.625	91.62
474.844	100.62
475.063	82.62
475.282	86.62
475.501	83.62
475.72	82.62
475.939	80.62
476.158	90.62
476.377	95.62
476.596	84.62
476.814	83.62
477.033	92.62
477.252	96.62
477.471	89.62
477.69	97.62
477.908	73.62
478.127	83.62
478.346	70.62
478.564	94.62
478.783	85.62
479.002	89.62
479.22	95.62
479.439	89.62
479.658	97.62
479.876	84.62
480.095	82.62
480.313	89.62
480.532	101.62
480.751	85.62
480.969	82.62
481.188	103.62
481.406	95.62
481.624	97.62
481.843	79.62
482.061	80.62
482.28	81.62
482.498	98.62
482.717	79.62
482.935	95.62
483.153	83.62
483.372	81.62
483.59	96.62
483.808	82.62
484.027	94.62
484.245	87.62
484.463	103.62
484.681	109.62
484.9	85.62
485.118	91.62
485.336	78.62
485.554	94.62
485.772	116.62
485.99	92.62
486.209	92.62
486.427	116.62
486.645	97.62
486.863	108.62
487.081	110.62
487.299	89.62
487.517	93.62
487.735	101.62
487.953	100.62
488.171	106.62
488.389	102.62
488.607	88.62
488.825	79.62
489.043	92.62
489.261	81.62
489.479	104.62
489.696	84.62
489.914	80.62
490.132	85.62
490.35	88.62
490.568	93.62
490.786	99.62
491.003	89.62
491.221	99.62
491.439	97.62
491.657	86.62
491.874	92.62
492.092	90.62
492.31	92.62
492.527	94.62
492.745	85.62
492.963	97.62
493.18	85.62
493.398	94.62
493.615	88.62
493.833	95.62
494.05	94.62
494.268	108.62
494.485	82.62
494.703	84.62
494.92	95.62
495.138	100.62
495.355	91.62
495.573	76.62
495.79	93.62
496.008	103.62
496.225	89.62
496.442	94.62
496.66	95.62
496.877	107.62
497.094	87.62
497.312	91.62
497.529	92.62
497.746	84.62
497.963	83.62
498.181	91.62
498.398	96.62
498.615	106.62
498.832	94.62
499.049	89.62
499.267	85.62
499.484	83.62
499.701	101.62
499.918	91.62
500.135	87.62
500.352	95.62
500.569	91.62
500.786	98.62
501.003	92.62
501.22	87.62
501.437	89.62
501.654	87.62
501.871	105.62
502.088	79.62
502.305	87.62
502.522	94.62
502.739	86.62
502.956	82.62
503.172	94.62
503.389	89.62
503.606	112.62
503.823	100.62
504.04	75.62
504.256	87.62
504.473	89.62
504.69	96.62
504.907	106.62
505.123	96.62
505.34	98.62
505.557	96.62
505.773	71.62
505.99	93.62
506.207	102.62
506.423	99.62
506.64	82.62
506.856	100.62
507.073	102.62
507.289	89.62
507.506	91.62
507.722	119.62
507.939	109.62
508.155	73.62
508.372	92.62
508.588	100.62
508.805	103.62
509.021	93.62
509.238	98.62
509.454	90.62
509.67	103.62
509.887	100.62
510.103	131.62
510.319	198.62
510.536	667.62
510.752	2144.62
510.968	593.62
511.184	133.62
511.401	100.62
511.617	105.62
511.833	94.62
512.049	97.62
512.265	91.62
512.481	102.62
512.698	86.62
512.914	94.62
513.13	97.62
513.346	91.62
513.562	91.62
513.778	93.62
513.994	97.62
514.21	113.62
514.426	122.62
514.642	124.62
514.858	131.62
515.074	144.62
515.29	384.62
515.506	1239.62
515.721	463.62
515.937	154.62
516.153	109.62
516.369	94.62
