Data from Uncirc_1990_H10_HRD10591_00029.txt Node
Date: Wed Jan 03 11:53:57 EST 2024
User: Yrep
Spectrometer: HR+D1059
Trigger mode: 1
Integration Time (sec): 1.000000E-1
Scans to average: 1
Electric dark correction enabled: true
Nonlinearity correction enabled: false
Boxcar width: 0
XAxis mode: Wavelengths
Number of Pixels in Spectrum: 2048
>>>>>Begin Spectral Data<<<<<
223.165	-12.69
223.4	-12.69
223.635	-12.69
223.869	-19.69
224.104	-14.69
224.338	-32.69
224.573	-15.69
224.808	-1.69
225.042	-2.69
225.277	1.31
225.511	5.31
225.746	-11.69
225.98	5.31
226.215	20.31
226.449	17.31
226.683	16.31
226.918	18.31
227.152	27.31
227.387	28.31
227.621	46.31
227.856	54.31
228.09	46.31
228.324	59.31
228.559	41.31
228.793	64.31
229.027	59.31
229.262	67.31
229.496	74.31
229.73	100.31
229.964	71.31
230.199	78.31
230.433	88.31
230.667	82.31
230.901	94.31
231.136	87.31
231.37	90.31
231.604	93.31
231.838	92.31
232.072	89.31
232.306	78.31
232.541	100.31
232.775	100.31
233.009	81.31
233.243	84.31
233.477	85.31
233.711	90.31
233.945	92.31
234.179	82.31
234.413	85.31
234.647	96.31
234.881	80.31
235.115	92.31
235.349	91.31
235.583	86.31
235.817	83.31
236.051	91.31
236.285	77.31
236.519	75.31
236.753	76.31
236.987	92.31
237.221	78.31
237.455	81.31
237.689	84.31
237.922	82.31
238.156	80.31
238.39	92.31
238.624	76.31
238.858	77.31
239.091	77.31
239.325	76.31
239.559	84.31
239.793	82.31
240.027	81.31
240.26	91.31
240.494	90.31
240.728	81.31
240.961	79.31
241.195	86.31
241.429	92.31
241.662	85.31
241.896	85.31
242.13	81.31
242.363	100.31
242.597	86.31
242.83	82.31
243.064	71.31
243.298	98.31
243.531	86.31
243.765	78.31
243.998	89.31
244.232	97.31
244.465	90.31
244.699	83.31
244.932	88.31
245.166	98.31
245.399	81.31
245.633	78.31
245.866	83.31
246.099	83.31
246.333	80.31
246.566	85.31
246.8	87.31
247.033	68.31
247.266	90.31
247.5	89.31
247.733	89.31
247.966	82.31
248.2	92.31
248.433	77.31
248.666	85.31
248.899	91.31
249.133	83.31
249.366	95.31
249.599	104.31
249.832	98.31
250.066	91.31
250.299	93.31
250.532	86.31
250.765	80.31
250.998	86.31
251.231	76.31
251.465	82.31
251.698	82.31
251.931	73.31
252.164	84.31
252.397	98.31
252.63	94.31
252.863	91.31
253.096	81.31
253.329	82.31
253.562	91.31
253.795	77.31
254.028	76.31
254.261	82.31
254.494	88.31
254.727	91.31
254.96	87.31
255.193	90.31
255.426	81.31
255.659	81.31
255.892	90.31
256.124	96.31
256.357	91.31
256.59	89.31
256.823	90.31
257.056	72.31
257.289	88.31
257.521	85.31
257.754	84.31
257.987	86.31
258.22	79.31
258.452	88.31
258.685	85.31
258.918	86.31
259.151	85.31
259.383	91.31
259.616	94.31
259.849	70.31
260.081	75.31
260.314	97.31
260.547	97.31
260.779	87.31
261.012	96.31
261.244	76.31
261.477	92.31
261.71	85.31
261.942	110.31
262.175	132.31
262.407	114.31
262.64	80.31
262.872	98.31
263.105	75.31
263.337	76.31
263.57	76.31
263.802	105.31
264.035	98.31
264.267	79.31
264.499	91.31
264.732	95.31
264.964	92.31
265.197	88.31
265.429	76.31
265.661	84.31
265.894	74.31
266.126	88.31
266.358	96.31
266.591	91.31
266.823	90.31
267.055	91.31
267.287	85.31
267.52	96.31
267.752	96.31
267.984	91.31
268.216	89.31
268.448	101.31
268.681	92.31
268.913	98.31
269.145	103.31
269.377	94.31
269.609	88.31
269.841	80.31
270.073	105.31
270.306	104.31
270.538	97.31
270.77	87.31
271.002	90.31
271.234	88.31
271.466	102.31
271.698	89.31
271.93	80.31
272.162	90.31
272.394	86.31
272.626	83.31
272.858	91.31
273.09	92.31
273.322	101.31
273.553	74.31
273.785	89.31
274.017	83.31
274.249	96.31
274.481	93.31
274.713	92.31
274.945	83.31
275.176	98.31
275.408	81.31
275.64	84.31
275.872	94.31
276.104	91.31
276.335	102.31
276.567	113.31
276.799	108.31
277.031	102.31
277.262	94.31
277.494	106.31
277.726	97.31
277.957	83.31
278.189	86.31
278.421	93.31
278.652	98.31
278.884	84.31
279.115	103.31
279.347	85.31
279.579	76.31
279.81	86.31
280.042	82.31
280.273	86.31
280.505	92.31
280.736	85.31
280.968	90.31
281.199	102.31
281.431	98.31
281.662	101.31
281.894	99.31
282.125	97.31
282.356	131.31
282.588	140.31
282.819	112.31
283.051	84.31
283.282	82.31
283.513	108.31
283.745	95.31
283.976	88.31
284.207	89.31
284.439	72.31
284.67	80.31
284.901	93.31
285.132	86.31
285.364	97.31
285.595	92.31
285.826	101.31
286.057	99.31
286.288	89.31
286.52	76.31
286.751	89.31
286.982	103.31
287.213	89.31
287.444	95.31
287.675	97.31
287.906	109.31
288.138	89.31
288.369	112.31
288.6	101.31
288.831	102.31
289.062	92.31
289.293	106.31
289.524	96.31
289.755	97.31
289.986	96.31
290.217	99.31
290.448	105.31
290.679	108.31
290.91	94.31
291.141	96.31
291.371	90.31
291.602	91.31
291.833	102.31
292.064	88.31
292.295	96.31
292.526	102.31
292.757	88.31
292.987	90.31
293.218	93.31
293.449	94.31
293.68	90.31
293.91	99.31
294.141	80.31
294.372	88.31
294.603	100.31
294.833	98.31
295.064	95.31
295.295	93.31
295.525	87.31
295.756	105.31
295.987	112.31
296.217	136.31
296.448	123.31
296.679	98.31
296.909	107.31
297.14	91.31
297.37	98.31
297.601	93.31
297.831	81.31
298.062	102.31
298.292	97.31
298.523	107.31
298.753	97.31
298.984	101.31
299.214	99.31
299.445	92.31
299.675	97.31
299.905	86.31
300.136	99.31
300.366	96.31
300.597	90.31
300.827	96.31
301.057	105.31
301.288	101.31
301.518	91.31
301.748	100.31
301.979	102.31
302.209	96.31
302.439	89.31
302.669	104.31
302.9	115.31
303.13	75.31
303.36	98.31
303.59	90.31
303.82	109.31
304.051	93.31
304.281	94.31
304.511	92.31
304.741	100.31
304.971	83.31
305.201	87.31
305.431	103.31
305.661	89.31
305.891	101.31
306.121	93.31
306.352	99.31
306.582	110.31
306.812	97.31
307.042	115.31
307.272	96.31
307.502	85.31
307.731	94.31
307.961	100.31
308.191	96.31
308.421	99.31
308.651	106.31
308.881	103.31
309.111	95.31
309.341	98.31
309.571	106.31
309.8	98.31
310.03	101.31
310.26	94.31
310.49	94.31
310.72	93.31
310.949	105.31
311.179	108.31
311.409	99.31
311.639	104.31
311.868	103.31
312.098	81.31
312.328	90.31
312.557	108.31
312.787	99.31
313.017	108.31
313.246	92.31
313.476	102.31
313.706	88.31
313.935	99.31
314.165	102.31
314.394	101.31
314.624	101.31
314.853	105.31
315.083	96.31
315.312	101.31
315.542	99.31
315.771	83.31
316.001	101.31
316.23	99.31
316.46	102.31
316.689	104.31
316.919	109.31
317.148	99.31
317.377	85.31
317.607	88.31
317.836	94.31
318.065	104.31
318.295	91.31
318.524	103.31
318.753	94.31
318.983	100.31
319.212	89.31
319.441	115.31
319.67	105.31
319.9	100.31
320.129	82.31
320.358	99.31
320.587	86.31
320.816	104.31
321.046	114.31
321.275	92.31
321.504	107.31
321.733	101.31
321.962	118.31
322.191	105.31
322.42	123.31
322.649	122.31
322.878	114.31
323.108	134.31
323.337	136.31
323.566	145.31
323.795	144.31
324.024	204.31
324.253	372.31
324.482	775.31
324.71	1580.31
324.939	2170.31
325.168	806.31
325.397	242.31
325.626	151.31
325.855	133.31
326.084	131.31
326.313	139.31
326.542	158.31
326.77	208.31
326.999	428.31
327.228	915.31
327.457	1650.31
327.686	1289.31
327.914	352.31
328.143	186.31
328.372	149.31
328.6	110.31
328.829	108.31
329.058	128.31
329.287	136.31
329.515	113.31
329.744	108.31
329.972	94.31
330.201	100.31
330.43	123.31
330.658	125.31
330.887	158.31
331.115	124.31
331.344	109.31
331.572	114.31
331.801	104.31
332.03	120.31
332.258	123.31
332.486	102.31
332.715	94.31
332.943	89.31
333.172	85.31
333.4	124.31
333.629	119.31
333.857	113.31
334.085	107.31
334.314	107.31
334.542	99.31
334.771	126.31
334.999	105.31
335.227	108.31
335.455	107.31
335.684	108.31
335.912	92.31
336.14	105.31
336.369	101.31
336.597	103.31
336.825	97.31
337.053	108.31
337.281	101.31
337.51	91.31
337.738	96.31
337.966	96.31
338.194	93.31
338.422	107.31
338.65	99.31
338.878	118.31
339.106	94.31
339.334	100.31
339.562	89.31
339.79	101.31
340.018	89.31
340.246	97.31
340.474	112.31
340.702	107.31
340.93	97.31
341.158	82.31
341.386	112.31
341.614	87.31
341.842	100.31
342.07	93.31
342.298	101.31
342.526	90.31
342.754	98.31
342.981	107.31
343.209	99.31
343.437	107.31
343.665	92.31
343.893	97.31
344.12	92.31
344.348	103.31
344.576	98.31
344.804	97.31
345.031	100.31
345.259	118.31
345.487	106.31
345.714	102.31
345.942	100.31
346.17	93.31
346.397	99.31
346.625	99.31
346.853	91.31
347.08	92.31
347.308	113.31
347.535	106.31
347.763	94.31
347.99	101.31
348.218	92.31
348.445	105.31
348.673	109.31
348.9	105.31
349.128	99.31
349.355	105.31
349.583	102.31
349.81	93.31
350.037	106.31
350.265	107.31
350.492	99.31
350.72	100.31
350.947	112.31
351.174	120.31
351.402	108.31
351.629	108.31
351.856	112.31
352.083	83.31
352.311	105.31
352.538	119.31
352.765	123.31
352.992	118.31
353.22	118.31
353.447	109.31
353.674	109.31
353.901	92.31
354.128	94.31
354.355	106.31
354.583	107.31
354.81	110.31
355.037	103.31
355.264	101.31
355.491	113.31
355.718	96.31
355.945	101.31
356.172	104.31
356.399	117.31
356.626	107.31
356.853	104.31
357.08	102.31
357.307	105.31
357.534	86.31
357.761	102.31
357.988	95.31
358.215	98.31
358.441	95.31
358.668	100.31
358.895	96.31
359.122	92.31
359.349	88.31
359.576	92.31
359.802	112.31
360.029	106.31
360.256	108.31
360.483	99.31
360.709	76.31
360.936	101.31
361.163	89.31
361.39	96.31
361.616	101.31
361.843	94.31
362.07	88.31
362.296	101.31
362.523	105.31
362.749	109.31
362.976	106.31
363.203	96.31
363.429	96.31
363.656	89.31
363.882	84.31
364.109	101.31
364.335	102.31
364.562	99.31
364.788	87.31
365.015	101.31
365.241	100.31
365.468	101.31
365.694	105.31
365.92	102.31
366.147	107.31
366.373	99.31
366.599	108.31
366.826	107.31
367.052	102.31
367.278	91.31
367.505	97.31
367.731	97.31
367.957	100.31
368.184	85.31
368.41	105.31
368.636	104.31
368.862	132.31
369.089	111.31
369.315	93.31
369.541	104.31
369.767	97.31
369.993	105.31
370.219	101.31
370.445	98.31
370.672	90.31
370.898	96.31
371.124	98.31
371.35	96.31
371.576	91.31
371.802	90.31
372.028	86.31
372.254	88.31
372.48	115.31
372.706	100.31
372.932	91.31
373.158	91.31
373.384	107.31
373.61	97.31
373.835	84.31
374.061	102.31
374.287	99.31
374.513	104.31
374.739	93.31
374.965	98.31
375.191	100.31
375.416	94.31
375.642	104.31
375.868	91.31
376.094	98.31
376.319	88.31
376.545	98.31
376.771	81.31
376.997	92.31
377.222	117.31
377.448	94.31
377.674	102.31
377.899	99.31
378.125	91.31
378.35	89.31
378.576	106.31
378.802	97.31
379.027	91.31
379.253	108.31
379.478	91.31
379.704	101.31
379.929	97.31
380.155	91.31
380.38	106.31
380.606	103.31
380.831	89.31
381.057	100.31
381.282	99.31
381.507	103.31
381.733	107.31
381.958	105.31
382.184	88.31
382.409	96.31
382.634	110.31
382.86	97.31
383.085	107.31
383.31	104.31
383.535	89.31
383.761	105.31
383.986	90.31
384.211	114.31
384.436	102.31
384.662	101.31
384.887	109.31
385.112	97.31
385.337	105.31
385.562	98.31
385.787	100.31
386.013	97.31
386.238	120.31
386.463	118.31
386.688	122.31
386.913	107.31
387.138	108.31
387.363	116.31
387.588	105.31
387.813	107.31
388.038	107.31
388.263	85.31
388.488	121.31
388.713	102.31
388.938	102.31
389.163	99.31
389.387	91.31
389.612	96.31
389.837	99.31
390.062	104.31
390.287	100.31
390.512	96.31
390.736	100.31
390.961	105.31
391.186	108.31
391.411	88.31
391.636	90.31
391.86	104.31
392.085	96.31
392.31	82.31
392.534	94.31
392.759	81.31
392.984	87.31
393.208	94.31
393.433	100.31
393.658	92.31
393.882	81.31
394.107	108.31
394.331	113.31
394.556	94.31
394.78	98.31
395.005	105.31
395.229	88.31
395.454	97.31
395.678	84.31
395.903	83.31
396.127	93.31
396.352	72.31
396.576	92.31
396.801	88.31
397.025	103.31
397.249	95.31
397.474	101.31
397.698	96.31
397.922	94.31
398.147	89.31
398.371	101.31
398.595	97.31
398.82	94.31
399.044	94.31
399.268	87.31
399.492	98.31
399.717	104.31
399.941	102.31
400.165	100.31
400.389	104.31
400.613	88.31
400.837	91.31
401.062	98.31
401.286	88.31
401.51	97.31
401.734	100.31
401.958	106.31
402.182	119.31
402.406	153.31
402.63	120.31
402.854	92.31
403.078	92.31
403.302	88.31
403.526	99.31
403.75	97.31
403.974	93.31
404.198	93.31
404.422	92.31
404.645	90.31
404.869	92.31
405.093	86.31
405.317	95.31
405.541	92.31
405.765	86.31
405.988	109.31
406.212	150.31
406.436	207.31
406.66	139.31
406.883	122.31
407.107	89.31
407.331	100.31
407.555	114.31
407.778	96.31
408.002	100.31
408.226	98.31
408.449	97.31
408.673	99.31
408.896	101.31
409.12	107.31
409.344	103.31
409.567	81.31
409.791	89.31
410.014	99.31
410.238	100.31
410.461	91.31
410.685	110.31
410.908	106.31
411.132	129.31
411.355	99.31
411.578	114.31
411.802	103.31
412.025	100.31
412.249	94.31
412.472	90.31
412.695	103.31
412.919	90.31
413.142	92.31
413.365	89.31
413.589	89.31
413.812	81.31
414.035	94.31
414.258	97.31
414.482	89.31
414.705	95.31
414.928	94.31
415.151	92.31
415.374	93.31
415.597	102.31
415.821	92.31
416.044	98.31
416.267	101.31
416.49	89.31
416.713	90.31
416.936	96.31
417.159	96.31
417.382	87.31
417.605	77.31
417.828	95.31
418.051	93.31
418.274	109.31
418.497	105.31
418.72	90.31
418.943	99.31
419.166	92.31
419.389	102.31
419.611	98.31
419.834	92.31
420.057	102.31
420.28	92.31
420.503	88.31
420.726	98.31
420.948	91.31
421.171	102.31
421.394	88.31
421.617	96.31
421.839	97.31
422.062	100.31
422.285	99.31
422.507	101.31
422.73	115.31
422.953	99.31
423.175	100.31
423.398	94.31
423.621	93.31
423.843	85.31
424.066	88.31
424.288	92.31
424.511	100.31
424.733	95.31
424.956	109.31
425.178	110.31
425.401	110.31
425.623	106.31
425.846	83.31
426.068	99.31
426.291	98.31
426.513	83.31
426.735	94.31
426.958	94.31
427.18	113.31
427.402	148.31
427.625	168.31
427.847	131.31
428.069	107.31
428.292	93.31
428.514	93.31
428.736	85.31
428.958	97.31
429.181	95.31
429.403	89.31
429.625	109.31
429.847	93.31
430.069	102.31
430.292	97.31
430.514	88.31
430.736	98.31
430.958	84.31
431.18	96.31
431.402	80.31
431.624	80.31
431.846	99.31
432.068	93.31
432.29	100.31
432.512	95.31
432.734	97.31
432.956	96.31
433.178	94.31
433.4	106.31
433.622	99.31
433.844	97.31
434.066	92.31
434.287	85.31
434.509	88.31
434.731	98.31
434.953	92.31
435.175	92.31
435.397	85.31
435.618	96.31
435.84	104.31
436.062	125.31
436.284	116.31
436.505	93.31
436.727	99.31
436.949	93.31
437.17	102.31
437.392	94.31
437.614	106.31
437.835	102.31
438.057	131.31
438.278	121.31
438.5	97.31
438.721	126.31
438.943	106.31
439.165	105.31
439.386	96.31
439.608	99.31
439.829	99.31
440.05	123.31
440.272	136.31
440.493	108.31
440.715	82.31
440.936	90.31
441.158	91.31
441.379	78.31
441.6	104.31
441.822	87.31
442.043	76.31
442.264	103.31
442.486	102.31
442.707	91.31
442.928	102.31
443.149	136.31
443.371	132.31
443.592	117.31
443.813	129.31
444.034	110.31
444.255	98.31
444.476	98.31
444.698	89.31
444.919	100.31
445.14	145.31
445.361	121.31
445.582	118.31
445.803	140.31
446.024	134.31
446.245	134.31
446.466	121.31
446.687	94.31
446.908	96.31
447.129	103.31
447.35	106.31
447.571	95.31
447.792	97.31
448.013	109.31
448.234	115.31
448.455	97.31
448.675	115.31
448.896	135.31
449.117	99.31
449.338	115.31
449.559	141.31
449.779	135.31
450	92.31
450.221	88.31
450.442	101.31
450.662	101.31
450.883	118.31
451.104	124.31
451.324	113.31
451.545	91.31
451.766	89.31
451.986	84.31
452.207	108.31
452.428	102.31
452.648	102.31
452.869	104.31
453.089	121.31
453.31	119.31
453.53	90.31
453.751	100.31
453.971	112.31
454.192	93.31
454.412	86.31
454.633	84.31
454.853	94.31
455.073	90.31
455.294	80.31
455.514	92.31
455.734	90.31
455.955	101.31
456.175	93.31
456.395	78.31
456.616	90.31
456.836	94.31
457.056	100.31
457.276	92.31
457.497	90.31
457.717	93.31
457.937	81.31
458.157	73.31
458.377	101.31
458.598	125.31
458.818	148.31
459.038	166.31
459.258	121.31
459.478	98.31
459.698	94.31
459.918	90.31
460.138	107.31
460.358	87.31
460.578	94.31
460.798	92.31
461.018	102.31
461.238	96.31
461.458	89.31
461.678	98.31
461.898	107.31
462.118	83.31
462.338	93.31
462.558	93.31
462.777	103.31
462.997	98.31
463.217	88.31
463.437	86.31
463.657	86.31
463.876	89.31
464.096	90.31
464.316	100.31
464.536	92.31
464.755	94.31
464.975	117.31
465.195	173.31
465.414	148.31
465.634	95.31
465.854	101.31
466.073	103.31
466.293	90.31
466.512	87.31
466.732	92.31
466.951	95.31
467.171	99.31
467.391	84.31
467.61	108.31
467.829	116.31
468.049	105.31
468.268	89.31
468.488	102.31
468.707	100.31
468.927	101.31
469.146	92.31
469.365	82.31
469.585	96.31
469.804	101.31
470.023	98.31
470.243	107.31
470.462	118.31
470.681	108.31
470.901	94.31
471.12	83.31
471.339	90.31
471.558	89.31
471.777	85.31
471.997	89.31
472.216	101.31
472.435	96.31
472.654	103.31
472.873	110.31
473.092	85.31
473.311	103.31
473.53	87.31
473.749	83.31
473.968	95.31
474.187	106.31
474.406	98.31
474.625	106.31
474.844	94.31
475.063	99.31
475.282	85.31
475.501	79.31
475.72	88.31
475.939	77.31
476.158	99.31
476.377	86.31
476.596	97.31
476.814	102.31
477.033	107.31
477.252	107.31
477.471	105.31
477.69	89.31
477.908	98.31
478.127	96.31
478.346	98.31
478.564	119.31
478.783	100.31
479.002	91.31
479.22	83.31
479.439	101.31
479.658	99.31
479.876	102.31
480.095	94.31
480.313	108.31
480.532	94.31
480.751	86.31
480.969	90.31
481.188	92.31
481.406	87.31
481.624	102.31
481.843	87.31
482.061	96.31
482.28	100.31
482.498	94.31
482.717	90.31
482.935	101.31
483.153	104.31
483.372	100.31
483.59	90.31
483.808	103.31
484.027	106.31
484.245	99.31
484.463	105.31
484.681	100.31
484.9	104.31
485.118	97.31
485.336	106.31
485.554	96.31
485.772	95.31
485.99	106.31
486.209	106.31
486.427	100.31
486.645	115.31
486.863	128.31
487.081	105.31
487.299	95.31
487.517	89.31
487.735	115.31
487.953	93.31
488.171	93.31
488.389	98.31
488.607	107.31
488.825	95.31
489.043	107.31
489.261	103.31
489.479	87.31
489.696	108.31
489.914	80.31
490.132	91.31
490.35	105.31
490.568	101.31
490.786	90.31
491.003	98.31
491.221	103.31
491.439	103.31
491.657	90.31
491.874	99.31
492.092	108.31
492.31	88.31
492.527	86.31
492.745	83.31
492.963	86.31
493.18	91.31
493.398	100.31
493.615	87.31
493.833	101.31
494.05	100.31
494.268	103.31
494.485	102.31
494.703	104.31
494.92	92.31
495.138	100.31
495.355	87.31
495.573	96.31
495.79	97.31
496.008	106.31
496.225	93.31
496.442	94.31
496.66	93.31
496.877	75.31
497.094	97.31
497.312	92.31
497.529	102.31
497.746	101.31
497.963	93.31
498.181	96.31
498.398	102.31
498.615	100.31
498.832	113.31
499.049	93.31
499.267	91.31
499.484	80.31
499.701	89.31
499.918	110.31
500.135	90.31
500.352	99.31
500.569	97.31
500.786	97.31
501.003	97.31
501.22	112.31
501.437	96.31
501.654	100.31
501.871	105.31
502.088	94.31
502.305	102.31
502.522	88.31
502.739	88.31
502.956	95.31
503.172	100.31
503.389	101.31
503.606	110.31
503.823	107.31
504.04	93.31
504.256	98.31
504.473	93.31
504.69	98.31
504.907	89.31
505.123	93.31
505.34	102.31
505.557	101.31
505.773	91.31
505.99	105.31
506.207	89.31
506.423	110.31
506.64	80.31
506.856	83.31
507.073	98.31
507.289	102.31
507.506	97.31
507.722	106.31
507.939	110.31
508.155	105.31
508.372	100.31
508.588	101.31
508.805	94.31
509.021	102.31
509.238	112.31
509.454	109.31
509.67	93.31
509.887	107.31
510.103	128.31
510.319	205.31
510.536	732.31
510.752	2272.31
510.968	617.31
511.184	150.31
511.401	99.31
511.617	98.31
511.833	94.31
512.049	93.31
512.265	89.31
512.481	97.31
512.698	105.31
