Data from Uncirc_1990_H10_HRD10591_00011.txt Node
Date: Wed Jan 03 11:53:53 EST 2024
User: Yrep
Spectrometer: HR+D1059
Trigger mode: 1
Integration Time (sec): 1.000000E-1
Scans to average: 1
Electric dark correction enabled: true
Nonlinearity correction enabled: false
Boxcar width: 0
XAxis mode: Wavelengths
Number of Pixels in Spectrum: 2048
>>>>>Begin Spectral Data<<<<<
223.165	-7.44
223.4	-7.44
223.635	-7.44
223.869	-12.44
224.104	-3.44
224.338	-15.44
224.573	-20.44
224.808	-11.44
225.042	-4.44
225.277	-14.44
225.511	16.56
225.746	-8.44
225.98	3.56
226.215	-2.44
226.449	11.56
226.683	15.56
226.918	26.56
227.152	26.56
227.387	33.56
227.621	38.56
227.856	47.56
228.09	48.56
228.324	37.56
228.559	56.56
228.793	62.56
229.027	68.56
229.262	68.56
229.496	67.56
229.73	79.56
229.964	87.56
230.199	84.56
230.433	68.56
230.667	78.56
230.901	70.56
231.136	79.56
231.37	62.56
231.604	70.56
231.838	87.56
232.072	73.56
232.306	83.56
232.541	58.56
232.775	73.56
233.009	66.56
233.243	90.56
233.477	85.56
233.711	76.56
233.945	81.56
234.179	74.56
234.413	65.56
234.647	62.56
234.881	84.56
235.115	87.56
235.349	81.56
235.583	82.56
235.817	81.56
236.051	82.56
236.285	60.56
236.519	75.56
236.753	91.56
236.987	71.56
237.221	81.56
237.455	88.56
237.689	79.56
237.922	85.56
238.156	68.56
238.39	76.56
238.624	70.56
238.858	98.56
239.091	73.56
239.325	76.56
239.559	65.56
239.793	85.56
240.027	84.56
240.26	61.56
240.494	68.56
240.728	63.56
240.961	77.56
241.195	79.56
241.429	73.56
241.662	59.56
241.896	75.56
242.13	70.56
242.363	81.56
242.597	71.56
242.83	65.56
243.064	65.56
243.298	85.56
243.531	77.56
243.765	84.56
243.998	62.56
244.232	82.56
244.465	75.56
244.699	70.56
244.932	77.56
245.166	71.56
245.399	84.56
245.633	88.56
245.866	80.56
246.099	64.56
246.333	89.56
246.566	77.56
246.8	71.56
247.033	84.56
247.266	76.56
247.5	76.56
247.733	71.56
247.966	81.56
248.2	87.56
248.433	83.56
248.666	68.56
248.899	86.56
249.133	78.56
249.366	114.56
249.599	94.56
249.832	87.56
250.066	96.56
250.299	82.56
250.532	85.56
250.765	78.56
250.998	80.56
251.231	80.56
251.465	82.56
251.698	92.56
251.931	86.56
252.164	85.56
252.397	81.56
252.63	68.56
252.863	79.56
253.096	69.56
253.329	81.56
253.562	79.56
253.795	77.56
254.028	78.56
254.261	74.56
254.494	87.56
254.727	70.56
254.96	69.56
255.193	81.56
255.426	84.56
255.659	87.56
255.892	80.56
256.124	70.56
256.357	81.56
256.59	76.56
256.823	81.56
257.056	76.56
257.289	93.56
257.521	90.56
257.754	86.56
257.987	82.56
258.22	87.56
258.452	81.56
258.685	78.56
258.918	74.56
259.151	79.56
259.383	86.56
259.616	77.56
259.849	87.56
260.081	81.56
260.314	85.56
260.547	90.56
260.779	83.56
261.012	80.56
261.244	85.56
261.477	77.56
261.71	82.56
261.942	103.56
262.175	102.56
262.407	97.56
262.64	86.56
262.872	84.56
263.105	87.56
263.337	73.56
263.57	85.56
263.802	90.56
264.035	79.56
264.267	88.56
264.499	88.56
264.732	85.56
264.964	80.56
265.197	75.56
265.429	68.56
265.661	89.56
265.894	89.56
266.126	96.56
266.358	88.56
266.591	85.56
266.823	83.56
267.055	70.56
267.287	79.56
267.52	68.56
267.752	100.56
267.984	75.56
268.216	69.56
268.448	77.56
268.681	79.56
268.913	81.56
269.145	88.56
269.377	74.56
269.609	85.56
269.841	85.56
270.073	85.56
270.306	89.56
270.538	91.56
270.77	73.56
271.002	77.56
271.234	65.56
271.466	95.56
271.698	97.56
271.93	73.56
272.162	85.56
272.394	76.56
272.626	81.56
272.858	93.56
273.09	79.56
273.322	85.56
273.553	89.56
273.785	86.56
274.017	86.56
274.249	80.56
274.481	92.56
274.713	74.56
274.945	79.56
275.176	81.56
275.408	75.56
275.64	74.56
275.872	86.56
276.104	90.56
276.335	94.56
276.567	89.56
276.799	89.56
277.031	87.56
277.262	85.56
277.494	91.56
277.726	75.56
277.957	71.56
278.189	93.56
278.421	76.56
278.652	67.56
278.884	82.56
279.115	86.56
279.347	74.56
279.579	75.56
279.81	90.56
280.042	77.56
280.273	90.56
280.505	90.56
280.736	86.56
280.968	73.56
281.199	87.56
281.431	107.56
281.662	71.56
281.894	97.56
282.125	92.56
282.356	94.56
282.588	116.56
282.819	107.56
283.051	73.56
283.282	88.56
283.513	73.56
283.745	82.56
283.976	89.56
284.207	98.56
284.439	86.56
284.67	85.56
284.901	95.56
285.132	81.56
285.364	63.56
285.595	90.56
285.826	88.56
286.057	83.56
286.288	89.56
286.52	85.56
286.751	75.56
286.982	81.56
287.213	85.56
287.444	86.56
287.675	87.56
287.906	92.56
288.138	87.56
288.369	99.56
288.6	89.56
288.831	99.56
289.062	89.56
289.293	76.56
289.524	90.56
289.755	89.56
289.986	85.56
290.217	90.56
290.448	96.56
290.679	93.56
290.91	80.56
291.141	89.56
291.371	79.56
291.602	82.56
291.833	88.56
292.064	81.56
292.295	92.56
292.526	85.56
292.757	91.56
292.987	88.56
293.218	84.56
293.449	85.56
293.68	90.56
293.91	88.56
294.141	92.56
294.372	80.56
294.603	92.56
294.833	91.56
295.064	97.56
295.295	86.56
295.525	89.56
295.756	101.56
295.987	116.56
296.217	114.56
296.448	120.56
296.679	98.56
296.909	87.56
297.14	92.56
297.37	97.56
297.601	87.56
297.831	90.56
298.062	97.56
298.292	94.56
298.523	79.56
298.753	87.56
298.984	75.56
299.214	88.56
299.445	99.56
299.675	87.56
299.905	89.56
300.136	87.56
300.366	86.56
300.597	101.56
300.827	89.56
301.057	98.56
301.288	89.56
301.518	95.56
301.748	83.56
301.979	111.56
302.209	82.56
302.439	87.56
302.669	82.56
302.9	77.56
303.13	91.56
303.36	78.56
303.59	85.56
303.82	102.56
304.051	87.56
304.281	87.56
304.511	103.56
304.741	84.56
304.971	87.56
305.201	102.56
305.431	109.56
305.661	90.56
305.891	84.56
306.121	93.56
306.352	94.56
306.582	104.56
306.812	85.56
307.042	87.56
307.272	98.56
307.502	92.56
307.731	94.56
307.961	93.56
308.191	93.56
308.421	98.56
308.651	81.56
308.881	94.56
309.111	93.56
309.341	98.56
309.571	90.56
309.8	85.56
310.03	84.56
310.26	93.56
310.49	85.56
310.72	102.56
310.949	86.56
311.179	95.56
311.409	81.56
311.639	98.56
311.868	89.56
312.098	95.56
312.328	95.56
312.557	92.56
312.787	91.56
313.017	98.56
313.246	93.56
313.476	103.56
313.706	100.56
313.935	101.56
314.165	92.56
314.394	105.56
314.624	94.56
314.853	100.56
315.083	90.56
315.312	97.56
315.542	89.56
315.771	92.56
316.001	76.56
316.23	83.56
316.46	83.56
316.689	88.56
316.919	92.56
317.148	101.56
317.377	86.56
317.607	90.56
317.836	85.56
318.065	84.56
318.295	80.56
318.524	85.56
318.753	98.56
318.983	101.56
319.212	105.56
319.441	104.56
319.67	98.56
319.9	108.56
320.129	99.56
320.358	93.56
320.587	101.56
320.816	96.56
321.046	94.56
321.275	94.56
321.504	99.56
321.733	89.56
321.962	95.56
322.191	98.56
322.42	103.56
322.649	106.56
322.878	109.56
323.108	118.56
323.337	112.56
323.566	118.56
323.795	136.56
324.024	186.56
324.253	355.56
324.482	723.56
324.71	1465.56
324.939	1954.56
325.168	711.56
325.397	219.56
325.626	129.56
325.855	108.56
326.084	113.56
326.313	134.56
326.542	134.56
326.77	202.56
326.999	424.56
327.228	841.56
327.457	1557.56
327.686	1239.56
327.914	324.56
328.143	159.56
328.372	129.56
328.6	119.56
328.829	111.56
329.058	109.56
329.287	116.56
329.515	100.56
329.744	94.56
329.972	79.56
330.201	88.56
330.43	94.56
330.658	109.56
330.887	122.56
331.115	102.56
331.344	93.56
331.572	93.56
331.801	94.56
332.03	94.56
332.258	88.56
332.486	87.56
332.715	89.56
332.943	89.56
333.172	95.56
333.4	88.56
333.629	75.56
333.857	114.56
334.085	98.56
334.314	94.56
334.542	98.56
334.771	106.56
334.999	93.56
335.227	95.56
335.455	87.56
335.684	105.56
335.912	90.56
336.14	90.56
336.369	92.56
336.597	98.56
336.825	100.56
337.053	97.56
337.281	88.56
337.51	69.56
337.738	100.56
337.966	76.56
338.194	85.56
338.422	89.56
338.65	90.56
338.878	93.56
339.106	84.56
339.334	99.56
339.562	87.56
339.79	93.56
340.018	87.56
340.246	92.56
340.474	76.56
340.702	87.56
340.93	82.56
341.158	92.56
341.386	92.56
341.614	85.56
341.842	99.56
342.07	79.56
342.298	99.56
342.526	89.56
342.754	95.56
342.981	91.56
343.209	81.56
343.437	88.56
343.665	88.56
343.893	84.56
344.12	76.56
344.348	87.56
344.576	81.56
344.804	93.56
345.031	89.56
345.259	88.56
345.487	110.56
345.714	78.56
345.942	86.56
346.17	88.56
346.397	94.56
346.625	92.56
346.853	93.56
347.08	93.56
347.308	101.56
347.535	94.56
347.763	73.56
347.99	98.56
348.218	93.56
348.445	103.56
348.673	75.56
348.9	98.56
349.128	93.56
349.355	87.56
349.583	98.56
349.81	90.56
350.037	106.56
350.265	93.56
350.492	93.56
350.72	98.56
350.947	98.56
351.174	101.56
351.402	100.56
351.629	111.56
351.856	100.56
352.083	91.56
352.311	96.56
352.538	104.56
352.765	107.56
352.992	102.56
353.22	107.56
353.447	113.56
353.674	103.56
353.901	93.56
354.128	92.56
354.355	100.56
354.583	102.56
354.81	93.56
355.037	104.56
355.264	89.56
355.491	81.56
355.718	78.56
355.945	94.56
356.172	99.56
356.399	102.56
356.626	103.56
356.853	93.56
357.08	90.56
357.307	97.56
357.534	100.56
357.761	88.56
357.988	90.56
358.215	85.56
358.441	108.56
358.668	81.56
358.895	92.56
359.122	101.56
359.349	70.56
359.576	92.56
359.802	84.56
360.029	104.56
360.256	101.56
360.483	85.56
360.709	95.56
360.936	89.56
361.163	88.56
361.39	81.56
361.616	101.56
361.843	78.56
362.07	93.56
362.296	83.56
362.523	84.56
362.749	94.56
362.976	97.56
363.203	94.56
363.429	89.56
363.656	85.56
363.882	92.56
364.109	102.56
364.335	92.56
364.562	82.56
364.788	79.56
365.015	98.56
365.241	98.56
365.468	102.56
365.694	98.56
365.92	90.56
366.147	110.56
366.373	82.56
366.599	91.56
366.826	94.56
367.052	99.56
367.278	95.56
367.505	84.56
367.731	72.56
367.957	80.56
368.184	85.56
368.41	92.56
368.636	116.56
368.862	118.56
369.089	105.56
369.315	95.56
369.541	99.56
369.767	97.56
369.993	83.56
370.219	88.56
370.445	106.56
370.672	95.56
370.898	100.56
371.124	93.56
371.35	79.56
371.576	97.56
371.802	93.56
372.028	94.56
372.254	86.56
372.48	89.56
372.706	102.56
372.932	94.56
373.158	92.56
373.384	86.56
373.61	73.56
373.835	87.56
374.061	70.56
374.287	89.56
374.513	84.56
374.739	90.56
374.965	97.56
375.191	81.56
375.416	82.56
375.642	98.56
375.868	80.56
376.094	89.56
376.319	80.56
376.545	91.56
376.771	85.56
376.997	73.56
377.222	77.56
377.448	98.56
377.674	77.56
377.899	87.56
378.125	90.56
378.35	93.56
378.576	96.56
378.802	91.56
379.027	81.56
379.253	95.56
379.478	87.56
379.704	101.56
379.929	88.56
380.155	103.56
380.38	82.56
380.606	94.56
380.831	90.56
381.057	85.56
381.282	93.56
381.507	93.56
381.733	96.56
381.958	104.56
382.184	106.56
382.409	102.56
382.634	115.56
382.86	96.56
383.085	97.56
383.31	94.56
383.535	97.56
383.761	96.56
383.986	100.56
384.211	94.56
384.436	102.56
384.662	97.56
384.887	100.56
385.112	101.56
385.337	99.56
385.562	110.56
385.787	103.56
386.013	102.56
386.238	106.56
386.463	96.56
386.688	95.56
386.913	96.56
387.138	97.56
387.363	96.56
387.588	102.56
387.813	99.56
388.038	101.56
388.263	121.56
388.488	103.56
388.713	96.56
388.938	97.56
389.163	94.56
389.387	89.56
389.612	81.56
389.837	98.56
390.062	89.56
390.287	87.56
390.512	97.56
390.736	95.56
390.961	96.56
391.186	90.56
391.411	87.56
391.636	85.56
391.86	79.56
392.085	90.56
392.31	96.56
392.534	84.56
392.759	95.56
392.984	91.56
393.208	95.56
393.433	86.56
393.658	90.56
393.882	96.56
394.107	70.56
394.331	86.56
394.556	90.56
394.78	69.56
395.005	97.56
395.229	82.56
395.454	88.56
395.678	83.56
395.903	94.56
396.127	90.56
396.352	83.56
396.576	75.56
396.801	84.56
397.025	100.56
397.249	79.56
397.474	77.56
397.698	97.56
397.922	85.56
398.147	89.56
398.371	83.56
398.595	86.56
398.82	91.56
399.044	86.56
399.268	83.56
399.492	76.56
399.717	91.56
399.941	87.56
400.165	89.56
400.389	93.56
400.613	95.56
400.837	105.56
401.062	107.56
401.286	79.56
401.51	90.56
401.734	86.56
401.958	91.56
402.182	118.56
402.406	151.56
402.63	108.56
402.854	95.56
403.078	92.56
403.302	93.56
403.526	95.56
403.75	97.56
403.974	91.56
404.198	86.56
404.422	72.56
404.645	95.56
404.869	97.56
405.093	92.56
405.317	96.56
405.541	88.56
405.765	79.56
405.988	98.56
406.212	157.56
406.436	185.56
406.66	142.56
406.883	108.56
407.107	92.56
407.331	89.56
407.555	98.56
407.778	92.56
408.002	99.56
408.226	96.56
408.449	76.56
408.673	90.56
408.896	91.56
409.12	97.56
409.344	87.56
409.567	86.56
409.791	90.56
410.014	97.56
410.238	86.56
410.461	99.56
410.685	98.56
410.908	91.56
411.132	99.56
411.355	100.56
411.578	100.56
411.802	85.56
412.025	91.56
412.249	84.56
412.472	86.56
412.695	89.56
412.919	87.56
413.142	91.56
413.365	97.56
413.589	106.56
413.812	77.56
414.035	99.56
414.258	93.56
414.482	83.56
414.705	77.56
414.928	95.56
415.151	75.56
415.374	89.56
415.597	82.56
415.821	72.56
416.044	91.56
416.267	85.56
416.49	83.56
416.713	93.56
416.936	96.56
417.159	95.56
417.382	79.56
417.605	81.56
417.828	90.56
418.051	94.56
418.274	85.56
418.497	86.56
418.72	80.56
418.943	87.56
419.166	92.56
419.389	90.56
419.611	83.56
419.834	94.56
420.057	96.56
420.28	87.56
420.503	89.56
420.726	79.56
420.948	100.56
421.171	93.56
421.394	104.56
421.617	92.56
421.839	84.56
422.062	100.56
422.285	107.56
422.507	105.56
422.73	94.56
422.953	93.56
423.175	85.56
423.398	93.56
423.621	82.56
423.843	86.56
424.066	87.56
424.288	82.56
424.511	94.56
424.733	74.56
424.956	97.56
425.178	95.56
425.401	102.56
425.623	107.56
425.846	84.56
426.068	91.56
426.291	102.56
426.513	97.56
426.735	100.56
426.958	87.56
427.18	89.56
427.402	137.56
427.625	155.56
427.847	121.56
428.069	85.56
428.292	94.56
428.514	78.56
428.736	87.56
428.958	89.56
429.181	73.56
429.403	87.56
429.625	96.56
429.847	103.56
430.069	93.56
430.292	103.56
430.514	98.56
430.736	86.56
430.958	83.56
431.18	88.56
431.402	93.56
431.624	85.56
431.846	87.56
432.068	82.56
432.29	105.56
432.512	93.56
432.734	80.56
432.956	103.56
433.178	98.56
433.4	112.56
433.622	94.56
433.844	93.56
434.066	77.56
434.287	79.56
434.509	90.56
434.731	93.56
434.953	83.56
435.175	78.56
435.397	94.56
435.618	89.56
435.84	100.56
436.062	126.56
436.284	118.56
436.505	109.56
436.727	97.56
436.949	105.56
437.17	96.56
437.392	84.56
437.614	87.56
437.835	105.56
438.057	100.56
438.278	95.56
438.5	94.56
438.721	125.56
438.943	95.56
439.165	87.56
439.386	82.56
439.608	87.56
439.829	102.56
440.05	120.56
440.272	119.56
440.493	87.56
440.715	91.56
440.936	80.56
441.158	92.56
441.379	99.56
441.6	72.56
441.822	91.56
442.043	90.56
442.264	110.56
442.486	83.56
442.707	89.56
442.928	97.56
443.149	111.56
443.371	130.56
443.592	102.56
443.813	112.56
444.034	104.56
444.255	79.56
444.476	84.56
444.698	84.56
444.919	85.56
445.14	123.56
445.361	135.56
445.582	107.56
445.803	134.56
446.024	124.56
446.245	126.56
446.466	113.56
446.687	85.56
446.908	101.56
447.129	94.56
447.35	77.56
447.571	92.56
447.792	91.56
448.013	91.56
448.234	105.56
448.455	90.56
448.675	96.56
448.896	122.56
449.117	105.56
449.338	102.56
449.559	135.56
449.779	132.56
450	90.56
450.221	73.56
450.442	77.56
450.662	89.56
450.883	103.56
451.104	91.56
451.324	99.56
451.545	85.56
451.766	87.56
451.986	83.56
452.207	90.56
452.428	69.56
452.648	95.56
452.869	87.56
453.089	96.56
453.31	107.56
453.53	92.56
453.751	87.56
453.971	91.56
454.192	97.56
454.412	93.56
454.633	89.56
454.853	95.56
455.073	96.56
455.294	100.56
455.514	93.56
455.734	89.56
455.955	98.56
456.175	92.56
456.395	87.56
456.616	89.56
456.836	85.56
457.056	93.56
457.276	88.56
457.497	86.56
457.717	85.56
457.937	85.56
458.157	90.56
458.377	96.56
458.598	105.56
458.818	124.56
459.038	124.56
459.258	99.56
459.478	98.56
459.698	89.56
459.918	69.56
460.138	84.56
460.358	87.56
460.578	84.56
460.798	89.56
461.018	93.56
461.238	93.56
461.458	82.56
461.678	76.56
461.898	99.56
462.118	97.56
462.338	85.56
462.558	89.56
462.777	95.56
462.997	78.56
463.217	78.56
463.437	74.56
463.657	88.56
463.876	77.56
464.096	82.56
464.316	93.56
464.536	90.56
464.755	106.56
464.975	111.56
465.195	132.56
465.414	124.56
465.634	86.56
465.854	93.56
466.073	77.56
466.293	79.56
466.512	98.56
466.732	79.56
466.951	85.56
467.171	88.56
467.391	62.56
467.61	80.56
467.829	86.56
468.049	94.56
468.268	71.56
468.488	95.56
468.707	94.56
468.927	85.56
469.146	85.56
469.365	83.56
469.585	98.56
469.804	78.56
470.023	97.56
470.243	81.56
470.462	85.56
470.681	107.56
470.901	97.56
471.12	71.56
471.339	79.56
471.558	93.56
471.777	80.56
471.997	99.56
472.216	85.56
472.435	88.56
472.654	92.56
472.873	89.56
473.092	83.56
473.311	85.56
473.53	97.56
473.749	82.56
473.968	106.56
474.187	104.56
474.406	86.56
474.625	93.56
474.844	99.56
475.063	78.56
475.282	97.56
475.501	85.56
475.72	89.56
475.939	86.56
476.158	79.56
476.377	87.56
476.596	102.56
476.814	93.56
477.033	84.56
477.252	85.56
477.471	88.56
477.69	82.56
477.908	87.56
478.127	94.56
478.346	98.56
478.564	95.56
478.783	90.56
479.002	99.56
479.22	87.56
479.439	100.56
479.658	86.56
479.876	84.56
480.095	97.56
480.313	89.56
480.532	85.56
480.751	91.56
480.969	85.56
481.188	91.56
481.406	95.56
481.624	91.56
481.843	104.56
482.061	100.56
482.28	90.56
482.498	89.56
482.717	80.56
482.935	90.56
483.153	86.56
483.372	91.56
483.59	75.56
483.808	87.56
484.027	96.56
484.245	78.56
484.463	81.56
484.681	95.56
484.9	70.56
485.118	81.56
485.336	81.56
485.554	90.56
485.772	97.56
485.99	93.56
486.209	103.56
486.427	102.56
486.645	102.56
486.863	113.56
487.081	86.56
487.299	89.56
487.517	100.56
487.735	97.56
487.953	89.56
488.171	101.56
488.389	97.56
488.607	90.56
488.825	85.56
489.043	88.56
489.261	85.56
489.479	103.56
489.696	95.56
489.914	90.56
490.132	94.56
490.35	90.56
490.568	93.56
490.786	92.56
491.003	93.56
491.221	77.56
491.439	94.56
491.657	94.56
491.874	85.56
492.092	92.56
492.31	88.56
492.527	97.56
492.745	76.56
492.963	89.56
493.18	90.56
493.398	104.56
493.615	99.56
493.833	90.56
494.05	83.56
494.268	82.56
494.485	96.56
494.703	107.56
494.92	89.56
495.138	100.56
495.355	79.56
495.573	90.56
495.79	89.56
496.008	83.56
496.225	81.56
496.442	74.56
496.66	95.56
496.877	86.56
497.094	101.56
497.312	101.56
497.529	100.56
497.746	103.56
497.963	88.56
498.181	92.56
498.398	86.56
498.615	104.56
498.832	104.56
499.049	85.56
499.267	89.56
499.484	110.56
499.701	93.56
499.918	86.56
500.135	97.56
500.352	93.56
500.569	88.56
500.786	94.56
501.003	87.56
501.22	91.56
501.437	86.56
501.654	89.56
501.871	108.56
502.088	73.56
502.305	94.56
502.522	90.56
502.739	100.56
502.956	79.56
503.172	88.56
503.389	87.56
503.606	94.56
503.823	84.56
504.04	79.56
504.256	87.56
504.473	99.56
504.69	89.56
504.907	94.56
505.123	91.56
505.34	85.56
505.557	87.56
505.773	82.56
505.99	85.56
506.207	94.56
506.423	91.56
506.64	104.56
506.856	85.56
507.073	89.56
507.289	98.56
507.506	90.56
507.722	103.56
507.939	103.56
508.155	91.56
508.372	106.56
508.588	92.56
508.805	105.56
509.021	96.56
509.238	103.56
509.454	97.56
509.67	84.56
509.887	110.56
510.103	125.56
510.319	182.56
510.536	609.56
510.752	1855.56
510.968	525.56
511.184	145.56
511.401	110.56
511.617	99.56
511.833	102.56
512.049	98.56
512.265	92.56
512.481	99.56
512.698	75.56
512.914	96.56
513.13	99.56
513.346	94.56
513.562	96.56
513.778	102.56
513.994	86.56
514.21	87.56
514.426	123.56
514.642	126.56
514.858	121.56
515.074	142.56
515.29	343.56
515.506	1098.56
515.721	393.56
515.937	129.56
516.153	111.56
516.369	88.56
516.585	95.56
