Data from Uncirc_1990_H10_HRD10591_00041.txt Node
Date: Wed Jan 03 11:53:59 EST 2024
User: Yrep
Spectrometer: HR+D1059
Trigger mode: 1
Integration Time (sec): 1.000000E-1
Scans to average: 1
Electric dark correction enabled: true
Nonlinearity correction enabled: false
Boxcar width: 0
XAxis mode: Wavelengths
Number of Pixels in Spectrum: 2048
>>>>>Begin Spectral Data<<<<<
223.165	-23.56
223.4	-23.56
223.635	-23.56
223.869	-19.56
224.104	-13.56
224.338	-12.56
224.573	-11.56
224.808	-10.56
225.042	-8.56
225.277	-5.56
225.511	-10.56
225.746	3.44
225.98	9.44
226.215	14.44
226.449	16.44
226.683	15.44
226.918	36.44
227.152	20.44
227.387	30.44
227.621	36.44
227.856	39.44
228.09	39.44
228.324	63.44
228.559	48.44
228.793	48.44
229.027	66.44
229.262	54.44
229.496	58.44
229.73	74.44
229.964	76.44
230.199	58.44
230.433	76.44
230.667	81.44
230.901	65.44
231.136	64.44
231.37	83.44
231.604	74.44
231.838	82.44
232.072	80.44
232.306	84.44
232.541	77.44
232.775	77.44
233.009	80.44
233.243	75.44
233.477	85.44
233.711	81.44
233.945	72.44
234.179	69.44
234.413	72.44
234.647	74.44
234.881	70.44
235.115	88.44
235.349	89.44
235.583	67.44
235.817	72.44
236.051	84.44
236.285	72.44
236.519	69.44
236.753	72.44
236.987	80.44
237.221	75.44
237.455	72.44
237.689	71.44
237.922	74.44
238.156	84.44
238.39	69.44
238.624	64.44
238.858	74.44
239.091	82.44
239.325	67.44
239.559	76.44
239.793	69.44
240.027	69.44
240.26	78.44
240.494	80.44
240.728	66.44
240.961	83.44
241.195	64.44
241.429	70.44
241.662	84.44
241.896	72.44
242.13	74.44
242.363	83.44
242.597	82.44
242.83	87.44
243.064	77.44
243.298	73.44
243.531	75.44
243.765	70.44
243.998	74.44
244.232	81.44
244.465	87.44
244.699	80.44
244.932	80.44
245.166	73.44
245.399	79.44
245.633	69.44
245.866	80.44
246.099	63.44
246.333	72.44
246.566	81.44
246.8	76.44
247.033	60.44
247.266	70.44
247.5	87.44
247.733	84.44
247.966	85.44
248.2	84.44
248.433	62.44
248.666	69.44
248.899	63.44
249.133	67.44
249.366	90.44
249.599	83.44
249.832	73.44
250.066	88.44
250.299	76.44
250.532	74.44
250.765	79.44
250.998	76.44
251.231	66.44
251.465	78.44
251.698	77.44
251.931	74.44
252.164	80.44
252.397	79.44
252.63	81.44
252.863	72.44
253.096	70.44
253.329	70.44
253.562	72.44
253.795	84.44
254.028	90.44
254.261	65.44
254.494	80.44
254.727	88.44
254.96	68.44
255.193	79.44
255.426	78.44
255.659	75.44
255.892	59.44
256.124	74.44
256.357	69.44
256.59	75.44
256.823	91.44
257.056	85.44
257.289	74.44
257.521	67.44
257.754	72.44
257.987	77.44
258.22	70.44
258.452	81.44
258.685	68.44
258.918	63.44
259.151	90.44
259.383	76.44
259.616	70.44
259.849	78.44
260.081	73.44
260.314	90.44
260.547	65.44
260.779	79.44
261.012	76.44
261.244	77.44
261.477	79.44
261.71	99.44
261.942	103.44
262.175	97.44
262.407	81.44
262.64	77.44
262.872	81.44
263.105	80.44
263.337	69.44
263.57	93.44
263.802	77.44
264.035	80.44
264.267	85.44
264.499	66.44
264.732	81.44
264.964	82.44
265.197	78.44
265.429	76.44
265.661	72.44
265.894	85.44
266.126	90.44
266.358	86.44
266.591	65.44
266.823	77.44
267.055	86.44
267.287	89.44
267.52	79.44
267.752	89.44
267.984	76.44
268.216	69.44
268.448	68.44
268.681	86.44
268.913	90.44
269.145	85.44
269.377	83.44
269.609	57.44
269.841	93.44
270.073	94.44
270.306	92.44
270.538	84.44
270.77	77.44
271.002	74.44
271.234	85.44
271.466	77.44
271.698	92.44
271.93	90.44
272.162	79.44
272.394	82.44
272.626	75.44
272.858	81.44
273.09	89.44
273.322	77.44
273.553	84.44
273.785	76.44
274.017	68.44
274.249	83.44
274.481	91.44
274.713	80.44
274.945	80.44
275.176	85.44
275.408	87.44
275.64	78.44
275.872	81.44
276.104	84.44
276.335	85.44
276.567	89.44
276.799	95.44
277.031	88.44
277.262	84.44
277.494	84.44
277.726	85.44
277.957	65.44
278.189	65.44
278.421	81.44
278.652	85.44
278.884	87.44
279.115	89.44
279.347	81.44
279.579	79.44
279.81	78.44
280.042	94.44
280.273	93.44
280.505	87.44
280.736	83.44
280.968	83.44
281.199	80.44
281.431	90.44
281.662	83.44
281.894	89.44
282.125	100.44
282.356	117.44
282.588	121.44
282.819	106.44
283.051	92.44
283.282	97.44
283.513	68.44
283.745	101.44
283.976	80.44
284.207	89.44
284.439	84.44
284.67	75.44
284.901	83.44
285.132	83.44
285.364	88.44
285.595	93.44
285.826	85.44
286.057	88.44
286.288	80.44
286.52	89.44
286.751	86.44
286.982	82.44
287.213	84.44
287.444	77.44
287.675	72.44
287.906	89.44
288.138	86.44
288.369	86.44
288.6	93.44
288.831	79.44
289.062	74.44
289.293	89.44
289.524	75.44
289.755	85.44
289.986	82.44
290.217	66.44
290.448	84.44
290.679	96.44
290.91	99.44
291.141	98.44
291.371	84.44
291.602	81.44
291.833	85.44
292.064	86.44
292.295	97.44
292.526	87.44
292.757	84.44
292.987	90.44
293.218	82.44
293.449	80.44
293.68	81.44
293.91	83.44
294.141	82.44
294.372	89.44
294.603	105.44
294.833	86.44
295.064	86.44
295.295	100.44
295.525	85.44
295.756	98.44
295.987	106.44
296.217	124.44
296.448	112.44
296.679	87.44
296.909	88.44
297.14	77.44
297.37	90.44
297.601	72.44
297.831	92.44
298.062	88.44
298.292	78.44
298.523	89.44
298.753	90.44
298.984	89.44
299.214	88.44
299.445	69.44
299.675	86.44
299.905	96.44
300.136	95.44
300.366	91.44
300.597	84.44
300.827	92.44
301.057	100.44
301.288	93.44
301.518	88.44
301.748	89.44
301.979	108.44
302.209	98.44
302.439	84.44
302.669	82.44
302.9	74.44
303.13	89.44
303.36	85.44
303.59	84.44
303.82	107.44
304.051	96.44
304.281	88.44
304.511	82.44
304.741	97.44
304.971	80.44
305.201	82.44
305.431	94.44
305.661	95.44
305.891	77.44
306.121	100.44
306.352	104.44
306.582	113.44
306.812	90.44
307.042	82.44
307.272	92.44
307.502	84.44
307.731	92.44
307.961	82.44
308.191	95.44
308.421	79.44
308.651	92.44
308.881	86.44
309.111	96.44
309.341	89.44
309.571	81.44
309.8	94.44
310.03	84.44
310.26	90.44
310.49	91.44
310.72	93.44
310.949	98.44
311.179	97.44
311.409	85.44
311.639	94.44
311.868	92.44
312.098	87.44
312.328	86.44
312.557	93.44
312.787	90.44
313.017	91.44
313.246	88.44
313.476	84.44
313.706	87.44
313.935	87.44
314.165	86.44
314.394	98.44
314.624	95.44
314.853	107.44
315.083	91.44
315.312	90.44
315.542	75.44
315.771	83.44
316.001	88.44
316.23	78.44
316.46	90.44
316.689	94.44
316.919	91.44
317.148	88.44
317.377	93.44
317.607	88.44
317.836	95.44
318.065	88.44
318.295	94.44
318.524	86.44
318.753	98.44
318.983	92.44
319.212	105.44
319.441	90.44
319.67	115.44
319.9	81.44
320.129	80.44
320.358	91.44
320.587	92.44
320.816	101.44
321.046	85.44
321.275	85.44
321.504	81.44
321.733	90.44
321.962	74.44
322.191	83.44
322.42	106.44
322.649	122.44
322.878	102.44
323.108	113.44
323.337	120.44
323.566	118.44
323.795	155.44
324.024	202.44
324.253	380.44
324.482	808.44
324.71	1605.44
324.939	2149.44
325.168	772.44
325.397	219.44
325.626	130.44
325.855	131.44
326.084	121.44
326.313	132.44
326.542	144.44
326.77	215.44
326.999	426.44
327.228	876.44
327.457	1667.44
327.686	1318.44
327.914	348.44
328.143	180.44
328.372	120.44
328.6	110.44
328.829	110.44
329.058	122.44
329.287	109.44
329.515	100.44
329.744	104.44
329.972	88.44
330.201	92.44
330.43	107.44
330.658	101.44
330.887	130.44
331.115	110.44
331.344	78.44
331.572	90.44
331.801	99.44
332.03	99.44
332.258	107.44
332.486	84.44
332.715	86.44
332.943	86.44
333.172	96.44
333.4	78.44
333.629	117.44
333.857	108.44
334.085	104.44
334.314	88.44
334.542	113.44
334.771	107.44
334.999	96.44
335.227	78.44
335.455	95.44
335.684	102.44
335.912	86.44
336.14	100.44
336.369	95.44
336.597	105.44
336.825	83.44
337.053	80.44
337.281	83.44
337.51	80.44
337.738	99.44
337.966	96.44
338.194	80.44
338.422	89.44
338.65	100.44
338.878	83.44
339.106	83.44
339.334	90.44
339.562	93.44
339.79	86.44
340.018	82.44
340.246	91.44
340.474	93.44
340.702	93.44
340.93	98.44
341.158	95.44
341.386	98.44
341.614	90.44
341.842	98.44
342.07	96.44
342.298	73.44
342.526	89.44
342.754	70.44
342.981	80.44
343.209	100.44
343.437	94.44
343.665	103.44
343.893	86.44
344.12	84.44
344.348	81.44
344.576	87.44
344.804	95.44
345.031	83.44
345.259	77.44
345.487	86.44
345.714	96.44
345.942	92.44
346.17	84.44
346.397	82.44
346.625	82.44
346.853	88.44
347.08	101.44
347.308	96.44
347.535	108.44
347.763	88.44
347.99	94.44
348.218	97.44
348.445	105.44
348.673	89.44
348.9	96.44
349.128	99.44
349.355	82.44
349.583	76.44
349.81	90.44
350.037	83.44
350.265	101.44
350.492	84.44
350.72	91.44
350.947	100.44
351.174	110.44
351.402	98.44
351.629	105.44
351.856	101.44
352.083	104.44
352.311	96.44
352.538	94.44
352.765	104.44
352.992	98.44
353.22	121.44
353.447	92.44
353.674	115.44
353.901	102.44
354.128	97.44
354.355	94.44
354.583	84.44
354.81	83.44
355.037	91.44
355.264	98.44
355.491	89.44
355.718	89.44
355.945	94.44
356.172	101.44
356.399	85.44
356.626	92.44
356.853	103.44
357.08	91.44
357.307	99.44
357.534	87.44
357.761	86.44
357.988	89.44
358.215	83.44
358.441	94.44
358.668	79.44
358.895	101.44
359.122	96.44
359.349	86.44
359.576	96.44
359.802	85.44
360.029	108.44
360.256	114.44
360.483	101.44
360.709	93.44
360.936	102.44
361.163	94.44
361.39	93.44
361.616	74.44
361.843	69.44
362.07	92.44
362.296	102.44
362.523	84.44
362.749	97.44
362.976	75.44
363.203	76.44
363.429	70.44
363.656	84.44
363.882	75.44
364.109	90.44
364.335	86.44
364.562	86.44
364.788	92.44
365.015	88.44
365.241	101.44
365.468	106.44
365.694	81.44
365.92	81.44
366.147	102.44
366.373	82.44
366.599	90.44
366.826	90.44
367.052	85.44
367.278	92.44
367.505	98.44
367.731	91.44
367.957	88.44
368.184	88.44
368.41	91.44
368.636	101.44
368.862	100.44
369.089	102.44
369.315	89.44
369.541	101.44
369.767	81.44
369.993	93.44
370.219	84.44
370.445	90.44
370.672	98.44
370.898	98.44
371.124	89.44
371.35	89.44
371.576	86.44
371.802	80.44
372.028	98.44
372.254	89.44
372.48	99.44
372.706	82.44
372.932	83.44
373.158	77.44
373.384	86.44
373.61	100.44
373.835	91.44
374.061	91.44
374.287	95.44
374.513	98.44
374.739	90.44
374.965	89.44
375.191	92.44
375.416	93.44
375.642	87.44
375.868	87.44
376.094	80.44
376.319	95.44
376.545	80.44
376.771	93.44
376.997	91.44
377.222	89.44
377.448	88.44
377.674	101.44
377.899	100.44
378.125	90.44
378.35	89.44
378.576	91.44
378.802	90.44
379.027	100.44
379.253	86.44
379.478	90.44
379.704	101.44
379.929	76.44
380.155	86.44
380.38	94.44
380.606	90.44
380.831	94.44
381.057	76.44
381.282	100.44
381.507	95.44
381.733	97.44
381.958	111.44
382.184	95.44
382.409	92.44
382.634	85.44
382.86	106.44
383.085	86.44
383.31	90.44
383.535	96.44
383.761	94.44
383.986	93.44
384.211	104.44
384.436	99.44
384.662	98.44
384.887	107.44
385.112	92.44
385.337	93.44
385.562	97.44
385.787	95.44
386.013	102.44
386.238	103.44
386.463	100.44
386.688	102.44
386.913	78.44
387.138	114.44
387.363	109.44
387.588	109.44
387.813	92.44
388.038	91.44
388.263	101.44
388.488	92.44
388.713	99.44
388.938	78.44
389.163	97.44
389.387	104.44
389.612	106.44
389.837	78.44
390.062	76.44
390.287	91.44
390.512	72.44
390.736	92.44
390.961	97.44
391.186	79.44
391.411	94.44
391.636	79.44
391.86	84.44
392.085	87.44
392.31	85.44
392.534	77.44
392.759	76.44
392.984	78.44
393.208	76.44
393.433	88.44
393.658	78.44
393.882	92.44
394.107	77.44
394.331	81.44
394.556	76.44
394.78	83.44
395.005	79.44
395.229	76.44
395.454	89.44
395.678	85.44
395.903	80.44
396.127	81.44
396.352	81.44
396.576	95.44
396.801	87.44
397.025	91.44
397.249	79.44
397.474	94.44
397.698	80.44
397.922	96.44
398.147	91.44
398.371	87.44
398.595	76.44
398.82	76.44
399.044	86.44
399.268	93.44
399.492	89.44
399.717	84.44
399.941	84.44
400.165	87.44
400.389	89.44
400.613	108.44
400.837	76.44
401.062	87.44
401.286	90.44
401.51	82.44
401.734	91.44
401.958	91.44
402.182	117.44
402.406	153.44
402.63	119.44
402.854	97.44
403.078	93.44
403.302	85.44
403.526	76.44
403.75	85.44
403.974	91.44
404.198	87.44
404.422	84.44
404.645	96.44
404.869	84.44
405.093	93.44
405.317	95.44
405.541	91.44
405.765	100.44
405.988	121.44
406.212	145.44
406.436	196.44
406.66	123.44
406.883	91.44
407.107	84.44
407.331	103.44
407.555	93.44
407.778	101.44
408.002	91.44
408.226	80.44
408.449	83.44
408.673	88.44
408.896	77.44
409.12	92.44
409.344	98.44
409.567	76.44
409.791	97.44
410.014	90.44
410.238	97.44
410.461	73.44
410.685	105.44
410.908	95.44
411.132	96.44
411.355	93.44
411.578	92.44
411.802	91.44
412.025	85.44
412.249	67.44
412.472	98.44
412.695	61.44
412.919	85.44
413.142	86.44
413.365	91.44
413.589	81.44
413.812	83.44
414.035	95.44
414.258	88.44
414.482	85.44
414.705	84.44
414.928	99.44
415.151	89.44
415.374	106.44
415.597	100.44
415.821	104.44
416.044	90.44
416.267	95.44
416.49	82.44
416.713	77.44
416.936	80.44
417.159	86.44
417.382	77.44
417.605	89.44
417.828	92.44
418.051	94.44
418.274	97.44
418.497	97.44
418.72	96.44
418.943	90.44
419.166	74.44
419.389	81.44
419.611	92.44
419.834	93.44
420.057	77.44
420.28	82.44
420.503	84.44
420.726	88.44
420.948	73.44
421.171	70.44
421.394	101.44
421.617	82.44
421.839	78.44
422.062	101.44
422.285	84.44
422.507	105.44
422.73	109.44
422.953	79.44
423.175	100.44
423.398	96.44
423.621	86.44
423.843	99.44
424.066	76.44
424.288	87.44
424.511	92.44
424.733	84.44
424.956	97.44
425.178	90.44
425.401	101.44
425.623	96.44
425.846	90.44
426.068	101.44
426.291	83.44
426.513	83.44
426.735	85.44
426.958	86.44
427.18	91.44
427.402	130.44
427.625	129.44
427.847	106.44
428.069	102.44
428.292	81.44
428.514	81.44
428.736	80.44
428.958	88.44
429.181	83.44
429.403	104.44
429.625	88.44
429.847	84.44
430.069	113.44
430.292	96.44
430.514	83.44
430.736	81.44
430.958	76.44
431.18	73.44
431.402	90.44
431.624	84.44
431.846	101.44
432.068	96.44
432.29	86.44
432.512	82.44
432.734	78.44
432.956	82.44
433.178	76.44
433.4	89.44
433.622	112.44
433.844	72.44
434.066	83.44
434.287	85.44
434.509	68.44
434.731	80.44
434.953	96.44
435.175	90.44
435.397	82.44
435.618	77.44
435.84	111.44
436.062	110.44
436.284	84.44
436.505	92.44
436.727	90.44
436.949	77.44
437.17	74.44
437.392	86.44
437.614	98.44
437.835	98.44
438.057	91.44
438.278	114.44
438.5	97.44
438.721	137.44
438.943	96.44
439.165	99.44
439.386	91.44
439.608	84.44
439.829	101.44
440.05	109.44
440.272	132.44
440.493	86.44
440.715	83.44
440.936	95.44
441.158	90.44
441.379	94.44
441.6	95.44
441.822	90.44
442.043	90.44
442.264	84.44
442.486	95.44
442.707	94.44
442.928	99.44
443.149	116.44
443.371	112.44
443.592	106.44
443.813	108.44
444.034	90.44
444.255	94.44
444.476	83.44
444.698	76.44
444.919	85.44
445.14	125.44
445.361	109.44
445.582	122.44
445.803	126.44
446.024	127.44
446.245	144.44
446.466	108.44
446.687	78.44
446.908	95.44
447.129	93.44
447.35	72.44
447.571	96.44
447.792	82.44
448.013	104.44
448.234	116.44
448.455	100.44
448.675	104.44
448.896	107.44
449.117	98.44
449.338	105.44
449.559	136.44
449.779	106.44
450	106.44
450.221	89.44
450.442	75.44
450.662	92.44
450.883	91.44
451.104	90.44
451.324	92.44
451.545	86.44
451.766	87.44
451.986	87.44
452.207	83.44
452.428	81.44
452.648	104.44
452.869	90.44
453.089	121.44
453.31	122.44
453.53	96.44
453.751	94.44
453.971	99.44
454.192	105.44
454.412	76.44
454.633	90.44
454.853	89.44
455.073	83.44
455.294	80.44
455.514	92.44
455.734	84.44
455.955	70.44
456.175	80.44
456.395	89.44
456.616	90.44
456.836	68.44
457.056	79.44
457.276	70.44
457.497	79.44
457.717	85.44
457.937	89.44
458.157	71.44
458.377	86.44
458.598	110.44
458.818	136.44
459.038	146.44
459.258	108.44
459.478	93.44
459.698	78.44
459.918	81.44
460.138	83.44
460.358	99.44
460.578	100.44
460.798	96.44
461.018	88.44
461.238	80.44
461.458	80.44
461.678	95.44
461.898	98.44
462.118	81.44
462.338	68.44
462.558	80.44
462.777	85.44
462.997	75.44
463.217	74.44
463.437	66.44
463.657	89.44
463.876	90.44
464.096	86.44
464.316	88.44
464.536	84.44
464.755	87.44
464.975	77.44
465.195	137.44
465.414	138.44
465.634	83.44
465.854	90.44
466.073	85.44
466.293	79.44
466.512	82.44
466.732	76.44
466.951	87.44
467.171	91.44
467.391	95.44
467.61	98.44
467.829	90.44
468.049	85.44
468.268	100.44
468.488	77.44
468.707	84.44
468.927	72.44
469.146	93.44
469.365	86.44
469.585	84.44
469.804	86.44
470.023	98.44
470.243	88.44
470.462	88.44
470.681	110.44
470.901	78.44
471.12	92.44
471.339	97.44
471.558	99.44
471.777	88.44
471.997	106.44
472.216	94.44
472.435	86.44
472.654	93.44
472.873	81.44
473.092	84.44
473.311	79.44
473.53	71.44
473.749	98.44
473.968	92.44
474.187	97.44
474.406	100.44
474.625	85.44
474.844	79.44
475.063	84.44
475.282	80.44
475.501	73.44
475.72	79.44
475.939	97.44
476.158	84.44
476.377	77.44
476.596	65.44
476.814	80.44
477.033	100.44
477.252	92.44
477.471	72.44
477.69	74.44
477.908	90.44
478.127	78.44
478.346	76.44
478.564	88.44
478.783	96.44
479.002	85.44
479.22	98.44
479.439	91.44
479.658	86.44
479.876	93.44
480.095	97.44
480.313	107.44
480.532	88.44
480.751	79.44
480.969	89.44
481.188	102.44
481.406	110.44
481.624	92.44
481.843	86.44
482.061	66.44
482.28	86.44
482.498	88.44
482.717	82.44
482.935	89.44
483.153	98.44
483.372	84.44
483.59	84.44
483.808	69.44
484.027	103.44
484.245	86.44
484.463	87.44
484.681	81.44
484.9	92.44
485.118	90.44
485.336	86.44
485.554	84.44
485.772	87.44
485.99	97.44
486.209	96.44
486.427	93.44
486.645	97.44
486.863	112.44
487.081	87.44
487.299	90.44
487.517	94.44
487.735	105.44
487.953	84.44
488.171	102.44
488.389	84.44
488.607	105.44
488.825	84.44
489.043	80.44
489.261	90.44
489.479	96.44
489.696	88.44
489.914	78.44
490.132	83.44
490.35	77.44
490.568	89.44
490.786	82.44
491.003	86.44
491.221	88.44
491.439	98.44
491.657	95.44
491.874	84.44
492.092	89.44
492.31	82.44
492.527	67.44
492.745	84.44
492.963	88.44
493.18	79.44
493.398	85.44
493.615	102.44
493.833	96.44
494.05	74.44
494.268	96.44
494.485	81.44
494.703	96.44
494.92	84.44
495.138	100.44
495.355	88.44
495.573	93.44
495.79	96.44
496.008	96.44
496.225	79.44
496.442	76.44
496.66	91.44
496.877	101.44
497.094	95.44
497.312	110.44
497.529	81.44
497.746	90.44
497.963	74.44
498.181	82.44
498.398	85.44
498.615	110.44
498.832	99.44
499.049	79.44
499.267	82.44
499.484	76.44
499.701	82.44
499.918	85.44
500.135	94.44
500.352	79.44
500.569	83.44
500.786	92.44
501.003	85.44
501.22	105.44
501.437	100.44
501.654	85.44
501.871	90.44
502.088	101.44
502.305	100.44
502.522	102.44
502.739	76.44
502.956	89.44
503.172	80.44
503.389	82.44
503.606	89.44
503.823	81.44
504.04	97.44
504.256	91.44
504.473	95.44
504.69	75.44
504.907	87.44
505.123	79.44
505.34	92.44
505.557	97.44
505.773	97.44
505.99	93.44
506.207	93.44
506.423	89.44
506.64	89.44
506.856	73.44
507.073	95.44
507.289	81.44
507.506	88.44
507.722	82.44
507.939	103.44
508.155	100.44
508.372	80.44
508.588	81.44
508.805	93.44
509.021	96.44
509.238	95.44
509.454	101.44
509.67	104.44
509.887	106.44
510.103	122.44
510.319	198.44
510.536	696.44
510.752	2236.44
510.968	605.44
511.184	143.44
511.401	96.44
511.617	85.44
511.833	83.44
512.049	87.44
512.265	72.44
512.481	91.44
512.698	91.44
512.914	91.44
513.13	82.44
513.346	93.44
513.562	90.44
513.778	94.44
513.994	95.44
514.21	105.44
514.426	109.44
514.642	120.44
514.858	115.44
515.074	152.44
515.29	404.44
515.506	1260.44
515.721	482.44
515.937	144.44
516.153	104.44
516.369	100.44
516.585	93.44
516.801	101.44
