Data from Uncirc_1990_H10_HRD10591_00069.txt Node
Date: Wed Jan 03 11:54:05 EST 2024
User: Yrep
Spectrometer: HR+D1059
Trigger mode: 1
Integration Time (sec): 1.000000E-1
Scans to average: 1
Electric dark correction enabled: true
Nonlinearity correction enabled: false
Boxcar width: 0
XAxis mode: Wavelengths
Number of Pixels in Spectrum: 2048
>>>>>Begin Spectral Data<<<<<
223.165	-13.69
223.4	-13.69
223.635	-13.69
223.869	-27.69
224.104	-26.69
224.338	-12.69
224.573	-16.69
224.808	-12.69
225.042	-14.69
225.277	-4.69
225.511	0.31
225.746	-4.69
225.98	10.31
226.215	13.31
226.449	29.31
226.683	21.31
226.918	24.31
227.152	35.31
227.387	36.31
227.621	43.31
227.856	47.31
228.09	49.31
228.324	49.31
228.559	56.31
228.793	55.31
229.027	59.31
229.262	67.31
229.496	74.31
229.73	83.31
229.964	79.31
230.199	69.31
230.433	66.31
230.667	77.31
230.901	85.31
231.136	79.31
231.37	83.31
231.604	86.31
231.838	78.31
232.072	86.31
232.306	93.31
232.541	81.31
232.775	66.31
233.009	87.31
233.243	70.31
233.477	86.31
233.711	77.31
233.945	71.31
234.179	87.31
234.413	88.31
234.647	73.31
234.881	83.31
235.115	75.31
235.349	74.31
235.583	93.31
235.817	90.31
236.051	67.31
236.285	79.31
236.519	83.31
236.753	84.31
236.987	89.31
237.221	81.31
237.455	100.31
237.689	88.31
237.922	75.31
238.156	81.31
238.39	75.31
238.624	80.31
238.858	78.31
239.091	74.31
239.325	69.31
239.559	64.31
239.793	78.31
240.027	81.31
240.26	81.31
240.494	80.31
240.728	67.31
240.961	66.31
241.195	82.31
241.429	66.31
241.662	83.31
241.896	78.31
242.13	75.31
242.363	89.31
242.597	80.31
242.83	71.31
243.064	84.31
243.298	75.31
243.531	85.31
243.765	68.31
243.998	94.31
244.232	83.31
244.465	88.31
244.699	73.31
244.932	65.31
245.166	81.31
245.399	82.31
245.633	79.31
245.866	68.31
246.099	81.31
246.333	85.31
246.566	75.31
246.8	81.31
247.033	81.31
247.266	96.31
247.5	77.31
247.733	94.31
247.966	85.31
248.2	74.31
248.433	81.31
248.666	75.31
248.899	66.31
249.133	73.31
249.366	105.31
249.599	81.31
249.832	97.31
250.066	94.31
250.299	71.31
250.532	89.31
250.765	73.31
250.998	87.31
251.231	93.31
251.465	86.31
251.698	86.31
251.931	82.31
252.164	83.31
252.397	69.31
252.63	69.31
252.863	88.31
253.096	81.31
253.329	89.31
253.562	100.31
253.795	72.31
254.028	85.31
254.261	90.31
254.494	78.31
254.727	71.31
254.96	75.31
255.193	80.31
255.426	85.31
255.659	82.31
255.892	78.31
256.124	98.31
256.357	69.31
256.59	72.31
256.823	85.31
257.056	89.31
257.289	86.31
257.521	72.31
257.754	85.31
257.987	91.31
258.22	91.31
258.452	86.31
258.685	86.31
258.918	84.31
259.151	99.31
259.383	80.31
259.616	91.31
259.849	81.31
260.081	88.31
260.314	99.31
260.547	77.31
260.779	81.31
261.012	84.31
261.244	85.31
261.477	88.31
261.71	105.31
261.942	117.31
262.175	119.31
262.407	86.31
262.64	90.31
262.872	86.31
263.105	87.31
263.337	87.31
263.57	88.31
263.802	85.31
264.035	83.31
264.267	82.31
264.499	96.31
264.732	93.31
264.964	85.31
265.197	95.31
265.429	86.31
265.661	81.31
265.894	67.31
266.126	97.31
266.358	91.31
266.591	81.31
266.823	97.31
267.055	66.31
267.287	71.31
267.52	85.31
267.752	81.31
267.984	86.31
268.216	84.31
268.448	97.31
268.681	71.31
268.913	77.31
269.145	72.31
269.377	85.31
269.609	89.31
269.841	88.31
270.073	93.31
270.306	90.31
270.538	87.31
270.77	81.31
271.002	87.31
271.234	104.31
271.466	87.31
271.698	97.31
271.93	89.31
272.162	79.31
272.394	95.31
272.626	98.31
272.858	82.31
273.09	90.31
273.322	86.31
273.553	94.31
273.785	84.31
274.017	77.31
274.249	70.31
274.481	91.31
274.713	72.31
274.945	82.31
275.176	83.31
275.408	87.31
275.64	87.31
275.872	85.31
276.104	96.31
276.335	97.31
276.567	95.31
276.799	106.31
277.031	99.31
277.262	101.31
277.494	94.31
277.726	80.31
277.957	95.31
278.189	95.31
278.421	87.31
278.652	83.31
278.884	88.31
279.115	71.31
279.347	87.31
279.579	90.31
279.81	87.31
280.042	94.31
280.273	79.31
280.505	84.31
280.736	90.31
280.968	80.31
281.199	70.31
281.431	96.31
281.662	91.31
281.894	89.31
282.125	92.31
282.356	107.31
282.588	122.31
282.819	102.31
283.051	99.31
283.282	83.31
283.513	95.31
283.745	94.31
283.976	97.31
284.207	90.31
284.439	102.31
284.67	84.31
284.901	92.31
285.132	88.31
285.364	74.31
285.595	90.31
285.826	88.31
286.057	83.31
286.288	93.31
286.52	91.31
286.751	82.31
286.982	83.31
287.213	87.31
287.444	85.31
287.675	69.31
287.906	81.31
288.138	96.31
288.369	95.31
288.6	83.31
288.831	93.31
289.062	103.31
289.293	91.31
289.524	90.31
289.755	91.31
289.986	69.31
290.217	91.31
290.448	80.31
290.679	103.31
290.91	91.31
291.141	89.31
291.371	104.31
291.602	96.31
291.833	97.31
292.064	94.31
292.295	82.31
292.526	78.31
292.757	87.31
292.987	77.31
293.218	97.31
293.449	82.31
293.68	82.31
293.91	81.31
294.141	101.31
294.372	88.31
294.603	83.31
294.833	89.31
295.064	98.31
295.295	89.31
295.525	99.31
295.756	106.31
295.987	115.31
296.217	130.31
296.448	115.31
296.679	93.31
296.909	98.31
297.14	85.31
297.37	90.31
297.601	79.31
297.831	95.31
298.062	98.31
298.292	89.31
298.523	89.31
298.753	86.31
298.984	79.31
299.214	90.31
299.445	98.31
299.675	92.31
299.905	91.31
300.136	93.31
300.366	81.31
300.597	96.31
300.827	105.31
301.057	98.31
301.288	117.31
301.518	87.31
301.748	81.31
301.979	110.31
302.209	85.31
302.439	84.31
302.669	80.31
302.9	93.31
303.13	78.31
303.36	95.31
303.59	102.31
303.82	105.31
304.051	96.31
304.281	105.31
304.511	85.31
304.741	89.31
304.971	88.31
305.201	80.31
305.431	84.31
305.661	94.31
305.891	80.31
306.121	90.31
306.352	99.31
306.582	102.31
306.812	97.31
307.042	90.31
307.272	89.31
307.502	85.31
307.731	92.31
307.961	72.31
308.191	92.31
308.421	93.31
308.651	103.31
308.881	98.31
309.111	96.31
309.341	107.31
309.571	95.31
309.8	89.31
310.03	94.31
310.26	104.31
310.49	93.31
310.72	100.31
310.949	119.31
311.179	94.31
311.409	94.31
311.639	104.31
311.868	103.31
312.098	90.31
312.328	98.31
312.557	106.31
312.787	97.31
313.017	103.31
313.246	89.31
313.476	98.31
313.706	78.31
313.935	96.31
314.165	94.31
314.394	100.31
314.624	101.31
314.853	100.31
315.083	106.31
315.312	94.31
315.542	85.31
315.771	99.31
316.001	80.31
316.23	104.31
316.46	85.31
316.689	94.31
316.919	97.31
317.148	97.31
317.377	99.31
317.607	96.31
317.836	97.31
318.065	104.31
318.295	96.31
318.524	92.31
318.753	96.31
318.983	82.31
319.212	100.31
319.441	106.31
319.67	98.31
319.9	86.31
320.129	88.31
320.358	108.31
320.587	83.31
320.816	104.31
321.046	106.31
321.275	102.31
321.504	99.31
321.733	94.31
321.962	93.31
322.191	109.31
322.42	106.31
322.649	114.31
322.878	113.31
323.108	125.31
323.337	132.31
323.566	126.31
323.795	161.31
324.024	197.31
324.253	366.31
324.482	760.31
324.71	1597.31
324.939	2086.31
325.168	761.31
325.397	223.31
325.626	138.31
325.855	118.31
326.084	129.31
326.313	120.31
326.542	135.31
326.77	211.31
326.999	446.31
327.228	921.31
327.457	1560.31
327.686	1282.31
327.914	356.31
328.143	185.31
328.372	136.31
328.6	118.31
328.829	120.31
329.058	127.31
329.287	121.31
329.515	105.31
329.744	103.31
329.972	111.31
330.201	89.31
330.43	113.31
330.658	137.31
330.887	119.31
331.115	112.31
331.344	100.31
331.572	96.31
331.801	102.31
332.03	93.31
332.258	100.31
332.486	112.31
332.715	114.31
332.943	106.31
333.172	94.31
333.4	85.31
333.629	93.31
333.857	102.31
334.085	90.31
334.314	102.31
334.542	119.31
334.771	94.31
334.999	96.31
335.227	98.31
335.455	104.31
335.684	96.31
335.912	102.31
336.14	97.31
336.369	109.31
336.597	98.31
336.825	107.31
337.053	103.31
337.281	93.31
337.51	78.31
337.738	95.31
337.966	96.31
338.194	108.31
338.422	93.31
338.65	99.31
338.878	97.31
339.106	104.31
339.334	98.31
339.562	94.31
339.79	98.31
340.018	84.31
340.246	93.31
340.474	96.31
340.702	78.31
340.93	87.31
341.158	94.31
341.386	83.31
341.614	99.31
341.842	101.31
342.07	104.31
342.298	91.31
342.526	85.31
342.754	86.31
342.981	77.31
343.209	93.31
343.437	95.31
343.665	96.31
343.893	91.31
344.12	97.31
344.348	95.31
344.576	80.31
344.804	90.31
345.031	106.31
345.259	110.31
345.487	95.31
345.714	95.31
345.942	87.31
346.17	89.31
346.397	101.31
346.625	98.31
346.853	105.31
347.08	96.31
347.308	95.31
347.535	101.31
347.763	104.31
347.99	88.31
348.218	99.31
348.445	102.31
348.673	78.31
348.9	87.31
349.128	96.31
349.355	93.31
349.583	96.31
349.81	86.31
350.037	100.31
350.265	102.31
350.492	109.31
350.72	102.31
350.947	103.31
351.174	103.31
351.402	104.31
351.629	73.31
351.856	95.31
352.083	91.31
352.311	102.31
352.538	117.31
352.765	94.31
352.992	112.31
353.22	117.31
353.447	100.31
353.674	107.31
353.901	115.31
354.128	91.31
354.355	105.31
354.583	101.31
354.81	97.31
355.037	96.31
355.264	96.31
355.491	91.31
355.718	109.31
355.945	103.31
356.172	95.31
356.399	96.31
356.626	96.31
356.853	108.31
357.08	91.31
357.307	100.31
357.534	85.31
357.761	106.31
357.988	93.31
358.215	96.31
358.441	96.31
358.668	98.31
358.895	86.31
359.122	93.31
359.349	89.31
359.576	97.31
359.802	95.31
360.029	109.31
360.256	102.31
360.483	102.31
360.709	95.31
360.936	88.31
361.163	98.31
361.39	115.31
361.616	87.31
361.843	91.31
362.07	98.31
362.296	101.31
362.523	107.31
362.749	97.31
362.976	104.31
363.203	106.31
363.429	92.31
363.656	86.31
363.882	95.31
364.109	96.31
364.335	96.31
364.562	91.31
364.788	80.31
365.015	98.31
365.241	100.31
365.468	93.31
365.694	101.31
365.92	93.31
366.147	87.31
366.373	85.31
366.599	92.31
366.826	94.31
367.052	102.31
367.278	117.31
367.505	90.31
367.731	94.31
367.957	101.31
368.184	96.31
368.41	91.31
368.636	105.31
368.862	122.31
369.089	107.31
369.315	95.31
369.541	80.31
369.767	83.31
369.993	98.31
370.219	89.31
370.445	92.31
370.672	84.31
370.898	102.31
371.124	91.31
371.35	93.31
371.576	96.31
371.802	87.31
372.028	99.31
372.254	82.31
372.48	85.31
372.706	105.31
372.932	93.31
373.158	93.31
373.384	100.31
373.61	90.31
373.835	104.31
374.061	100.31
374.287	96.31
374.513	102.31
374.739	87.31
374.965	105.31
375.191	93.31
375.416	104.31
375.642	78.31
375.868	81.31
376.094	93.31
376.319	96.31
376.545	81.31
376.771	94.31
376.997	88.31
377.222	87.31
377.448	95.31
377.674	95.31
377.899	89.31
378.125	89.31
378.35	116.31
378.576	86.31
378.802	102.31
379.027	94.31
379.253	92.31
379.478	86.31
379.704	80.31
379.929	97.31
380.155	84.31
380.38	101.31
380.606	84.31
380.831	101.31
381.057	93.31
381.282	106.31
381.507	110.31
381.733	90.31
381.958	111.31
382.184	97.31
382.409	101.31
382.634	99.31
382.86	110.31
383.085	100.31
383.31	79.31
383.535	102.31
383.761	98.31
383.986	100.31
384.211	100.31
384.436	114.31
384.662	114.31
384.887	101.31
385.112	100.31
385.337	104.31
385.562	96.31
385.787	113.31
386.013	103.31
386.238	112.31
386.463	111.31
386.688	126.31
386.913	113.31
387.138	108.31
387.363	92.31
387.588	104.31
387.813	97.31
388.038	103.31
388.263	103.31
388.488	111.31
388.713	99.31
388.938	101.31
389.163	97.31
389.387	86.31
389.612	101.31
389.837	93.31
390.062	91.31
390.287	94.31
390.512	102.31
390.736	99.31
390.961	103.31
391.186	101.31
391.411	91.31
391.636	93.31
391.86	91.31
392.085	102.31
392.31	105.31
392.534	88.31
392.759	86.31
392.984	96.31
393.208	89.31
393.433	75.31
393.658	90.31
393.882	102.31
394.107	91.31
394.331	85.31
394.556	98.31
394.78	98.31
395.005	102.31
395.229	81.31
395.454	97.31
395.678	96.31
395.903	101.31
396.127	94.31
396.352	95.31
396.576	94.31
396.801	91.31
397.025	92.31
397.249	71.31
397.474	91.31
397.698	100.31
397.922	94.31
398.147	81.31
398.371	86.31
398.595	99.31
398.82	85.31
399.044	85.31
399.268	86.31
399.492	91.31
399.717	81.31
399.941	95.31
400.165	91.31
400.389	96.31
400.613	98.31
400.837	93.31
401.062	90.31
401.286	90.31
401.51	82.31
401.734	102.31
401.958	101.31
402.182	133.31
402.406	142.31
402.63	129.31
402.854	93.31
403.078	83.31
403.302	83.31
403.526	96.31
403.75	83.31
403.974	100.31
404.198	80.31
404.422	94.31
404.645	88.31
404.869	106.31
405.093	86.31
405.317	93.31
405.541	101.31
405.765	110.31
405.988	102.31
406.212	159.31
406.436	195.31
406.66	133.31
406.883	93.31
407.107	88.31
407.331	98.31
407.555	103.31
407.778	99.31
408.002	100.31
408.226	87.31
408.449	91.31
408.673	88.31
408.896	103.31
409.12	85.31
409.344	81.31
409.567	102.31
409.791	94.31
410.014	96.31
410.238	107.31
410.461	98.31
410.685	84.31
410.908	92.31
411.132	109.31
411.355	106.31
411.578	86.31
411.802	88.31
412.025	94.31
412.249	91.31
412.472	101.31
412.695	99.31
412.919	93.31
413.142	87.31
413.365	86.31
413.589	91.31
413.812	97.31
414.035	79.31
414.258	109.31
414.482	90.31
414.705	105.31
414.928	110.31
415.151	98.31
415.374	103.31
415.597	90.31
415.821	95.31
416.044	90.31
416.267	83.31
416.49	87.31
416.713	94.31
416.936	96.31
417.159	95.31
417.382	107.31
417.605	90.31
417.828	101.31
418.051	90.31
418.274	82.31
418.497	73.31
418.72	71.31
418.943	94.31
419.166	90.31
419.389	81.31
419.611	88.31
419.834	96.31
420.057	83.31
420.28	100.31
420.503	88.31
420.726	81.31
420.948	87.31
421.171	89.31
421.394	110.31
421.617	113.31
421.839	98.31
422.062	105.31
422.285	101.31
422.507	97.31
422.73	90.31
422.953	97.31
423.175	95.31
423.398	89.31
423.621	103.31
423.843	103.31
424.066	95.31
424.288	89.31
424.511	102.31
424.733	98.31
424.956	101.31
425.178	87.31
425.401	81.31
425.623	92.31
425.846	84.31
426.068	109.31
426.291	89.31
426.513	115.31
426.735	100.31
426.958	100.31
427.18	102.31
427.402	136.31
427.625	174.31
427.847	134.31
428.069	113.31
428.292	90.31
428.514	85.31
428.736	71.31
428.958	85.31
429.181	99.31
429.403	77.31
429.625	93.31
429.847	106.31
430.069	108.31
430.292	91.31
430.514	89.31
430.736	82.31
430.958	87.31
431.18	94.31
431.402	89.31
431.624	94.31
431.846	85.31
432.068	86.31
432.29	77.31
432.512	87.31
432.734	91.31
432.956	79.31
433.178	89.31
433.4	99.31
433.622	101.31
433.844	89.31
434.066	93.31
434.287	85.31
434.509	86.31
434.731	93.31
434.953	89.31
435.175	89.31
435.397	95.31
435.618	107.31
435.84	101.31
436.062	103.31
436.284	115.31
436.505	115.31
436.727	97.31
436.949	95.31
437.17	97.31
437.392	95.31
437.614	100.31
437.835	109.31
438.057	118.31
438.278	94.31
438.5	99.31
438.721	141.31
438.943	90.31
439.165	95.31
439.386	99.31
439.608	102.31
439.829	83.31
440.05	114.31
440.272	135.31
440.493	99.31
440.715	79.31
440.936	94.31
441.158	97.31
441.379	78.31
441.6	93.31
441.822	97.31
442.043	88.31
442.264	100.31
442.486	97.31
442.707	95.31
442.928	113.31
443.149	121.31
443.371	120.31
443.592	101.31
443.813	126.31
444.034	104.31
444.255	93.31
444.476	93.31
444.698	105.31
444.919	96.31
445.14	130.31
445.361	118.31
445.582	114.31
445.803	144.31
446.024	121.31
446.245	133.31
446.466	109.31
446.687	97.31
446.908	83.31
447.129	103.31
447.35	92.31
447.571	93.31
447.792	91.31
448.013	98.31
448.234	114.31
448.455	91.31
448.675	116.31
448.896	110.31
449.117	99.31
449.338	106.31
449.559	136.31
449.779	110.31
450	87.31
450.221	82.31
450.442	77.31
450.662	102.31
450.883	99.31
451.104	101.31
451.324	102.31
451.545	89.31
451.766	93.31
451.986	91.31
452.207	99.31
452.428	88.31
452.648	96.31
452.869	106.31
453.089	107.31
453.31	116.31
453.53	93.31
453.751	88.31
453.971	100.31
454.192	105.31
454.412	90.31
454.633	87.31
454.853	90.31
455.073	90.31
455.294	88.31
455.514	104.31
455.734	94.31
455.955	101.31
456.175	98.31
456.395	96.31
456.616	98.31
456.836	94.31
457.056	81.31
457.276	83.31
457.497	90.31
457.717	70.31
457.937	97.31
458.157	92.31
458.377	95.31
458.598	105.31
458.818	137.31
459.038	153.31
459.258	125.31
459.478	101.31
459.698	85.31
459.918	100.31
460.138	85.31
460.358	87.31
460.578	85.31
460.798	103.31
461.018	73.31
461.238	69.31
461.458	89.31
461.678	93.31
461.898	99.31
462.118	89.31
462.338	95.31
462.558	92.31
462.777	91.31
462.997	81.31
463.217	86.31
463.437	90.31
463.657	88.31
463.876	84.31
464.096	98.31
464.316	93.31
464.536	88.31
464.755	88.31
464.975	105.31
465.195	154.31
465.414	159.31
465.634	96.31
465.854	82.31
466.073	87.31
466.293	90.31
466.512	104.31
466.732	92.31
466.951	82.31
467.171	88.31
467.391	102.31
467.61	99.31
467.829	98.31
468.049	90.31
468.268	87.31
468.488	79.31
468.707	95.31
468.927	83.31
469.146	83.31
469.365	82.31
469.585	88.31
469.804	91.31
470.023	106.31
470.243	92.31
470.462	106.31
470.681	104.31
470.901	80.31
471.12	93.31
471.339	90.31
471.558	99.31
471.777	90.31
471.997	80.31
472.216	93.31
472.435	111.31
472.654	97.31
472.873	93.31
473.092	95.31
473.311	90.31
473.53	89.31
473.749	74.31
473.968	103.31
474.187	101.31
474.406	102.31
474.625	89.31
474.844	77.31
475.063	86.31
475.282	78.31
475.501	86.31
475.72	93.31
475.939	94.31
476.158	90.31
476.377	81.31
476.596	81.31
476.814	96.31
477.033	86.31
477.252	95.31
477.471	95.31
477.69	80.31
477.908	80.31
478.127	111.31
478.346	94.31
478.564	94.31
478.783	94.31
479.002	93.31
479.22	93.31
479.439	98.31
479.658	109.31
479.876	99.31
480.095	97.31
480.313	95.31
480.532	99.31
480.751	95.31
480.969	100.31
481.188	151.31
481.406	104.31
481.624	81.31
481.843	98.31
482.061	99.31
482.28	91.31
482.498	89.31
482.717	101.31
482.935	93.31
483.153	75.31
483.372	74.31
483.59	96.31
483.808	88.31
484.027	112.31
484.245	97.31
484.463	97.31
484.681	91.31
484.9	104.31
485.118	97.31
485.336	102.31
485.554	99.31
485.772	92.31
485.99	100.31
486.209	102.31
486.427	104.31
486.645	118.31
486.863	110.31
487.081	96.31
487.299	87.31
487.517	102.31
487.735	95.31
487.953	107.31
488.171	97.31
488.389	92.31
488.607	102.31
488.825	86.31
489.043	87.31
489.261	82.31
489.479	101.31
489.696	102.31
489.914	93.31
490.132	91.31
490.35	95.31
490.568	87.31
490.786	79.31
491.003	91.31
491.221	93.31
491.439	98.31
491.657	95.31
491.874	105.31
492.092	86.31
492.31	80.31
492.527	88.31
492.745	89.31
492.963	95.31
493.18	101.31
493.398	91.31
493.615	96.31
493.833	104.31
494.05	94.31
494.268	103.31
494.485	94.31
494.703	104.31
494.92	88.31
495.138	91.31
495.355	96.31
495.573	94.31
495.79	69.31
496.008	93.31
496.225	96.31
496.442	85.31
496.66	95.31
496.877	75.31
497.094	87.31
497.312	99.31
497.529	73.31
497.746	90.31
497.963	87.31
498.181	93.31
498.398	91.31
498.615	112.31
498.832	120.31
499.049	87.31
499.267	94.31
499.484	105.31
499.701	92.31
499.918	106.31
500.135	90.31
500.352	94.31
500.569	90.31
500.786	93.31
501.003	97.31
501.22	95.31
501.437	93.31
501.654	85.31
501.871	96.31
502.088	91.31
502.305	87.31
502.522	90.31
502.739	100.31
502.956	87.31
503.172	93.31
503.389	93.31
503.606	99.31
503.823	112.31
504.04	99.31
504.256	87.31
504.473	108.31
504.69	88.31
504.907	103.31
505.123	96.31
505.34	89.31
505.557	95.31
505.773	99.31
505.99	88.31
506.207	99.31
506.423	95.31
506.64	95.31
506.856	105.31
507.073	88.31
507.289	96.31
507.506	90.31
507.722	104.31
507.939	107.31
508.155	90.31
508.372	85.31
508.588	110.31
508.805	94.31
509.021	93.31
509.238	90.31
509.454	102.31
509.67	100.31
509.887	108.31
510.103	125.31
510.319	207.31
510.536	691.31
510.752	2143.31
510.968	591.31
511.184	125.31
511.401	116.31
511.617	98.31
511.833	86.31
512.049	88.31
512.265	82.31
512.481	97.31
512.698	98.31
512.914	82.31
513.13	98.31
513.346	72.31
513.562	97.31
513.778	95.31
513.994	95.31
514.21	97.31
514.426	116.31
514.642	134.31
514.858	127.31
