Data from Uncirc_1990_H10_HRD10591_00084.txt Node
Date: Wed Jan 03 11:54:08 EST 2024
User: Yrep
Spectrometer: HR+D1059
Trigger mode: 1
Integration Time (sec): 1.000000E-1
Scans to average: 1
Electric dark correction enabled: true
Nonlinearity correction enabled: false
Boxcar width: 0
XAxis mode: Wavelengths
Number of Pixels in Spectrum: 2048
>>>>>Begin Spectral Data<<<<<
223.165	-26.5
223.4	-26.5
223.635	-26.5
223.869	-3.5
224.104	-21.5
224.338	-17.5
224.573	-16.5
224.808	-20.5
225.042	-13.5
225.277	-4.5
225.511	5.5
225.746	0.5
225.98	13.5
226.215	8.5
226.449	12.5
226.683	28.5
226.918	30.5
227.152	24.5
227.387	38.5
227.621	41.5
227.856	48.5
228.09	56.5
228.324	56.5
228.559	51.5
228.793	58.5
229.027	58.5
229.262	51.5
229.496	78.5
229.73	86.5
229.964	83.5
230.199	71.5
230.433	81.5
230.667	81.5
230.901	78.5
231.136	79.5
231.37	65.5
231.604	70.5
231.838	88.5
232.072	84.5
232.306	80.5
232.541	76.5
232.775	85.5
233.009	68.5
233.243	69.5
233.477	85.5
233.711	82.5
233.945	87.5
234.179	88.5
234.413	93.5
234.647	90.5
234.881	69.5
235.115	73.5
235.349	82.5
235.583	79.5
235.817	82.5
236.051	74.5
236.285	81.5
236.519	75.5
236.753	70.5
236.987	69.5
237.221	78.5
237.455	72.5
237.689	79.5
237.922	83.5
238.156	77.5
238.39	78.5
238.624	82.5
238.858	79.5
239.091	77.5
239.325	78.5
239.559	79.5
239.793	80.5
240.027	83.5
240.26	78.5
240.494	69.5
240.728	87.5
240.961	96.5
241.195	75.5
241.429	75.5
241.662	59.5
241.896	79.5
242.13	70.5
242.363	94.5
242.597	75.5
242.83	93.5
243.064	87.5
243.298	67.5
243.531	71.5
243.765	71.5
243.998	81.5
244.232	94.5
244.465	85.5
244.699	86.5
244.932	71.5
245.166	86.5
245.399	67.5
245.633	68.5
245.866	79.5
246.099	69.5
246.333	69.5
246.566	81.5
246.8	71.5
247.033	76.5
247.266	84.5
247.5	91.5
247.733	84.5
247.966	76.5
248.2	92.5
248.433	88.5
248.666	80.5
248.899	81.5
249.133	71.5
249.366	97.5
249.599	104.5
249.832	81.5
250.066	79.5
250.299	76.5
250.532	83.5
250.765	101.5
250.998	77.5
251.231	67.5
251.465	85.5
251.698	84.5
251.931	69.5
252.164	81.5
252.397	62.5
252.63	82.5
252.863	62.5
253.096	89.5
253.329	94.5
253.562	80.5
253.795	86.5
254.028	79.5
254.261	85.5
254.494	75.5
254.727	81.5
254.96	74.5
255.193	69.5
255.426	64.5
255.659	91.5
255.892	69.5
256.124	86.5
256.357	84.5
256.59	86.5
256.823	92.5
257.056	84.5
257.289	82.5
257.521	79.5
257.754	78.5
257.987	67.5
258.22	71.5
258.452	77.5
258.685	82.5
258.918	84.5
259.151	94.5
259.383	79.5
259.616	83.5
259.849	91.5
260.081	80.5
260.314	74.5
260.547	81.5
260.779	64.5
261.012	71.5
261.244	82.5
261.477	90.5
261.71	86.5
261.942	114.5
262.175	103.5
262.407	92.5
262.64	85.5
262.872	62.5
263.105	78.5
263.337	91.5
263.57	92.5
263.802	77.5
264.035	80.5
264.267	101.5
264.499	83.5
264.732	88.5
264.964	77.5
265.197	89.5
265.429	104.5
265.661	89.5
265.894	91.5
266.126	80.5
266.358	78.5
266.591	86.5
266.823	91.5
267.055	85.5
267.287	79.5
267.52	81.5
267.752	90.5
267.984	83.5
268.216	83.5
268.448	73.5
268.681	85.5
268.913	90.5
269.145	82.5
269.377	87.5
269.609	62.5
269.841	92.5
270.073	90.5
270.306	84.5
270.538	82.5
270.77	107.5
271.002	63.5
271.234	71.5
271.466	83.5
271.698	86.5
271.93	80.5
272.162	88.5
272.394	87.5
272.626	78.5
272.858	76.5
273.09	96.5
273.322	88.5
273.553	81.5
273.785	82.5
274.017	76.5
274.249	87.5
274.481	76.5
274.713	75.5
274.945	91.5
275.176	81.5
275.408	102.5
275.64	88.5
275.872	77.5
276.104	73.5
276.335	92.5
276.567	82.5
276.799	104.5
277.031	108.5
277.262	100.5
277.494	85.5
277.726	98.5
277.957	88.5
278.189	86.5
278.421	84.5
278.652	58.5
278.884	101.5
279.115	88.5
279.347	86.5
279.579	80.5
279.81	81.5
280.042	91.5
280.273	94.5
280.505	88.5
280.736	78.5
280.968	82.5
281.199	90.5
281.431	94.5
281.662	85.5
281.894	84.5
282.125	101.5
282.356	104.5
282.588	142.5
282.819	99.5
283.051	97.5
283.282	82.5
283.513	78.5
283.745	96.5
283.976	89.5
284.207	95.5
284.439	85.5
284.67	100.5
284.901	80.5
285.132	78.5
285.364	71.5
285.595	88.5
285.826	88.5
286.057	98.5
286.288	95.5
286.52	75.5
286.751	76.5
286.982	99.5
287.213	84.5
287.444	75.5
287.675	91.5
287.906	76.5
288.138	92.5
288.369	103.5
288.6	81.5
288.831	107.5
289.062	100.5
289.293	78.5
289.524	88.5
289.755	82.5
289.986	85.5
290.217	94.5
290.448	90.5
290.679	81.5
290.91	104.5
291.141	71.5
291.371	108.5
291.602	94.5
291.833	87.5
292.064	90.5
292.295	81.5
292.526	82.5
292.757	94.5
292.987	90.5
293.218	88.5
293.449	101.5
293.68	76.5
293.91	87.5
294.141	88.5
294.372	73.5
294.603	86.5
294.833	83.5
295.064	90.5
295.295	84.5
295.525	89.5
295.756	96.5
295.987	108.5
296.217	136.5
296.448	110.5
296.679	99.5
296.909	90.5
297.14	84.5
297.37	91.5
297.601	94.5
297.831	86.5
298.062	95.5
298.292	104.5
298.523	84.5
298.753	90.5
298.984	88.5
299.214	84.5
299.445	98.5
299.675	87.5
299.905	102.5
300.136	86.5
300.366	89.5
300.597	102.5
300.827	92.5
301.057	84.5
301.288	110.5
301.518	97.5
301.748	89.5
301.979	96.5
302.209	90.5
302.439	88.5
302.669	83.5
302.9	88.5
303.13	77.5
303.36	88.5
303.59	109.5
303.82	101.5
304.051	98.5
304.281	102.5
304.511	84.5
304.741	68.5
304.971	98.5
305.201	75.5
305.431	86.5
305.661	79.5
305.891	96.5
306.121	90.5
306.352	108.5
306.582	99.5
306.812	93.5
307.042	83.5
307.272	92.5
307.502	76.5
307.731	91.5
307.961	107.5
308.191	85.5
308.421	84.5
308.651	102.5
308.881	94.5
309.111	94.5
309.341	94.5
309.571	103.5
309.8	88.5
310.03	112.5
310.26	106.5
310.49	102.5
310.72	93.5
310.949	99.5
311.179	94.5
311.409	111.5
311.639	87.5
311.868	103.5
312.098	89.5
312.328	94.5
312.557	101.5
312.787	97.5
313.017	101.5
313.246	98.5
313.476	90.5
313.706	106.5
313.935	115.5
314.165	110.5
314.394	92.5
314.624	100.5
314.853	94.5
315.083	78.5
315.312	94.5
315.542	91.5
315.771	88.5
316.001	76.5
316.23	83.5
316.46	83.5
316.689	85.5
316.919	88.5
317.148	95.5
317.377	96.5
317.607	79.5
317.836	107.5
318.065	90.5
318.295	92.5
318.524	109.5
318.753	93.5
318.983	101.5
319.212	104.5
319.441	118.5
319.67	91.5
319.9	93.5
320.129	81.5
320.358	82.5
320.587	103.5
320.816	87.5
321.046	95.5
321.275	87.5
321.504	104.5
321.733	98.5
321.962	91.5
322.191	94.5
322.42	107.5
322.649	101.5
322.878	103.5
323.108	113.5
323.337	107.5
323.566	126.5
323.795	140.5
324.024	207.5
324.253	383.5
324.482	826.5
324.71	1731.5
324.939	2239.5
325.168	806.5
325.397	244.5
325.626	150.5
325.855	118.5
326.084	120.5
326.313	132.5
326.542	149.5
326.77	236.5
326.999	429.5
327.228	916.5
327.457	1635.5
327.686	1361.5
327.914	381.5
328.143	186.5
328.372	158.5
328.6	131.5
328.829	113.5
329.058	118.5
329.287	122.5
329.515	119.5
329.744	103.5
329.972	88.5
330.201	106.5
330.43	125.5
330.658	114.5
330.887	138.5
331.115	126.5
331.344	93.5
331.572	117.5
331.801	94.5
332.03	105.5
332.258	101.5
332.486	87.5
332.715	93.5
332.943	88.5
333.172	113.5
333.4	91.5
333.629	103.5
333.857	112.5
334.085	106.5
334.314	100.5
334.542	125.5
334.771	118.5
334.999	100.5
335.227	88.5
335.455	86.5
335.684	103.5
335.912	89.5
336.14	100.5
336.369	95.5
336.597	109.5
336.825	90.5
337.053	97.5
337.281	99.5
337.51	93.5
337.738	90.5
337.966	102.5
338.194	86.5
338.422	98.5
338.65	93.5
338.878	90.5
339.106	92.5
339.334	90.5
339.562	87.5
339.79	94.5
340.018	74.5
340.246	97.5
340.474	108.5
340.702	97.5
340.93	83.5
341.158	100.5
341.386	87.5
341.614	107.5
341.842	101.5
342.07	95.5
342.298	90.5
342.526	94.5
342.754	88.5
342.981	86.5
343.209	93.5
343.437	97.5
343.665	95.5
343.893	92.5
344.12	94.5
344.348	90.5
344.576	99.5
344.804	105.5
345.031	98.5
345.259	93.5
345.487	87.5
345.714	79.5
345.942	87.5
346.17	96.5
346.397	100.5
346.625	90.5
346.853	89.5
347.08	82.5
347.308	92.5
347.535	101.5
347.763	101.5
347.99	99.5
348.218	103.5
348.445	92.5
348.673	103.5
348.9	92.5
349.128	100.5
349.355	92.5
349.583	89.5
349.81	100.5
350.037	103.5
350.265	104.5
350.492	83.5
350.72	94.5
350.947	95.5
351.174	115.5
351.402	105.5
351.629	89.5
351.856	115.5
352.083	107.5
352.311	110.5
352.538	115.5
352.765	108.5
352.992	114.5
353.22	105.5
353.447	94.5
353.674	94.5
353.901	98.5
354.128	103.5
354.355	100.5
354.583	103.5
354.81	98.5
355.037	100.5
355.264	102.5
355.491	92.5
355.718	68.5
355.945	98.5
356.172	96.5
356.399	95.5
356.626	95.5
356.853	99.5
357.08	90.5
357.307	95.5
357.534	87.5
357.761	97.5
357.988	110.5
358.215	101.5
358.441	86.5
358.668	85.5
358.895	78.5
359.122	86.5
359.349	79.5
359.576	89.5
359.802	118.5
360.029	129.5
360.256	99.5
360.483	88.5
360.709	98.5
360.936	97.5
361.163	96.5
361.39	91.5
361.616	91.5
361.843	94.5
362.07	94.5
362.296	107.5
362.523	96.5
362.749	107.5
362.976	88.5
363.203	82.5
363.429	106.5
363.656	79.5
363.882	94.5
364.109	80.5
364.335	84.5
364.562	98.5
364.788	89.5
365.015	99.5
365.241	98.5
365.468	112.5
365.694	99.5
365.92	94.5
366.147	86.5
366.373	84.5
366.599	81.5
366.826	79.5
367.052	79.5
367.278	79.5
367.505	85.5
367.731	92.5
367.957	101.5
368.184	90.5
368.41	106.5
368.636	101.5
368.862	123.5
369.089	97.5
369.315	90.5
369.541	107.5
369.767	95.5
369.993	90.5
370.219	80.5
370.445	87.5
370.672	75.5
370.898	88.5
371.124	88.5
371.35	94.5
371.576	87.5
371.802	89.5
372.028	94.5
372.254	91.5
372.48	94.5
372.706	89.5
372.932	82.5
373.158	76.5
373.384	85.5
373.61	106.5
373.835	90.5
374.061	90.5
374.287	95.5
374.513	92.5
374.739	78.5
374.965	78.5
375.191	87.5
375.416	81.5
375.642	96.5
375.868	100.5
376.094	90.5
376.319	94.5
376.545	78.5
376.771	96.5
376.997	101.5
377.222	99.5
377.448	101.5
377.674	97.5
377.899	89.5
378.125	80.5
378.35	95.5
378.576	84.5
378.802	92.5
379.027	95.5
379.253	83.5
379.478	87.5
379.704	105.5
379.929	86.5
380.155	95.5
380.38	105.5
380.606	97.5
380.831	100.5
381.057	92.5
381.282	93.5
381.507	100.5
381.733	91.5
381.958	93.5
382.184	88.5
382.409	93.5
382.634	96.5
382.86	96.5
383.085	105.5
383.31	93.5
383.535	113.5
383.761	95.5
383.986	90.5
384.211	87.5
384.436	91.5
384.662	95.5
384.887	98.5
385.112	95.5
385.337	103.5
385.562	100.5
385.787	111.5
386.013	104.5
386.238	101.5
386.463	102.5
386.688	109.5
386.913	93.5
387.138	86.5
387.363	94.5
387.588	101.5
387.813	83.5
388.038	92.5
388.263	93.5
388.488	94.5
388.713	91.5
388.938	96.5
389.163	91.5
389.387	98.5
389.612	94.5
389.837	97.5
390.062	96.5
390.287	105.5
390.512	81.5
390.736	92.5
390.961	93.5
391.186	90.5
391.411	102.5
391.636	86.5
391.86	77.5
392.085	98.5
392.31	86.5
392.534	76.5
392.759	88.5
392.984	88.5
393.208	69.5
393.433	77.5
393.658	71.5
393.882	96.5
394.107	82.5
394.331	91.5
394.556	95.5
394.78	86.5
395.005	87.5
395.229	78.5
395.454	89.5
395.678	76.5
395.903	85.5
396.127	101.5
396.352	80.5
396.576	77.5
396.801	84.5
397.025	84.5
397.249	82.5
397.474	85.5
397.698	91.5
397.922	92.5
398.147	86.5
398.371	92.5
398.595	82.5
398.82	61.5
399.044	92.5
399.268	97.5
399.492	79.5
399.717	94.5
399.941	87.5
400.165	92.5
400.389	83.5
400.613	80.5
400.837	89.5
401.062	83.5
401.286	80.5
401.51	93.5
401.734	104.5
401.958	99.5
402.182	122.5
402.406	166.5
402.63	106.5
402.854	95.5
403.078	90.5
403.302	83.5
403.526	89.5
403.75	91.5
403.974	68.5
404.198	88.5
404.422	92.5
404.645	81.5
404.869	92.5
405.093	92.5
405.317	100.5
405.541	111.5
405.765	102.5
405.988	127.5
406.212	161.5
406.436	230.5
406.66	157.5
406.883	103.5
407.107	103.5
407.331	98.5
407.555	103.5
407.778	95.5
408.002	100.5
408.226	84.5
408.449	83.5
408.673	98.5
408.896	77.5
409.12	83.5
409.344	83.5
409.567	91.5
409.791	95.5
410.014	80.5
410.238	94.5
410.461	103.5
410.685	98.5
410.908	92.5
411.132	106.5
411.355	106.5
411.578	94.5
411.802	93.5
412.025	103.5
412.249	98.5
412.472	96.5
412.695	89.5
412.919	86.5
413.142	95.5
413.365	73.5
413.589	96.5
413.812	90.5
414.035	81.5
414.258	92.5
414.482	106.5
414.705	87.5
414.928	89.5
415.151	81.5
415.374	92.5
415.597	90.5
415.821	85.5
416.044	81.5
416.267	92.5
416.49	83.5
416.713	91.5
416.936	89.5
417.159	80.5
417.382	87.5
417.605	95.5
417.828	85.5
418.051	81.5
418.274	86.5
418.497	83.5
418.72	90.5
418.943	83.5
419.166	79.5
419.389	85.5
419.611	95.5
419.834	94.5
420.057	97.5
420.28	81.5
420.503	76.5
420.726	95.5
420.948	77.5
421.171	84.5
421.394	99.5
421.617	95.5
421.839	89.5
422.062	95.5
422.285	98.5
422.507	83.5
422.73	94.5
422.953	100.5
423.175	78.5
423.398	95.5
423.621	97.5
423.843	94.5
424.066	89.5
424.288	89.5
424.511	84.5
424.733	95.5
424.956	99.5
425.178	93.5
425.401	98.5
425.623	103.5
425.846	85.5
426.068	91.5
426.291	86.5
426.513	94.5
426.735	99.5
426.958	103.5
427.18	101.5
427.402	136.5
427.625	167.5
427.847	124.5
428.069	108.5
428.292	85.5
428.514	70.5
428.736	80.5
428.958	85.5
429.181	82.5
429.403	77.5
429.625	80.5
429.847	97.5
430.069	94.5
430.292	86.5
430.514	88.5
430.736	89.5
430.958	85.5
431.18	86.5
431.402	66.5
431.624	72.5
431.846	87.5
432.068	87.5
432.29	74.5
432.512	81.5
432.734	79.5
432.956	80.5
433.178	95.5
433.4	91.5
433.622	87.5
433.844	89.5
434.066	88.5
434.287	98.5
434.509	77.5
434.731	76.5
434.953	86.5
435.175	88.5
435.397	74.5
435.618	83.5
435.84	99.5
436.062	126.5
436.284	105.5
436.505	106.5
436.727	90.5
436.949	80.5
437.17	92.5
437.392	91.5
437.614	91.5
437.835	113.5
438.057	116.5
438.278	117.5
438.5	93.5
438.721	127.5
438.943	110.5
439.165	92.5
439.386	94.5
439.608	98.5
439.829	93.5
440.05	128.5
440.272	144.5
440.493	98.5
440.715	86.5
440.936	83.5
441.158	97.5
441.379	90.5
441.6	96.5
441.822	111.5
442.043	84.5
442.264	90.5
442.486	95.5
442.707	114.5
442.928	101.5
443.149	139.5
443.371	108.5
443.592	98.5
443.813	111.5
444.034	108.5
444.255	99.5
444.476	91.5
444.698	77.5
444.919	83.5
445.14	130.5
445.361	107.5
445.582	103.5
445.803	132.5
446.024	140.5
446.245	125.5
446.466	106.5
446.687	88.5
446.908	82.5
447.129	93.5
447.35	96.5
447.571	95.5
447.792	103.5
448.013	99.5
448.234	115.5
448.455	104.5
448.675	104.5
448.896	118.5
449.117	103.5
449.338	91.5
449.559	127.5
449.779	115.5
450	100.5
450.221	74.5
450.442	79.5
450.662	96.5
450.883	96.5
451.104	107.5
451.324	100.5
451.545	89.5
451.766	90.5
451.986	87.5
452.207	88.5
452.428	80.5
452.648	80.5
452.869	95.5
453.089	115.5
453.31	116.5
453.53	94.5
453.751	87.5
453.971	91.5
454.192	100.5
454.412	90.5
454.633	98.5
454.853	91.5
455.073	86.5
455.294	92.5
455.514	87.5
455.734	88.5
455.955	78.5
456.175	95.5
456.395	91.5
456.616	86.5
456.836	75.5
457.056	80.5
457.276	83.5
457.497	96.5
457.717	78.5
457.937	76.5
458.157	93.5
458.377	90.5
458.598	115.5
458.818	140.5
459.038	162.5
459.258	116.5
459.478	88.5
459.698	98.5
459.918	95.5
460.138	98.5
460.358	82.5
460.578	87.5
460.798	78.5
461.018	74.5
461.238	87.5
461.458	90.5
461.678	94.5
461.898	82.5
462.118	84.5
462.338	77.5
462.558	88.5
462.777	78.5
462.997	71.5
463.217	86.5
463.437	79.5
463.657	90.5
463.876	92.5
464.096	93.5
464.316	80.5
464.536	85.5
464.755	103.5
464.975	104.5
465.195	173.5
465.414	156.5
465.634	96.5
465.854	87.5
466.073	78.5
466.293	89.5
466.512	88.5
466.732	84.5
466.951	78.5
467.171	92.5
467.391	96.5
467.61	102.5
467.829	116.5
468.049	100.5
468.268	102.5
468.488	85.5
468.707	90.5
468.927	83.5
469.146	66.5
469.365	91.5
469.585	85.5
469.804	94.5
470.023	99.5
470.243	82.5
470.462	105.5
470.681	113.5
470.901	93.5
471.12	88.5
471.339	86.5
471.558	67.5
471.777	90.5
471.997	89.5
472.216	106.5
472.435	130.5
472.654	88.5
472.873	80.5
473.092	78.5
473.311	95.5
473.53	78.5
473.749	76.5
473.968	89.5
474.187	104.5
474.406	99.5
474.625	80.5
474.844	102.5
475.063	79.5
475.282	92.5
475.501	85.5
475.72	86.5
475.939	87.5
476.158	84.5
476.377	84.5
476.596	82.5
476.814	96.5
477.033	107.5
477.252	103.5
477.471	88.5
477.69	86.5
477.908	95.5
478.127	82.5
478.346	84.5
478.564	86.5
478.783	98.5
479.002	93.5
479.22	80.5
479.439	115.5
479.658	98.5
479.876	97.5
480.095	76.5
480.313	97.5
480.532	96.5
480.751	101.5
480.969	101.5
481.188	160.5
481.406	118.5
481.624	84.5
481.843	85.5
482.061	100.5
482.28	102.5
482.498	92.5
482.717	94.5
482.935	88.5
483.153	82.5
483.372	86.5
483.59	82.5
483.808	79.5
484.027	98.5
484.245	83.5
484.463	83.5
484.681	87.5
484.9	91.5
485.118	97.5
485.336	97.5
485.554	84.5
485.772	88.5
485.99	93.5
486.209	89.5
486.427	93.5
486.645	124.5
486.863	113.5
487.081	92.5
487.299	88.5
487.517	101.5
487.735	102.5
487.953	104.5
488.171	103.5
488.389	87.5
488.607	107.5
488.825	96.5
489.043	92.5
489.261	97.5
489.479	94.5
489.696	85.5
489.914	88.5
490.132	82.5
490.35	97.5
490.568	87.5
490.786	84.5
491.003	97.5
491.221	90.5
491.439	89.5
491.657	93.5
491.874	100.5
492.092	97.5
492.31	91.5
492.527	89.5
492.745	79.5
492.963	100.5
493.18	84.5
493.398	79.5
493.615	74.5
493.833	104.5
494.05	94.5
494.268	99.5
494.485	74.5
494.703	87.5
494.92	72.5
495.138	90.5
495.355	88.5
495.573	84.5
495.79	94.5
496.008	90.5
496.225	88.5
496.442	93.5
496.66	85.5
496.877	95.5
497.094	102.5
497.312	78.5
497.529	91.5
497.746	95.5
497.963	86.5
498.181	93.5
498.398	87.5
498.615	119.5
498.832	91.5
499.049	98.5
499.267	92.5
499.484	81.5
499.701	84.5
499.918	80.5
500.135	87.5
500.352	105.5
500.569	85.5
500.786	86.5
501.003	98.5
501.22	106.5
501.437	98.5
501.654	82.5
501.871	109.5
502.088	92.5
502.305	86.5
502.522	100.5
502.739	85.5
502.956	81.5
503.172	86.5
503.389	86.5
503.606	99.5
503.823	85.5
504.04	102.5
504.256	95.5
504.473	93.5
504.69	93.5
504.907	103.5
505.123	87.5
505.34	79.5
505.557	88.5
505.773	79.5
505.99	86.5
506.207	78.5
506.423	93.5
506.64	84.5
506.856	83.5
507.073	85.5
507.289	99.5
507.506	92.5
507.722	122.5
507.939	110.5
508.155	89.5
508.372	78.5
508.588	82.5
508.805	100.5
509.021	85.5
509.238	109.5
509.454	89.5
509.67	112.5
509.887	117.5
510.103	138.5
510.319	222.5
510.536	751.5
510.752	2490.5
510.968	688.5
511.184	162.5
511.401	112.5
511.617	85.5
511.833	96.5
512.049	90.5
512.265	90.5
512.481	93.5
512.698	85.5
512.914	99.5
513.13	86.5
513.346	98.5
513.562	87.5
513.778	98.5
513.994	83.5
514.21	100.5
514.426	114.5
514.642	137.5
514.858	117.5
515.074	158.5
515.29	455.5
515.506	1486.5
515.721	540.5
515.937	143.5
516.153	113.5
516.369	92.5
516.585	94.5
516.801	81.5
517.016	101.5
517.232	100.5
517.448	98.5
517.664	84.5
517.879	100.5
518.095	81.5
518.311	85.5
518.527	85.5
518.742	90.5
518.958	82.5
519.173	93.5
519.389	119.5
519.605	87.5
519.82	90.5
520.036	111.5
520.251	118.5
520.467	101.5
520.682	119.5
520.898	121.5
521.113	127.5
521.329	132.5
521.544	214.5
521.76	568.5
521.975	2538.5
522.19	1492.5
522.406	319.5
522.621	124.5
522.836	98.5
523.052	96.5
523.267	91.5
523.482	99.5
523.698	100.5
523.913	122.5
524.128	122.5
524.343	101.5
524.559	86.5
524.774	109.5
524.989	99.5
525.204	98.5
525.419	99.5
525.634	90.5
525.849	90.5
526.064	91.5
526.28	99.5
526.495	92.5
526.71	83.5
526.925	90.5
527.14	75.5
527.355	90.5
527.57	99.5
527.785	99.5
527.999	88.5
528.214	111.5
528.429	90.5
528.644	92.5
528.859	98.5
529.074	91.5
529.289	124.5
529.503	181.5
529.718	105.5
529.933	79.5
530.148	99.5
530.363	100.5
530.577	91.5
530.792	106.5
531.007	93.5
531.221	85.5
531.436	88.5
531.651	90.5
531.865	87.5
532.08	95.5
532.295	94.5
532.509	86.5
532.724	97.5
532.938	86.5
533.153	82.5
533.367	108.5
533.582	91.5
533.796	90.5
534.011	92.5
534.225	99.5
534.44	85.5
534.654	81.5
534.868	108.5
535.083	97.5
535.297	83.5
