Data from Uncirc_1990_H10_HRD10591_00005.txt Node
Date: Wed Jan 03 11:53:52 EST 2024
User: Yrep
Spectrometer: HR+D1059
Trigger mode: 1
Integration Time (sec): 1.000000E-1
Scans to average: 1
Electric dark correction enabled: true
Nonlinearity correction enabled: false
Boxcar width: 0
XAxis mode: Wavelengths
Number of Pixels in Spectrum: 2048
>>>>>Begin Spectral Data<<<<<
223.165	-36.19
223.4	-36.19
223.635	-36.19
223.869	-16.19
224.104	-17.19
224.338	-11.19
224.573	-13.19
224.808	-9.19
225.042	-9.19
225.277	-11.19
225.511	2.81
225.746	5.81
225.98	-6.19
226.215	23.81
226.449	14.81
226.683	30.81
226.918	25.81
227.152	25.81
227.387	36.81
227.621	29.81
227.856	51.81
228.09	45.81
228.324	52.81
228.559	49.81
228.793	65.81
229.027	62.81
229.262	57.81
229.496	64.81
229.73	74.81
229.964	87.81
230.199	78.81
230.433	73.81
230.667	76.81
230.901	82.81
231.136	63.81
231.37	75.81
231.604	76.81
231.838	81.81
232.072	73.81
232.306	93.81
232.541	77.81
232.775	82.81
233.009	88.81
233.243	75.81
233.477	71.81
233.711	85.81
233.945	65.81
234.179	73.81
234.413	72.81
234.647	76.81
234.881	68.81
235.115	72.81
235.349	75.81
235.583	80.81
235.817	75.81
236.051	83.81
236.285	73.81
236.519	82.81
236.753	64.81
236.987	79.81
237.221	81.81
237.455	75.81
237.689	64.81
237.922	77.81
238.156	73.81
238.39	67.81
238.624	69.81
238.858	87.81
239.091	65.81
239.325	77.81
239.559	81.81
239.793	65.81
240.027	74.81
240.26	63.81
240.494	68.81
240.728	73.81
240.961	68.81
241.195	79.81
241.429	65.81
241.662	76.81
241.896	62.81
242.13	73.81
242.363	66.81
242.597	75.81
242.83	68.81
243.064	84.81
243.298	72.81
243.531	77.81
243.765	83.81
243.998	71.81
244.232	80.81
244.465	84.81
244.699	80.81
244.932	79.81
245.166	60.81
245.399	73.81
245.633	64.81
245.866	75.81
246.099	72.81
246.333	78.81
246.566	67.81
246.8	71.81
247.033	66.81
247.266	87.81
247.5	75.81
247.733	77.81
247.966	80.81
248.2	82.81
248.433	72.81
248.666	76.81
248.899	94.81
249.133	88.81
249.366	77.81
249.599	73.81
249.832	85.81
250.066	83.81
250.299	84.81
250.532	66.81
250.765	76.81
250.998	80.81
251.231	75.81
251.465	83.81
251.698	79.81
251.931	80.81
252.164	82.81
252.397	88.81
252.63	62.81
252.863	69.81
253.096	72.81
253.329	75.81
253.562	69.81
253.795	81.81
254.028	70.81
254.261	77.81
254.494	74.81
254.727	82.81
254.96	78.81
255.193	78.81
255.426	79.81
255.659	80.81
255.892	77.81
256.124	77.81
256.357	81.81
256.59	76.81
256.823	91.81
257.056	84.81
257.289	79.81
257.521	66.81
257.754	90.81
257.987	77.81
258.22	83.81
258.452	66.81
258.685	77.81
258.918	76.81
259.151	68.81
259.383	71.81
259.616	71.81
259.849	80.81
260.081	89.81
260.314	76.81
260.547	79.81
260.779	84.81
261.012	83.81
261.244	79.81
261.477	83.81
261.71	88.81
261.942	99.81
262.175	85.81
262.407	75.81
262.64	88.81
262.872	87.81
263.105	81.81
263.337	80.81
263.57	84.81
263.802	81.81
264.035	87.81
264.267	83.81
264.499	74.81
264.732	75.81
264.964	80.81
265.197	78.81
265.429	95.81
265.661	72.81
265.894	84.81
266.126	80.81
266.358	94.81
266.591	85.81
266.823	91.81
267.055	80.81
267.287	94.81
267.52	89.81
267.752	80.81
267.984	71.81
268.216	76.81
268.448	92.81
268.681	81.81
268.913	77.81
269.145	87.81
269.377	70.81
269.609	85.81
269.841	73.81
270.073	79.81
270.306	78.81
270.538	82.81
270.77	77.81
271.002	70.81
271.234	81.81
271.466	76.81
271.698	79.81
271.93	84.81
272.162	88.81
272.394	95.81
272.626	92.81
272.858	75.81
273.09	86.81
273.322	82.81
273.553	78.81
273.785	85.81
274.017	83.81
274.249	79.81
274.481	83.81
274.713	92.81
274.945	75.81
275.176	75.81
275.408	89.81
275.64	83.81
275.872	82.81
276.104	87.81
276.335	69.81
276.567	98.81
276.799	96.81
277.031	93.81
277.262	72.81
277.494	85.81
277.726	75.81
277.957	82.81
278.189	78.81
278.421	82.81
278.652	65.81
278.884	66.81
279.115	73.81
279.347	81.81
279.579	82.81
279.81	94.81
280.042	85.81
280.273	80.81
280.505	84.81
280.736	87.81
280.968	94.81
281.199	77.81
281.431	82.81
281.662	91.81
281.894	96.81
282.125	94.81
282.356	110.81
282.588	110.81
282.819	100.81
283.051	80.81
283.282	91.81
283.513	93.81
283.745	79.81
283.976	89.81
284.207	83.81
284.439	80.81
284.67	76.81
284.901	86.81
285.132	98.81
285.364	84.81
285.595	97.81
285.826	73.81
286.057	79.81
286.288	88.81
286.52	74.81
286.751	84.81
286.982	86.81
287.213	77.81
287.444	81.81
287.675	88.81
287.906	83.81
288.138	91.81
288.369	95.81
288.6	92.81
288.831	77.81
289.062	90.81
289.293	88.81
289.524	85.81
289.755	82.81
289.986	83.81
290.217	90.81
290.448	78.81
290.679	79.81
290.91	92.81
291.141	80.81
291.371	87.81
291.602	87.81
291.833	92.81
292.064	84.81
292.295	94.81
292.526	84.81
292.757	78.81
292.987	80.81
293.218	81.81
293.449	91.81
293.68	89.81
293.91	87.81
294.141	91.81
294.372	82.81
294.603	82.81
294.833	83.81
295.064	77.81
295.295	94.81
295.525	90.81
295.756	96.81
295.987	97.81
296.217	111.81
296.448	113.81
296.679	92.81
296.909	92.81
297.14	82.81
297.37	82.81
297.601	81.81
297.831	84.81
298.062	94.81
298.292	89.81
298.523	84.81
298.753	76.81
298.984	76.81
299.214	76.81
299.445	88.81
299.675	95.81
299.905	96.81
300.136	81.81
300.366	98.81
300.597	82.81
300.827	87.81
301.057	80.81
301.288	87.81
301.518	89.81
301.748	84.81
301.979	91.81
302.209	85.81
302.439	107.81
302.669	91.81
302.9	81.81
303.13	94.81
303.36	98.81
303.59	91.81
303.82	91.81
304.051	75.81
304.281	84.81
304.511	89.81
304.741	91.81
304.971	74.81
305.201	89.81
305.431	92.81
305.661	97.81
305.891	83.81
306.121	98.81
306.352	88.81
306.582	92.81
306.812	83.81
307.042	76.81
307.272	88.81
307.502	101.81
307.731	95.81
307.961	77.81
308.191	82.81
308.421	93.81
308.651	83.81
308.881	93.81
309.111	85.81
309.341	97.81
309.571	99.81
309.8	106.81
310.03	82.81
310.26	89.81
310.49	89.81
310.72	84.81
310.949	82.81
311.179	83.81
311.409	80.81
311.639	89.81
311.868	92.81
312.098	95.81
312.328	80.81
312.557	95.81
312.787	100.81
313.017	94.81
313.246	88.81
313.476	83.81
313.706	87.81
313.935	90.81
314.165	89.81
314.394	81.81
314.624	90.81
314.853	92.81
315.083	80.81
315.312	89.81
315.542	75.81
315.771	77.81
316.001	92.81
316.23	83.81
316.46	96.81
316.689	81.81
316.919	87.81
317.148	99.81
317.377	103.81
317.607	112.81
317.836	78.81
318.065	96.81
318.295	77.81
318.524	91.81
318.753	90.81
318.983	84.81
319.212	91.81
319.441	108.81
319.67	108.81
319.9	80.81
320.129	84.81
320.358	92.81
320.587	88.81
320.816	95.81
321.046	99.81
321.275	89.81
321.504	98.81
321.733	87.81
321.962	88.81
322.191	93.81
322.42	108.81
322.649	97.81
322.878	91.81
323.108	99.81
323.337	123.81
323.566	106.81
323.795	132.81
324.024	179.81
324.253	329.81
324.482	663.81
324.71	1376.81
324.939	1799.81
325.168	676.81
325.397	203.81
325.626	133.81
325.855	124.81
326.084	115.81
326.313	113.81
326.542	128.81
326.77	192.81
326.999	379.81
327.228	781.81
327.457	1378.81
327.686	1112.81
327.914	307.81
328.143	155.81
328.372	135.81
328.6	106.81
328.829	112.81
329.058	95.81
329.287	107.81
329.515	87.81
329.744	104.81
329.972	101.81
330.201	107.81
330.43	100.81
330.658	95.81
330.887	114.81
331.115	111.81
331.344	99.81
331.572	112.81
331.801	88.81
332.03	89.81
332.258	96.81
332.486	84.81
332.715	89.81
332.943	105.81
333.172	92.81
333.4	84.81
333.629	98.81
333.857	101.81
334.085	100.81
334.314	92.81
334.542	104.81
334.771	93.81
334.999	93.81
335.227	96.81
335.455	86.81
335.684	91.81
335.912	100.81
336.14	83.81
336.369	85.81
336.597	82.81
336.825	99.81
337.053	95.81
337.281	80.81
337.51	102.81
337.738	87.81
337.966	89.81
338.194	98.81
338.422	98.81
338.65	72.81
338.878	79.81
339.106	101.81
339.334	78.81
339.562	81.81
339.79	88.81
340.018	75.81
340.246	90.81
340.474	103.81
340.702	84.81
340.93	79.81
341.158	79.81
341.386	95.81
341.614	96.81
341.842	104.81
342.07	87.81
342.298	85.81
342.526	89.81
342.754	97.81
342.981	101.81
343.209	89.81
343.437	107.81
343.665	85.81
343.893	79.81
344.12	81.81
344.348	89.81
344.576	74.81
344.804	93.81
345.031	93.81
345.259	90.81
345.487	95.81
345.714	85.81
345.942	91.81
346.17	89.81
346.397	82.81
346.625	105.81
346.853	78.81
347.08	88.81
347.308	102.81
347.535	85.81
347.763	100.81
347.99	95.81
348.218	92.81
348.445	91.81
348.673	86.81
348.9	97.81
349.128	88.81
349.355	89.81
349.583	82.81
349.81	98.81
350.037	85.81
350.265	92.81
350.492	95.81
350.72	97.81
350.947	99.81
351.174	85.81
351.402	98.81
351.629	104.81
351.856	105.81
352.083	92.81
352.311	92.81
352.538	91.81
352.765	109.81
352.992	111.81
353.22	87.81
353.447	95.81
353.674	112.81
353.901	101.81
354.128	106.81
354.355	106.81
354.583	92.81
354.81	102.81
355.037	81.81
355.264	102.81
355.491	85.81
355.718	96.81
355.945	95.81
356.172	94.81
356.399	104.81
356.626	84.81
356.853	92.81
357.08	87.81
357.307	86.81
357.534	98.81
357.761	92.81
357.988	96.81
358.215	88.81
358.441	104.81
358.668	95.81
358.895	89.81
359.122	78.81
359.349	82.81
359.576	96.81
359.802	84.81
360.029	97.81
360.256	101.81
360.483	90.81
360.709	83.81
360.936	81.81
361.163	71.81
361.39	88.81
361.616	88.81
361.843	94.81
362.07	98.81
362.296	93.81
362.523	94.81
362.749	88.81
362.976	89.81
363.203	88.81
363.429	80.81
363.656	73.81
363.882	95.81
364.109	87.81
364.335	87.81
364.562	84.81
364.788	80.81
365.015	76.81
365.241	98.81
365.468	96.81
365.694	103.81
365.92	84.81
366.147	85.81
366.373	83.81
366.599	91.81
366.826	106.81
367.052	94.81
367.278	104.81
367.505	93.81
367.731	100.81
367.957	72.81
368.184	82.81
368.41	89.81
368.636	101.81
368.862	111.81
369.089	87.81
369.315	98.81
369.541	102.81
369.767	95.81
369.993	96.81
370.219	80.81
370.445	90.81
370.672	98.81
370.898	89.81
371.124	81.81
371.35	78.81
371.576	74.81
371.802	79.81
372.028	84.81
372.254	90.81
372.48	87.81
372.706	89.81
372.932	81.81
373.158	84.81
373.384	87.81
373.61	92.81
373.835	97.81
374.061	91.81
374.287	79.81
374.513	91.81
374.739	78.81
374.965	96.81
375.191	93.81
375.416	92.81
375.642	92.81
375.868	82.81
376.094	97.81
376.319	89.81
376.545	77.81
376.771	96.81
376.997	87.81
377.222	85.81
377.448	92.81
377.674	81.81
377.899	96.81
378.125	94.81
378.35	87.81
378.576	82.81
378.802	85.81
379.027	92.81
379.253	101.81
379.478	93.81
379.704	91.81
379.929	88.81
380.155	98.81
380.38	89.81
380.606	88.81
380.831	91.81
381.057	100.81
381.282	84.81
381.507	80.81
381.733	91.81
381.958	85.81
382.184	92.81
382.409	98.81
382.634	98.81
382.86	96.81
383.085	105.81
383.31	104.81
383.535	100.81
383.761	103.81
383.986	105.81
384.211	102.81
384.436	99.81
384.662	87.81
384.887	94.81
385.112	109.81
385.337	106.81
385.562	101.81
385.787	98.81
386.013	105.81
386.238	103.81
386.463	108.81
386.688	97.81
386.913	83.81
387.138	97.81
387.363	106.81
387.588	98.81
387.813	90.81
388.038	104.81
388.263	113.81
388.488	90.81
388.713	92.81
388.938	93.81
389.163	98.81
389.387	101.81
389.612	101.81
389.837	84.81
390.062	97.81
390.287	93.81
390.512	92.81
390.736	85.81
390.961	95.81
391.186	95.81
391.411	100.81
391.636	91.81
391.86	67.81
392.085	86.81
392.31	98.81
392.534	85.81
392.759	82.81
392.984	82.81
393.208	74.81
393.433	94.81
393.658	85.81
393.882	93.81
394.107	93.81
394.331	81.81
394.556	90.81
394.78	83.81
395.005	81.81
395.229	91.81
395.454	88.81
395.678	97.81
395.903	84.81
396.127	87.81
396.352	82.81
396.576	83.81
396.801	88.81
397.025	87.81
397.249	84.81
397.474	85.81
397.698	79.81
397.922	99.81
398.147	84.81
398.371	89.81
398.595	84.81
398.82	85.81
399.044	104.81
399.268	82.81
399.492	63.81
399.717	89.81
399.941	91.81
400.165	101.81
400.389	91.81
400.613	89.81
400.837	88.81
401.062	84.81
401.286	73.81
401.51	87.81
401.734	85.81
401.958	105.81
402.182	116.81
402.406	113.81
402.63	93.81
402.854	88.81
403.078	77.81
403.302	78.81
403.526	92.81
403.75	78.81
403.974	89.81
404.198	92.81
404.422	99.81
404.645	84.81
404.869	88.81
405.093	89.81
405.317	90.81
405.541	94.81
405.765	90.81
405.988	98.81
406.212	125.81
406.436	179.81
406.66	119.81
406.883	91.81
407.107	113.81
407.331	87.81
407.555	95.81
407.778	87.81
408.002	91.81
408.226	65.81
408.449	94.81
408.673	84.81
408.896	97.81
409.12	82.81
409.344	79.81
409.567	98.81
409.791	97.81
410.014	88.81
410.238	90.81
410.461	87.81
410.685	97.81
410.908	91.81
411.132	91.81
411.355	88.81
411.578	83.81
411.802	84.81
412.025	78.81
412.249	91.81
412.472	96.81
412.695	99.81
412.919	88.81
413.142	73.81
413.365	84.81
413.589	86.81
413.812	82.81
414.035	92.81
414.258	71.81
414.482	95.81
414.705	96.81
414.928	88.81
415.151	90.81
415.374	82.81
415.597	87.81
415.821	79.81
416.044	91.81
416.267	86.81
416.49	90.81
416.713	98.81
416.936	92.81
417.159	99.81
417.382	85.81
417.605	93.81
417.828	95.81
418.051	78.81
418.274	62.81
418.497	94.81
418.72	77.81
418.943	70.81
419.166	83.81
419.389	90.81
419.611	92.81
419.834	94.81
420.057	73.81
420.28	91.81
420.503	87.81
420.726	81.81
420.948	97.81
421.171	97.81
421.394	106.81
421.617	95.81
421.839	88.81
422.062	79.81
422.285	92.81
422.507	107.81
422.73	89.81
422.953	84.81
423.175	87.81
423.398	91.81
423.621	97.81
423.843	87.81
424.066	79.81
424.288	100.81
424.511	89.81
424.733	83.81
424.956	107.81
425.178	87.81
425.401	86.81
425.623	96.81
425.846	84.81
426.068	83.81
426.291	91.81
426.513	81.81
426.735	89.81
426.958	83.81
427.18	107.81
427.402	121.81
427.625	144.81
427.847	97.81
428.069	90.81
428.292	69.81
428.514	93.81
428.736	77.81
428.958	80.81
429.181	81.81
429.403	96.81
429.625	90.81
429.847	85.81
430.069	98.81
430.292	92.81
430.514	84.81
430.736	95.81
430.958	83.81
431.18	80.81
431.402	91.81
431.624	84.81
431.846	89.81
432.068	85.81
432.29	77.81
432.512	66.81
432.734	87.81
432.956	77.81
433.178	82.81
433.4	96.81
433.622	89.81
433.844	78.81
434.066	94.81
434.287	92.81
434.509	68.81
434.731	82.81
434.953	79.81
435.175	80.81
435.397	80.81
435.618	82.81
435.84	96.81
436.062	104.81
436.284	89.81
436.505	89.81
436.727	99.81
436.949	106.81
437.17	66.81
437.392	68.81
437.614	93.81
437.835	92.81
438.057	91.81
438.278	103.81
438.5	103.81
438.721	114.81
438.943	84.81
439.165	85.81
439.386	83.81
439.608	85.81
439.829	94.81
440.05	98.81
440.272	111.81
440.493	83.81
440.715	81.81
440.936	74.81
441.158	88.81
441.379	91.81
441.6	91.81
441.822	75.81
442.043	83.81
442.264	91.81
442.486	93.81
442.707	96.81
442.928	92.81
443.149	117.81
443.371	124.81
443.592	94.81
443.813	110.81
444.034	90.81
444.255	86.81
444.476	85.81
444.698	91.81
444.919	98.81
445.14	112.81
445.361	122.81
445.582	108.81
445.803	122.81
446.024	117.81
446.245	107.81
446.466	99.81
446.687	88.81
446.908	76.81
447.129	93.81
447.35	89.81
447.571	93.81
447.792	76.81
448.013	90.81
448.234	92.81
448.455	95.81
448.675	104.81
448.896	106.81
449.117	92.81
449.338	88.81
449.559	115.81
449.779	115.81
450	81.81
450.221	108.81
450.442	94.81
450.662	79.81
450.883	98.81
451.104	96.81
451.324	86.81
451.545	92.81
451.766	86.81
451.986	92.81
452.207	90.81
452.428	90.81
452.648	90.81
452.869	102.81
453.089	115.81
453.31	79.81
453.53	83.81
453.751	89.81
453.971	90.81
454.192	89.81
454.412	98.81
454.633	79.81
454.853	79.81
455.073	76.81
455.294	80.81
455.514	90.81
455.734	84.81
455.955	84.81
456.175	78.81
456.395	92.81
456.616	84.81
456.836	85.81
457.056	76.81
457.276	71.81
457.497	85.81
457.717	78.81
457.937	75.81
458.157	83.81
458.377	98.81
458.598	100.81
458.818	119.81
459.038	130.81
459.258	95.81
459.478	88.81
459.698	75.81
459.918	69.81
460.138	100.81
460.358	74.81
460.578	77.81
460.798	96.81
461.018	89.81
461.238	79.81
461.458	77.81
461.678	85.81
461.898	81.81
462.118	88.81
462.338	90.81
462.558	75.81
462.777	76.81
462.997	86.81
463.217	72.81
463.437	83.81
463.657	87.81
463.876	82.81
464.096	89.81
464.316	89.81
464.536	83.81
464.755	84.81
464.975	91.81
465.195	127.81
465.414	124.81
465.634	89.81
465.854	87.81
466.073	75.81
466.293	97.81
466.512	85.81
466.732	81.81
466.951	78.81
467.171	92.81
467.391	87.81
467.61	85.81
467.829	87.81
468.049	78.81
468.268	77.81
468.488	82.81
468.707	84.81
468.927	85.81
469.146	86.81
469.365	97.81
469.585	71.81
469.804	90.81
470.023	84.81
470.243	77.81
470.462	96.81
470.681	87.81
470.901	80.81
471.12	85.81
471.339	74.81
471.558	76.81
471.777	80.81
471.997	85.81
472.216	100.81
472.435	91.81
472.654	81.81
472.873	85.81
473.092	82.81
473.311	71.81
473.53	84.81
473.749	87.81
473.968	94.81
474.187	83.81
474.406	80.81
474.625	81.81
474.844	84.81
475.063	80.81
475.282	78.81
475.501	96.81
475.72	66.81
475.939	79.81
476.158	67.81
476.377	93.81
476.596	84.81
476.814	97.81
477.033	83.81
477.252	76.81
477.471	79.81
477.69	84.81
477.908	93.81
478.127	92.81
478.346	87.81
478.564	66.81
478.783	76.81
479.002	87.81
479.22	85.81
479.439	98.81
479.658	90.81
479.876	102.81
480.095	79.81
480.313	85.81
480.532	99.81
480.751	97.81
480.969	77.81
481.188	93.81
481.406	94.81
481.624	105.81
481.843	93.81
482.061	84.81
482.28	89.81
482.498	96.81
482.717	94.81
482.935	82.81
483.153	82.81
483.372	86.81
483.59	84.81
483.808	90.81
484.027	92.81
484.245	88.81
484.463	77.81
484.681	92.81
484.9	94.81
485.118	86.81
485.336	98.81
485.554	106.81
485.772	98.81
485.99	103.81
486.209	101.81
486.427	97.81
486.645	104.81
486.863	95.81
487.081	104.81
487.299	90.81
487.517	87.81
487.735	96.81
487.953	91.81
488.171	104.81
488.389	95.81
488.607	98.81
488.825	88.81
489.043	95.81
489.261	73.81
489.479	92.81
489.696	92.81
489.914	83.81
490.132	93.81
490.35	83.81
490.568	84.81
490.786	85.81
491.003	77.81
491.221	89.81
491.439	79.81
491.657	83.81
491.874	89.81
492.092	87.81
492.31	94.81
492.527	84.81
492.745	88.81
492.963	81.81
493.18	81.81
493.398	93.81
493.615	75.81
493.833	87.81
494.05	94.81
494.268	106.81
494.485	80.81
494.703	77.81
494.92	91.81
495.138	90.81
495.355	79.81
495.573	93.81
495.79	71.81
496.008	87.81
496.225	81.81
496.442	78.81
496.66	83.81
496.877	90.81
497.094	83.81
497.312	98.81
497.529	81.81
497.746	87.81
497.963	77.81
498.181	90.81
498.398	92.81
498.615	108.81
498.832	95.81
499.049	72.81
499.267	87.81
499.484	87.81
499.701	100.81
499.918	67.81
500.135	83.81
500.352	101.81
500.569	104.81
500.786	74.81
501.003	80.81
501.22	89.81
501.437	78.81
501.654	87.81
501.871	109.81
502.088	97.81
502.305	91.81
502.522	79.81
502.739	92.81
502.956	80.81
503.172	90.81
503.389	97.81
503.606	85.81
503.823	103.81
504.04	92.81
504.256	83.81
504.473	84.81
504.69	82.81
504.907	97.81
505.123	86.81
505.34	98.81
505.557	80.81
505.773	82.81
505.99	84.81
506.207	79.81
506.423	84.81
506.64	80.81
506.856	83.81
507.073	80.81
507.289	83.81
507.506	85.81
507.722	83.81
507.939	91.81
508.155	84.81
508.372	87.81
508.588	98.81
508.805	92.81
509.021	90.81
509.238	97.81
509.454	85.81
509.67	83.81
509.887	95.81
510.103	116.81
510.319	181.81
510.536	586.81
510.752	1803.81
510.968	494.81
511.184	132.81
511.401	88.81
511.617	91.81
511.833	81.81
512.049	95.81
512.265	93.81
512.481	92.81
512.698	96.81
512.914	79.81
513.13	95.81
513.346	83.81
513.562	77.81
513.778	100.81
513.994	84.81
514.21	90.81
514.426	113.81
514.642	117.81
514.858	113.81
515.074	143.81
515.29	327.81
515.506	1037.81
515.721	384.81
515.937	131.81
516.153	105.81
516.369	94.81
516.585	83.81
516.801	64.81
517.016	95.81
517.232	88.81
517.448	104.81
