Data from Uncirc_1990_H10_HRD10591_00013.txt Node
Date: Wed Jan 03 11:53:54 EST 2024
User: Yrep
Spectrometer: HR+D1059
Trigger mode: 1
Integration Time (sec): 1.000000E-1
Scans to average: 1
Electric dark correction enabled: true
Nonlinearity correction enabled: false
Boxcar width: 0
XAxis mode: Wavelengths
Number of Pixels in Spectrum: 2048
>>>>>Begin Spectral Data<<<<<
223.165	-22.38
223.4	-22.38
223.635	-22.38
223.869	-14.38
224.104	-13.38
224.338	-16.38
224.573	-21.38
224.808	-5.38
225.042	-5.38
225.277	-12.38
225.511	1.62
225.746	-9.38
225.98	6.62
226.215	7.62
226.449	22.62
226.683	22.62
226.918	30.62
227.152	28.62
227.387	44.62
227.621	33.62
227.856	45.62
228.09	49.62
228.324	61.62
228.559	66.62
228.793	54.62
229.027	57.62
229.262	65.62
229.496	72.62
229.73	95.62
229.964	100.62
230.199	83.62
230.433	79.62
230.667	95.62
230.901	83.62
231.136	59.62
231.37	75.62
231.604	72.62
231.838	69.62
232.072	86.62
232.306	76.62
232.541	78.62
232.775	73.62
233.009	93.62
233.243	93.62
233.477	91.62
233.711	83.62
233.945	90.62
234.179	79.62
234.413	86.62
234.647	97.62
234.881	82.62
235.115	79.62
235.349	65.62
235.583	93.62
235.817	78.62
236.051	77.62
236.285	77.62
236.519	77.62
236.753	89.62
236.987	94.62
237.221	81.62
237.455	90.62
237.689	77.62
237.922	81.62
238.156	90.62
238.39	73.62
238.624	61.62
238.858	64.62
239.091	69.62
239.325	85.62
239.559	73.62
239.793	62.62
240.027	73.62
240.26	87.62
240.494	67.62
240.728	81.62
240.961	73.62
241.195	85.62
241.429	91.62
241.662	78.62
241.896	71.62
242.13	81.62
242.363	75.62
242.597	70.62
242.83	70.62
243.064	80.62
243.298	85.62
243.531	77.62
243.765	89.62
243.998	84.62
244.232	80.62
244.465	85.62
244.699	85.62
244.932	62.62
245.166	72.62
245.399	84.62
245.633	73.62
245.866	71.62
246.099	76.62
246.333	82.62
246.566	72.62
246.8	79.62
247.033	86.62
247.266	84.62
247.5	75.62
247.733	92.62
247.966	81.62
248.2	84.62
248.433	86.62
248.666	83.62
248.899	81.62
249.133	81.62
249.366	107.62
249.599	98.62
249.832	93.62
250.066	88.62
250.299	85.62
250.532	82.62
250.765	75.62
250.998	94.62
251.231	73.62
251.465	72.62
251.698	79.62
251.931	82.62
252.164	81.62
252.397	74.62
252.63	88.62
252.863	83.62
253.096	75.62
253.329	89.62
253.562	77.62
253.795	80.62
254.028	88.62
254.261	64.62
254.494	86.62
254.727	89.62
254.96	90.62
255.193	83.62
255.426	80.62
255.659	87.62
255.892	79.62
256.124	93.62
256.357	78.62
256.59	90.62
256.823	100.62
257.056	72.62
257.289	75.62
257.521	90.62
257.754	84.62
257.987	88.62
258.22	81.62
258.452	81.62
258.685	82.62
258.918	74.62
259.151	80.62
259.383	93.62
259.616	88.62
259.849	88.62
260.081	71.62
260.314	86.62
260.547	82.62
260.779	86.62
261.012	75.62
261.244	91.62
261.477	83.62
261.71	88.62
261.942	109.62
262.175	123.62
262.407	76.62
262.64	93.62
262.872	93.62
263.105	81.62
263.337	83.62
263.57	78.62
263.802	83.62
264.035	85.62
264.267	80.62
264.499	101.62
264.732	79.62
264.964	89.62
265.197	78.62
265.429	85.62
265.661	74.62
265.894	100.62
266.126	83.62
266.358	94.62
266.591	75.62
266.823	93.62
267.055	91.62
267.287	79.62
267.52	76.62
267.752	94.62
267.984	73.62
268.216	86.62
268.448	79.62
268.681	95.62
268.913	89.62
269.145	87.62
269.377	90.62
269.609	89.62
269.841	87.62
270.073	86.62
270.306	72.62
270.538	95.62
270.77	90.62
271.002	93.62
271.234	88.62
271.466	80.62
271.698	92.62
271.93	93.62
272.162	101.62
272.394	94.62
272.626	73.62
272.858	91.62
273.09	85.62
273.322	93.62
273.553	82.62
273.785	88.62
274.017	72.62
274.249	84.62
274.481	82.62
274.713	86.62
274.945	91.62
275.176	90.62
275.408	89.62
275.64	84.62
275.872	92.62
276.104	113.62
276.335	91.62
276.567	98.62
276.799	100.62
277.031	93.62
277.262	99.62
277.494	94.62
277.726	81.62
277.957	97.62
278.189	88.62
278.421	78.62
278.652	91.62
278.884	101.62
279.115	89.62
279.347	97.62
279.579	79.62
279.81	89.62
280.042	85.62
280.273	96.62
280.505	80.62
280.736	94.62
280.968	94.62
281.199	89.62
281.431	89.62
281.662	102.62
281.894	108.62
282.125	83.62
282.356	110.62
282.588	111.62
282.819	132.62
283.051	100.62
283.282	94.62
283.513	86.62
283.745	81.62
283.976	93.62
284.207	94.62
284.439	98.62
284.67	85.62
284.901	95.62
285.132	97.62
285.364	91.62
285.595	95.62
285.826	81.62
286.057	84.62
286.288	67.62
286.52	89.62
286.751	83.62
286.982	94.62
287.213	99.62
287.444	89.62
287.675	91.62
287.906	102.62
288.138	82.62
288.369	87.62
288.6	100.62
288.831	86.62
289.062	94.62
289.293	105.62
289.524	87.62
289.755	79.62
289.986	91.62
290.217	83.62
290.448	89.62
290.679	89.62
290.91	93.62
291.141	88.62
291.371	108.62
291.602	89.62
291.833	91.62
292.064	83.62
292.295	101.62
292.526	97.62
292.757	83.62
292.987	106.62
293.218	96.62
293.449	105.62
293.68	91.62
293.91	91.62
294.141	89.62
294.372	94.62
294.603	79.62
294.833	79.62
295.064	90.62
295.295	89.62
295.525	81.62
295.756	99.62
295.987	110.62
296.217	126.62
296.448	123.62
296.679	91.62
296.909	89.62
297.14	81.62
297.37	79.62
297.601	94.62
297.831	83.62
298.062	105.62
298.292	77.62
298.523	93.62
298.753	88.62
298.984	82.62
299.214	97.62
299.445	81.62
299.675	88.62
299.905	103.62
300.136	84.62
300.366	99.62
300.597	105.62
300.827	102.62
301.057	99.62
301.288	96.62
301.518	104.62
301.748	105.62
301.979	101.62
302.209	102.62
302.439	90.62
302.669	86.62
302.9	96.62
303.13	102.62
303.36	98.62
303.59	90.62
303.82	106.62
304.051	89.62
304.281	91.62
304.511	83.62
304.741	94.62
304.971	91.62
305.201	94.62
305.431	90.62
305.661	84.62
305.891	81.62
306.121	92.62
306.352	82.62
306.582	99.62
306.812	101.62
307.042	99.62
307.272	92.62
307.502	102.62
307.731	90.62
307.961	92.62
308.191	95.62
308.421	88.62
308.651	94.62
308.881	89.62
309.111	86.62
309.341	102.62
309.571	107.62
309.8	94.62
310.03	87.62
310.26	98.62
310.49	85.62
310.72	88.62
310.949	99.62
311.179	97.62
311.409	106.62
311.639	103.62
311.868	87.62
312.098	98.62
312.328	93.62
312.557	86.62
312.787	103.62
313.017	90.62
313.246	82.62
313.476	90.62
313.706	95.62
313.935	99.62
314.165	91.62
314.394	96.62
314.624	95.62
314.853	90.62
315.083	90.62
315.312	96.62
315.542	92.62
315.771	91.62
316.001	101.62
316.23	79.62
316.46	86.62
316.689	79.62
316.919	100.62
317.148	98.62
317.377	89.62
317.607	93.62
317.836	87.62
318.065	86.62
318.295	84.62
318.524	75.62
318.753	90.62
318.983	82.62
319.212	93.62
319.441	101.62
319.67	110.62
319.9	106.62
320.129	96.62
320.358	111.62
320.587	104.62
320.816	86.62
321.046	79.62
321.275	111.62
321.504	89.62
321.733	89.62
321.962	90.62
322.191	93.62
322.42	98.62
322.649	117.62
322.878	103.62
323.108	106.62
323.337	142.62
323.566	121.62
323.795	144.62
324.024	192.62
324.253	347.62
324.482	708.62
324.71	1477.62
324.939	1984.62
325.168	735.62
325.397	219.62
325.626	143.62
325.855	118.62
326.084	107.62
326.313	114.62
326.542	139.62
326.77	214.62
326.999	423.62
327.228	859.62
327.457	1529.62
327.686	1260.62
327.914	353.62
328.143	189.62
328.372	154.62
328.6	109.62
328.829	117.62
329.058	111.62
329.287	114.62
329.515	99.62
329.744	120.62
329.972	85.62
330.201	81.62
330.43	105.62
330.658	115.62
330.887	131.62
331.115	115.62
331.344	104.62
331.572	102.62
331.801	109.62
332.03	95.62
332.258	97.62
332.486	91.62
332.715	96.62
332.943	88.62
333.172	93.62
333.4	96.62
333.629	101.62
333.857	96.62
334.085	102.62
334.314	97.62
334.542	103.62
334.771	92.62
334.999	87.62
335.227	104.62
335.455	101.62
335.684	99.62
335.912	102.62
336.14	85.62
336.369	106.62
336.597	97.62
336.825	104.62
337.053	95.62
337.281	91.62
337.51	90.62
337.738	104.62
337.966	118.62
338.194	106.62
338.422	89.62
338.65	92.62
338.878	99.62
339.106	89.62
339.334	85.62
339.562	87.62
339.79	101.62
340.018	96.62
340.246	89.62
340.474	85.62
340.702	82.62
340.93	94.62
341.158	90.62
341.386	84.62
341.614	82.62
341.842	92.62
342.07	93.62
342.298	91.62
342.526	94.62
342.754	97.62
342.981	98.62
343.209	79.62
343.437	91.62
343.665	94.62
343.893	89.62
344.12	90.62
344.348	81.62
344.576	87.62
344.804	85.62
345.031	92.62
345.259	92.62
345.487	101.62
345.714	107.62
345.942	110.62
346.17	92.62
346.397	100.62
346.625	97.62
346.853	96.62
347.08	101.62
347.308	97.62
347.535	81.62
347.763	91.62
347.99	95.62
348.218	95.62
348.445	119.62
348.673	101.62
348.9	104.62
349.128	98.62
349.355	93.62
349.583	95.62
349.81	100.62
350.037	100.62
350.265	93.62
350.492	100.62
350.72	113.62
350.947	104.62
351.174	116.62
351.402	110.62
351.629	102.62
351.856	110.62
352.083	107.62
352.311	106.62
352.538	124.62
352.765	106.62
352.992	110.62
353.22	107.62
353.447	93.62
353.674	105.62
353.901	105.62
354.128	101.62
354.355	98.62
354.583	79.62
354.81	98.62
355.037	89.62
355.264	103.62
355.491	102.62
355.718	101.62
355.945	85.62
356.172	97.62
356.399	97.62
356.626	82.62
356.853	99.62
357.08	105.62
357.307	86.62
357.534	97.62
357.761	97.62
357.988	83.62
358.215	96.62
358.441	85.62
358.668	99.62
358.895	96.62
359.122	99.62
359.349	86.62
359.576	99.62
359.802	100.62
360.029	108.62
360.256	99.62
360.483	85.62
360.709	89.62
360.936	90.62
361.163	109.62
361.39	99.62
361.616	100.62
361.843	88.62
362.07	95.62
362.296	104.62
362.523	96.62
362.749	109.62
362.976	89.62
363.203	91.62
363.429	80.62
363.656	97.62
363.882	105.62
364.109	84.62
364.335	109.62
364.562	98.62
364.788	89.62
365.015	93.62
365.241	99.62
365.468	98.62
365.694	111.62
365.92	88.62
366.147	89.62
366.373	84.62
366.599	90.62
366.826	94.62
367.052	93.62
367.278	81.62
367.505	96.62
367.731	86.62
367.957	89.62
368.184	91.62
368.41	99.62
368.636	97.62
368.862	118.62
369.089	110.62
369.315	96.62
369.541	87.62
369.767	101.62
369.993	90.62
370.219	78.62
370.445	80.62
370.672	98.62
370.898	91.62
371.124	101.62
371.35	96.62
371.576	85.62
371.802	97.62
372.028	81.62
372.254	90.62
372.48	94.62
372.706	101.62
372.932	93.62
373.158	94.62
373.384	84.62
373.61	90.62
373.835	92.62
374.061	91.62
374.287	83.62
374.513	103.62
374.739	99.62
374.965	88.62
375.191	86.62
375.416	92.62
375.642	96.62
375.868	105.62
376.094	99.62
376.319	103.62
376.545	77.62
376.771	78.62
376.997	93.62
377.222	81.62
377.448	90.62
377.674	92.62
377.899	94.62
378.125	93.62
378.35	103.62
378.576	92.62
378.802	95.62
379.027	85.62
379.253	101.62
379.478	96.62
379.704	93.62
379.929	81.62
380.155	96.62
380.38	109.62
380.606	95.62
380.831	96.62
381.057	98.62
381.282	106.62
381.507	90.62
381.733	107.62
381.958	92.62
382.184	106.62
382.409	103.62
382.634	107.62
382.86	97.62
383.085	105.62
383.31	104.62
383.535	97.62
383.761	83.62
383.986	99.62
384.211	96.62
384.436	82.62
384.662	96.62
384.887	104.62
385.112	98.62
385.337	106.62
385.562	97.62
385.787	104.62
386.013	107.62
386.238	115.62
386.463	114.62
386.688	113.62
386.913	115.62
387.138	123.62
387.363	101.62
387.588	97.62
387.813	103.62
388.038	113.62
388.263	108.62
388.488	106.62
388.713	120.62
388.938	100.62
389.163	94.62
389.387	98.62
389.612	98.62
389.837	81.62
390.062	93.62
390.287	101.62
390.512	95.62
390.736	100.62
390.961	102.62
391.186	94.62
391.411	101.62
391.636	110.62
391.86	84.62
392.085	83.62
392.31	88.62
392.534	86.62
392.759	85.62
392.984	101.62
393.208	94.62
393.433	95.62
393.658	90.62
393.882	101.62
394.107	81.62
394.331	89.62
394.556	109.62
394.78	99.62
395.005	98.62
395.229	76.62
395.454	92.62
395.678	98.62
395.903	91.62
396.127	86.62
396.352	77.62
396.576	89.62
396.801	90.62
397.025	91.62
397.249	89.62
397.474	84.62
397.698	83.62
397.922	95.62
398.147	94.62
398.371	80.62
398.595	79.62
398.82	89.62
399.044	88.62
399.268	88.62
399.492	83.62
399.717	75.62
399.941	104.62
400.165	106.62
400.389	91.62
400.613	91.62
400.837	87.62
401.062	77.62
401.286	99.62
401.51	88.62
401.734	92.62
401.958	107.62
402.182	116.62
402.406	141.62
402.63	113.62
402.854	98.62
403.078	99.62
403.302	95.62
403.526	95.62
403.75	83.62
403.974	96.62
404.198	83.62
404.422	101.62
404.645	73.62
404.869	95.62
405.093	98.62
405.317	100.62
405.541	109.62
405.765	88.62
405.988	104.62
406.212	145.62
406.436	215.62
406.66	132.62
406.883	99.62
407.107	90.62
407.331	101.62
407.555	89.62
407.778	96.62
408.002	111.62
408.226	89.62
408.449	102.62
408.673	98.62
408.896	97.62
409.12	96.62
409.344	79.62
409.567	96.62
409.791	96.62
410.014	95.62
410.238	80.62
410.461	104.62
410.685	96.62
410.908	119.62
411.132	113.62
411.355	98.62
411.578	105.62
411.802	75.62
412.025	96.62
412.249	86.62
412.472	88.62
412.695	103.62
412.919	89.62
413.142	75.62
413.365	87.62
413.589	81.62
413.812	83.62
414.035	82.62
414.258	104.62
414.482	92.62
414.705	90.62
414.928	87.62
415.151	87.62
415.374	91.62
415.597	82.62
415.821	101.62
416.044	98.62
416.267	88.62
416.49	85.62
416.713	83.62
416.936	92.62
417.159	97.62
417.382	103.62
417.605	96.62
417.828	96.62
418.051	86.62
418.274	87.62
418.497	97.62
418.72	95.62
418.943	102.62
419.166	85.62
419.389	81.62
419.611	94.62
419.834	88.62
420.057	89.62
420.28	95.62
420.503	95.62
420.726	93.62
420.948	95.62
421.171	110.62
421.394	93.62
421.617	89.62
421.839	97.62
422.062	104.62
422.285	96.62
422.507	115.62
422.73	104.62
422.953	111.62
423.175	109.62
423.398	82.62
423.621	91.62
423.843	96.62
424.066	88.62
424.288	83.62
424.511	94.62
424.733	94.62
424.956	96.62
425.178	104.62
425.401	102.62
425.623	90.62
425.846	83.62
426.068	104.62
426.291	95.62
426.513	85.62
426.735	96.62
426.958	105.62
427.18	102.62
427.402	126.62
427.625	133.62
427.847	103.62
428.069	107.62
428.292	93.62
428.514	98.62
428.736	95.62
428.958	85.62
429.181	78.62
429.403	90.62
429.625	85.62
429.847	77.62
430.069	96.62
430.292	98.62
430.514	104.62
430.736	90.62
430.958	90.62
431.18	80.62
431.402	85.62
431.624	99.62
431.846	90.62
432.068	90.62
432.29	91.62
432.512	90.62
432.734	93.62
432.956	93.62
433.178	101.62
433.4	104.62
433.622	85.62
433.844	95.62
434.066	94.62
434.287	92.62
434.509	101.62
434.731	97.62
434.953	89.62
435.175	103.62
435.397	86.62
435.618	98.62
435.84	110.62
436.062	113.62
436.284	121.62
436.505	107.62
436.727	101.62
436.949	100.62
437.17	89.62
437.392	90.62
437.614	91.62
437.835	107.62
438.057	104.62
438.278	111.62
438.5	110.62
438.721	130.62
438.943	96.62
439.165	89.62
439.386	98.62
439.608	97.62
439.829	98.62
440.05	112.62
440.272	120.62
440.493	98.62
440.715	88.62
440.936	85.62
441.158	97.62
441.379	85.62
441.6	97.62
441.822	85.62
442.043	92.62
442.264	99.62
442.486	97.62
442.707	102.62
442.928	107.62
443.149	111.62
443.371	107.62
443.592	102.62
443.813	112.62
444.034	111.62
444.255	103.62
444.476	84.62
444.698	87.62
444.919	91.62
445.14	127.62
445.361	122.62
445.582	105.62
445.803	137.62
446.024	120.62
446.245	119.62
446.466	94.62
446.687	99.62
446.908	91.62
447.129	99.62
447.35	82.62
447.571	101.62
447.792	97.62
448.013	106.62
448.234	111.62
448.455	89.62
448.675	101.62
448.896	111.62
449.117	93.62
449.338	111.62
449.559	126.62
449.779	128.62
450	91.62
450.221	94.62
450.442	93.62
450.662	92.62
450.883	109.62
451.104	100.62
451.324	105.62
451.545	103.62
451.766	101.62
451.986	95.62
452.207	78.62
452.428	87.62
452.648	113.62
452.869	104.62
453.089	102.62
453.31	126.62
453.53	90.62
453.751	93.62
453.971	99.62
454.192	88.62
454.412	98.62
454.633	91.62
454.853	93.62
455.073	96.62
455.294	85.62
455.514	86.62
455.734	74.62
455.955	87.62
456.175	80.62
456.395	89.62
456.616	82.62
456.836	85.62
457.056	89.62
457.276	81.62
457.497	83.62
457.717	87.62
457.937	78.62
458.157	74.62
458.377	76.62
458.598	98.62
458.818	142.62
459.038	148.62
459.258	112.62
459.478	111.62
459.698	98.62
459.918	101.62
460.138	84.62
460.358	83.62
460.578	85.62
460.798	91.62
461.018	97.62
461.238	89.62
461.458	81.62
461.678	82.62
461.898	85.62
462.118	89.62
462.338	100.62
462.558	94.62
462.777	103.62
462.997	78.62
463.217	83.62
463.437	100.62
463.657	94.62
463.876	94.62
464.096	93.62
464.316	99.62
464.536	104.62
464.755	101.62
464.975	115.62
465.195	143.62
465.414	144.62
465.634	102.62
465.854	86.62
466.073	98.62
466.293	95.62
466.512	89.62
466.732	95.62
466.951	87.62
467.171	104.62
467.391	100.62
467.61	86.62
467.829	105.62
468.049	95.62
468.268	83.62
468.488	83.62
468.707	86.62
468.927	75.62
469.146	90.62
469.365	100.62
469.585	85.62
469.804	89.62
470.023	91.62
470.243	90.62
470.462	92.62
470.681	110.62
470.901	83.62
471.12	87.62
471.339	96.62
471.558	71.62
471.777	93.62
471.997	82.62
472.216	89.62
472.435	79.62
472.654	100.62
472.873	82.62
473.092	96.62
473.311	92.62
473.53	107.62
473.749	84.62
473.968	102.62
474.187	104.62
474.406	86.62
474.625	85.62
474.844	88.62
475.063	92.62
475.282	89.62
475.501	95.62
475.72	88.62
475.939	90.62
476.158	94.62
476.377	92.62
476.596	93.62
476.814	88.62
477.033	86.62
477.252	93.62
477.471	84.62
477.69	89.62
477.908	94.62
478.127	91.62
478.346	81.62
478.564	96.62
478.783	91.62
479.002	94.62
479.22	98.62
479.439	100.62
479.658	88.62
479.876	87.62
480.095	94.62
480.313	95.62
480.532	94.62
480.751	95.62
480.969	92.62
481.188	111.62
481.406	120.62
481.624	75.62
481.843	90.62
482.061	95.62
482.28	91.62
482.498	89.62
482.717	95.62
482.935	95.62
483.153	99.62
483.372	81.62
483.59	85.62
483.808	98.62
484.027	89.62
484.245	99.62
484.463	93.62
484.681	106.62
484.9	103.62
485.118	93.62
485.336	101.62
485.554	107.62
485.772	79.62
485.99	101.62
486.209	107.62
486.427	112.62
486.645	113.62
486.863	99.62
487.081	83.62
487.299	96.62
487.517	94.62
487.735	95.62
487.953	109.62
488.171	88.62
488.389	100.62
488.607	101.62
488.825	99.62
489.043	96.62
489.261	106.62
489.479	103.62
489.696	99.62
489.914	85.62
490.132	93.62
490.35	101.62
490.568	94.62
490.786	87.62
491.003	98.62
491.221	94.62
491.439	104.62
491.657	98.62
491.874	90.62
492.092	95.62
492.31	80.62
492.527	94.62
492.745	98.62
492.963	90.62
493.18	97.62
493.398	90.62
493.615	95.62
493.833	102.62
494.05	87.62
494.268	82.62
494.485	88.62
494.703	96.62
494.92	86.62
495.138	91.62
495.355	77.62
495.573	101.62
495.79	91.62
496.008	93.62
496.225	89.62
496.442	101.62
496.66	94.62
496.877	84.62
497.094	98.62
497.312	94.62
497.529	98.62
497.746	96.62
497.963	96.62
498.181	91.62
498.398	98.62
498.615	98.62
498.832	112.62
499.049	93.62
499.267	96.62
499.484	105.62
499.701	101.62
499.918	92.62
500.135	99.62
500.352	88.62
500.569	99.62
500.786	93.62
501.003	104.62
501.22	91.62
501.437	103.62
501.654	90.62
501.871	99.62
502.088	93.62
502.305	90.62
502.522	95.62
502.739	89.62
502.956	86.62
503.172	91.62
503.389	102.62
503.606	105.62
503.823	87.62
504.04	90.62
504.256	91.62
504.473	89.62
504.69	87.62
504.907	89.62
505.123	93.62
505.34	94.62
505.557	91.62
505.773	90.62
505.99	89.62
506.207	80.62
506.423	88.62
506.64	85.62
506.856	105.62
507.073	90.62
507.289	106.62
507.506	94.62
507.722	108.62
507.939	107.62
508.155	89.62
508.372	89.62
508.588	104.62
508.805	101.62
509.021	99.62
509.238	85.62
509.454	101.62
509.67	99.62
509.887	108.62
510.103	120.62
510.319	190.62
510.536	657.62
510.752	2082.62
510.968	575.62
511.184	136.62
511.401	97.62
511.617	89.62
511.833	97.62
512.049	85.62
512.265	95.62
512.481	88.62
512.698	91.62
512.914	101.62
513.13	100.62
513.346	94.62
513.562	92.62
513.778	106.62
513.994	90.62
514.21	87.62
514.426	117.62
514.642	105.62
514.858	117.62
515.074	151.62
