Data from Uncirc_1990_H10_HRD10591_00009.txt Node
Date: Wed Jan 03 11:53:53 EST 2024
User: Yrep
Spectrometer: HR+D1059
Trigger mode: 1
Integration Time (sec): 1.000000E-1
Scans to average: 1
Electric dark correction enabled: true
Nonlinearity correction enabled: false
Boxcar width: 0
XAxis mode: Wavelengths
Number of Pixels in Spectrum: 2048
>>>>>Begin Spectral Data<<<<<
223.165	-21.5
223.4	-21.5
223.635	-21.5
223.869	-5.5
224.104	-10.5
224.338	-13.5
224.573	-20.5
224.808	-18.5
225.042	-22.5
225.277	-0.5
225.511	-8.5
225.746	3.5
225.98	17.5
226.215	9.5
226.449	9.5
226.683	22.5
226.918	28.5
227.152	30.5
227.387	20.5
227.621	39.5
227.856	55.5
228.09	42.5
228.324	30.5
228.559	50.5
228.793	51.5
229.027	56.5
229.262	60.5
229.496	71.5
229.73	78.5
229.964	77.5
230.199	77.5
230.433	76.5
230.667	72.5
230.901	74.5
231.136	55.5
231.37	78.5
231.604	76.5
231.838	84.5
232.072	56.5
232.306	68.5
232.541	73.5
232.775	72.5
233.009	68.5
233.243	74.5
233.477	79.5
233.711	82.5
233.945	85.5
234.179	68.5
234.413	74.5
234.647	80.5
234.881	80.5
235.115	70.5
235.349	75.5
235.583	76.5
235.817	73.5
236.051	81.5
236.285	65.5
236.519	80.5
236.753	62.5
236.987	80.5
237.221	74.5
237.455	72.5
237.689	78.5
237.922	76.5
238.156	65.5
238.39	69.5
238.624	90.5
238.858	83.5
239.091	82.5
239.325	64.5
239.559	78.5
239.793	66.5
240.027	77.5
240.26	81.5
240.494	69.5
240.728	80.5
240.961	80.5
241.195	78.5
241.429	66.5
241.662	78.5
241.896	78.5
242.13	68.5
242.363	81.5
242.597	80.5
242.83	89.5
243.064	66.5
243.298	79.5
243.531	77.5
243.765	68.5
243.998	60.5
244.232	82.5
244.465	92.5
244.699	78.5
244.932	70.5
245.166	78.5
245.399	60.5
245.633	75.5
245.866	83.5
246.099	85.5
246.333	71.5
246.566	83.5
246.8	72.5
247.033	68.5
247.266	70.5
247.5	82.5
247.733	81.5
247.966	84.5
248.2	85.5
248.433	71.5
248.666	76.5
248.899	73.5
249.133	91.5
249.366	102.5
249.599	84.5
249.832	82.5
250.066	94.5
250.299	87.5
250.532	82.5
250.765	68.5
250.998	69.5
251.231	76.5
251.465	80.5
251.698	73.5
251.931	77.5
252.164	77.5
252.397	72.5
252.63	65.5
252.863	75.5
253.096	76.5
253.329	75.5
253.562	67.5
253.795	81.5
254.028	67.5
254.261	80.5
254.494	73.5
254.727	82.5
254.96	66.5
255.193	69.5
255.426	78.5
255.659	82.5
255.892	95.5
256.124	72.5
256.357	76.5
256.59	87.5
256.823	82.5
257.056	81.5
257.289	75.5
257.521	72.5
257.754	81.5
257.987	88.5
258.22	86.5
258.452	80.5
258.685	81.5
258.918	81.5
259.151	68.5
259.383	71.5
259.616	76.5
259.849	63.5
260.081	85.5
260.314	74.5
260.547	84.5
260.779	82.5
261.012	75.5
261.244	82.5
261.477	81.5
261.71	96.5
261.942	106.5
262.175	107.5
262.407	97.5
262.64	84.5
262.872	85.5
263.105	83.5
263.337	92.5
263.57	96.5
263.802	90.5
264.035	74.5
264.267	90.5
264.499	72.5
264.732	74.5
264.964	85.5
265.197	92.5
265.429	88.5
265.661	90.5
265.894	86.5
266.126	72.5
266.358	76.5
266.591	77.5
266.823	84.5
267.055	94.5
267.287	75.5
267.52	77.5
267.752	79.5
267.984	83.5
268.216	82.5
268.448	83.5
268.681	79.5
268.913	70.5
269.145	87.5
269.377	72.5
269.609	80.5
269.841	80.5
270.073	85.5
270.306	88.5
270.538	88.5
270.77	62.5
271.002	77.5
271.234	86.5
271.466	87.5
271.698	84.5
271.93	84.5
272.162	93.5
272.394	90.5
272.626	87.5
272.858	73.5
273.09	90.5
273.322	83.5
273.553	78.5
273.785	78.5
274.017	76.5
274.249	88.5
274.481	89.5
274.713	68.5
274.945	81.5
275.176	87.5
275.408	86.5
275.64	84.5
275.872	90.5
276.104	91.5
276.335	84.5
276.567	98.5
276.799	99.5
277.031	86.5
277.262	86.5
277.494	88.5
277.726	73.5
277.957	77.5
278.189	99.5
278.421	83.5
278.652	75.5
278.884	80.5
279.115	87.5
279.347	82.5
279.579	97.5
279.81	91.5
280.042	65.5
280.273	80.5
280.505	103.5
280.736	83.5
280.968	76.5
281.199	67.5
281.431	81.5
281.662	91.5
281.894	88.5
282.125	86.5
282.356	124.5
282.588	130.5
282.819	102.5
283.051	97.5
283.282	81.5
283.513	94.5
283.745	80.5
283.976	91.5
284.207	90.5
284.439	84.5
284.67	76.5
284.901	73.5
285.132	82.5
285.364	83.5
285.595	92.5
285.826	85.5
286.057	86.5
286.288	96.5
286.52	92.5
286.751	93.5
286.982	79.5
287.213	84.5
287.444	86.5
287.675	80.5
287.906	91.5
288.138	93.5
288.369	92.5
288.6	93.5
288.831	78.5
289.062	81.5
289.293	84.5
289.524	78.5
289.755	69.5
289.986	88.5
290.217	68.5
290.448	84.5
290.679	91.5
290.91	90.5
291.141	82.5
291.371	89.5
291.602	75.5
291.833	88.5
292.064	89.5
292.295	86.5
292.526	76.5
292.757	84.5
292.987	90.5
293.218	90.5
293.449	84.5
293.68	89.5
293.91	78.5
294.141	88.5
294.372	85.5
294.603	84.5
294.833	76.5
295.064	94.5
295.295	73.5
295.525	83.5
295.756	101.5
295.987	103.5
296.217	133.5
296.448	114.5
296.679	96.5
296.909	84.5
297.14	96.5
297.37	92.5
297.601	83.5
297.831	81.5
298.062	75.5
298.292	94.5
298.523	80.5
298.753	72.5
298.984	81.5
299.214	75.5
299.445	74.5
299.675	75.5
299.905	84.5
300.136	87.5
300.366	96.5
300.597	80.5
300.827	101.5
301.057	108.5
301.288	106.5
301.518	100.5
301.748	97.5
301.979	92.5
302.209	94.5
302.439	92.5
302.669	97.5
302.9	77.5
303.13	74.5
303.36	86.5
303.59	112.5
303.82	100.5
304.051	89.5
304.281	91.5
304.511	89.5
304.741	98.5
304.971	97.5
305.201	84.5
305.431	88.5
305.661	88.5
305.891	85.5
306.121	92.5
306.352	114.5
306.582	97.5
306.812	82.5
307.042	83.5
307.272	86.5
307.502	78.5
307.731	89.5
307.961	100.5
308.191	94.5
308.421	89.5
308.651	100.5
308.881	79.5
309.111	77.5
309.341	101.5
309.571	101.5
309.8	92.5
310.03	97.5
310.26	88.5
310.49	83.5
310.72	82.5
310.949	88.5
311.179	97.5
311.409	81.5
311.639	89.5
311.868	82.5
312.098	95.5
312.328	90.5
312.557	100.5
312.787	112.5
313.017	100.5
313.246	90.5
313.476	102.5
313.706	84.5
313.935	77.5
314.165	104.5
314.394	98.5
314.624	87.5
314.853	100.5
315.083	91.5
315.312	83.5
315.542	82.5
315.771	88.5
316.001	90.5
316.23	86.5
316.46	78.5
316.689	78.5
316.919	97.5
317.148	89.5
317.377	99.5
317.607	83.5
317.836	90.5
318.065	92.5
318.295	88.5
318.524	88.5
318.753	97.5
318.983	73.5
319.212	90.5
319.441	102.5
319.67	98.5
319.9	91.5
320.129	106.5
320.358	102.5
320.587	96.5
320.816	91.5
321.046	87.5
321.275	83.5
321.504	97.5
321.733	96.5
321.962	88.5
322.191	109.5
322.42	102.5
322.649	112.5
322.878	104.5
323.108	108.5
323.337	112.5
323.566	121.5
323.795	154.5
324.024	192.5
324.253	388.5
324.482	878.5
324.71	1844.5
324.939	2480.5
325.168	879.5
325.397	244.5
325.626	156.5
325.855	138.5
326.084	136.5
326.313	123.5
326.542	148.5
326.77	224.5
326.999	476.5
327.228	986.5
327.457	1868.5
327.686	1452.5
327.914	367.5
328.143	189.5
328.372	133.5
328.6	115.5
328.829	118.5
329.058	115.5
329.287	113.5
329.515	113.5
329.744	92.5
329.972	100.5
330.201	99.5
330.43	109.5
330.658	110.5
330.887	140.5
331.115	116.5
331.344	88.5
331.572	101.5
331.801	94.5
332.03	95.5
332.258	98.5
332.486	85.5
332.715	95.5
332.943	98.5
333.172	97.5
333.4	86.5
333.629	109.5
333.857	102.5
334.085	89.5
334.314	100.5
334.542	96.5
334.771	101.5
334.999	109.5
335.227	112.5
335.455	81.5
335.684	89.5
335.912	94.5
336.14	89.5
336.369	88.5
336.597	86.5
336.825	101.5
337.053	88.5
337.281	95.5
337.51	91.5
337.738	94.5
337.966	93.5
338.194	92.5
338.422	105.5
338.65	98.5
338.878	84.5
339.106	99.5
339.334	91.5
339.562	88.5
339.79	83.5
340.018	88.5
340.246	105.5
340.474	98.5
340.702	96.5
340.93	92.5
341.158	112.5
341.386	81.5
341.614	88.5
341.842	86.5
342.07	82.5
342.298	88.5
342.526	94.5
342.754	105.5
342.981	88.5
343.209	84.5
343.437	88.5
343.665	86.5
343.893	96.5
344.12	93.5
344.348	98.5
344.576	88.5
344.804	90.5
345.031	93.5
345.259	98.5
345.487	97.5
345.714	87.5
345.942	90.5
346.17	79.5
346.397	105.5
346.625	94.5
346.853	97.5
347.08	70.5
347.308	100.5
347.535	91.5
347.763	104.5
347.99	82.5
348.218	108.5
348.445	97.5
348.673	95.5
348.9	101.5
349.128	94.5
349.355	93.5
349.583	89.5
349.81	94.5
350.037	105.5
350.265	82.5
350.492	92.5
350.72	92.5
350.947	106.5
351.174	107.5
351.402	99.5
351.629	95.5
351.856	107.5
352.083	95.5
352.311	93.5
352.538	100.5
352.765	84.5
352.992	102.5
353.22	106.5
353.447	82.5
353.674	110.5
353.901	112.5
354.128	99.5
354.355	100.5
354.583	93.5
354.81	100.5
355.037	94.5
355.264	101.5
355.491	90.5
355.718	84.5
355.945	97.5
356.172	83.5
356.399	82.5
356.626	84.5
356.853	82.5
357.08	86.5
357.307	90.5
357.534	82.5
357.761	84.5
357.988	94.5
358.215	104.5
358.441	85.5
358.668	89.5
358.895	88.5
359.122	89.5
359.349	85.5
359.576	80.5
359.802	93.5
360.029	97.5
360.256	108.5
360.483	84.5
360.709	97.5
360.936	98.5
361.163	97.5
361.39	95.5
361.616	85.5
361.843	95.5
362.07	93.5
362.296	97.5
362.523	94.5
362.749	91.5
362.976	96.5
363.203	81.5
363.429	85.5
363.656	82.5
363.882	78.5
364.109	94.5
364.335	85.5
364.562	90.5
364.788	100.5
365.015	93.5
365.241	84.5
365.468	106.5
365.694	100.5
365.92	101.5
366.147	99.5
366.373	89.5
366.599	66.5
366.826	77.5
367.052	79.5
367.278	88.5
367.505	73.5
367.731	88.5
367.957	84.5
368.184	96.5
368.41	106.5
368.636	128.5
368.862	117.5
369.089	99.5
369.315	94.5
369.541	95.5
369.767	100.5
369.993	85.5
370.219	93.5
370.445	73.5
370.672	87.5
370.898	85.5
371.124	92.5
371.35	96.5
371.576	95.5
371.802	91.5
372.028	94.5
372.254	92.5
372.48	81.5
372.706	92.5
372.932	93.5
373.158	90.5
373.384	97.5
373.61	90.5
373.835	76.5
374.061	76.5
374.287	73.5
374.513	80.5
374.739	76.5
374.965	91.5
375.191	78.5
375.416	89.5
375.642	84.5
375.868	89.5
376.094	87.5
376.319	98.5
376.545	94.5
376.771	80.5
376.997	97.5
377.222	82.5
377.448	84.5
377.674	81.5
377.899	82.5
378.125	98.5
378.35	101.5
378.576	83.5
378.802	85.5
379.027	97.5
379.253	98.5
379.478	90.5
379.704	87.5
379.929	80.5
380.155	101.5
380.38	82.5
380.606	91.5
380.831	96.5
381.057	97.5
381.282	89.5
381.507	86.5
381.733	89.5
381.958	97.5
382.184	85.5
382.409	81.5
382.634	100.5
382.86	90.5
383.085	94.5
383.31	103.5
383.535	90.5
383.761	95.5
383.986	106.5
384.211	100.5
384.436	92.5
384.662	90.5
384.887	85.5
385.112	99.5
385.337	89.5
385.562	85.5
385.787	96.5
386.013	94.5
386.238	93.5
386.463	108.5
386.688	107.5
386.913	114.5
387.138	98.5
387.363	101.5
387.588	90.5
387.813	109.5
388.038	97.5
388.263	104.5
388.488	95.5
388.713	97.5
388.938	74.5
389.163	93.5
389.387	93.5
389.612	92.5
389.837	85.5
390.062	98.5
390.287	99.5
390.512	89.5
390.736	89.5
390.961	93.5
391.186	104.5
391.411	87.5
391.636	86.5
391.86	84.5
392.085	80.5
392.31	77.5
392.534	72.5
392.759	87.5
392.984	75.5
393.208	89.5
393.433	101.5
393.658	96.5
393.882	95.5
394.107	73.5
394.331	88.5
394.556	68.5
394.78	94.5
395.005	85.5
395.229	65.5
395.454	87.5
395.678	90.5
395.903	95.5
396.127	87.5
396.352	65.5
396.576	78.5
396.801	103.5
397.025	102.5
397.249	86.5
397.474	99.5
397.698	93.5
397.922	74.5
398.147	88.5
398.371	101.5
398.595	82.5
398.82	92.5
399.044	90.5
399.268	82.5
399.492	69.5
399.717	96.5
399.941	94.5
400.165	94.5
400.389	87.5
400.613	81.5
400.837	85.5
401.062	80.5
401.286	88.5
401.51	79.5
401.734	88.5
401.958	96.5
402.182	131.5
402.406	158.5
402.63	107.5
402.854	86.5
403.078	91.5
403.302	87.5
403.526	88.5
403.75	101.5
403.974	94.5
404.198	77.5
404.422	83.5
404.645	109.5
404.869	82.5
405.093	87.5
405.317	87.5
405.541	88.5
405.765	92.5
405.988	117.5
406.212	166.5
406.436	218.5
406.66	142.5
406.883	93.5
407.107	92.5
407.331	96.5
407.555	99.5
407.778	113.5
408.002	81.5
408.226	91.5
408.449	90.5
408.673	94.5
408.896	98.5
409.12	96.5
409.344	83.5
409.567	88.5
409.791	92.5
410.014	80.5
410.238	80.5
410.461	95.5
410.685	90.5
410.908	87.5
411.132	107.5
411.355	89.5
411.578	102.5
411.802	89.5
412.025	84.5
412.249	91.5
412.472	97.5
412.695	102.5
412.919	69.5
413.142	86.5
413.365	76.5
413.589	86.5
413.812	99.5
414.035	93.5
414.258	89.5
414.482	75.5
414.705	100.5
414.928	100.5
415.151	84.5
415.374	88.5
415.597	81.5
415.821	93.5
416.044	91.5
416.267	97.5
416.49	68.5
416.713	76.5
416.936	98.5
417.159	97.5
417.382	76.5
417.605	90.5
417.828	95.5
418.051	86.5
418.274	82.5
418.497	77.5
418.72	84.5
418.943	73.5
419.166	93.5
419.389	74.5
419.611	91.5
419.834	82.5
420.057	85.5
420.28	83.5
420.503	78.5
420.726	92.5
420.948	81.5
421.171	80.5
421.394	85.5
421.617	85.5
421.839	76.5
422.062	82.5
422.285	78.5
422.507	87.5
422.73	111.5
422.953	91.5
423.175	90.5
423.398	90.5
423.621	93.5
423.843	81.5
424.066	82.5
424.288	85.5
424.511	75.5
424.733	90.5
424.956	114.5
425.178	94.5
425.401	108.5
425.623	107.5
425.846	83.5
426.068	94.5
426.291	106.5
426.513	88.5
426.735	86.5
426.958	84.5
427.18	97.5
427.402	111.5
427.625	152.5
427.847	115.5
428.069	105.5
428.292	88.5
428.514	84.5
428.736	86.5
428.958	83.5
429.181	79.5
429.403	81.5
429.625	88.5
429.847	72.5
430.069	88.5
430.292	104.5
430.514	78.5
430.736	89.5
430.958	82.5
431.18	87.5
431.402	81.5
431.624	93.5
431.846	73.5
432.068	91.5
432.29	93.5
432.512	88.5
432.734	88.5
432.956	73.5
433.178	107.5
433.4	97.5
433.622	85.5
433.844	92.5
434.066	90.5
434.287	74.5
434.509	88.5
434.731	83.5
434.953	80.5
435.175	89.5
435.397	93.5
435.618	85.5
435.84	104.5
436.062	119.5
436.284	102.5
436.505	109.5
436.727	108.5
436.949	108.5
437.17	87.5
437.392	78.5
437.614	88.5
437.835	111.5
438.057	116.5
438.278	105.5
438.5	100.5
438.721	125.5
438.943	104.5
439.165	99.5
439.386	84.5
439.608	108.5
439.829	102.5
440.05	100.5
440.272	142.5
440.493	97.5
440.715	88.5
440.936	88.5
441.158	86.5
441.379	89.5
441.6	85.5
441.822	101.5
442.043	91.5
442.264	106.5
442.486	93.5
442.707	88.5
442.928	95.5
443.149	121.5
443.371	128.5
443.592	109.5
443.813	116.5
444.034	114.5
444.255	86.5
444.476	82.5
444.698	83.5
444.919	92.5
445.14	126.5
445.361	108.5
445.582	109.5
445.803	142.5
446.024	130.5
446.245	143.5
446.466	117.5
446.687	72.5
446.908	98.5
447.129	85.5
447.35	88.5
447.571	92.5
447.792	92.5
448.013	112.5
448.234	91.5
448.455	99.5
448.675	108.5
448.896	124.5
449.117	100.5
449.338	100.5
449.559	137.5
449.779	143.5
450	94.5
450.221	72.5
450.442	83.5
450.662	100.5
450.883	104.5
451.104	96.5
451.324	81.5
451.545	73.5
451.766	89.5
451.986	73.5
452.207	95.5
452.428	94.5
452.648	99.5
452.869	114.5
453.089	115.5
453.31	95.5
453.53	83.5
453.751	84.5
453.971	107.5
454.192	90.5
454.412	101.5
454.633	98.5
454.853	93.5
455.073	78.5
455.294	84.5
455.514	92.5
455.734	87.5
455.955	78.5
456.175	69.5
456.395	87.5
456.616	92.5
456.836	96.5
457.056	82.5
457.276	77.5
457.497	80.5
457.717	89.5
457.937	85.5
458.157	96.5
458.377	105.5
458.598	108.5
458.818	144.5
459.038	156.5
459.258	101.5
459.478	93.5
459.698	86.5
459.918	93.5
460.138	79.5
460.358	74.5
460.578	89.5
460.798	86.5
461.018	74.5
461.238	87.5
461.458	75.5
461.678	80.5
461.898	75.5
462.118	83.5
462.338	81.5
462.558	79.5
462.777	78.5
462.997	82.5
463.217	76.5
463.437	78.5
463.657	83.5
463.876	84.5
464.096	97.5
464.316	95.5
464.536	94.5
464.755	84.5
464.975	103.5
465.195	156.5
465.414	163.5
465.634	84.5
465.854	77.5
466.073	85.5
466.293	93.5
466.512	95.5
466.732	88.5
466.951	70.5
467.171	92.5
467.391	98.5
467.61	89.5
467.829	97.5
468.049	80.5
468.268	82.5
468.488	81.5
468.707	75.5
468.927	92.5
469.146	90.5
469.365	78.5
469.585	93.5
469.804	99.5
470.023	86.5
470.243	90.5
470.462	89.5
470.681	115.5
470.901	94.5
471.12	76.5
471.339	87.5
471.558	82.5
471.777	78.5
471.997	91.5
472.216	82.5
472.435	85.5
472.654	97.5
472.873	85.5
473.092	86.5
473.311	77.5
473.53	91.5
473.749	92.5
473.968	111.5
474.187	105.5
474.406	92.5
474.625	85.5
474.844	64.5
475.063	81.5
475.282	97.5
475.501	90.5
475.72	79.5
475.939	83.5
476.158	92.5
476.377	76.5
476.596	82.5
476.814	80.5
477.033	90.5
477.252	88.5
477.471	80.5
477.69	79.5
477.908	101.5
478.127	86.5
478.346	79.5
478.564	94.5
478.783	80.5
479.002	86.5
479.22	80.5
479.439	106.5
479.658	109.5
479.876	97.5
480.095	97.5
480.313	73.5
480.532	81.5
480.751	80.5
480.969	78.5
481.188	110.5
481.406	93.5
481.624	89.5
481.843	92.5
482.061	80.5
482.28	71.5
482.498	80.5
482.717	82.5
482.935	86.5
483.153	78.5
483.372	87.5
483.59	94.5
483.808	84.5
484.027	81.5
484.245	95.5
484.463	88.5
484.681	99.5
484.9	93.5
485.118	92.5
485.336	84.5
485.554	91.5
485.772	101.5
485.99	101.5
486.209	110.5
486.427	101.5
486.645	107.5
486.863	110.5
487.081	102.5
487.299	85.5
487.517	95.5
487.735	84.5
487.953	92.5
488.171	91.5
488.389	109.5
488.607	93.5
488.825	96.5
489.043	94.5
489.261	91.5
489.479	84.5
489.696	84.5
489.914	78.5
490.132	87.5
490.35	87.5
490.568	75.5
490.786	100.5
491.003	89.5
491.221	78.5
491.439	74.5
491.657	106.5
491.874	79.5
492.092	68.5
492.31	100.5
492.527	81.5
492.745	92.5
492.963	99.5
493.18	96.5
493.398	83.5
493.615	98.5
493.833	88.5
494.05	99.5
494.268	101.5
494.485	110.5
494.703	93.5
494.92	90.5
495.138	94.5
495.355	88.5
495.573	93.5
495.79	83.5
496.008	88.5
496.225	100.5
496.442	84.5
496.66	92.5
496.877	82.5
497.094	86.5
497.312	90.5
497.529	81.5
497.746	90.5
497.963	77.5
498.181	99.5
498.398	90.5
498.615	102.5
498.832	102.5
499.049	96.5
499.267	90.5
499.484	81.5
499.701	89.5
499.918	87.5
500.135	95.5
500.352	80.5
500.569	106.5
500.786	91.5
501.003	87.5
501.22	89.5
501.437	87.5
501.654	99.5
501.871	87.5
502.088	94.5
502.305	88.5
502.522	87.5
502.739	89.5
502.956	99.5
503.172	98.5
503.389	93.5
503.606	97.5
503.823	99.5
504.04	81.5
504.256	77.5
504.473	91.5
504.69	88.5
504.907	107.5
505.123	97.5
505.34	84.5
505.557	91.5
505.773	88.5
505.99	90.5
506.207	94.5
506.423	82.5
506.64	89.5
506.856	103.5
507.073	89.5
507.289	93.5
507.506	96.5
507.722	97.5
507.939	116.5
508.155	98.5
508.372	99.5
508.588	88.5
508.805	106.5
509.021	90.5
509.238	91.5
509.454	84.5
509.67	84.5
509.887	108.5
510.103	124.5
510.319	230.5
510.536	764.5
510.752	2492.5
510.968	668.5
511.184	160.5
511.401	105.5
511.617	94.5
511.833	108.5
512.049	95.5
512.265	88.5
512.481	106.5
512.698	97.5
512.914	80.5
513.13	83.5
513.346	97.5
513.562	89.5
513.778	94.5
513.994	97.5
514.21	84.5
514.426	110.5
514.642	129.5
514.858	112.5
515.074	160.5
515.29	464.5
515.506	1551.5
515.721	556.5
515.937	144.5
516.153	109.5
516.369	88.5
516.585	93.5
516.801	93.5
517.016	79.5
517.232	91.5
517.448	89.5
517.664	96.5
517.879	101.5
518.095	88.5
518.311	90.5
518.527	97.5
518.742	98.5
518.958	87.5
519.173	97.5
519.389	92.5
519.605	84.5
519.82	86.5
520.036	98.5
520.251	116.5
520.467	103.5
520.682	89.5
520.898	93.5
521.113	102.5
521.329	144.5
521.544	217.5
521.76	568.5
521.975	2619.5
522.19	1539.5
522.406	316.5
522.621	120.5
522.836	100.5
523.052	89.5
523.267	94.5
523.482	99.5
523.698	93.5
523.913	111.5
524.128	98.5
524.343	80.5
524.559	91.5
524.774	92.5
524.989	87.5
525.204	104.5
525.419	109.5
525.634	96.5
525.849	81.5
526.064	96.5
526.28	88.5
526.495	88.5
526.71	77.5
526.925	77.5
527.14	85.5
527.355	83.5
527.57	83.5
527.785	82.5
527.999	90.5
528.214	92.5
528.429	85.5
528.644	94.5
528.859	88.5
529.074	103.5
529.289	116.5
529.503	182.5
529.718	97.5
529.933	86.5
530.148	76.5
530.363	101.5
530.577	85.5
530.792	86.5
531.007	91.5
531.221	97.5
531.436	76.5
531.651	92.5
531.865	92.5
532.08	100.5
532.295	94.5
532.509	95.5
532.724	87.5
532.938	91.5
533.153	99.5
533.367	98.5
533.582	93.5
533.796	94.5
534.011	100.5
534.225	90.5
534.44	96.5
534.654	100.5
534.868	92.5
535.083	81.5
535.297	86.5
535.511	111.5
535.726	107.5
535.94	92.5
536.154	80.5
536.369	80.5
