Data from Uncirc_1990_H10_HRD10591_00088.txt Node
Date: Wed Jan 03 11:54:09 EST 2024
User: Yrep
Spectrometer: HR+D1059
Trigger mode: 1
Integration Time (sec): 1.000000E-1
Scans to average: 1
Electric dark correction enabled: true
Nonlinearity correction enabled: false
Boxcar width: 0
XAxis mode: Wavelengths
Number of Pixels in Spectrum: 2048
>>>>>Begin Spectral Data<<<<<
223.165	-17.94
223.4	-17.94
223.635	-17.94
223.869	-18.94
224.104	-16.94
224.338	0.06
224.573	-10.94
224.808	-20.94
225.042	-13.94
225.277	-9.94
225.511	-0.94
225.746	-3.94
225.98	6.06
226.215	15.06
226.449	22.06
226.683	26.06
226.918	26.06
227.152	19.06
227.387	35.06
227.621	41.06
227.856	50.06
228.09	49.06
228.324	59.06
228.559	55.06
228.793	71.06
229.027	66.06
229.262	56.06
229.496	85.06
229.73	82.06
229.964	96.06
230.199	77.06
230.433	84.06
230.667	88.06
230.901	88.06
231.136	79.06
231.37	63.06
231.604	76.06
231.838	81.06
232.072	81.06
232.306	89.06
232.541	85.06
232.775	90.06
233.009	94.06
233.243	73.06
233.477	86.06
233.711	89.06
233.945	66.06
234.179	82.06
234.413	87.06
234.647	77.06
234.881	83.06
235.115	82.06
235.349	91.06
235.583	80.06
235.817	83.06
236.051	92.06
236.285	79.06
236.519	86.06
236.753	72.06
236.987	85.06
237.221	85.06
237.455	85.06
237.689	82.06
237.922	80.06
238.156	71.06
238.39	87.06
238.624	75.06
238.858	75.06
239.091	71.06
239.325	70.06
239.559	85.06
239.793	78.06
240.027	74.06
240.26	79.06
240.494	64.06
240.728	73.06
240.961	84.06
241.195	78.06
241.429	76.06
241.662	64.06
241.896	64.06
242.13	71.06
242.363	68.06
242.597	73.06
242.83	84.06
243.064	73.06
243.298	72.06
243.531	90.06
243.765	83.06
243.998	74.06
244.232	75.06
244.465	74.06
244.699	81.06
244.932	66.06
245.166	86.06
245.399	77.06
245.633	81.06
245.866	103.06
246.099	59.06
246.333	87.06
246.566	80.06
246.8	81.06
247.033	84.06
247.266	94.06
247.5	64.06
247.733	76.06
247.966	77.06
248.2	69.06
248.433	90.06
248.666	88.06
248.899	84.06
249.133	83.06
249.366	84.06
249.599	101.06
249.832	86.06
250.066	90.06
250.299	99.06
250.532	83.06
250.765	86.06
250.998	78.06
251.231	92.06
251.465	92.06
251.698	70.06
251.931	62.06
252.164	79.06
252.397	81.06
252.63	89.06
252.863	71.06
253.096	88.06
253.329	85.06
253.562	79.06
253.795	85.06
254.028	81.06
254.261	86.06
254.494	82.06
254.727	84.06
254.96	89.06
255.193	76.06
255.426	76.06
255.659	67.06
255.892	80.06
256.124	98.06
256.357	99.06
256.59	83.06
256.823	79.06
257.056	74.06
257.289	87.06
257.521	86.06
257.754	87.06
257.987	78.06
258.22	81.06
258.452	99.06
258.685	78.06
258.918	92.06
259.151	85.06
259.383	74.06
259.616	84.06
259.849	90.06
260.081	87.06
260.314	75.06
260.547	80.06
260.779	80.06
261.012	87.06
261.244	79.06
261.477	97.06
261.71	94.06
261.942	104.06
262.175	100.06
262.407	99.06
262.64	89.06
262.872	96.06
263.105	79.06
263.337	84.06
263.57	88.06
263.802	86.06
264.035	89.06
264.267	78.06
264.499	88.06
264.732	104.06
264.964	96.06
265.197	86.06
265.429	90.06
265.661	88.06
265.894	84.06
266.126	96.06
266.358	90.06
266.591	84.06
266.823	74.06
267.055	78.06
267.287	92.06
267.52	90.06
267.752	87.06
267.984	86.06
268.216	100.06
268.448	98.06
268.681	78.06
268.913	81.06
269.145	86.06
269.377	91.06
269.609	78.06
269.841	82.06
270.073	71.06
270.306	86.06
270.538	79.06
270.77	87.06
271.002	86.06
271.234	90.06
271.466	88.06
271.698	69.06
271.93	87.06
272.162	94.06
272.394	99.06
272.626	89.06
272.858	85.06
273.09	90.06
273.322	79.06
273.553	81.06
273.785	89.06
274.017	76.06
274.249	88.06
274.481	94.06
274.713	96.06
274.945	91.06
275.176	98.06
275.408	88.06
275.64	95.06
275.872	90.06
276.104	87.06
276.335	91.06
276.567	104.06
276.799	98.06
277.031	90.06
277.262	95.06
277.494	94.06
277.726	99.06
277.957	88.06
278.189	100.06
278.421	91.06
278.652	81.06
278.884	103.06
279.115	84.06
279.347	91.06
279.579	79.06
279.81	98.06
280.042	79.06
280.273	86.06
280.505	91.06
280.736	75.06
280.968	81.06
281.199	81.06
281.431	90.06
281.662	96.06
281.894	99.06
282.125	120.06
282.356	112.06
282.588	129.06
282.819	102.06
283.051	86.06
283.282	93.06
283.513	92.06
283.745	94.06
283.976	87.06
284.207	90.06
284.439	91.06
284.67	88.06
284.901	94.06
285.132	84.06
285.364	96.06
285.595	101.06
285.826	99.06
286.057	88.06
286.288	88.06
286.52	101.06
286.751	90.06
286.982	80.06
287.213	83.06
287.444	87.06
287.675	68.06
287.906	93.06
288.138	95.06
288.369	102.06
288.6	87.06
288.831	92.06
289.062	97.06
289.293	97.06
289.524	86.06
289.755	94.06
289.986	71.06
290.217	74.06
290.448	101.06
290.679	93.06
290.91	87.06
291.141	85.06
291.371	85.06
291.602	92.06
291.833	96.06
292.064	92.06
292.295	76.06
292.526	95.06
292.757	89.06
292.987	103.06
293.218	100.06
293.449	89.06
293.68	90.06
293.91	92.06
294.141	79.06
294.372	94.06
294.603	91.06
294.833	100.06
295.064	85.06
295.295	94.06
295.525	104.06
295.756	109.06
295.987	121.06
296.217	133.06
296.448	124.06
296.679	92.06
296.909	89.06
297.14	87.06
297.37	74.06
297.601	95.06
297.831	102.06
298.062	82.06
298.292	106.06
298.523	83.06
298.753	91.06
298.984	104.06
299.214	91.06
299.445	92.06
299.675	98.06
299.905	102.06
300.136	95.06
300.366	97.06
300.597	92.06
300.827	85.06
301.057	94.06
301.288	98.06
301.518	98.06
301.748	89.06
301.979	111.06
302.209	104.06
302.439	103.06
302.669	102.06
302.9	79.06
303.13	104.06
303.36	100.06
303.59	96.06
303.82	112.06
304.051	96.06
304.281	82.06
304.511	90.06
304.741	92.06
304.971	84.06
305.201	87.06
305.431	98.06
305.661	82.06
305.891	97.06
306.121	100.06
306.352	107.06
306.582	110.06
306.812	102.06
307.042	87.06
307.272	96.06
307.502	95.06
307.731	100.06
307.961	90.06
308.191	104.06
308.421	90.06
308.651	99.06
308.881	97.06
309.111	92.06
309.341	98.06
309.571	98.06
309.8	113.06
310.03	91.06
310.26	102.06
310.49	93.06
310.72	99.06
310.949	122.06
311.179	96.06
311.409	104.06
311.639	97.06
311.868	90.06
312.098	106.06
312.328	87.06
312.557	95.06
312.787	110.06
313.017	91.06
313.246	85.06
313.476	91.06
313.706	99.06
313.935	103.06
314.165	95.06
314.394	107.06
314.624	102.06
314.853	100.06
315.083	79.06
315.312	96.06
315.542	87.06
315.771	99.06
316.001	91.06
316.23	101.06
316.46	95.06
316.689	94.06
316.919	80.06
317.148	94.06
317.377	90.06
317.607	88.06
317.836	91.06
318.065	94.06
318.295	104.06
318.524	96.06
318.753	113.06
318.983	97.06
319.212	102.06
319.441	117.06
319.67	111.06
319.9	100.06
320.129	91.06
320.358	117.06
320.587	93.06
320.816	83.06
321.046	95.06
321.275	74.06
321.504	97.06
321.733	94.06
321.962	104.06
322.191	102.06
322.42	104.06
322.649	116.06
322.878	111.06
323.108	116.06
323.337	110.06
323.566	128.06
323.795	138.06
324.024	196.06
324.253	386.06
324.482	811.06
324.71	1708.06
324.939	2208.06
325.168	823.06
325.397	251.06
325.626	155.06
325.855	139.06
326.084	139.06
326.313	122.06
326.542	174.06
326.77	233.06
326.999	450.06
327.228	960.06
327.457	1738.06
327.686	1354.06
327.914	375.06
328.143	197.06
328.372	162.06
328.6	136.06
328.829	123.06
329.058	121.06
329.287	125.06
329.515	125.06
329.744	118.06
329.972	115.06
330.201	126.06
330.43	124.06
330.658	122.06
330.887	154.06
331.115	123.06
331.344	104.06
331.572	106.06
331.801	96.06
332.03	101.06
332.258	95.06
332.486	99.06
332.715	112.06
332.943	99.06
333.172	92.06
333.4	99.06
333.629	103.06
333.857	109.06
334.085	122.06
334.314	109.06
334.542	136.06
334.771	120.06
334.999	98.06
335.227	91.06
335.455	105.06
335.684	115.06
335.912	92.06
336.14	83.06
336.369	94.06
336.597	117.06
336.825	79.06
337.053	84.06
337.281	97.06
337.51	104.06
337.738	85.06
337.966	100.06
338.194	105.06
338.422	110.06
338.65	100.06
338.878	102.06
339.106	90.06
339.334	108.06
339.562	94.06
339.79	94.06
340.018	92.06
340.246	100.06
340.474	99.06
340.702	95.06
340.93	103.06
341.158	87.06
341.386	97.06
341.614	100.06
341.842	95.06
342.07	96.06
342.298	111.06
342.526	100.06
342.754	79.06
342.981	75.06
343.209	80.06
343.437	101.06
343.665	95.06
343.893	105.06
344.12	106.06
344.348	99.06
344.576	92.06
344.804	93.06
345.031	107.06
345.259	113.06
345.487	107.06
345.714	115.06
345.942	104.06
346.17	100.06
346.397	86.06
346.625	105.06
346.853	108.06
347.08	105.06
347.308	98.06
347.535	91.06
347.763	116.06
347.99	103.06
348.218	105.06
348.445	100.06
348.673	108.06
348.9	109.06
349.128	105.06
349.355	103.06
349.583	99.06
349.81	95.06
350.037	103.06
350.265	98.06
350.492	95.06
350.72	104.06
350.947	103.06
351.174	108.06
351.402	118.06
351.629	102.06
351.856	103.06
352.083	104.06
352.311	128.06
352.538	107.06
352.765	98.06
352.992	119.06
353.22	126.06
353.447	111.06
353.674	99.06
353.901	99.06
354.128	111.06
354.355	98.06
354.583	107.06
354.81	104.06
355.037	98.06
355.264	105.06
355.491	108.06
355.718	90.06
355.945	101.06
356.172	99.06
356.399	100.06
356.626	105.06
356.853	83.06
357.08	97.06
357.307	102.06
357.534	97.06
357.761	91.06
357.988	90.06
358.215	110.06
358.441	105.06
358.668	87.06
358.895	93.06
359.122	92.06
359.349	98.06
359.576	84.06
359.802	90.06
360.029	105.06
360.256	119.06
360.483	114.06
360.709	94.06
360.936	99.06
361.163	94.06
361.39	90.06
361.616	91.06
361.843	96.06
362.07	103.06
362.296	106.06
362.523	100.06
362.749	91.06
362.976	100.06
363.203	87.06
363.429	76.06
363.656	97.06
363.882	86.06
364.109	104.06
364.335	91.06
364.562	98.06
364.788	95.06
365.015	73.06
365.241	108.06
365.468	114.06
365.694	118.06
365.92	105.06
366.147	97.06
366.373	88.06
366.599	96.06
366.826	103.06
367.052	107.06
367.278	104.06
367.505	84.06
367.731	88.06
367.957	91.06
368.184	92.06
368.41	110.06
368.636	119.06
368.862	119.06
369.089	115.06
369.315	108.06
369.541	96.06
369.767	93.06
369.993	103.06
370.219	100.06
370.445	86.06
370.672	94.06
370.898	84.06
371.124	103.06
371.35	95.06
371.576	90.06
371.802	88.06
372.028	97.06
372.254	87.06
372.48	75.06
372.706	86.06
372.932	92.06
373.158	86.06
373.384	103.06
373.61	100.06
373.835	112.06
374.061	108.06
374.287	89.06
374.513	100.06
374.739	99.06
374.965	95.06
375.191	90.06
375.416	86.06
375.642	105.06
375.868	94.06
376.094	91.06
376.319	100.06
376.545	71.06
376.771	86.06
376.997	105.06
377.222	106.06
377.448	97.06
377.674	98.06
377.899	91.06
378.125	96.06
378.35	95.06
378.576	97.06
378.802	97.06
379.027	106.06
379.253	96.06
379.478	90.06
379.704	88.06
379.929	91.06
380.155	98.06
380.38	86.06
380.606	94.06
380.831	98.06
381.057	114.06
381.282	108.06
381.507	91.06
381.733	107.06
381.958	99.06
382.184	105.06
382.409	96.06
382.634	104.06
382.86	108.06
383.085	113.06
383.31	86.06
383.535	100.06
383.761	100.06
383.986	111.06
384.211	98.06
384.436	105.06
384.662	106.06
384.887	102.06
385.112	109.06
385.337	92.06
385.562	112.06
385.787	102.06
386.013	112.06
386.238	117.06
386.463	109.06
386.688	114.06
386.913	81.06
387.138	92.06
387.363	103.06
387.588	100.06
387.813	101.06
388.038	99.06
388.263	107.06
388.488	101.06
388.713	100.06
388.938	100.06
389.163	94.06
389.387	112.06
389.612	87.06
389.837	71.06
390.062	82.06
390.287	99.06
390.512	101.06
390.736	95.06
390.961	103.06
391.186	90.06
391.411	110.06
391.636	104.06
391.86	92.06
392.085	97.06
392.31	87.06
392.534	96.06
392.759	96.06
392.984	103.06
393.208	90.06
393.433	101.06
393.658	93.06
393.882	98.06
394.107	92.06
394.331	100.06
394.556	100.06
394.78	95.06
395.005	86.06
395.229	97.06
395.454	83.06
395.678	86.06
395.903	90.06
396.127	100.06
396.352	87.06
396.576	87.06
396.801	107.06
397.025	98.06
397.249	94.06
397.474	94.06
397.698	96.06
397.922	102.06
398.147	91.06
398.371	91.06
398.595	90.06
398.82	82.06
399.044	91.06
399.268	84.06
399.492	95.06
399.717	105.06
399.941	85.06
400.165	93.06
400.389	100.06
400.613	107.06
400.837	82.06
401.062	82.06
401.286	81.06
401.51	80.06
401.734	88.06
401.958	103.06
402.182	126.06
402.406	152.06
402.63	119.06
402.854	97.06
403.078	104.06
403.302	95.06
403.526	92.06
403.75	98.06
403.974	98.06
404.198	94.06
404.422	84.06
404.645	78.06
404.869	95.06
405.093	101.06
405.317	109.06
405.541	125.06
405.765	99.06
405.988	117.06
406.212	150.06
406.436	226.06
406.66	149.06
406.883	99.06
407.107	90.06
407.331	113.06
407.555	99.06
407.778	122.06
408.002	103.06
408.226	93.06
408.449	84.06
408.673	87.06
408.896	90.06
409.12	107.06
409.344	94.06
409.567	102.06
409.791	111.06
410.014	97.06
410.238	100.06
410.461	103.06
410.685	92.06
410.908	107.06
411.132	106.06
411.355	120.06
411.578	91.06
411.802	108.06
412.025	90.06
412.249	82.06
412.472	104.06
412.695	96.06
412.919	86.06
413.142	91.06
413.365	92.06
413.589	81.06
413.812	97.06
414.035	102.06
414.258	98.06
414.482	86.06
414.705	86.06
414.928	98.06
415.151	96.06
415.374	86.06
415.597	90.06
415.821	95.06
416.044	74.06
416.267	91.06
416.49	95.06
416.713	85.06
416.936	95.06
417.159	90.06
417.382	88.06
417.605	89.06
417.828	98.06
418.051	99.06
418.274	70.06
418.497	92.06
418.72	89.06
418.943	90.06
419.166	85.06
419.389	90.06
419.611	95.06
419.834	88.06
420.057	91.06
420.28	83.06
420.503	103.06
420.726	94.06
420.948	98.06
421.171	107.06
421.394	95.06
421.617	100.06
421.839	102.06
422.062	88.06
422.285	94.06
422.507	106.06
422.73	102.06
422.953	94.06
423.175	92.06
423.398	86.06
423.621	100.06
423.843	105.06
424.066	91.06
424.288	98.06
424.511	101.06
424.733	118.06
424.956	97.06
425.178	89.06
425.401	103.06
425.623	90.06
425.846	96.06
426.068	107.06
426.291	90.06
426.513	95.06
426.735	100.06
426.958	102.06
427.18	112.06
427.402	141.06
427.625	166.06
427.847	132.06
428.069	116.06
428.292	91.06
428.514	90.06
428.736	94.06
428.958	75.06
429.181	76.06
429.403	84.06
429.625	99.06
429.847	99.06
430.069	105.06
430.292	94.06
430.514	96.06
430.736	94.06
430.958	90.06
431.18	90.06
431.402	103.06
431.624	90.06
431.846	88.06
432.068	83.06
432.29	93.06
432.512	83.06
432.734	96.06
432.956	84.06
433.178	103.06
433.4	97.06
433.622	95.06
433.844	95.06
434.066	99.06
434.287	92.06
434.509	86.06
434.731	78.06
434.953	93.06
435.175	83.06
435.397	95.06
435.618	92.06
435.84	92.06
436.062	122.06
436.284	115.06
436.505	104.06
436.727	106.06
436.949	96.06
437.17	93.06
437.392	96.06
437.614	100.06
437.835	118.06
438.057	113.06
438.278	108.06
438.5	106.06
438.721	137.06
438.943	92.06
439.165	102.06
439.386	91.06
439.608	100.06
439.829	89.06
440.05	131.06
440.272	147.06
440.493	106.06
440.715	90.06
440.936	83.06
441.158	86.06
441.379	90.06
441.6	91.06
441.822	94.06
442.043	91.06
442.264	115.06
442.486	106.06
442.707	103.06
442.928	111.06
443.149	139.06
443.371	118.06
443.592	115.06
443.813	121.06
444.034	119.06
444.255	95.06
444.476	108.06
444.698	86.06
444.919	86.06
445.14	129.06
445.361	119.06
445.582	119.06
445.803	131.06
446.024	143.06
446.245	138.06
446.466	107.06
446.687	100.06
446.908	91.06
447.129	96.06
447.35	89.06
447.571	86.06
447.792	112.06
448.013	105.06
448.234	105.06
448.455	108.06
448.675	121.06
448.896	138.06
449.117	94.06
449.338	113.06
449.559	132.06
449.779	137.06
450	91.06
450.221	98.06
450.442	99.06
450.662	100.06
450.883	111.06
451.104	108.06
451.324	106.06
451.545	99.06
451.766	95.06
451.986	96.06
452.207	83.06
452.428	104.06
452.648	104.06
452.869	106.06
453.089	107.06
453.31	113.06
453.53	91.06
453.751	94.06
453.971	105.06
454.192	129.06
454.412	113.06
454.633	82.06
454.853	67.06
455.073	85.06
455.294	88.06
455.514	88.06
455.734	95.06
455.955	87.06
456.175	88.06
456.395	92.06
456.616	88.06
456.836	87.06
457.056	88.06
457.276	76.06
457.497	77.06
457.717	94.06
457.937	94.06
458.157	82.06
458.377	91.06
458.598	96.06
458.818	145.06
459.038	156.06
459.258	104.06
459.478	98.06
459.698	99.06
459.918	100.06
460.138	97.06
460.358	86.06
460.578	88.06
460.798	86.06
461.018	96.06
461.238	81.06
461.458	79.06
461.678	78.06
461.898	94.06
462.118	103.06
462.338	91.06
462.558	78.06
462.777	86.06
462.997	85.06
463.217	87.06
463.437	102.06
463.657	91.06
463.876	91.06
464.096	95.06
464.316	102.06
464.536	102.06
464.755	97.06
464.975	108.06
465.195	156.06
465.414	137.06
465.634	97.06
465.854	96.06
466.073	98.06
466.293	104.06
466.512	94.06
466.732	89.06
466.951	92.06
467.171	101.06
467.391	97.06
467.61	104.06
467.829	88.06
468.049	106.06
468.268	110.06
468.488	82.06
468.707	84.06
468.927	86.06
469.146	84.06
469.365	86.06
469.585	107.06
469.804	92.06
470.023	90.06
470.243	87.06
470.462	99.06
470.681	103.06
470.901	98.06
471.12	91.06
471.339	91.06
471.558	100.06
471.777	108.06
471.997	88.06
472.216	102.06
472.435	147.06
472.654	101.06
472.873	102.06
473.092	90.06
473.311	87.06
473.53	88.06
473.749	104.06
473.968	94.06
474.187	96.06
474.406	86.06
474.625	89.06
474.844	82.06
475.063	85.06
475.282	90.06
475.501	93.06
475.72	99.06
475.939	96.06
476.158	92.06
476.377	92.06
476.596	93.06
476.814	92.06
477.033	97.06
477.252	84.06
477.471	93.06
477.69	89.06
477.908	92.06
478.127	96.06
478.346	93.06
478.564	90.06
478.783	92.06
479.002	87.06
479.22	110.06
479.439	94.06
479.658	103.06
479.876	108.06
480.095	87.06
480.313	97.06
480.532	93.06
480.751	99.06
480.969	114.06
481.188	191.06
481.406	137.06
481.624	108.06
481.843	84.06
482.061	100.06
482.28	99.06
482.498	94.06
482.717	86.06
482.935	97.06
483.153	102.06
483.372	94.06
483.59	92.06
483.808	88.06
484.027	88.06
484.245	97.06
484.463	98.06
484.681	88.06
484.9	95.06
485.118	94.06
485.336	92.06
485.554	104.06
485.772	92.06
485.99	107.06
486.209	110.06
486.427	102.06
486.645	113.06
486.863	104.06
487.081	114.06
487.299	90.06
487.517	107.06
487.735	102.06
487.953	96.06
488.171	98.06
488.389	80.06
488.607	101.06
488.825	96.06
489.043	100.06
489.261	86.06
489.479	96.06
489.696	94.06
489.914	99.06
490.132	95.06
490.35	108.06
490.568	98.06
490.786	86.06
491.003	99.06
491.221	101.06
491.439	97.06
491.657	100.06
491.874	96.06
492.092	97.06
492.31	96.06
492.527	82.06
492.745	93.06
492.963	97.06
493.18	87.06
493.398	94.06
493.615	96.06
493.833	98.06
494.05	91.06
494.268	91.06
494.485	87.06
494.703	90.06
494.92	95.06
495.138	104.06
495.355	98.06
495.573	83.06
495.79	99.06
496.008	102.06
496.225	89.06
496.442	90.06
496.66	102.06
496.877	85.06
497.094	102.06
497.312	103.06
497.529	99.06
497.746	97.06
497.963	105.06
498.181	94.06
498.398	99.06
498.615	113.06
498.832	97.06
499.049	92.06
499.267	84.06
499.484	86.06
499.701	84.06
499.918	82.06
500.135	104.06
500.352	97.06
500.569	84.06
500.786	88.06
501.003	95.06
501.22	94.06
501.437	88.06
501.654	89.06
501.871	102.06
502.088	97.06
502.305	98.06
502.522	102.06
502.739	102.06
502.956	91.06
503.172	103.06
503.389	98.06
503.606	110.06
503.823	95.06
504.04	86.06
504.256	92.06
504.473	103.06
504.69	84.06
504.907	88.06
505.123	87.06
505.34	106.06
505.557	82.06
505.773	97.06
505.99	93.06
506.207	83.06
506.423	84.06
506.64	97.06
506.856	100.06
507.073	91.06
507.289	104.06
507.506	100.06
507.722	109.06
507.939	99.06
508.155	105.06
508.372	93.06
508.588	91.06
508.805	101.06
509.021	101.06
509.238	96.06
509.454	80.06
509.67	99.06
509.887	118.06
510.103	135.06
510.319	223.06
510.536	725.06
510.752	2311.06
510.968	642.06
511.184	154.06
511.401	120.06
511.617	103.06
511.833	93.06
512.049	91.06
512.265	88.06
512.481	94.06
512.698	99.06
512.914	104.06
513.13	96.06
513.346	87.06
513.562	90.06
513.778	114.06
513.994	90.06
