Data from Uncirc_1990_H10_HRD10591_00030.txt Node
Date: Wed Jan 03 11:53:57 EST 2024
User: Yrep
Spectrometer: HR+D1059
Trigger mode: 1
Integration Time (sec): 1.000000E-1
Scans to average: 1
Electric dark correction enabled: true
Nonlinearity correction enabled: false
Boxcar width: 0
XAxis mode: Wavelengths
Number of Pixels in Spectrum: 2048
>>>>>Begin Spectral Data<<<<<
223.165	-7.38
223.4	-7.38
223.635	-7.38
223.869	-25.38
224.104	-7.38
224.338	-34.38
224.573	-32.38
224.808	-14.38
225.042	-9.38
225.277	14.62
225.511	-10.38
225.746	3.62
225.98	1.62
226.215	14.62
226.449	18.62
226.683	29.62
226.918	26.62
227.152	31.62
227.387	29.62
227.621	44.62
227.856	42.62
228.09	52.62
228.324	35.62
228.559	58.62
228.793	72.62
229.027	61.62
229.262	51.62
229.496	67.62
229.73	73.62
229.964	82.62
230.199	85.62
230.433	70.62
230.667	57.62
230.901	80.62
231.136	88.62
231.37	74.62
231.604	69.62
231.838	82.62
232.072	84.62
232.306	78.62
232.541	75.62
232.775	68.62
233.009	85.62
233.243	78.62
233.477	66.62
233.711	83.62
233.945	86.62
234.179	75.62
234.413	81.62
234.647	84.62
234.881	75.62
235.115	75.62
235.349	79.62
235.583	84.62
235.817	82.62
236.051	66.62
236.285	81.62
236.519	76.62
236.753	80.62
236.987	74.62
237.221	84.62
237.455	75.62
237.689	68.62
237.922	80.62
238.156	63.62
238.39	64.62
238.624	78.62
238.858	74.62
239.091	71.62
239.325	68.62
239.559	74.62
239.793	81.62
240.027	84.62
240.26	68.62
240.494	67.62
240.728	71.62
240.961	82.62
241.195	75.62
241.429	75.62
241.662	75.62
241.896	68.62
242.13	76.62
242.363	69.62
242.597	60.62
242.83	88.62
243.064	76.62
243.298	79.62
243.531	78.62
243.765	71.62
243.998	77.62
244.232	64.62
244.465	77.62
244.699	75.62
244.932	79.62
245.166	85.62
245.399	75.62
245.633	98.62
245.866	86.62
246.099	69.62
246.333	68.62
246.566	73.62
246.8	92.62
247.033	69.62
247.266	88.62
247.5	66.62
247.733	70.62
247.966	75.62
248.2	68.62
248.433	81.62
248.666	74.62
248.899	73.62
249.133	90.62
249.366	90.62
249.599	88.62
249.832	75.62
250.066	71.62
250.299	60.62
250.532	74.62
250.765	78.62
250.998	67.62
251.231	77.62
251.465	76.62
251.698	73.62
251.931	69.62
252.164	76.62
252.397	78.62
252.63	82.62
252.863	78.62
253.096	74.62
253.329	83.62
253.562	73.62
253.795	82.62
254.028	73.62
254.261	76.62
254.494	62.62
254.727	73.62
254.96	76.62
255.193	88.62
255.426	84.62
255.659	75.62
255.892	92.62
256.124	72.62
256.357	80.62
256.59	76.62
256.823	79.62
257.056	89.62
257.289	77.62
257.521	74.62
257.754	94.62
257.987	72.62
258.22	66.62
258.452	76.62
258.685	73.62
258.918	72.62
259.151	73.62
259.383	78.62
259.616	88.62
259.849	92.62
260.081	74.62
260.314	79.62
260.547	73.62
260.779	76.62
261.012	80.62
261.244	83.62
261.477	99.62
261.71	73.62
261.942	108.62
262.175	113.62
262.407	86.62
262.64	83.62
262.872	76.62
263.105	75.62
263.337	106.62
263.57	88.62
263.802	85.62
264.035	93.62
264.267	83.62
264.499	80.62
264.732	95.62
264.964	93.62
265.197	81.62
265.429	69.62
265.661	88.62
265.894	80.62
266.126	89.62
266.358	84.62
266.591	67.62
266.823	76.62
267.055	73.62
267.287	84.62
267.52	68.62
267.752	88.62
267.984	69.62
268.216	89.62
268.448	78.62
268.681	80.62
268.913	66.62
269.145	81.62
269.377	64.62
269.609	63.62
269.841	79.62
270.073	82.62
270.306	92.62
270.538	82.62
270.77	75.62
271.002	68.62
271.234	76.62
271.466	67.62
271.698	72.62
271.93	76.62
272.162	95.62
272.394	89.62
272.626	79.62
272.858	78.62
273.09	71.62
273.322	90.62
273.553	72.62
273.785	69.62
274.017	88.62
274.249	88.62
274.481	61.62
274.713	72.62
274.945	76.62
275.176	86.62
275.408	79.62
275.64	81.62
275.872	90.62
276.104	77.62
276.335	79.62
276.567	93.62
276.799	106.62
277.031	95.62
277.262	89.62
277.494	94.62
277.726	76.62
277.957	81.62
278.189	76.62
278.421	88.62
278.652	98.62
278.884	88.62
279.115	80.62
279.347	90.62
279.579	68.62
279.81	76.62
280.042	87.62
280.273	98.62
280.505	79.62
280.736	85.62
280.968	77.62
281.199	90.62
281.431	85.62
281.662	86.62
281.894	92.62
282.125	80.62
282.356	113.62
282.588	125.62
282.819	96.62
283.051	72.62
283.282	84.62
283.513	70.62
283.745	88.62
283.976	87.62
284.207	78.62
284.439	96.62
284.67	79.62
284.901	78.62
285.132	79.62
285.364	96.62
285.595	86.62
285.826	71.62
286.057	99.62
286.288	77.62
286.52	66.62
286.751	87.62
286.982	74.62
287.213	72.62
287.444	86.62
287.675	94.62
287.906	84.62
288.138	92.62
288.369	95.62
288.6	83.62
288.831	94.62
289.062	90.62
289.293	76.62
289.524	90.62
289.755	74.62
289.986	57.62
290.217	83.62
290.448	96.62
290.679	90.62
290.91	85.62
291.141	86.62
291.371	82.62
291.602	80.62
291.833	83.62
292.064	92.62
292.295	94.62
292.526	78.62
292.757	89.62
292.987	92.62
293.218	88.62
293.449	90.62
293.68	95.62
293.91	79.62
294.141	81.62
294.372	99.62
294.603	101.62
294.833	80.62
295.064	94.62
295.295	91.62
295.525	68.62
295.756	89.62
295.987	109.62
296.217	123.62
296.448	124.62
296.679	82.62
296.909	85.62
297.14	94.62
297.37	84.62
297.601	77.62
297.831	75.62
298.062	88.62
298.292	82.62
298.523	82.62
298.753	95.62
298.984	77.62
299.214	84.62
299.445	78.62
299.675	111.62
299.905	104.62
300.136	97.62
300.366	92.62
300.597	94.62
300.827	90.62
301.057	90.62
301.288	91.62
301.518	86.62
301.748	88.62
301.979	100.62
302.209	89.62
302.439	108.62
302.669	84.62
302.9	78.62
303.13	82.62
303.36	102.62
303.59	102.62
303.82	97.62
304.051	93.62
304.281	78.62
304.511	78.62
304.741	79.62
304.971	88.62
305.201	98.62
305.431	69.62
305.661	86.62
305.891	86.62
306.121	91.62
306.352	90.62
306.582	90.62
306.812	93.62
307.042	94.62
307.272	87.62
307.502	82.62
307.731	74.62
307.961	85.62
308.191	108.62
308.421	98.62
308.651	84.62
308.881	75.62
309.111	88.62
309.341	95.62
309.571	87.62
309.8	110.62
310.03	90.62
310.26	105.62
310.49	101.62
310.72	98.62
310.949	97.62
311.179	93.62
311.409	99.62
311.639	93.62
311.868	90.62
312.098	96.62
312.328	83.62
312.557	86.62
312.787	102.62
313.017	91.62
313.246	101.62
313.476	97.62
313.706	73.62
313.935	88.62
314.165	90.62
314.394	95.62
314.624	78.62
314.853	92.62
315.083	99.62
315.312	81.62
315.542	96.62
315.771	78.62
316.001	81.62
316.23	96.62
316.46	81.62
316.689	91.62
316.919	101.62
317.148	94.62
317.377	66.62
317.607	93.62
317.836	86.62
318.065	89.62
318.295	96.62
318.524	86.62
318.753	87.62
318.983	96.62
319.212	95.62
319.441	115.62
319.67	93.62
319.9	92.62
320.129	79.62
320.358	98.62
320.587	100.62
320.816	89.62
321.046	102.62
321.275	94.62
321.504	92.62
321.733	93.62
321.962	99.62
322.191	92.62
322.42	108.62
322.649	106.62
322.878	107.62
323.108	110.62
323.337	118.62
323.566	143.62
323.795	152.62
324.024	206.62
324.253	357.62
324.482	741.62
324.71	1538.62
324.939	2066.62
325.168	753.62
325.397	228.62
325.626	146.62
325.855	120.62
326.084	113.62
326.313	129.62
326.542	137.62
326.77	210.62
326.999	413.62
327.228	834.62
327.457	1544.62
327.686	1237.62
327.914	342.62
328.143	166.62
328.372	139.62
328.6	108.62
328.829	113.62
329.058	113.62
329.287	101.62
329.515	117.62
329.744	105.62
329.972	101.62
330.201	102.62
330.43	101.62
330.658	103.62
330.887	124.62
331.115	103.62
331.344	94.62
331.572	103.62
331.801	82.62
332.03	86.62
332.258	88.62
332.486	95.62
332.715	91.62
332.943	94.62
333.172	85.62
333.4	89.62
333.629	103.62
333.857	102.62
334.085	101.62
334.314	92.62
334.542	81.62
334.771	80.62
334.999	89.62
335.227	93.62
335.455	96.62
335.684	101.62
335.912	97.62
336.14	88.62
336.369	92.62
336.597	96.62
336.825	105.62
337.053	90.62
337.281	87.62
337.51	77.62
337.738	89.62
337.966	85.62
338.194	94.62
338.422	98.62
338.65	93.62
338.878	86.62
339.106	68.62
339.334	86.62
339.562	78.62
339.79	79.62
340.018	76.62
340.246	96.62
340.474	83.62
340.702	88.62
340.93	101.62
341.158	86.62
341.386	95.62
341.614	79.62
341.842	97.62
342.07	88.62
342.298	87.62
342.526	78.62
342.754	80.62
342.981	74.62
343.209	89.62
343.437	101.62
343.665	82.62
343.893	100.62
344.12	86.62
344.348	90.62
344.576	75.62
344.804	96.62
345.031	104.62
345.259	109.62
345.487	88.62
345.714	72.62
345.942	88.62
346.17	89.62
346.397	89.62
346.625	86.62
346.853	110.62
347.08	94.62
347.308	104.62
347.535	88.62
347.763	95.62
347.99	91.62
348.218	99.62
348.445	85.62
348.673	89.62
348.9	91.62
349.128	94.62
349.355	97.62
349.583	94.62
349.81	88.62
350.037	82.62
350.265	94.62
350.492	101.62
350.72	79.62
350.947	100.62
351.174	103.62
351.402	98.62
351.629	99.62
351.856	100.62
352.083	108.62
352.311	94.62
352.538	106.62
352.765	95.62
352.992	105.62
353.22	104.62
353.447	90.62
353.674	101.62
353.901	96.62
354.128	100.62
354.355	93.62
354.583	99.62
354.81	104.62
355.037	108.62
355.264	89.62
355.491	93.62
355.718	92.62
355.945	85.62
356.172	99.62
356.399	98.62
356.626	79.62
356.853	100.62
357.08	96.62
357.307	89.62
357.534	95.62
357.761	89.62
357.988	98.62
358.215	106.62
358.441	109.62
358.668	93.62
358.895	88.62
359.122	76.62
359.349	92.62
359.576	99.62
359.802	92.62
360.029	95.62
360.256	112.62
360.483	88.62
360.709	87.62
360.936	84.62
361.163	86.62
361.39	90.62
361.616	89.62
361.843	89.62
362.07	88.62
362.296	100.62
362.523	77.62
362.749	82.62
362.976	73.62
363.203	92.62
363.429	90.62
363.656	90.62
363.882	92.62
364.109	102.62
364.335	92.62
364.562	92.62
364.788	93.62
365.015	84.62
365.241	101.62
365.468	102.62
365.694	92.62
365.92	95.62
366.147	93.62
366.373	91.62
366.599	81.62
366.826	90.62
367.052	100.62
367.278	101.62
367.505	91.62
367.731	102.62
367.957	83.62
368.184	83.62
368.41	99.62
368.636	101.62
368.862	115.62
369.089	92.62
369.315	88.62
369.541	77.62
369.767	97.62
369.993	82.62
370.219	90.62
370.445	83.62
370.672	90.62
370.898	96.62
371.124	87.62
371.35	77.62
371.576	82.62
371.802	75.62
372.028	80.62
372.254	81.62
372.48	92.62
372.706	82.62
372.932	91.62
373.158	76.62
373.384	85.62
373.61	87.62
373.835	93.62
374.061	79.62
374.287	91.62
374.513	84.62
374.739	79.62
374.965	83.62
375.191	84.62
375.416	83.62
375.642	79.62
375.868	103.62
376.094	80.62
376.319	94.62
376.545	81.62
376.771	74.62
376.997	72.62
377.222	80.62
377.448	89.62
377.674	83.62
377.899	83.62
378.125	85.62
378.35	85.62
378.576	85.62
378.802	91.62
379.027	99.62
379.253	94.62
379.478	81.62
379.704	89.62
379.929	90.62
380.155	81.62
380.38	90.62
380.606	89.62
380.831	92.62
381.057	91.62
381.282	78.62
381.507	82.62
381.733	89.62
381.958	89.62
382.184	92.62
382.409	95.62
382.634	100.62
382.86	96.62
383.085	108.62
383.31	102.62
383.535	99.62
383.761	89.62
383.986	99.62
384.211	111.62
384.436	111.62
384.662	93.62
384.887	97.62
385.112	94.62
385.337	84.62
385.562	88.62
385.787	96.62
386.013	95.62
386.238	107.62
386.463	108.62
386.688	103.62
386.913	89.62
387.138	96.62
387.363	91.62
387.588	96.62
387.813	95.62
388.038	92.62
388.263	103.62
388.488	96.62
388.713	100.62
388.938	88.62
389.163	84.62
389.387	83.62
389.612	89.62
389.837	84.62
390.062	94.62
390.287	79.62
390.512	94.62
390.736	93.62
390.961	84.62
391.186	82.62
391.411	98.62
391.636	96.62
391.86	73.62
392.085	84.62
392.31	72.62
392.534	84.62
392.759	85.62
392.984	79.62
393.208	90.62
393.433	93.62
393.658	82.62
393.882	85.62
394.107	88.62
394.331	85.62
394.556	85.62
394.78	88.62
395.005	99.62
395.229	96.62
395.454	78.62
395.678	73.62
395.903	84.62
396.127	79.62
396.352	83.62
396.576	91.62
396.801	86.62
397.025	74.62
397.249	91.62
397.474	91.62
397.698	84.62
397.922	78.62
398.147	82.62
398.371	81.62
398.595	80.62
398.82	84.62
399.044	90.62
399.268	88.62
399.492	90.62
399.717	97.62
399.941	96.62
400.165	77.62
400.389	82.62
400.613	79.62
400.837	84.62
401.062	83.62
401.286	89.62
401.51	86.62
401.734	92.62
401.958	109.62
402.182	128.62
402.406	148.62
402.63	108.62
402.854	84.62
403.078	86.62
403.302	84.62
403.526	88.62
403.75	88.62
403.974	77.62
404.198	96.62
404.422	85.62
404.645	81.62
404.869	91.62
405.093	99.62
405.317	85.62
405.541	85.62
405.765	92.62
405.988	108.62
406.212	161.62
406.436	207.62
406.66	129.62
406.883	114.62
407.107	92.62
407.331	89.62
407.555	89.62
407.778	87.62
408.002	84.62
408.226	94.62
408.449	97.62
408.673	80.62
408.896	80.62
409.12	104.62
409.344	83.62
409.567	96.62
409.791	80.62
410.014	89.62
410.238	75.62
410.461	85.62
410.685	98.62
410.908	86.62
411.132	102.62
411.355	108.62
411.578	78.62
411.802	84.62
412.025	90.62
412.249	95.62
412.472	90.62
412.695	81.62
412.919	58.62
413.142	84.62
413.365	82.62
413.589	93.62
413.812	82.62
414.035	99.62
414.258	81.62
414.482	98.62
414.705	82.62
414.928	90.62
415.151	92.62
415.374	97.62
415.597	83.62
415.821	100.62
416.044	89.62
416.267	91.62
416.49	108.62
416.713	88.62
416.936	89.62
417.159	86.62
417.382	83.62
417.605	97.62
417.828	101.62
418.051	95.62
418.274	67.62
418.497	87.62
418.72	90.62
418.943	75.62
419.166	88.62
419.389	98.62
419.611	99.62
419.834	85.62
420.057	90.62
420.28	87.62
420.503	85.62
420.726	80.62
420.948	75.62
421.171	98.62
421.394	93.62
421.617	79.62
421.839	99.62
422.062	91.62
422.285	76.62
422.507	89.62
422.73	106.62
422.953	93.62
423.175	96.62
423.398	82.62
423.621	88.62
423.843	79.62
424.066	95.62
424.288	101.62
424.511	98.62
424.733	97.62
424.956	96.62
425.178	92.62
425.401	104.62
425.623	104.62
425.846	82.62
426.068	98.62
426.291	100.62
426.513	84.62
426.735	91.62
426.958	82.62
427.18	104.62
427.402	123.62
427.625	150.62
427.847	114.62
428.069	94.62
428.292	75.62
428.514	83.62
428.736	85.62
428.958	90.62
429.181	76.62
429.403	95.62
429.625	84.62
429.847	90.62
430.069	91.62
430.292	94.62
430.514	77.62
430.736	86.62
430.958	68.62
431.18	79.62
431.402	90.62
431.624	97.62
431.846	79.62
432.068	101.62
432.29	79.62
432.512	91.62
432.734	94.62
432.956	87.62
433.178	88.62
433.4	98.62
433.622	89.62
433.844	76.62
434.066	89.62
434.287	98.62
434.509	80.62
434.731	72.62
434.953	81.62
435.175	73.62
435.397	93.62
435.618	85.62
435.84	92.62
436.062	101.62
436.284	100.62
436.505	99.62
436.727	98.62
436.949	89.62
437.17	89.62
437.392	73.62
437.614	111.62
437.835	109.62
438.057	102.62
438.278	109.62
438.5	98.62
438.721	117.62
438.943	100.62
439.165	93.62
439.386	93.62
439.608	91.62
439.829	94.62
440.05	105.62
440.272	114.62
440.493	90.62
440.715	88.62
440.936	91.62
441.158	91.62
441.379	85.62
441.6	99.62
441.822	99.62
442.043	81.62
442.264	92.62
442.486	89.62
442.707	81.62
442.928	98.62
443.149	117.62
443.371	126.62
443.592	106.62
443.813	90.62
444.034	92.62
444.255	104.62
444.476	80.62
444.698	86.62
444.919	80.62
445.14	128.62
445.361	105.62
445.582	113.62
445.803	115.62
446.024	140.62
446.245	120.62
446.466	100.62
446.687	77.62
446.908	95.62
447.129	69.62
447.35	94.62
447.571	89.62
447.792	88.62
448.013	92.62
448.234	120.62
448.455	103.62
448.675	109.62
448.896	103.62
449.117	89.62
449.338	97.62
449.559	105.62
449.779	128.62
450	96.62
450.221	83.62
450.442	88.62
450.662	97.62
450.883	100.62
451.104	101.62
451.324	90.62
451.545	98.62
451.766	93.62
451.986	67.62
452.207	93.62
452.428	77.62
452.648	100.62
452.869	101.62
453.089	109.62
453.31	99.62
453.53	100.62
453.751	95.62
453.971	101.62
454.192	105.62
454.412	96.62
454.633	94.62
454.853	72.62
455.073	80.62
455.294	64.62
455.514	75.62
455.734	81.62
455.955	79.62
456.175	92.62
456.395	96.62
456.616	72.62
456.836	81.62
457.056	94.62
457.276	75.62
457.497	79.62
457.717	83.62
457.937	91.62
458.157	81.62
458.377	85.62
458.598	107.62
458.818	140.62
459.038	133.62
459.258	111.62
459.478	84.62
459.698	83.62
459.918	81.62
460.138	80.62
460.358	74.62
460.578	74.62
460.798	81.62
461.018	81.62
461.238	81.62
461.458	63.62
461.678	94.62
461.898	93.62
462.118	76.62
462.338	93.62
462.558	82.62
462.777	90.62
462.997	85.62
463.217	83.62
463.437	84.62
463.657	86.62
463.876	84.62
464.096	84.62
464.316	80.62
464.536	85.62
464.755	86.62
464.975	96.62
465.195	138.62
465.414	146.62
465.634	104.62
465.854	80.62
466.073	72.62
466.293	91.62
466.512	70.62
466.732	102.62
466.951	85.62
467.171	77.62
467.391	79.62
467.61	89.62
467.829	92.62
468.049	76.62
468.268	95.62
468.488	76.62
468.707	88.62
468.927	87.62
469.146	83.62
469.365	73.62
469.585	88.62
469.804	98.62
470.023	98.62
470.243	84.62
470.462	93.62
470.681	104.62
470.901	90.62
471.12	80.62
471.339	77.62
471.558	98.62
471.777	88.62
471.997	96.62
472.216	86.62
472.435	85.62
472.654	79.62
472.873	85.62
473.092	80.62
473.311	71.62
473.53	66.62
473.749	86.62
473.968	82.62
474.187	94.62
474.406	98.62
474.625	104.62
474.844	93.62
475.063	85.62
475.282	87.62
475.501	81.62
475.72	91.62
475.939	85.62
476.158	71.62
476.377	81.62
476.596	84.62
476.814	98.62
477.033	77.62
477.252	81.62
477.471	89.62
477.69	96.62
477.908	91.62
478.127	94.62
478.346	81.62
478.564	80.62
478.783	85.62
479.002	76.62
479.22	85.62
479.439	105.62
479.658	86.62
479.876	95.62
480.095	77.62
480.313	89.62
480.532	84.62
480.751	80.62
480.969	67.62
481.188	90.62
481.406	88.62
481.624	98.62
481.843	86.62
482.061	89.62
482.28	90.62
482.498	86.62
482.717	82.62
482.935	78.62
483.153	80.62
483.372	101.62
483.59	98.62
483.808	73.62
484.027	85.62
484.245	90.62
484.463	112.62
484.681	101.62
484.9	91.62
485.118	101.62
485.336	95.62
485.554	100.62
485.772	104.62
485.99	115.62
486.209	94.62
486.427	102.62
486.645	95.62
486.863	113.62
487.081	90.62
487.299	97.62
487.517	92.62
487.735	83.62
487.953	99.62
488.171	89.62
488.389	95.62
488.607	99.62
488.825	77.62
489.043	85.62
489.261	95.62
489.479	97.62
489.696	101.62
489.914	81.62
490.132	82.62
490.35	94.62
490.568	88.62
490.786	85.62
491.003	77.62
491.221	89.62
491.439	82.62
491.657	80.62
491.874	77.62
492.092	87.62
492.31	95.62
492.527	73.62
492.745	93.62
492.963	81.62
493.18	99.62
493.398	92.62
493.615	90.62
493.833	97.62
494.05	86.62
494.268	89.62
494.485	89.62
494.703	78.62
494.92	79.62
495.138	74.62
495.355	93.62
495.573	96.62
495.79	80.62
496.008	82.62
496.225	94.62
496.442	88.62
496.66	84.62
496.877	86.62
497.094	100.62
497.312	90.62
497.529	75.62
497.746	81.62
497.963	91.62
498.181	87.62
498.398	97.62
498.615	102.62
498.832	100.62
499.049	96.62
499.267	94.62
499.484	98.62
499.701	84.62
499.918	98.62
500.135	71.62
500.352	83.62
500.569	92.62
500.786	90.62
501.003	85.62
501.22	98.62
501.437	85.62
501.654	98.62
501.871	98.62
502.088	102.62
502.305	88.62
502.522	84.62
502.739	78.62
502.956	89.62
503.172	97.62
503.389	89.62
503.606	104.62
503.823	84.62
504.04	78.62
504.256	80.62
504.473	82.62
504.69	90.62
504.907	79.62
505.123	89.62
505.34	74.62
505.557	97.62
505.773	94.62
505.99	86.62
506.207	93.62
506.423	74.62
506.64	88.62
506.856	113.62
507.073	98.62
507.289	85.62
507.506	94.62
507.722	98.62
507.939	93.62
508.155	91.62
508.372	92.62
508.588	101.62
508.805	99.62
509.021	102.62
509.238	93.62
509.454	97.62
509.67	84.62
509.887	100.62
510.103	113.62
510.319	190.62
510.536	691.62
510.752	2187.62
510.968	604.62
511.184	142.62
511.401	110.62
511.617	97.62
511.833	90.62
512.049	89.62
512.265	82.62
512.481	102.62
512.698	93.62
512.914	95.62
513.13	84.62
513.346	85.62
513.562	79.62
513.778	97.62
513.994	89.62
514.21	96.62
514.426	118.62
514.642	117.62
514.858	117.62
515.074	149.62
515.29	383.62
515.506	1273.62
515.721	460.62
515.937	145.62
516.153	103.62
516.369	110.62
516.585	92.62
516.801	69.62
517.016	80.62
