Data from Uncirc_1990_H10_HRD10591_00025.txt Node
Date: Wed Jan 03 11:53:56 EST 2024
User: Yrep
Spectrometer: HR+D1059
Trigger mode: 1
Integration Time (sec): 1.000000E-1
Scans to average: 1
Electric dark correction enabled: true
Nonlinearity correction enabled: false
Boxcar width: 0
XAxis mode: Wavelengths
Number of Pixels in Spectrum: 2048
>>>>>Begin Spectral Data<<<<<
223.165	-11.25
223.4	-11.25
223.635	-11.25
223.869	-21.25
224.104	-19.25
224.338	-9.25
224.573	-17.25
224.808	-4.25
225.042	5.75
225.277	-9.25
225.511	1.75
225.746	-0.25
225.98	8.75
226.215	2.75
226.449	7.75
226.683	22.75
226.918	10.75
227.152	31.75
227.387	37.75
227.621	45.75
227.856	46.75
228.09	57.75
228.324	61.75
228.559	73.75
228.793	37.75
229.027	70.75
229.262	63.75
229.496	68.75
229.73	76.75
229.964	86.75
230.199	64.75
230.433	74.75
230.667	69.75
230.901	95.75
231.136	82.75
231.37	65.75
231.604	85.75
231.838	84.75
232.072	84.75
232.306	78.75
232.541	88.75
232.775	85.75
233.009	75.75
233.243	67.75
233.477	88.75
233.711	79.75
233.945	86.75
234.179	80.75
234.413	86.75
234.647	82.75
234.881	81.75
235.115	90.75
235.349	82.75
235.583	89.75
235.817	84.75
236.051	75.75
236.285	92.75
236.519	82.75
236.753	79.75
236.987	80.75
237.221	85.75
237.455	83.75
237.689	87.75
237.922	78.75
238.156	78.75
238.39	79.75
238.624	80.75
238.858	83.75
239.091	87.75
239.325	77.75
239.559	91.75
239.793	91.75
240.027	92.75
240.26	66.75
240.494	75.75
240.728	72.75
240.961	84.75
241.195	86.75
241.429	86.75
241.662	91.75
241.896	82.75
242.13	87.75
242.363	88.75
242.597	71.75
242.83	83.75
243.064	75.75
243.298	77.75
243.531	82.75
243.765	83.75
243.998	99.75
244.232	81.75
244.465	82.75
244.699	74.75
244.932	72.75
245.166	79.75
245.399	81.75
245.633	82.75
245.866	79.75
246.099	106.75
246.333	80.75
246.566	82.75
246.8	73.75
247.033	73.75
247.266	89.75
247.5	82.75
247.733	85.75
247.966	78.75
248.2	76.75
248.433	85.75
248.666	89.75
248.899	80.75
249.133	75.75
249.366	102.75
249.599	110.75
249.832	83.75
250.066	83.75
250.299	79.75
250.532	88.75
250.765	82.75
250.998	70.75
251.231	88.75
251.465	97.75
251.698	90.75
251.931	76.75
252.164	83.75
252.397	82.75
252.63	104.75
252.863	71.75
253.096	81.75
253.329	85.75
253.562	91.75
253.795	84.75
254.028	87.75
254.261	96.75
254.494	79.75
254.727	79.75
254.96	90.75
255.193	80.75
255.426	83.75
255.659	90.75
255.892	84.75
256.124	95.75
256.357	92.75
256.59	88.75
256.823	90.75
257.056	84.75
257.289	63.75
257.521	81.75
257.754	86.75
257.987	87.75
258.22	95.75
258.452	72.75
258.685	78.75
258.918	83.75
259.151	83.75
259.383	84.75
259.616	89.75
259.849	103.75
260.081	74.75
260.314	78.75
260.547	95.75
260.779	88.75
261.012	80.75
261.244	86.75
261.477	84.75
261.71	99.75
261.942	97.75
262.175	113.75
262.407	91.75
262.64	81.75
262.872	77.75
263.105	78.75
263.337	83.75
263.57	84.75
263.802	86.75
264.035	78.75
264.267	85.75
264.499	84.75
264.732	81.75
264.964	88.75
265.197	79.75
265.429	75.75
265.661	86.75
265.894	88.75
266.126	99.75
266.358	96.75
266.591	106.75
266.823	81.75
267.055	81.75
267.287	99.75
267.52	90.75
267.752	87.75
267.984	94.75
268.216	87.75
268.448	92.75
268.681	90.75
268.913	100.75
269.145	102.75
269.377	86.75
269.609	84.75
269.841	107.75
270.073	79.75
270.306	83.75
270.538	85.75
270.77	98.75
271.002	81.75
271.234	86.75
271.466	75.75
271.698	88.75
271.93	92.75
272.162	83.75
272.394	112.75
272.626	75.75
272.858	71.75
273.09	94.75
273.322	94.75
273.553	89.75
273.785	91.75
274.017	89.75
274.249	75.75
274.481	87.75
274.713	85.75
274.945	82.75
275.176	89.75
275.408	88.75
275.64	87.75
275.872	95.75
276.104	91.75
276.335	107.75
276.567	91.75
276.799	107.75
277.031	115.75
277.262	88.75
277.494	96.75
277.726	79.75
277.957	82.75
278.189	94.75
278.421	87.75
278.652	70.75
278.884	82.75
279.115	90.75
279.347	83.75
279.579	87.75
279.81	95.75
280.042	76.75
280.273	89.75
280.505	98.75
280.736	91.75
280.968	83.75
281.199	80.75
281.431	88.75
281.662	85.75
281.894	99.75
282.125	94.75
282.356	107.75
282.588	139.75
282.819	105.75
283.051	97.75
283.282	92.75
283.513	78.75
283.745	92.75
283.976	96.75
284.207	98.75
284.439	96.75
284.67	88.75
284.901	90.75
285.132	88.75
285.364	81.75
285.595	80.75
285.826	83.75
286.057	89.75
286.288	94.75
286.52	90.75
286.751	95.75
286.982	86.75
287.213	88.75
287.444	88.75
287.675	105.75
287.906	78.75
288.138	85.75
288.369	92.75
288.6	100.75
288.831	83.75
289.062	78.75
289.293	94.75
289.524	84.75
289.755	102.75
289.986	96.75
290.217	85.75
290.448	82.75
290.679	91.75
290.91	96.75
291.141	88.75
291.371	89.75
291.602	88.75
291.833	83.75
292.064	102.75
292.295	82.75
292.526	76.75
292.757	92.75
292.987	105.75
293.218	95.75
293.449	94.75
293.68	82.75
293.91	73.75
294.141	85.75
294.372	90.75
294.603	86.75
294.833	86.75
295.064	95.75
295.295	101.75
295.525	85.75
295.756	107.75
295.987	122.75
296.217	130.75
296.448	120.75
296.679	99.75
296.909	88.75
297.14	90.75
297.37	87.75
297.601	94.75
297.831	102.75
298.062	91.75
298.292	81.75
298.523	87.75
298.753	99.75
298.984	100.75
299.214	96.75
299.445	93.75
299.675	86.75
299.905	94.75
300.136	92.75
300.366	108.75
300.597	94.75
300.827	91.75
301.057	73.75
301.288	95.75
301.518	107.75
301.748	99.75
301.979	101.75
302.209	79.75
302.439	96.75
302.669	97.75
302.9	108.75
303.13	101.75
303.36	88.75
303.59	108.75
303.82	102.75
304.051	107.75
304.281	95.75
304.511	101.75
304.741	90.75
304.971	83.75
305.201	94.75
305.431	90.75
305.661	93.75
305.891	98.75
306.121	99.75
306.352	102.75
306.582	104.75
306.812	86.75
307.042	88.75
307.272	92.75
307.502	93.75
307.731	99.75
307.961	78.75
308.191	105.75
308.421	97.75
308.651	97.75
308.881	83.75
309.111	82.75
309.341	97.75
309.571	112.75
309.8	109.75
310.03	105.75
310.26	93.75
310.49	87.75
310.72	103.75
310.949	88.75
311.179	89.75
311.409	89.75
311.639	84.75
311.868	104.75
312.098	97.75
312.328	90.75
312.557	102.75
312.787	102.75
313.017	101.75
313.246	107.75
313.476	98.75
313.706	99.75
313.935	103.75
314.165	104.75
314.394	104.75
314.624	112.75
314.853	83.75
315.083	111.75
315.312	99.75
315.542	88.75
315.771	96.75
316.001	92.75
316.23	107.75
316.46	92.75
316.689	96.75
316.919	95.75
317.148	102.75
317.377	94.75
317.607	96.75
317.836	90.75
318.065	102.75
318.295	87.75
318.524	97.75
318.753	98.75
318.983	97.75
319.212	104.75
319.441	113.75
319.67	106.75
319.9	101.75
320.129	112.75
320.358	98.75
320.587	99.75
320.816	108.75
321.046	85.75
321.275	97.75
321.504	96.75
321.733	88.75
321.962	94.75
322.191	103.75
322.42	96.75
322.649	107.75
322.878	108.75
323.108	116.75
323.337	115.75
323.566	122.75
323.795	141.75
324.024	192.75
324.253	361.75
324.482	747.75
324.71	1512.75
324.939	1984.75
325.168	748.75
325.397	235.75
325.626	126.75
325.855	136.75
326.084	146.75
326.313	129.75
326.542	148.75
326.77	228.75
326.999	409.75
327.228	853.75
327.457	1561.75
327.686	1198.75
327.914	325.75
328.143	172.75
328.372	134.75
328.6	117.75
328.829	122.75
329.058	126.75
329.287	135.75
329.515	102.75
329.744	97.75
329.972	98.75
330.201	113.75
330.43	113.75
330.658	116.75
330.887	140.75
331.115	114.75
331.344	100.75
331.572	75.75
331.801	97.75
332.03	92.75
332.258	96.75
332.486	102.75
332.715	91.75
332.943	93.75
333.172	92.75
333.4	100.75
333.629	94.75
333.857	106.75
334.085	96.75
334.314	96.75
334.542	99.75
334.771	100.75
334.999	98.75
335.227	90.75
335.455	114.75
335.684	86.75
335.912	106.75
336.14	91.75
336.369	93.75
336.597	100.75
336.825	97.75
337.053	81.75
337.281	82.75
337.51	85.75
337.738	111.75
337.966	103.75
338.194	100.75
338.422	101.75
338.65	81.75
338.878	94.75
339.106	100.75
339.334	96.75
339.562	108.75
339.79	103.75
340.018	90.75
340.246	105.75
340.474	100.75
340.702	98.75
340.93	90.75
341.158	76.75
341.386	91.75
341.614	99.75
341.842	97.75
342.07	96.75
342.298	99.75
342.526	104.75
342.754	97.75
342.981	98.75
343.209	95.75
343.437	96.75
343.665	109.75
343.893	92.75
344.12	99.75
344.348	101.75
344.576	97.75
344.804	95.75
345.031	99.75
345.259	93.75
345.487	103.75
345.714	96.75
345.942	98.75
346.17	90.75
346.397	97.75
346.625	97.75
346.853	90.75
347.08	84.75
347.308	102.75
347.535	96.75
347.763	100.75
347.99	97.75
348.218	100.75
348.445	96.75
348.673	93.75
348.9	99.75
349.128	103.75
349.355	100.75
349.583	89.75
349.81	105.75
350.037	85.75
350.265	88.75
350.492	86.75
350.72	105.75
350.947	109.75
351.174	120.75
351.402	120.75
351.629	114.75
351.856	108.75
352.083	109.75
352.311	94.75
352.538	117.75
352.765	126.75
352.992	112.75
353.22	107.75
353.447	121.75
353.674	91.75
353.901	113.75
354.128	110.75
354.355	107.75
354.583	103.75
354.81	108.75
355.037	100.75
355.264	89.75
355.491	90.75
355.718	101.75
355.945	104.75
356.172	99.75
356.399	96.75
356.626	107.75
356.853	102.75
357.08	110.75
357.307	94.75
357.534	79.75
357.761	103.75
357.988	112.75
358.215	100.75
358.441	114.75
358.668	105.75
358.895	96.75
359.122	84.75
359.349	92.75
359.576	96.75
359.802	94.75
360.029	100.75
360.256	96.75
360.483	113.75
360.709	79.75
360.936	106.75
361.163	108.75
361.39	98.75
361.616	94.75
361.843	76.75
362.07	100.75
362.296	102.75
362.523	99.75
362.749	91.75
362.976	102.75
363.203	97.75
363.429	98.75
363.656	94.75
363.882	96.75
364.109	99.75
364.335	93.75
364.562	97.75
364.788	92.75
365.015	97.75
365.241	90.75
365.468	99.75
365.694	115.75
365.92	104.75
366.147	93.75
366.373	99.75
366.599	98.75
366.826	77.75
367.052	98.75
367.278	104.75
367.505	85.75
367.731	95.75
367.957	87.75
368.184	105.75
368.41	103.75
368.636	104.75
368.862	117.75
369.089	96.75
369.315	98.75
369.541	96.75
369.767	100.75
369.993	90.75
370.219	92.75
370.445	90.75
370.672	100.75
370.898	89.75
371.124	90.75
371.35	100.75
371.576	95.75
371.802	102.75
372.028	75.75
372.254	81.75
372.48	101.75
372.706	99.75
372.932	84.75
373.158	86.75
373.384	100.75
373.61	96.75
373.835	91.75
374.061	92.75
374.287	91.75
374.513	93.75
374.739	92.75
374.965	91.75
375.191	90.75
375.416	99.75
375.642	91.75
375.868	104.75
376.094	96.75
376.319	80.75
376.545	81.75
376.771	92.75
376.997	91.75
377.222	78.75
377.448	91.75
377.674	103.75
377.899	94.75
378.125	81.75
378.35	92.75
378.576	92.75
378.802	89.75
379.027	83.75
379.253	104.75
379.478	103.75
379.704	86.75
379.929	95.75
380.155	96.75
380.38	89.75
380.606	96.75
380.831	87.75
381.057	105.75
381.282	94.75
381.507	96.75
381.733	94.75
381.958	105.75
382.184	94.75
382.409	101.75
382.634	97.75
382.86	116.75
383.085	104.75
383.31	112.75
383.535	102.75
383.761	87.75
383.986	86.75
384.211	94.75
384.436	96.75
384.662	92.75
384.887	96.75
385.112	103.75
385.337	101.75
385.562	83.75
385.787	108.75
386.013	113.75
386.238	124.75
386.463	95.75
386.688	120.75
386.913	108.75
387.138	119.75
387.363	109.75
387.588	108.75
387.813	105.75
388.038	76.75
388.263	102.75
388.488	96.75
388.713	108.75
388.938	92.75
389.163	87.75
389.387	94.75
389.612	99.75
389.837	92.75
390.062	108.75
390.287	103.75
390.512	96.75
390.736	93.75
390.961	96.75
391.186	96.75
391.411	93.75
391.636	92.75
391.86	88.75
392.085	86.75
392.31	100.75
392.534	100.75
392.759	98.75
392.984	96.75
393.208	92.75
393.433	100.75
393.658	92.75
393.882	87.75
394.107	104.75
394.331	96.75
394.556	96.75
394.78	101.75
395.005	92.75
395.229	100.75
395.454	101.75
395.678	78.75
395.903	86.75
396.127	94.75
396.352	85.75
396.576	91.75
396.801	82.75
397.025	94.75
397.249	86.75
397.474	91.75
397.698	93.75
397.922	88.75
398.147	73.75
398.371	83.75
398.595	97.75
398.82	104.75
399.044	74.75
399.268	94.75
399.492	81.75
399.717	82.75
399.941	92.75
400.165	98.75
400.389	88.75
400.613	112.75
400.837	87.75
401.062	96.75
401.286	82.75
401.51	94.75
401.734	89.75
401.958	86.75
402.182	128.75
402.406	154.75
402.63	114.75
402.854	83.75
403.078	87.75
403.302	88.75
403.526	96.75
403.75	83.75
403.974	98.75
404.198	98.75
404.422	87.75
404.645	96.75
404.869	92.75
405.093	95.75
405.317	84.75
405.541	108.75
405.765	108.75
405.988	126.75
406.212	175.75
406.436	217.75
406.66	143.75
406.883	109.75
407.107	108.75
407.331	86.75
407.555	91.75
407.778	102.75
408.002	104.75
408.226	87.75
408.449	86.75
408.673	98.75
408.896	96.75
409.12	91.75
409.344	96.75
409.567	94.75
409.791	107.75
410.014	99.75
410.238	85.75
410.461	94.75
410.685	106.75
410.908	107.75
411.132	110.75
411.355	119.75
411.578	86.75
411.802	90.75
412.025	96.75
412.249	101.75
412.472	96.75
412.695	97.75
412.919	95.75
413.142	95.75
413.365	89.75
413.589	86.75
413.812	81.75
414.035	98.75
414.258	97.75
414.482	96.75
414.705	93.75
414.928	101.75
415.151	89.75
415.374	99.75
415.597	93.75
415.821	96.75
416.044	94.75
416.267	87.75
416.49	85.75
416.713	99.75
416.936	99.75
417.159	89.75
417.382	85.75
417.605	94.75
417.828	82.75
418.051	98.75
418.274	103.75
418.497	95.75
418.72	95.75
418.943	98.75
419.166	90.75
419.389	94.75
419.611	86.75
419.834	95.75
420.057	80.75
420.28	101.75
420.503	83.75
420.726	73.75
420.948	92.75
421.171	83.75
421.394	91.75
421.617	92.75
421.839	94.75
422.062	79.75
422.285	87.75
422.507	99.75
422.73	103.75
422.953	86.75
423.175	97.75
423.398	92.75
423.621	95.75
423.843	96.75
424.066	91.75
424.288	95.75
424.511	97.75
424.733	87.75
424.956	108.75
425.178	118.75
425.401	99.75
425.623	106.75
425.846	98.75
426.068	86.75
426.291	91.75
426.513	114.75
426.735	94.75
426.958	107.75
427.18	113.75
427.402	136.75
427.625	158.75
427.847	129.75
428.069	99.75
428.292	96.75
428.514	101.75
428.736	95.75
428.958	94.75
429.181	88.75
429.403	86.75
429.625	84.75
429.847	100.75
430.069	92.75
430.292	99.75
430.514	97.75
430.736	86.75
430.958	82.75
431.18	99.75
431.402	96.75
431.624	76.75
431.846	83.75
432.068	91.75
432.29	97.75
432.512	93.75
432.734	92.75
432.956	98.75
433.178	99.75
433.4	98.75
433.622	94.75
433.844	88.75
434.066	85.75
434.287	83.75
434.509	97.75
434.731	89.75
434.953	97.75
435.175	92.75
435.397	88.75
435.618	85.75
435.84	90.75
436.062	121.75
436.284	113.75
436.505	93.75
436.727	102.75
436.949	97.75
437.17	79.75
437.392	90.75
437.614	88.75
437.835	104.75
438.057	113.75
438.278	104.75
438.5	109.75
438.721	126.75
438.943	106.75
439.165	93.75
439.386	96.75
439.608	89.75
439.829	103.75
440.05	112.75
440.272	139.75
440.493	98.75
440.715	92.75
440.936	89.75
441.158	107.75
441.379	95.75
441.6	120.75
441.822	105.75
442.043	97.75
442.264	118.75
442.486	95.75
442.707	96.75
442.928	95.75
443.149	138.75
443.371	134.75
443.592	107.75
443.813	108.75
444.034	118.75
444.255	104.75
444.476	98.75
444.698	90.75
444.919	86.75
445.14	132.75
445.361	128.75
445.582	110.75
445.803	129.75
446.024	134.75
446.245	134.75
446.466	100.75
446.687	97.75
446.908	91.75
447.129	87.75
447.35	104.75
447.571	103.75
447.792	86.75
448.013	100.75
448.234	112.75
448.455	97.75
448.675	105.75
448.896	110.75
449.117	90.75
449.338	96.75
449.559	129.75
449.779	135.75
450	105.75
450.221	75.75
450.442	87.75
450.662	100.75
450.883	106.75
451.104	112.75
451.324	108.75
451.545	91.75
451.766	88.75
451.986	92.75
452.207	84.75
452.428	102.75
452.648	95.75
452.869	122.75
453.089	114.75
453.31	108.75
453.53	99.75
453.751	85.75
453.971	109.75
454.192	103.75
454.412	96.75
454.633	95.75
454.853	88.75
455.073	83.75
455.294	99.75
455.514	107.75
455.734	102.75
455.955	94.75
456.175	100.75
456.395	88.75
456.616	90.75
456.836	98.75
457.056	91.75
457.276	73.75
457.497	83.75
457.717	94.75
457.937	90.75
458.157	85.75
458.377	95.75
458.598	105.75
458.818	124.75
459.038	164.75
459.258	108.75
459.478	91.75
459.698	99.75
459.918	90.75
460.138	97.75
460.358	98.75
460.578	102.75
460.798	96.75
461.018	92.75
461.238	92.75
461.458	80.75
461.678	94.75
461.898	89.75
462.118	92.75
462.338	94.75
462.558	102.75
462.777	99.75
462.997	102.75
463.217	81.75
463.437	97.75
463.657	95.75
463.876	101.75
464.096	103.75
464.316	78.75
464.536	103.75
464.755	104.75
464.975	98.75
465.195	133.75
465.414	133.75
465.634	97.75
465.854	94.75
466.073	96.75
466.293	98.75
466.512	99.75
466.732	95.75
466.951	107.75
467.171	95.75
467.391	95.75
467.61	108.75
467.829	101.75
468.049	90.75
468.268	95.75
468.488	84.75
468.707	85.75
468.927	98.75
469.146	73.75
469.365	90.75
469.585	78.75
469.804	99.75
470.023	92.75
470.243	92.75
470.462	103.75
470.681	106.75
470.901	75.75
471.12	88.75
471.339	97.75
471.558	88.75
471.777	91.75
471.997	90.75
472.216	107.75
472.435	103.75
472.654	85.75
472.873	88.75
473.092	72.75
473.311	93.75
473.53	91.75
473.749	103.75
473.968	85.75
474.187	105.75
474.406	105.75
474.625	91.75
474.844	101.75
475.063	92.75
475.282	96.75
475.501	94.75
475.72	93.75
475.939	94.75
476.158	82.75
476.377	102.75
476.596	95.75
476.814	94.75
477.033	92.75
477.252	86.75
477.471	84.75
477.69	76.75
477.908	87.75
478.127	90.75
478.346	87.75
478.564	101.75
478.783	89.75
479.002	99.75
479.22	105.75
479.439	103.75
479.658	113.75
479.876	100.75
480.095	103.75
480.313	104.75
480.532	79.75
480.751	82.75
480.969	86.75
481.188	112.75
481.406	107.75
481.624	101.75
481.843	86.75
482.061	103.75
482.28	90.75
482.498	92.75
482.717	85.75
482.935	94.75
483.153	96.75
483.372	98.75
483.59	96.75
483.808	85.75
484.027	87.75
484.245	104.75
484.463	79.75
484.681	92.75
484.9	82.75
485.118	90.75
485.336	104.75
485.554	88.75
485.772	92.75
485.99	107.75
486.209	97.75
486.427	94.75
486.645	108.75
486.863	93.75
487.081	96.75
487.299	109.75
487.517	112.75
487.735	96.75
487.953	87.75
488.171	98.75
488.389	86.75
488.607	100.75
488.825	95.75
489.043	82.75
489.261	104.75
489.479	99.75
489.696	90.75
489.914	92.75
490.132	94.75
490.35	96.75
490.568	104.75
490.786	108.75
491.003	95.75
491.221	91.75
491.439	86.75
491.657	102.75
491.874	85.75
492.092	98.75
492.31	107.75
492.527	87.75
492.745	101.75
492.963	103.75
493.18	95.75
493.398	95.75
493.615	96.75
493.833	79.75
494.05	101.75
494.268	87.75
494.485	102.75
494.703	78.75
494.92	95.75
495.138	87.75
495.355	94.75
495.573	113.75
495.79	99.75
496.008	96.75
496.225	90.75
496.442	98.75
496.66	106.75
496.877	88.75
497.094	102.75
497.312	92.75
497.529	100.75
497.746	100.75
497.963	99.75
498.181	100.75
498.398	111.75
498.615	120.75
498.832	110.75
499.049	99.75
499.267	106.75
499.484	104.75
499.701	90.75
499.918	103.75
500.135	93.75
500.352	105.75
500.569	97.75
500.786	98.75
501.003	97.75
501.22	88.75
501.437	103.75
501.654	91.75
501.871	103.75
502.088	92.75
502.305	94.75
502.522	100.75
502.739	98.75
502.956	95.75
503.172	91.75
503.389	86.75
503.606	103.75
503.823	108.75
504.04	84.75
504.256	89.75
504.473	99.75
504.69	97.75
504.907	95.75
505.123	102.75
505.34	82.75
505.557	105.75
505.773	96.75
505.99	104.75
506.207	74.75
506.423	100.75
506.64	94.75
506.856	84.75
507.073	99.75
507.289	93.75
507.506	107.75
507.722	116.75
507.939	98.75
508.155	90.75
508.372	94.75
508.588	96.75
508.805	93.75
509.021	113.75
509.238	114.75
509.454	101.75
509.67	99.75
509.887	106.75
510.103	137.75
510.319	212.75
510.536	708.75
510.752	2167.75
510.968	618.75
511.184	156.75
511.401	98.75
511.617	110.75
511.833	96.75
512.049	111.75
512.265	86.75
512.481	104.75
512.698	104.75
512.914	95.75
513.13	97.75
513.346	92.75
513.562	104.75
513.778	96.75
513.994	84.75
514.21	99.75
514.426	106.75
514.642	125.75
