Data from Uncirc_1990_H10_HRD10591_00042.txt Node
Date: Wed Jan 03 11:54:00 EST 2024
User: Yrep
Spectrometer: HR+D1059
Trigger mode: 1
Integration Time (sec): 1.000000E-1
Scans to average: 1
Electric dark correction enabled: true
Nonlinearity correction enabled: false
Boxcar width: 0
XAxis mode: Wavelengths
Number of Pixels in Spectrum: 2048
>>>>>Begin Spectral Data<<<<<
223.165	-10.19
223.4	-10.19
223.635	-10.19
223.869	-7.19
224.104	-20.19
224.338	-8.19
224.573	-22.19
224.808	-9.19
225.042	-5.19
225.277	-19.19
225.511	-17.19
225.746	8.81
225.98	-3.19
226.215	15.81
226.449	19.81
226.683	19.81
226.918	22.81
227.152	34.81
227.387	30.81
227.621	38.81
227.856	48.81
228.09	44.81
228.324	53.81
228.559	48.81
228.793	61.81
229.027	67.81
229.262	63.81
229.496	70.81
229.73	82.81
229.964	83.81
230.199	70.81
230.433	70.81
230.667	73.81
230.901	79.81
231.136	69.81
231.37	74.81
231.604	80.81
231.838	82.81
232.072	92.81
232.306	77.81
232.541	75.81
232.775	73.81
233.009	83.81
233.243	67.81
233.477	73.81
233.711	81.81
233.945	84.81
234.179	63.81
234.413	81.81
234.647	64.81
234.881	88.81
235.115	106.81
235.349	80.81
235.583	88.81
235.817	76.81
236.051	86.81
236.285	89.81
236.519	70.81
236.753	80.81
236.987	68.81
237.221	78.81
237.455	88.81
237.689	78.81
237.922	63.81
238.156	54.81
238.39	66.81
238.624	88.81
238.858	81.81
239.091	54.81
239.325	88.81
239.559	73.81
239.793	88.81
240.027	86.81
240.26	73.81
240.494	75.81
240.728	86.81
240.961	64.81
241.195	82.81
241.429	67.81
241.662	74.81
241.896	76.81
242.13	78.81
242.363	70.81
242.597	65.81
242.83	82.81
243.064	58.81
243.298	82.81
243.531	80.81
243.765	68.81
243.998	79.81
244.232	93.81
244.465	89.81
244.699	79.81
244.932	92.81
245.166	67.81
245.399	84.81
245.633	70.81
245.866	72.81
246.099	72.81
246.333	84.81
246.566	75.81
246.8	67.81
247.033	74.81
247.266	76.81
247.5	70.81
247.733	83.81
247.966	82.81
248.2	80.81
248.433	91.81
248.666	70.81
248.899	78.81
249.133	70.81
249.366	88.81
249.599	89.81
249.832	83.81
250.066	79.81
250.299	76.81
250.532	92.81
250.765	76.81
250.998	73.81
251.231	74.81
251.465	83.81
251.698	74.81
251.931	76.81
252.164	80.81
252.397	68.81
252.63	80.81
252.863	78.81
253.096	83.81
253.329	77.81
253.562	74.81
253.795	76.81
254.028	68.81
254.261	67.81
254.494	77.81
254.727	83.81
254.96	68.81
255.193	69.81
255.426	82.81
255.659	75.81
255.892	77.81
256.124	88.81
256.357	84.81
256.59	84.81
256.823	69.81
257.056	85.81
257.289	57.81
257.521	82.81
257.754	80.81
257.987	81.81
258.22	86.81
258.452	70.81
258.685	73.81
258.918	83.81
259.151	84.81
259.383	81.81
259.616	72.81
259.849	75.81
260.081	93.81
260.314	83.81
260.547	90.81
260.779	94.81
261.012	90.81
261.244	78.81
261.477	79.81
261.71	84.81
261.942	102.81
262.175	125.81
262.407	91.81
262.64	84.81
262.872	82.81
263.105	91.81
263.337	92.81
263.57	68.81
263.802	80.81
264.035	87.81
264.267	78.81
264.499	91.81
264.732	81.81
264.964	87.81
265.197	76.81
265.429	81.81
265.661	78.81
265.894	73.81
266.126	80.81
266.358	83.81
266.591	91.81
266.823	78.81
267.055	72.81
267.287	79.81
267.52	77.81
267.752	85.81
267.984	75.81
268.216	73.81
268.448	78.81
268.681	80.81
268.913	85.81
269.145	82.81
269.377	84.81
269.609	68.81
269.841	77.81
270.073	88.81
270.306	95.81
270.538	88.81
270.77	90.81
271.002	90.81
271.234	66.81
271.466	83.81
271.698	98.81
271.93	72.81
272.162	75.81
272.394	86.81
272.626	83.81
272.858	79.81
273.09	88.81
273.322	82.81
273.553	88.81
273.785	79.81
274.017	88.81
274.249	83.81
274.481	88.81
274.713	70.81
274.945	93.81
275.176	74.81
275.408	83.81
275.64	53.81
275.872	88.81
276.104	90.81
276.335	93.81
276.567	88.81
276.799	102.81
277.031	97.81
277.262	81.81
277.494	84.81
277.726	94.81
277.957	100.81
278.189	81.81
278.421	101.81
278.652	84.81
278.884	88.81
279.115	80.81
279.347	101.81
279.579	82.81
279.81	78.81
280.042	78.81
280.273	89.81
280.505	80.81
280.736	93.81
280.968	79.81
281.199	78.81
281.431	85.81
281.662	88.81
281.894	81.81
282.125	78.81
282.356	113.81
282.588	136.81
282.819	101.81
283.051	91.81
283.282	85.81
283.513	92.81
283.745	80.81
283.976	94.81
284.207	86.81
284.439	93.81
284.67	92.81
284.901	75.81
285.132	80.81
285.364	81.81
285.595	74.81
285.826	74.81
286.057	79.81
286.288	91.81
286.52	74.81
286.751	77.81
286.982	88.81
287.213	80.81
287.444	86.81
287.675	105.81
287.906	93.81
288.138	94.81
288.369	86.81
288.6	97.81
288.831	89.81
289.062	72.81
289.293	93.81
289.524	75.81
289.755	70.81
289.986	78.81
290.217	81.81
290.448	97.81
290.679	83.81
290.91	96.81
291.141	74.81
291.371	83.81
291.602	72.81
291.833	72.81
292.064	76.81
292.295	94.81
292.526	82.81
292.757	80.81
292.987	88.81
293.218	77.81
293.449	86.81
293.68	90.81
293.91	97.81
294.141	80.81
294.372	85.81
294.603	74.81
294.833	80.81
295.064	91.81
295.295	91.81
295.525	88.81
295.756	89.81
295.987	101.81
296.217	120.81
296.448	108.81
296.679	98.81
296.909	88.81
297.14	86.81
297.37	108.81
297.601	94.81
297.831	82.81
298.062	73.81
298.292	88.81
298.523	87.81
298.753	79.81
298.984	82.81
299.214	75.81
299.445	91.81
299.675	84.81
299.905	88.81
300.136	80.81
300.366	89.81
300.597	79.81
300.827	98.81
301.057	93.81
301.288	99.81
301.518	109.81
301.748	92.81
301.979	91.81
302.209	88.81
302.439	88.81
302.669	87.81
302.9	112.81
303.13	87.81
303.36	92.81
303.59	103.81
303.82	104.81
304.051	89.81
304.281	92.81
304.511	95.81
304.741	96.81
304.971	86.81
305.201	86.81
305.431	82.81
305.661	104.81
305.891	100.81
306.121	98.81
306.352	98.81
306.582	113.81
306.812	99.81
307.042	80.81
307.272	94.81
307.502	86.81
307.731	94.81
307.961	91.81
308.191	85.81
308.421	81.81
308.651	92.81
308.881	92.81
309.111	100.81
309.341	99.81
309.571	92.81
309.8	95.81
310.03	98.81
310.26	76.81
310.49	88.81
310.72	81.81
310.949	106.81
311.179	89.81
311.409	99.81
311.639	85.81
311.868	92.81
312.098	98.81
312.328	85.81
312.557	95.81
312.787	104.81
313.017	88.81
313.246	89.81
313.476	100.81
313.706	85.81
313.935	83.81
314.165	96.81
314.394	90.81
314.624	89.81
314.853	83.81
315.083	83.81
315.312	97.81
315.542	105.81
315.771	87.81
316.001	85.81
316.23	97.81
316.46	94.81
316.689	104.81
316.919	106.81
317.148	80.81
317.377	86.81
317.607	88.81
317.836	94.81
318.065	96.81
318.295	81.81
318.524	91.81
318.753	83.81
318.983	89.81
319.212	89.81
319.441	98.81
319.67	120.81
319.9	106.81
320.129	82.81
320.358	93.81
320.587	105.81
320.816	113.81
321.046	112.81
321.275	91.81
321.504	83.81
321.733	96.81
321.962	90.81
322.191	89.81
322.42	106.81
322.649	104.81
322.878	108.81
323.108	117.81
323.337	105.81
323.566	123.81
323.795	125.81
324.024	191.81
324.253	361.81
324.482	752.81
324.71	1520.81
324.939	2002.81
325.168	728.81
325.397	227.81
325.626	132.81
325.855	129.81
326.084	118.81
326.313	129.81
326.542	152.81
326.77	200.81
326.999	428.81
327.228	846.81
327.457	1547.81
327.686	1236.81
327.914	346.81
328.143	180.81
328.372	140.81
328.6	116.81
328.829	124.81
329.058	122.81
329.287	116.81
329.515	105.81
329.744	107.81
329.972	102.81
330.201	84.81
330.43	90.81
330.658	106.81
330.887	120.81
331.115	122.81
331.344	100.81
331.572	90.81
331.801	100.81
332.03	99.81
332.258	95.81
332.486	93.81
332.715	99.81
332.943	91.81
333.172	91.81
333.4	97.81
333.629	104.81
333.857	109.81
334.085	94.81
334.314	88.81
334.542	95.81
334.771	103.81
334.999	79.81
335.227	96.81
335.455	74.81
335.684	101.81
335.912	103.81
336.14	104.81
336.369	107.81
336.597	82.81
336.825	102.81
337.053	93.81
337.281	102.81
337.51	92.81
337.738	91.81
337.966	91.81
338.194	94.81
338.422	99.81
338.65	79.81
338.878	92.81
339.106	80.81
339.334	97.81
339.562	83.81
339.79	89.81
340.018	96.81
340.246	98.81
340.474	97.81
340.702	87.81
340.93	92.81
341.158	88.81
341.386	109.81
341.614	90.81
341.842	96.81
342.07	84.81
342.298	81.81
342.526	91.81
342.754	97.81
342.981	94.81
343.209	96.81
343.437	97.81
343.665	91.81
343.893	94.81
344.12	89.81
344.348	81.81
344.576	85.81
344.804	92.81
345.031	89.81
345.259	88.81
345.487	95.81
345.714	98.81
345.942	90.81
346.17	84.81
346.397	92.81
346.625	92.81
346.853	103.81
347.08	81.81
347.308	93.81
347.535	99.81
347.763	79.81
347.99	90.81
348.218	83.81
348.445	98.81
348.673	103.81
348.9	81.81
349.128	96.81
349.355	77.81
349.583	83.81
349.81	94.81
350.037	87.81
350.265	94.81
350.492	85.81
350.72	98.81
350.947	103.81
351.174	98.81
351.402	111.81
351.629	93.81
351.856	92.81
352.083	86.81
352.311	98.81
352.538	92.81
352.765	96.81
352.992	105.81
353.22	104.81
353.447	98.81
353.674	92.81
353.901	99.81
354.128	92.81
354.355	98.81
354.583	114.81
354.81	89.81
355.037	98.81
355.264	88.81
355.491	99.81
355.718	93.81
355.945	92.81
356.172	88.81
356.399	91.81
356.626	102.81
356.853	104.81
357.08	98.81
357.307	101.81
357.534	97.81
357.761	100.81
357.988	85.81
358.215	112.81
358.441	92.81
358.668	74.81
358.895	89.81
359.122	88.81
359.349	80.81
359.576	79.81
359.802	91.81
360.029	103.81
360.256	110.81
360.483	80.81
360.709	88.81
360.936	95.81
361.163	79.81
361.39	89.81
361.616	87.81
361.843	88.81
362.07	79.81
362.296	91.81
362.523	90.81
362.749	100.81
362.976	99.81
363.203	82.81
363.429	78.81
363.656	77.81
363.882	89.81
364.109	87.81
364.335	94.81
364.562	96.81
364.788	82.81
365.015	88.81
365.241	89.81
365.468	94.81
365.694	93.81
365.92	107.81
366.147	74.81
366.373	87.81
366.599	84.81
366.826	80.81
367.052	91.81
367.278	79.81
367.505	84.81
367.731	93.81
367.957	109.81
368.184	99.81
368.41	99.81
368.636	110.81
368.862	109.81
369.089	95.81
369.315	90.81
369.541	95.81
369.767	101.81
369.993	90.81
370.219	91.81
370.445	88.81
370.672	89.81
370.898	84.81
371.124	84.81
371.35	95.81
371.576	86.81
371.802	81.81
372.028	81.81
372.254	76.81
372.48	92.81
372.706	81.81
372.932	82.81
373.158	81.81
373.384	102.81
373.61	78.81
373.835	86.81
374.061	84.81
374.287	82.81
374.513	90.81
374.739	79.81
374.965	80.81
375.191	100.81
375.416	84.81
375.642	82.81
375.868	81.81
376.094	78.81
376.319	89.81
376.545	80.81
376.771	91.81
376.997	80.81
377.222	82.81
377.448	86.81
377.674	96.81
377.899	85.81
378.125	96.81
378.35	99.81
378.576	88.81
378.802	94.81
379.027	99.81
379.253	84.81
379.478	109.81
379.704	95.81
379.929	84.81
380.155	97.81
380.38	80.81
380.606	89.81
380.831	87.81
381.057	105.81
381.282	91.81
381.507	93.81
381.733	91.81
381.958	81.81
382.184	90.81
382.409	102.81
382.634	104.81
382.86	94.81
383.085	94.81
383.31	100.81
383.535	88.81
383.761	98.81
383.986	91.81
384.211	78.81
384.436	93.81
384.662	96.81
384.887	95.81
385.112	92.81
385.337	94.81
385.562	102.81
385.787	105.81
386.013	94.81
386.238	94.81
386.463	99.81
386.688	106.81
386.913	99.81
387.138	91.81
387.363	101.81
387.588	110.81
387.813	100.81
388.038	91.81
388.263	112.81
388.488	95.81
388.713	91.81
388.938	85.81
389.163	92.81
389.387	83.81
389.612	87.81
389.837	96.81
390.062	109.81
390.287	81.81
390.512	101.81
390.736	97.81
390.961	81.81
391.186	94.81
391.411	83.81
391.636	91.81
391.86	94.81
392.085	93.81
392.31	83.81
392.534	86.81
392.759	85.81
392.984	91.81
393.208	96.81
393.433	83.81
393.658	75.81
393.882	76.81
394.107	78.81
394.331	78.81
394.556	76.81
394.78	84.81
395.005	89.81
395.229	77.81
395.454	94.81
395.678	82.81
395.903	84.81
396.127	90.81
396.352	88.81
396.576	81.81
396.801	75.81
397.025	90.81
397.249	76.81
397.474	87.81
397.698	78.81
397.922	80.81
398.147	85.81
398.371	79.81
398.595	88.81
398.82	97.81
399.044	88.81
399.268	84.81
399.492	84.81
399.717	75.81
399.941	95.81
400.165	91.81
400.389	94.81
400.613	79.81
400.837	86.81
401.062	83.81
401.286	88.81
401.51	86.81
401.734	106.81
401.958	78.81
402.182	113.81
402.406	152.81
402.63	113.81
402.854	106.81
403.078	79.81
403.302	76.81
403.526	87.81
403.75	90.81
403.974	92.81
404.198	89.81
404.422	75.81
404.645	88.81
404.869	89.81
405.093	92.81
405.317	74.81
405.541	80.81
405.765	114.81
405.988	104.81
406.212	158.81
406.436	199.81
406.66	124.81
406.883	96.81
407.107	88.81
407.331	101.81
407.555	99.81
407.778	99.81
408.002	91.81
408.226	105.81
408.449	89.81
408.673	85.81
408.896	84.81
409.12	87.81
409.344	86.81
409.567	84.81
409.791	98.81
410.014	91.81
410.238	92.81
410.461	87.81
410.685	90.81
410.908	78.81
411.132	95.81
411.355	88.81
411.578	88.81
411.802	76.81
412.025	88.81
412.249	64.81
412.472	83.81
412.695	87.81
412.919	90.81
413.142	95.81
413.365	91.81
413.589	85.81
413.812	80.81
414.035	68.81
414.258	80.81
414.482	98.81
414.705	85.81
414.928	72.81
415.151	81.81
415.374	80.81
415.597	88.81
415.821	83.81
416.044	80.81
416.267	99.81
416.49	88.81
416.713	84.81
416.936	89.81
417.159	86.81
417.382	80.81
417.605	96.81
417.828	101.81
418.051	92.81
418.274	85.81
418.497	94.81
418.72	80.81
418.943	89.81
419.166	78.81
419.389	88.81
419.611	80.81
419.834	74.81
420.057	92.81
420.28	92.81
420.503	95.81
420.726	86.81
420.948	76.81
421.171	92.81
421.394	88.81
421.617	84.81
421.839	92.81
422.062	82.81
422.285	102.81
422.507	103.81
422.73	101.81
422.953	105.81
423.175	77.81
423.398	86.81
423.621	69.81
423.843	84.81
424.066	90.81
424.288	88.81
424.511	94.81
424.733	96.81
424.956	89.81
425.178	94.81
425.401	93.81
425.623	93.81
425.846	108.81
426.068	85.81
426.291	88.81
426.513	90.81
426.735	84.81
426.958	83.81
427.18	87.81
427.402	114.81
427.625	152.81
427.847	140.81
428.069	104.81
428.292	100.81
428.514	84.81
428.736	78.81
428.958	92.81
429.181	88.81
429.403	64.81
429.625	81.81
429.847	83.81
430.069	83.81
430.292	74.81
430.514	76.81
430.736	90.81
430.958	81.81
431.18	88.81
431.402	78.81
431.624	85.81
431.846	81.81
432.068	78.81
432.29	88.81
432.512	83.81
432.734	76.81
432.956	81.81
433.178	88.81
433.4	98.81
433.622	94.81
433.844	101.81
434.066	93.81
434.287	89.81
434.509	84.81
434.731	91.81
434.953	96.81
435.175	102.81
435.397	84.81
435.618	87.81
435.84	89.81
436.062	97.81
436.284	100.81
436.505	96.81
436.727	97.81
436.949	83.81
437.17	74.81
437.392	81.81
437.614	96.81
437.835	110.81
438.057	102.81
438.278	112.81
438.5	92.81
438.721	125.81
438.943	102.81
439.165	93.81
439.386	95.81
439.608	85.81
439.829	96.81
440.05	105.81
440.272	124.81
440.493	88.81
440.715	89.81
440.936	78.81
441.158	61.81
441.379	78.81
441.6	79.81
441.822	113.81
442.043	93.81
442.264	95.81
442.486	101.81
442.707	92.81
442.928	90.81
443.149	107.81
443.371	129.81
443.592	98.81
443.813	113.81
444.034	83.81
444.255	91.81
444.476	92.81
444.698	78.81
444.919	92.81
445.14	118.81
445.361	136.81
445.582	120.81
445.803	123.81
446.024	133.81
446.245	119.81
446.466	103.81
446.687	90.81
446.908	92.81
447.129	102.81
447.35	85.81
447.571	89.81
447.792	99.81
448.013	93.81
448.234	83.81
448.455	99.81
448.675	113.81
448.896	115.81
449.117	97.81
449.338	102.81
449.559	128.81
449.779	122.81
450	97.81
450.221	86.81
450.442	65.81
450.662	91.81
450.883	90.81
451.104	89.81
451.324	101.81
451.545	85.81
451.766	84.81
451.986	86.81
452.207	97.81
452.428	82.81
452.648	99.81
452.869	107.81
453.089	109.81
453.31	108.81
453.53	81.81
453.751	76.81
453.971	87.81
454.192	109.81
454.412	86.81
454.633	96.81
454.853	73.81
455.073	79.81
455.294	92.81
455.514	95.81
455.734	78.81
455.955	90.81
456.175	91.81
456.395	86.81
456.616	75.81
456.836	78.81
457.056	83.81
457.276	80.81
457.497	70.81
457.717	94.81
457.937	94.81
458.157	87.81
458.377	87.81
458.598	101.81
458.818	120.81
459.038	139.81
459.258	100.81
459.478	80.81
459.698	84.81
459.918	77.81
460.138	93.81
460.358	86.81
460.578	98.81
460.798	80.81
461.018	81.81
461.238	80.81
461.458	97.81
461.678	83.81
461.898	98.81
462.118	89.81
462.338	65.81
462.558	67.81
462.777	86.81
462.997	91.81
463.217	77.81
463.437	91.81
463.657	81.81
463.876	89.81
464.096	92.81
464.316	62.81
464.536	87.81
464.755	99.81
464.975	97.81
465.195	131.81
465.414	140.81
465.634	95.81
465.854	77.81
466.073	84.81
466.293	80.81
466.512	80.81
466.732	84.81
466.951	86.81
467.171	96.81
467.391	88.81
467.61	93.81
467.829	76.81
468.049	102.81
468.268	88.81
468.488	90.81
468.707	77.81
468.927	77.81
469.146	73.81
469.365	69.81
469.585	84.81
469.804	85.81
470.023	93.81
470.243	78.81
470.462	80.81
470.681	81.81
470.901	81.81
471.12	93.81
471.339	102.81
471.558	87.81
471.777	84.81
471.997	79.81
472.216	83.81
472.435	92.81
472.654	90.81
472.873	82.81
473.092	81.81
473.311	83.81
473.53	92.81
473.749	85.81
473.968	80.81
474.187	98.81
474.406	88.81
474.625	95.81
474.844	84.81
475.063	84.81
475.282	80.81
475.501	72.81
475.72	93.81
475.939	84.81
476.158	72.81
476.377	80.81
476.596	81.81
476.814	96.81
477.033	100.81
477.252	86.81
477.471	74.81
477.69	79.81
477.908	81.81
478.127	89.81
478.346	90.81
478.564	86.81
478.783	99.81
479.002	90.81
479.22	93.81
479.439	98.81
479.658	89.81
479.876	87.81
480.095	92.81
480.313	98.81
480.532	85.81
480.751	94.81
480.969	95.81
481.188	101.81
481.406	105.81
481.624	94.81
481.843	78.81
482.061	88.81
482.28	87.81
482.498	80.81
482.717	94.81
482.935	78.81
483.153	73.81
483.372	91.81
483.59	76.81
483.808	90.81
484.027	98.81
484.245	91.81
484.463	79.81
484.681	80.81
484.9	84.81
485.118	88.81
485.336	99.81
485.554	105.81
485.772	99.81
485.99	92.81
486.209	100.81
486.427	105.81
486.645	108.81
486.863	112.81
487.081	103.81
487.299	99.81
487.517	85.81
487.735	75.81
487.953	90.81
488.171	91.81
488.389	102.81
488.607	101.81
488.825	81.81
489.043	89.81
489.261	87.81
489.479	98.81
489.696	90.81
489.914	96.81
490.132	100.81
490.35	91.81
490.568	80.81
490.786	88.81
491.003	90.81
491.221	82.81
491.439	93.81
491.657	88.81
491.874	94.81
492.092	83.81
492.31	85.81
492.527	82.81
492.745	92.81
492.963	89.81
493.18	91.81
493.398	93.81
493.615	89.81
493.833	109.81
494.05	90.81
494.268	97.81
494.485	85.81
494.703	96.81
494.92	86.81
495.138	90.81
495.355	84.81
495.573	89.81
495.79	85.81
496.008	85.81
496.225	100.81
496.442	86.81
496.66	101.81
496.877	96.81
497.094	87.81
497.312	92.81
497.529	82.81
497.746	86.81
497.963	82.81
498.181	86.81
498.398	93.81
498.615	97.81
498.832	80.81
499.049	97.81
499.267	100.81
499.484	96.81
499.701	96.81
499.918	110.81
500.135	91.81
500.352	91.81
500.569	81.81
500.786	98.81
501.003	98.81
501.22	90.81
501.437	93.81
501.654	101.81
501.871	97.81
502.088	95.81
502.305	78.81
502.522	80.81
502.739	84.81
502.956	83.81
503.172	98.81
503.389	97.81
503.606	107.81
503.823	93.81
504.04	76.81
504.256	82.81
504.473	74.81
504.69	80.81
504.907	97.81
505.123	84.81
505.34	78.81
505.557	82.81
505.773	85.81
505.99	101.81
506.207	90.81
506.423	90.81
506.64	97.81
506.856	93.81
507.073	93.81
507.289	93.81
507.506	92.81
507.722	108.81
507.939	108.81
508.155	90.81
508.372	99.81
508.588	97.81
508.805	93.81
509.021	88.81
509.238	103.81
509.454	91.81
509.67	101.81
509.887	108.81
510.103	109.81
510.319	191.81
510.536	678.81
510.752	2156.81
510.968	583.81
511.184	159.81
511.401	84.81
511.617	107.81
511.833	87.81
512.049	86.81
512.265	85.81
512.481	90.81
512.698	91.81
512.914	88.81
513.13	91.81
513.346	90.81
513.562	85.81
513.778	95.81
513.994	91.81
514.21	108.81
514.426	106.81
514.642	112.81
514.858	106.81
515.074	156.81
515.29	370.81
515.506	1232.81
515.721	445.81
515.937	160.81
516.153	113.81
516.369	87.81
516.585	78.81
516.801	97.81
