Data from Uncirc_1990_H10_HRD10591_00060.txt Node
Date: Wed Jan 03 11:54:03 EST 2024
User: Yrep
Spectrometer: HR+D1059
Trigger mode: 1
Integration Time (sec): 1.000000E-1
Scans to average: 1
Electric dark correction enabled: true
Nonlinearity correction enabled: false
Boxcar width: 0
XAxis mode: Wavelengths
Number of Pixels in Spectrum: 2048
>>>>>Begin Spectral Data<<<<<
223.165	-6.94
223.4	-6.94
223.635	-6.94
223.869	-32.94
224.104	-16.94
224.338	-15.94
224.573	-5.94
224.808	-7.94
225.042	-7.94
225.277	0.06
225.511	2.06
225.746	1.06
225.98	-2.94
226.215	3.06
226.449	13.06
226.683	22.06
226.918	18.06
227.152	38.06
227.387	26.06
227.621	44.06
227.856	45.06
228.09	47.06
228.324	49.06
228.559	62.06
228.793	55.06
229.027	67.06
229.262	69.06
229.496	61.06
229.73	83.06
229.964	78.06
230.199	86.06
230.433	84.06
230.667	79.06
230.901	67.06
231.136	82.06
231.37	80.06
231.604	86.06
231.838	94.06
232.072	68.06
232.306	82.06
232.541	77.06
232.775	85.06
233.009	78.06
233.243	62.06
233.477	91.06
233.711	88.06
233.945	95.06
234.179	92.06
234.413	77.06
234.647	74.06
234.881	73.06
235.115	80.06
235.349	87.06
235.583	84.06
235.817	90.06
236.051	77.06
236.285	74.06
236.519	86.06
236.753	88.06
236.987	77.06
237.221	78.06
237.455	76.06
237.689	84.06
237.922	75.06
238.156	69.06
238.39	70.06
238.624	67.06
238.858	82.06
239.091	74.06
239.325	78.06
239.559	72.06
239.793	72.06
240.027	74.06
240.26	80.06
240.494	75.06
240.728	79.06
240.961	75.06
241.195	82.06
241.429	82.06
241.662	69.06
241.896	82.06
242.13	76.06
242.363	78.06
242.597	80.06
242.83	73.06
243.064	83.06
243.298	78.06
243.531	70.06
243.765	85.06
243.998	85.06
244.232	67.06
244.465	88.06
244.699	76.06
244.932	70.06
245.166	79.06
245.399	92.06
245.633	94.06
245.866	69.06
246.099	69.06
246.333	82.06
246.566	70.06
246.8	83.06
247.033	74.06
247.266	69.06
247.5	73.06
247.733	74.06
247.966	80.06
248.2	92.06
248.433	90.06
248.666	86.06
248.899	75.06
249.133	89.06
249.366	80.06
249.599	85.06
249.832	73.06
250.066	98.06
250.299	78.06
250.532	80.06
250.765	78.06
250.998	88.06
251.231	86.06
251.465	78.06
251.698	87.06
251.931	80.06
252.164	87.06
252.397	81.06
252.63	89.06
252.863	70.06
253.096	79.06
253.329	83.06
253.562	87.06
253.795	88.06
254.028	77.06
254.261	61.06
254.494	94.06
254.727	79.06
254.96	81.06
255.193	88.06
255.426	91.06
255.659	88.06
255.892	80.06
256.124	76.06
256.357	68.06
256.59	84.06
256.823	76.06
257.056	79.06
257.289	91.06
257.521	78.06
257.754	82.06
257.987	75.06
258.22	77.06
258.452	78.06
258.685	83.06
258.918	87.06
259.151	69.06
259.383	86.06
259.616	77.06
259.849	80.06
260.081	74.06
260.314	74.06
260.547	86.06
260.779	88.06
261.012	78.06
261.244	70.06
261.477	73.06
261.71	103.06
261.942	99.06
262.175	107.06
262.407	87.06
262.64	74.06
262.872	75.06
263.105	66.06
263.337	82.06
263.57	78.06
263.802	92.06
264.035	91.06
264.267	75.06
264.499	72.06
264.732	76.06
264.964	63.06
265.197	91.06
265.429	83.06
265.661	92.06
265.894	88.06
266.126	80.06
266.358	87.06
266.591	87.06
266.823	85.06
267.055	80.06
267.287	83.06
267.52	77.06
267.752	66.06
267.984	91.06
268.216	75.06
268.448	83.06
268.681	84.06
268.913	80.06
269.145	93.06
269.377	86.06
269.609	81.06
269.841	96.06
270.073	76.06
270.306	85.06
270.538	85.06
270.77	91.06
271.002	90.06
271.234	81.06
271.466	84.06
271.698	82.06
271.93	89.06
272.162	77.06
272.394	85.06
272.626	84.06
272.858	76.06
273.09	76.06
273.322	86.06
273.553	83.06
273.785	93.06
274.017	72.06
274.249	70.06
274.481	74.06
274.713	71.06
274.945	89.06
275.176	87.06
275.408	72.06
275.64	82.06
275.872	88.06
276.104	78.06
276.335	84.06
276.567	92.06
276.799	90.06
277.031	83.06
277.262	63.06
277.494	83.06
277.726	82.06
277.957	80.06
278.189	79.06
278.421	81.06
278.652	92.06
278.884	80.06
279.115	104.06
279.347	72.06
279.579	91.06
279.81	89.06
280.042	72.06
280.273	78.06
280.505	77.06
280.736	76.06
280.968	83.06
281.199	84.06
281.431	83.06
281.662	78.06
281.894	82.06
282.125	92.06
282.356	104.06
282.588	118.06
282.819	106.06
283.051	94.06
283.282	89.06
283.513	93.06
283.745	86.06
283.976	97.06
284.207	81.06
284.439	93.06
284.67	89.06
284.901	90.06
285.132	79.06
285.364	84.06
285.595	86.06
285.826	91.06
286.057	80.06
286.288	89.06
286.52	103.06
286.751	78.06
286.982	87.06
287.213	89.06
287.444	95.06
287.675	95.06
287.906	91.06
288.138	81.06
288.369	96.06
288.6	95.06
288.831	81.06
289.062	88.06
289.293	102.06
289.524	78.06
289.755	86.06
289.986	92.06
290.217	84.06
290.448	82.06
290.679	103.06
290.91	86.06
291.141	97.06
291.371	84.06
291.602	97.06
291.833	83.06
292.064	96.06
292.295	88.06
292.526	91.06
292.757	81.06
292.987	90.06
293.218	92.06
293.449	90.06
293.68	85.06
293.91	91.06
294.141	95.06
294.372	78.06
294.603	82.06
294.833	83.06
295.064	69.06
295.295	97.06
295.525	86.06
295.756	97.06
295.987	95.06
296.217	111.06
296.448	108.06
296.679	102.06
296.909	76.06
297.14	93.06
297.37	78.06
297.601	93.06
297.831	89.06
298.062	97.06
298.292	79.06
298.523	106.06
298.753	84.06
298.984	78.06
299.214	91.06
299.445	89.06
299.675	79.06
299.905	88.06
300.136	97.06
300.366	88.06
300.597	90.06
300.827	91.06
301.057	87.06
301.288	92.06
301.518	92.06
301.748	70.06
301.979	97.06
302.209	87.06
302.439	83.06
302.669	94.06
302.9	101.06
303.13	80.06
303.36	82.06
303.59	95.06
303.82	106.06
304.051	96.06
304.281	102.06
304.511	86.06
304.741	82.06
304.971	96.06
305.201	84.06
305.431	89.06
305.661	90.06
305.891	98.06
306.121	96.06
306.352	90.06
306.582	83.06
306.812	90.06
307.042	86.06
307.272	107.06
307.502	76.06
307.731	95.06
307.961	91.06
308.191	70.06
308.421	79.06
308.651	79.06
308.881	91.06
309.111	92.06
309.341	85.06
309.571	86.06
309.8	90.06
310.03	102.06
310.26	109.06
310.49	92.06
310.72	104.06
310.949	101.06
311.179	84.06
311.409	95.06
311.639	87.06
311.868	97.06
312.098	95.06
312.328	88.06
312.557	99.06
312.787	105.06
313.017	84.06
313.246	90.06
313.476	96.06
313.706	86.06
313.935	78.06
314.165	104.06
314.394	94.06
314.624	97.06
314.853	90.06
315.083	92.06
315.312	104.06
315.542	90.06
315.771	90.06
316.001	102.06
316.23	105.06
316.46	90.06
316.689	86.06
316.919	94.06
317.148	98.06
317.377	95.06
317.607	90.06
317.836	100.06
318.065	85.06
318.295	81.06
318.524	86.06
318.753	94.06
318.983	80.06
319.212	100.06
319.441	107.06
319.67	100.06
319.9	96.06
320.129	85.06
320.358	97.06
320.587	102.06
320.816	102.06
321.046	94.06
321.275	91.06
321.504	87.06
321.733	74.06
321.962	87.06
322.191	99.06
322.42	79.06
322.649	103.06
322.878	116.06
323.108	104.06
323.337	108.06
323.566	118.06
323.795	145.06
324.024	196.06
324.253	357.06
324.482	698.06
324.71	1422.06
324.939	1942.06
325.168	722.06
325.397	231.06
325.626	123.06
325.855	102.06
326.084	125.06
326.313	125.06
326.542	145.06
326.77	198.06
326.999	398.06
327.228	805.06
327.457	1463.06
327.686	1186.06
327.914	308.06
328.143	168.06
328.372	134.06
328.6	112.06
328.829	108.06
329.058	117.06
329.287	120.06
329.515	98.06
329.744	97.06
329.972	112.06
330.201	119.06
330.43	106.06
330.658	108.06
330.887	126.06
331.115	119.06
331.344	93.06
331.572	111.06
331.801	90.06
332.03	99.06
332.258	98.06
332.486	95.06
332.715	82.06
332.943	95.06
333.172	95.06
333.4	104.06
333.629	101.06
333.857	103.06
334.085	101.06
334.314	100.06
334.542	103.06
334.771	105.06
334.999	108.06
335.227	95.06
335.455	88.06
335.684	92.06
335.912	92.06
336.14	95.06
336.369	95.06
336.597	96.06
336.825	100.06
337.053	85.06
337.281	85.06
337.51	93.06
337.738	106.06
337.966	100.06
338.194	108.06
338.422	87.06
338.65	94.06
338.878	102.06
339.106	85.06
339.334	89.06
339.562	92.06
339.79	95.06
340.018	82.06
340.246	102.06
340.474	104.06
340.702	97.06
340.93	81.06
341.158	95.06
341.386	99.06
341.614	88.06
341.842	91.06
342.07	90.06
342.298	96.06
342.526	85.06
342.754	88.06
342.981	88.06
343.209	82.06
343.437	92.06
343.665	77.06
343.893	80.06
344.12	110.06
344.348	91.06
344.576	101.06
344.804	104.06
345.031	107.06
345.259	87.06
345.487	95.06
345.714	108.06
345.942	94.06
346.17	81.06
346.397	99.06
346.625	89.06
346.853	87.06
347.08	105.06
347.308	90.06
347.535	92.06
347.763	100.06
347.99	91.06
348.218	82.06
348.445	90.06
348.673	94.06
348.9	80.06
349.128	98.06
349.355	90.06
349.583	84.06
349.81	101.06
350.037	88.06
350.265	104.06
350.492	88.06
350.72	90.06
350.947	89.06
351.174	100.06
351.402	99.06
351.629	97.06
351.856	110.06
352.083	102.06
352.311	98.06
352.538	105.06
352.765	89.06
352.992	118.06
353.22	92.06
353.447	99.06
353.674	79.06
353.901	87.06
354.128	101.06
354.355	109.06
354.583	113.06
354.81	96.06
355.037	97.06
355.264	104.06
355.491	99.06
355.718	87.06
355.945	78.06
356.172	84.06
356.399	94.06
356.626	103.06
356.853	92.06
357.08	92.06
357.307	102.06
357.534	87.06
357.761	94.06
357.988	100.06
358.215	93.06
358.441	95.06
358.668	93.06
358.895	97.06
359.122	90.06
359.349	90.06
359.576	83.06
359.802	96.06
360.029	99.06
360.256	110.06
360.483	87.06
360.709	92.06
360.936	94.06
361.163	97.06
361.39	86.06
361.616	99.06
361.843	65.06
362.07	92.06
362.296	98.06
362.523	86.06
362.749	84.06
362.976	92.06
363.203	94.06
363.429	80.06
363.656	87.06
363.882	90.06
364.109	82.06
364.335	91.06
364.562	91.06
364.788	78.06
365.015	93.06
365.241	104.06
365.468	87.06
365.694	102.06
365.92	91.06
366.147	100.06
366.373	91.06
366.599	94.06
366.826	95.06
367.052	87.06
367.278	95.06
367.505	85.06
367.731	100.06
367.957	83.06
368.184	88.06
368.41	90.06
368.636	107.06
368.862	117.06
369.089	104.06
369.315	99.06
369.541	80.06
369.767	94.06
369.993	95.06
370.219	80.06
370.445	82.06
370.672	80.06
370.898	94.06
371.124	89.06
371.35	91.06
371.576	76.06
371.802	90.06
372.028	88.06
372.254	82.06
372.48	100.06
372.706	74.06
372.932	94.06
373.158	86.06
373.384	106.06
373.61	91.06
373.835	95.06
374.061	90.06
374.287	83.06
374.513	89.06
374.739	83.06
374.965	91.06
375.191	95.06
375.416	81.06
375.642	91.06
375.868	91.06
376.094	90.06
376.319	97.06
376.545	87.06
376.771	99.06
376.997	87.06
377.222	90.06
377.448	87.06
377.674	88.06
377.899	105.06
378.125	81.06
378.35	85.06
378.576	82.06
378.802	81.06
379.027	88.06
379.253	96.06
379.478	84.06
379.704	96.06
379.929	83.06
380.155	80.06
380.38	84.06
380.606	76.06
380.831	97.06
381.057	92.06
381.282	89.06
381.507	101.06
381.733	84.06
381.958	93.06
382.184	97.06
382.409	83.06
382.634	105.06
382.86	87.06
383.085	104.06
383.31	94.06
383.535	111.06
383.761	100.06
383.986	93.06
384.211	86.06
384.436	94.06
384.662	99.06
384.887	87.06
385.112	91.06
385.337	95.06
385.562	103.06
385.787	95.06
386.013	95.06
386.238	116.06
386.463	89.06
386.688	107.06
386.913	98.06
387.138	97.06
387.363	106.06
387.588	111.06
387.813	100.06
388.038	103.06
388.263	95.06
388.488	117.06
388.713	110.06
388.938	92.06
389.163	99.06
389.387	87.06
389.612	89.06
389.837	93.06
390.062	87.06
390.287	72.06
390.512	100.06
390.736	90.06
390.961	97.06
391.186	99.06
391.411	95.06
391.636	99.06
391.86	84.06
392.085	86.06
392.31	87.06
392.534	89.06
392.759	92.06
392.984	91.06
393.208	98.06
393.433	78.06
393.658	104.06
393.882	88.06
394.107	86.06
394.331	81.06
394.556	87.06
394.78	96.06
395.005	82.06
395.229	66.06
395.454	86.06
395.678	88.06
395.903	80.06
396.127	84.06
396.352	87.06
396.576	93.06
396.801	97.06
397.025	91.06
397.249	80.06
397.474	100.06
397.698	94.06
397.922	80.06
398.147	82.06
398.371	93.06
398.595	90.06
398.82	75.06
399.044	85.06
399.268	83.06
399.492	86.06
399.717	90.06
399.941	85.06
400.165	98.06
400.389	102.06
400.613	95.06
400.837	100.06
401.062	80.06
401.286	91.06
401.51	74.06
401.734	61.06
401.958	93.06
402.182	114.06
402.406	135.06
402.63	102.06
402.854	77.06
403.078	98.06
403.302	90.06
403.526	81.06
403.75	93.06
403.974	91.06
404.198	85.06
404.422	84.06
404.645	91.06
404.869	86.06
405.093	82.06
405.317	104.06
405.541	93.06
405.765	90.06
405.988	110.06
406.212	176.06
406.436	209.06
406.66	138.06
406.883	84.06
407.107	83.06
407.331	88.06
407.555	99.06
407.778	97.06
408.002	99.06
408.226	106.06
408.449	95.06
408.673	84.06
408.896	90.06
409.12	89.06
409.344	105.06
409.567	98.06
409.791	90.06
410.014	92.06
410.238	91.06
410.461	114.06
410.685	80.06
410.908	102.06
411.132	79.06
411.355	92.06
411.578	100.06
411.802	99.06
412.025	101.06
412.249	73.06
412.472	96.06
412.695	101.06
412.919	109.06
413.142	72.06
413.365	71.06
413.589	95.06
413.812	87.06
414.035	96.06
414.258	97.06
414.482	95.06
414.705	81.06
414.928	95.06
415.151	80.06
415.374	101.06
415.597	87.06
415.821	84.06
416.044	91.06
416.267	88.06
416.49	69.06
416.713	100.06
416.936	90.06
417.159	89.06
417.382	91.06
417.605	100.06
417.828	87.06
418.051	92.06
418.274	101.06
418.497	78.06
418.72	99.06
418.943	88.06
419.166	91.06
419.389	62.06
419.611	97.06
419.834	81.06
420.057	94.06
420.28	86.06
420.503	88.06
420.726	77.06
420.948	90.06
421.171	86.06
421.394	94.06
421.617	69.06
421.839	88.06
422.062	86.06
422.285	82.06
422.507	103.06
422.73	107.06
422.953	94.06
423.175	87.06
423.398	92.06
423.621	85.06
423.843	76.06
424.066	72.06
424.288	93.06
424.511	87.06
424.733	96.06
424.956	102.06
425.178	96.06
425.401	91.06
425.623	99.06
425.846	91.06
426.068	98.06
426.291	102.06
426.513	85.06
426.735	82.06
426.958	103.06
427.18	71.06
427.402	141.06
427.625	171.06
427.847	127.06
428.069	120.06
428.292	99.06
428.514	94.06
428.736	87.06
428.958	78.06
429.181	88.06
429.403	83.06
429.625	103.06
429.847	91.06
430.069	87.06
430.292	97.06
430.514	100.06
430.736	80.06
430.958	70.06
431.18	78.06
431.402	83.06
431.624	77.06
431.846	93.06
432.068	98.06
432.29	93.06
432.512	92.06
432.734	82.06
432.956	92.06
433.178	87.06
433.4	90.06
433.622	89.06
433.844	90.06
434.066	79.06
434.287	79.06
434.509	90.06
434.731	82.06
434.953	80.06
435.175	95.06
435.397	100.06
435.618	91.06
435.84	96.06
436.062	107.06
436.284	109.06
436.505	91.06
436.727	90.06
436.949	90.06
437.17	97.06
437.392	101.06
437.614	88.06
437.835	108.06
438.057	103.06
438.278	101.06
438.5	104.06
438.721	121.06
438.943	93.06
439.165	100.06
439.386	93.06
439.608	90.06
439.829	109.06
440.05	115.06
440.272	127.06
440.493	94.06
440.715	70.06
440.936	88.06
441.158	81.06
441.379	91.06
441.6	96.06
441.822	103.06
442.043	97.06
442.264	111.06
442.486	98.06
442.707	79.06
442.928	99.06
443.149	125.06
443.371	128.06
443.592	94.06
443.813	117.06
444.034	101.06
444.255	88.06
444.476	103.06
444.698	95.06
444.919	87.06
445.14	119.06
445.361	112.06
445.582	97.06
445.803	131.06
446.024	126.06
446.245	118.06
446.466	94.06
446.687	80.06
446.908	89.06
447.129	85.06
447.35	85.06
447.571	106.06
447.792	94.06
448.013	95.06
448.234	88.06
448.455	101.06
448.675	111.06
448.896	131.06
449.117	89.06
449.338	108.06
449.559	143.06
449.779	123.06
450	93.06
450.221	96.06
450.442	78.06
450.662	92.06
450.883	96.06
451.104	110.06
451.324	93.06
451.545	90.06
451.766	81.06
451.986	78.06
452.207	96.06
452.428	94.06
452.648	88.06
452.869	103.06
453.089	106.06
453.31	92.06
453.53	92.06
453.751	90.06
453.971	88.06
454.192	93.06
454.412	93.06
454.633	84.06
454.853	90.06
455.073	86.06
455.294	96.06
455.514	100.06
455.734	97.06
455.955	86.06
456.175	90.06
456.395	95.06
456.616	79.06
456.836	86.06
457.056	103.06
457.276	90.06
457.497	79.06
457.717	86.06
457.937	85.06
458.157	84.06
458.377	100.06
458.598	115.06
458.818	139.06
459.038	148.06
459.258	108.06
459.478	91.06
459.698	69.06
459.918	85.06
460.138	84.06
460.358	82.06
460.578	96.06
460.798	86.06
461.018	71.06
461.238	92.06
461.458	98.06
461.678	89.06
461.898	92.06
462.118	81.06
462.338	90.06
462.558	84.06
462.777	91.06
462.997	89.06
463.217	92.06
463.437	92.06
463.657	84.06
463.876	94.06
464.096	86.06
464.316	102.06
464.536	83.06
464.755	99.06
464.975	106.06
465.195	151.06
465.414	128.06
465.634	100.06
465.854	99.06
466.073	69.06
466.293	93.06
466.512	86.06
466.732	99.06
466.951	95.06
467.171	83.06
467.391	89.06
467.61	85.06
467.829	99.06
468.049	90.06
468.268	87.06
468.488	96.06
468.707	82.06
468.927	85.06
469.146	106.06
469.365	75.06
469.585	78.06
469.804	101.06
470.023	101.06
470.243	90.06
470.462	90.06
470.681	85.06
470.901	89.06
471.12	86.06
471.339	104.06
471.558	84.06
471.777	97.06
471.997	96.06
472.216	90.06
472.435	94.06
472.654	81.06
472.873	86.06
473.092	99.06
473.311	87.06
473.53	88.06
473.749	86.06
473.968	92.06
474.187	117.06
474.406	97.06
474.625	90.06
474.844	85.06
475.063	94.06
475.282	88.06
475.501	83.06
475.72	101.06
475.939	87.06
476.158	87.06
476.377	97.06
476.596	93.06
476.814	100.06
477.033	92.06
477.252	91.06
477.471	98.06
477.69	69.06
477.908	92.06
478.127	96.06
478.346	74.06
478.564	90.06
478.783	100.06
479.002	77.06
479.22	90.06
479.439	96.06
479.658	83.06
479.876	96.06
480.095	99.06
480.313	83.06
480.532	88.06
480.751	85.06
480.969	106.06
481.188	115.06
481.406	101.06
481.624	82.06
481.843	95.06
482.061	78.06
482.28	87.06
482.498	85.06
482.717	95.06
482.935	99.06
483.153	87.06
483.372	83.06
483.59	97.06
483.808	107.06
484.027	80.06
484.245	86.06
484.463	90.06
484.681	89.06
484.9	91.06
485.118	71.06
485.336	93.06
485.554	91.06
485.772	99.06
485.99	108.06
486.209	102.06
486.427	92.06
486.645	88.06
486.863	99.06
487.081	91.06
487.299	105.06
487.517	88.06
487.735	102.06
487.953	94.06
488.171	88.06
488.389	96.06
488.607	86.06
488.825	87.06
489.043	98.06
489.261	85.06
489.479	86.06
489.696	100.06
489.914	95.06
490.132	92.06
490.35	90.06
490.568	81.06
490.786	97.06
491.003	78.06
491.221	72.06
491.439	93.06
491.657	94.06
491.874	84.06
492.092	92.06
492.31	85.06
492.527	89.06
492.745	95.06
492.963	97.06
493.18	88.06
493.398	85.06
493.615	90.06
493.833	95.06
494.05	86.06
494.268	91.06
494.485	92.06
494.703	88.06
494.92	93.06
495.138	98.06
495.355	93.06
495.573	81.06
495.79	86.06
496.008	80.06
496.225	97.06
496.442	85.06
496.66	90.06
496.877	87.06
497.094	110.06
497.312	98.06
497.529	90.06
497.746	98.06
497.963	83.06
498.181	103.06
498.398	87.06
498.615	102.06
498.832	101.06
499.049	76.06
499.267	79.06
499.484	94.06
499.701	108.06
499.918	98.06
500.135	90.06
500.352	104.06
500.569	104.06
500.786	100.06
501.003	97.06
501.22	92.06
501.437	82.06
501.654	94.06
501.871	106.06
502.088	91.06
502.305	84.06
502.522	80.06
502.739	93.06
502.956	103.06
503.172	91.06
503.389	87.06
503.606	102.06
503.823	93.06
504.04	90.06
504.256	81.06
504.473	88.06
504.69	83.06
504.907	100.06
505.123	98.06
505.34	111.06
505.557	100.06
505.773	90.06
505.99	82.06
506.207	101.06
506.423	76.06
506.64	82.06
506.856	87.06
507.073	78.06
507.289	103.06
507.506	94.06
507.722	101.06
507.939	90.06
508.155	100.06
508.372	97.06
508.588	85.06
508.805	90.06
509.021	96.06
509.238	104.06
509.454	99.06
509.67	85.06
509.887	113.06
510.103	118.06
510.319	190.06
510.536	666.06
510.752	2060.06
510.968	595.06
511.184	145.06
511.401	100.06
511.617	92.06
511.833	95.06
512.049	101.06
512.265	85.06
512.481	99.06
512.698	86.06
512.914	75.06
513.13	82.06
513.346	80.06
513.562	85.06
513.778	100.06
513.994	90.06
514.21	102.06
514.426	114.06
514.642	135.06
514.858	127.06
515.074	135.06
515.29	358.06
515.506	1212.06
515.721	451.06
515.937	152.06
516.153	111.06
516.369	107.06
