Data from Uncirc_1990_H10_HRD10591_00040.txt Node
Date: Wed Jan 03 11:53:59 EST 2024
User: Yrep
Spectrometer: HR+D1059
Trigger mode: 1
Integration Time (sec): 1.000000E-1
Scans to average: 1
Electric dark correction enabled: true
Nonlinearity correction enabled: false
Boxcar width: 0
XAxis mode: Wavelengths
Number of Pixels in Spectrum: 2048
>>>>>Begin Spectral Data<<<<<
223.165	-23
223.4	-23
223.635	-23
223.869	-19
224.104	-19
224.338	-7
224.573	-14
224.808	6
225.042	-12
225.277	-3
225.511	0
225.746	-3
225.98	2
226.215	11
226.449	20
226.683	17
226.918	17
227.152	27
227.387	32
227.621	35
227.856	45
228.09	45
228.324	47
228.559	57
228.793	40
229.027	54
229.262	74
229.496	64
229.73	70
229.964	73
230.199	73
230.433	74
230.667	80
230.901	75
231.136	78
231.37	92
231.604	90
231.838	87
232.072	83
232.306	71
232.541	89
232.775	75
233.009	80
233.243	81
233.477	71
233.711	85
233.945	86
234.179	70
234.413	87
234.647	64
234.881	77
235.115	67
235.349	73
235.583	84
235.817	76
236.051	84
236.285	66
236.519	76
236.753	71
236.987	77
237.221	76
237.455	84
237.689	74
237.922	72
238.156	76
238.39	76
238.624	82
238.858	93
239.091	80
239.325	78
239.559	77
239.793	88
240.027	58
240.26	82
240.494	81
240.728	72
240.961	89
241.195	62
241.429	81
241.662	68
241.896	74
242.13	65
242.363	83
242.597	84
242.83	66
243.064	75
243.298	67
243.531	67
243.765	77
243.998	99
244.232	77
244.465	72
244.699	88
244.932	83
245.166	86
245.399	86
245.633	62
245.866	68
246.099	75
246.333	86
246.566	78
246.8	93
247.033	66
247.266	80
247.5	93
247.733	77
247.966	78
248.2	75
248.433	75
248.666	74
248.899	94
249.133	84
249.366	84
249.599	102
249.832	75
250.066	74
250.299	70
250.532	85
250.765	80
250.998	89
251.231	81
251.465	64
251.698	67
251.931	64
252.164	76
252.397	77
252.63	86
252.863	76
253.096	66
253.329	70
253.562	79
253.795	79
254.028	87
254.261	73
254.494	69
254.727	69
254.96	77
255.193	82
255.426	65
255.659	61
255.892	75
256.124	83
256.357	67
256.59	74
256.823	85
257.056	73
257.289	69
257.521	88
257.754	81
257.987	81
258.22	78
258.452	75
258.685	76
258.918	80
259.151	84
259.383	89
259.616	94
259.849	74
260.081	76
260.314	79
260.547	81
260.779	78
261.012	73
261.244	97
261.477	88
261.71	99
261.942	107
262.175	103
262.407	78
262.64	92
262.872	81
263.105	81
263.337	88
263.57	78
263.802	84
264.035	77
264.267	77
264.499	89
264.732	80
264.964	90
265.197	86
265.429	73
265.661	82
265.894	89
266.126	87
266.358	78
266.591	70
266.823	80
267.055	84
267.287	72
267.52	70
267.752	91
267.984	78
268.216	77
268.448	82
268.681	83
268.913	79
269.145	83
269.377	92
269.609	83
269.841	83
270.073	79
270.306	80
270.538	75
270.77	101
271.002	94
271.234	93
271.466	82
271.698	99
271.93	83
272.162	76
272.394	93
272.626	73
272.858	91
273.09	95
273.322	88
273.553	91
273.785	81
274.017	71
274.249	86
274.481	92
274.713	98
274.945	89
275.176	85
275.408	81
275.64	96
275.872	87
276.104	102
276.335	101
276.567	92
276.799	98
277.031	103
277.262	100
277.494	91
277.726	69
277.957	88
278.189	97
278.421	89
278.652	90
278.884	85
279.115	93
279.347	88
279.579	80
279.81	78
280.042	81
280.273	65
280.505	72
280.736	83
280.968	84
281.199	84
281.431	83
281.662	86
281.894	89
282.125	76
282.356	109
282.588	141
282.819	109
283.051	92
283.282	83
283.513	97
283.745	83
283.976	87
284.207	99
284.439	76
284.67	99
284.901	81
285.132	92
285.364	73
285.595	93
285.826	88
286.057	97
286.288	75
286.52	85
286.751	89
286.982	84
287.213	91
287.444	79
287.675	83
287.906	86
288.138	82
288.369	93
288.6	95
288.831	92
289.062	81
289.293	85
289.524	73
289.755	78
289.986	96
290.217	87
290.448	89
290.679	96
290.91	95
291.141	92
291.371	92
291.602	86
291.833	98
292.064	102
292.295	82
292.526	98
292.757	95
292.987	84
293.218	89
293.449	86
293.68	99
293.91	77
294.141	93
294.372	86
294.603	87
294.833	81
295.064	85
295.295	85
295.525	101
295.756	90
295.987	109
296.217	123
296.448	127
296.679	103
296.909	87
297.14	92
297.37	91
297.601	82
297.831	99
298.062	96
298.292	78
298.523	91
298.753	93
298.984	105
299.214	89
299.445	84
299.675	82
299.905	102
300.136	87
300.366	98
300.597	75
300.827	96
301.057	83
301.288	84
301.518	85
301.748	89
301.979	88
302.209	67
302.439	90
302.669	92
302.9	92
303.13	90
303.36	99
303.59	107
303.82	97
304.051	98
304.281	92
304.511	98
304.741	79
304.971	81
305.201	98
305.431	81
305.661	109
305.891	96
306.121	89
306.352	109
306.582	101
306.812	93
307.042	88
307.272	90
307.502	87
307.731	95
307.961	93
308.191	79
308.421	80
308.651	91
308.881	84
309.111	84
309.341	87
309.571	102
309.8	103
310.03	98
310.26	83
310.49	81
310.72	86
310.949	100
311.179	97
311.409	102
311.639	97
311.868	93
312.098	96
312.328	95
312.557	103
312.787	112
313.017	96
313.246	98
313.476	81
313.706	91
313.935	86
314.165	102
314.394	109
314.624	89
314.853	96
315.083	87
315.312	88
315.542	101
315.771	110
316.001	101
316.23	98
316.46	101
316.689	93
316.919	103
317.148	97
317.377	92
317.607	97
317.836	92
318.065	97
318.295	91
318.524	90
318.753	91
318.983	90
319.212	94
319.441	95
319.67	109
319.9	87
320.129	96
320.358	70
320.587	93
320.816	95
321.046	79
321.275	105
321.504	86
321.733	83
321.962	93
322.191	81
322.42	94
322.649	93
322.878	110
323.108	100
323.337	117
323.566	131
323.795	142
324.024	203
324.253	372
324.482	793
324.71	1715
324.939	2261
325.168	818
325.397	235
325.626	147
325.855	117
326.084	127
326.313	139
326.542	146
326.77	229
326.999	442
327.228	944
327.457	1729
327.686	1375
327.914	373
328.143	182
328.372	141
328.6	105
328.829	108
329.058	115
329.287	123
329.515	117
329.744	94
329.972	102
330.201	103
330.43	104
330.658	95
330.887	124
331.115	113
331.344	95
331.572	88
331.801	103
332.03	92
332.258	101
332.486	96
332.715	94
332.943	94
333.172	94
333.4	95
333.629	100
333.857	121
334.085	99
334.314	91
334.542	99
334.771	86
334.999	110
335.227	92
335.455	99
335.684	113
335.912	99
336.14	102
336.369	108
336.597	102
336.825	91
337.053	94
337.281	106
337.51	99
337.738	103
337.966	97
338.194	101
338.422	105
338.65	106
338.878	103
339.106	108
339.334	99
339.562	90
339.79	90
340.018	85
340.246	87
340.474	90
340.702	86
340.93	96
341.158	94
341.386	107
341.614	89
341.842	87
342.07	80
342.298	83
342.526	85
342.754	94
342.981	86
343.209	93
343.437	102
343.665	87
343.893	79
344.12	73
344.348	98
344.576	92
344.804	82
345.031	97
345.259	98
345.487	92
345.714	102
345.942	96
346.17	82
346.397	80
346.625	94
346.853	93
347.08	87
347.308	89
347.535	109
347.763	84
347.99	83
348.218	97
348.445	106
348.673	100
348.9	87
349.128	99
349.355	107
349.583	98
349.81	97
350.037	101
350.265	102
350.492	82
350.72	96
350.947	101
351.174	102
351.402	100
351.629	103
351.856	104
352.083	97
352.311	90
352.538	105
352.765	107
352.992	104
353.22	94
353.447	93
353.674	102
353.901	103
354.128	99
354.355	104
354.583	94
354.81	98
355.037	107
355.264	98
355.491	91
355.718	82
355.945	85
356.172	102
356.399	86
356.626	92
356.853	95
357.08	71
357.307	103
357.534	99
357.761	90
357.988	89
358.215	102
358.441	99
358.668	78
358.895	86
359.122	98
359.349	84
359.576	88
359.802	109
360.029	108
360.256	104
360.483	88
360.709	95
360.936	86
361.163	94
361.39	99
361.616	96
361.843	89
362.07	96
362.296	103
362.523	91
362.749	89
362.976	85
363.203	79
363.429	76
363.656	100
363.882	97
364.109	89
364.335	86
364.562	67
364.788	80
365.015	96
365.241	95
365.468	93
365.694	102
365.92	90
366.147	82
366.373	82
366.599	98
366.826	96
367.052	92
367.278	89
367.505	106
367.731	86
367.957	69
368.184	92
368.41	94
368.636	94
368.862	119
369.089	97
369.315	75
369.541	92
369.767	102
369.993	85
370.219	79
370.445	82
370.672	75
370.898	88
371.124	82
371.35	81
371.576	89
371.802	81
372.028	93
372.254	75
372.48	93
372.706	74
372.932	81
373.158	92
373.384	96
373.61	105
373.835	88
374.061	84
374.287	100
374.513	90
374.739	82
374.965	92
375.191	81
375.416	79
375.642	90
375.868	93
376.094	92
376.319	97
376.545	90
376.771	87
376.997	100
377.222	81
377.448	102
377.674	96
377.899	89
378.125	89
378.35	105
378.576	85
378.802	89
379.027	80
379.253	78
379.478	97
379.704	72
379.929	89
380.155	89
380.38	100
380.606	88
380.831	89
381.057	95
381.282	91
381.507	100
381.733	108
381.958	96
382.184	89
382.409	83
382.634	81
382.86	103
383.085	112
383.31	101
383.535	88
383.761	90
383.986	95
384.211	100
384.436	113
384.662	97
384.887	90
385.112	93
385.337	93
385.562	103
385.787	90
386.013	90
386.238	92
386.463	94
386.688	114
386.913	93
387.138	100
387.363	85
387.588	93
387.813	84
388.038	85
388.263	105
388.488	100
388.713	93
388.938	107
389.163	101
389.387	93
389.612	94
389.837	85
390.062	89
390.287	100
390.512	78
390.736	80
390.961	90
391.186	99
391.411	91
391.636	88
391.86	87
392.085	67
392.31	77
392.534	88
392.759	92
392.984	84
393.208	88
393.433	93
393.658	81
393.882	92
394.107	85
394.331	83
394.556	75
394.78	97
395.005	92
395.229	97
395.454	95
395.678	78
395.903	86
396.127	80
396.352	94
396.576	91
396.801	82
397.025	80
397.249	91
397.474	95
397.698	85
397.922	77
398.147	82
398.371	85
398.595	90
398.82	87
399.044	87
399.268	88
399.492	86
399.717	98
399.941	81
400.165	87
400.389	83
400.613	89
400.837	92
401.062	99
401.286	85
401.51	94
401.734	94
401.958	103
402.182	124
402.406	142
402.63	116
402.854	101
403.078	93
403.302	84
403.526	89
403.75	87
403.974	82
404.198	97
404.422	96
404.645	85
404.869	89
405.093	86
405.317	103
405.541	103
405.765	93
405.988	98
406.212	159
406.436	221
406.66	130
406.883	111
407.107	81
407.331	93
407.555	85
407.778	87
408.002	92
408.226	86
408.449	83
408.673	87
408.896	100
409.12	102
409.344	96
409.567	92
409.791	98
410.014	101
410.238	83
410.461	95
410.685	96
410.908	100
411.132	101
411.355	99
411.578	97
411.802	85
412.025	95
412.249	100
412.472	93
412.695	87
412.919	89
413.142	96
413.365	82
413.589	98
413.812	84
414.035	100
414.258	99
414.482	90
414.705	101
414.928	91
415.151	90
415.374	92
415.597	91
415.821	79
416.044	68
416.267	89
416.49	84
416.713	75
416.936	88
417.159	79
417.382	82
417.605	78
417.828	94
418.051	89
418.274	97
418.497	88
418.72	82
418.943	82
419.166	83
419.389	71
419.611	82
419.834	79
420.057	83
420.28	74
420.503	79
420.726	86
420.948	74
421.171	95
421.394	101
421.617	84
421.839	84
422.062	82
422.285	97
422.507	89
422.73	97
422.953	83
423.175	77
423.398	85
423.621	90
423.843	73
424.066	80
424.288	98
424.511	84
424.733	91
424.956	103
425.178	80
425.401	92
425.623	94
425.846	94
426.068	85
426.291	92
426.513	98
426.735	99
426.958	87
427.18	87
427.402	129
427.625	155
427.847	112
428.069	101
428.292	91
428.514	98
428.736	90
428.958	67
429.181	79
429.403	87
429.625	87
429.847	93
430.069	87
430.292	77
430.514	82
430.736	97
430.958	93
431.18	74
431.402	75
431.624	87
431.846	76
432.068	80
432.29	82
432.512	93
432.734	90
432.956	105
433.178	96
433.4	97
433.622	87
433.844	89
434.066	99
434.287	85
434.509	86
434.731	93
434.953	73
435.175	86
435.397	85
435.618	78
435.84	94
436.062	107
436.284	106
436.505	110
436.727	99
436.949	89
437.17	78
437.392	78
437.614	98
437.835	92
438.057	106
438.278	104
438.5	89
438.721	134
438.943	101
439.165	83
439.386	97
439.608	80
439.829	111
440.05	128
440.272	131
440.493	104
440.715	79
440.936	83
441.158	86
441.379	91
441.6	102
441.822	97
442.043	89
442.264	89
442.486	101
442.707	106
442.928	97
443.149	137
443.371	109
443.592	87
443.813	100
444.034	106
444.255	83
444.476	79
444.698	87
444.919	88
445.14	133
445.361	123
445.582	113
445.803	127
446.024	135
446.245	130
446.466	104
446.687	94
446.908	63
447.129	99
447.35	94
447.571	99
447.792	73
448.013	102
448.234	95
448.455	99
448.675	119
448.896	110
449.117	92
449.338	91
449.559	122
449.779	123
450	101
450.221	87
450.442	93
450.662	91
450.883	104
451.104	111
451.324	99
451.545	83
451.766	86
451.986	89
452.207	73
452.428	100
452.648	106
452.869	102
453.089	115
453.31	112
453.53	84
453.751	87
453.971	112
454.192	85
454.412	90
454.633	89
454.853	89
455.073	89
455.294	94
455.514	102
455.734	83
455.955	87
456.175	86
456.395	75
456.616	94
456.836	86
457.056	81
457.276	87
457.497	99
457.717	89
457.937	102
458.157	87
458.377	92
458.598	102
458.818	140
459.038	139
459.258	112
459.478	89
459.698	92
459.918	82
460.138	87
460.358	80
460.578	92
460.798	87
461.018	79
461.238	91
461.458	97
461.678	81
461.898	75
462.118	86
462.338	77
462.558	77
462.777	97
462.997	75
463.217	76
463.437	83
463.657	79
463.876	78
464.096	85
464.316	90
464.536	86
464.755	98
464.975	88
465.195	151
465.414	139
465.634	106
465.854	79
466.073	89
466.293	96
466.512	86
466.732	75
466.951	84
467.171	90
467.391	98
467.61	101
467.829	90
468.049	76
468.268	89
468.488	87
468.707	85
468.927	93
469.146	84
469.365	99
469.585	72
469.804	81
470.023	101
470.243	83
470.462	91
470.681	97
470.901	97
471.12	90
471.339	90
471.558	91
471.777	86
471.997	100
472.216	92
472.435	96
472.654	102
472.873	89
473.092	79
473.311	90
473.53	90
473.749	88
473.968	85
474.187	109
474.406	85
474.625	88
474.844	91
475.063	89
475.282	90
475.501	83
475.72	94
475.939	79
476.158	74
476.377	91
476.596	99
476.814	94
477.033	82
477.252	83
477.471	85
477.69	90
477.908	76
478.127	85
478.346	88
478.564	80
478.783	102
479.002	92
479.22	87
479.439	98
479.658	114
479.876	101
480.095	84
480.313	91
480.532	78
480.751	84
480.969	91
481.188	106
481.406	103
481.624	86
481.843	82
482.061	84
482.28	87
482.498	92
482.717	84
482.935	82
483.153	88
483.372	101
483.59	89
483.808	98
484.027	71
484.245	85
484.463	98
484.681	104
484.9	95
485.118	98
485.336	94
485.554	101
485.772	98
485.99	102
486.209	91
486.427	106
486.645	100
486.863	112
487.081	103
487.299	85
487.517	96
487.735	92
487.953	110
488.171	85
488.389	84
488.607	92
488.825	86
489.043	81
489.261	83
489.479	82
489.696	82
489.914	93
490.132	85
490.35	86
490.568	94
490.786	90
491.003	93
491.221	84
491.439	88
491.657	90
491.874	86
492.092	86
492.31	85
492.527	85
492.745	84
492.963	93
493.18	94
493.398	94
493.615	100
493.833	97
494.05	96
494.268	88
494.485	73
494.703	78
494.92	82
495.138	76
495.355	89
495.573	90
495.79	92
496.008	90
496.225	94
496.442	102
496.66	93
496.877	77
497.094	90
497.312	87
497.529	85
497.746	93
497.963	94
498.181	86
498.398	99
498.615	105
498.832	96
499.049	81
499.267	88
499.484	99
499.701	99
499.918	106
500.135	90
500.352	87
500.569	79
500.786	83
501.003	94
501.22	83
501.437	97
501.654	100
501.871	97
502.088	97
502.305	96
502.522	92
502.739	87
502.956	79
503.172	99
503.389	88
503.606	96
503.823	89
504.04	98
504.256	82
504.473	89
504.69	102
504.907	102
505.123	84
505.34	92
505.557	98
505.773	91
505.99	94
506.207	114
506.423	85
506.64	85
506.856	90
507.073	89
507.289	79
507.506	96
507.722	114
507.939	110
508.155	93
508.372	94
508.588	88
508.805	102
509.021	106
509.238	110
509.454	93
509.67	89
509.887	91
510.103	122
510.319	209
510.536	706
510.752	2269
510.968	619
511.184	155
511.401	116
511.617	95
511.833	84
512.049	79
512.265	103
512.481	83
512.698	96
512.914	103
513.13	102
513.346	98
513.562	93
513.778	107
513.994	82
514.21	95
514.426	114
514.642	132
514.858	109
515.074	162
515.29	393
515.506	1314
515.721	476
515.937	142
516.153	104
516.369	97
516.585	91
516.801	87
517.016	111
517.232	94
517.448	87
517.664	99
517.879	93
518.095	89
518.311	86
518.527	76
518.742	94
518.958	93
519.173	95
519.389	96
519.605	84
519.82	86
520.036	93
520.251	99
520.467	94
520.682	101
520.898	120
521.113	121
521.329	143
521.544	187
521.76	482
521.975	2131
522.19	1323
522.406	284
522.621	128
522.836	86
523.052	100
523.267	84
523.482	92
523.698	82
523.913	126
524.128	109
524.343	95
524.559	102
524.774	94
524.989	80
525.204	97
525.419	87
525.634	82
525.849	72
526.064	95
526.28	98
526.495	99
526.71	95
526.925	87
527.14	82
527.355	93
527.57	85
527.785	79
527.999	86
528.214	99
528.429	87
528.644	94
528.859	85
529.074	94
529.289	99
529.503	146
529.718	110
529.933	97
530.148	89
530.363	92
530.577	90
530.792	89
531.007	92
531.221	90
531.436	85
531.651	94
531.865	94
532.08	97
532.295	89
532.509	92
532.724	86
532.938	83
533.153	86
533.367	90
533.582	94
533.796	93
534.011	93
534.225	91
534.44	98
534.654	95
534.868	91
535.083	86
535.297	99
535.511	86
535.726	103
535.94	96
536.154	92
536.369	80
536.583	95
536.797	93
537.011	95
537.225	88
537.44	82
537.654	80
537.868	85
538.082	92
538.296	90
538.51	97
538.724	80
538.938	90
539.153	90
539.367	107
539.581	98
539.795	95
540.009	91
540.222	104
540.436	95
540.65	92
540.864	95
541.078	86
541.292	104
541.506	88
541.72	96
541.934	73
542.147	89
542.361	85
542.575	84
542.789	83
543.002	93
543.216	93
543.43	95
543.644	78
543.857	90
544.071	77
544.285	98
544.498	97
544.712	86
544.925	96
545.139	84
545.352	87
545.566	93
545.779	90
545.993	85
546.206	92
546.42	75
546.633	90
546.847	85
547.06	85
547.274	80
547.487	97
547.7	100
547.914	86
548.127	81
548.34	82
548.554	76
548.767	99
548.98	91
549.193	77
549.407	81
549.62	97
549.833	100
550.046	92
550.259	89
550.473	75
550.686	81
550.899	93
551.112	77
551.325	97
551.538	89
551.751	98
551.964	91
552.177	93
552.39	87
552.603	84
552.816	91
553.029	89
553.242	72
553.455	105
553.667	98
553.88	85
554.093	90
554.306	80
554.519	103
554.732	77
554.944	98
555.157	105
555.37	95
555.583	91
555.795	104
556.008	88
556.221	82
556.433	100
556.646	95
556.859	81
557.071	86
557.284	97
557.496	66
557.709	83
557.921	81
558.134	92
558.346	82
558.559	81
558.771	90
558.984	91
559.196	79
559.409	87
559.621	89
559.833	92
560.046	90
560.258	82
560.47	101
560.683	86
560.895	71
561.107	78
561.32	86
561.532	93
561.744	89
561.956	94
562.168	90
562.381	103
562.593	93
562.805	86
563.017	81
563.229	79
563.441	84
563.653	96
563.865	85
564.077	81
564.289	86
564.501	92
564.713	71
564.925	93
565.137	103
565.349	76
565.561	78
565.773	98
565.985	89
566.197	62
566.408	94
566.62	73
566.832	85
567.044	91
567.255	79
567.467	94
567.679	73
567.891	87
568.102	81
568.314	94
568.526	91
568.737	77
568.949	84
569.161	85
569.372	99
569.584	94
569.795	81
570.007	103
570.218	233
570.43	130
570.641	103
570.853	95
571.064	89
571.276	83
571.487	79
571.698	82
571.91	107
572.121	101
572.333	84
572.544	87
572.755	88
572.966	89
573.178	80
573.389	84
573.6	67
573.811	81
574.023	82
574.234	84
574.445	76
574.656	87
574.867	91
575.078	84
575.289	82
575.501	85
575.712	93
575.923	93
576.134	86
576.345	75
576.556	82
576.767	93
576.978	91
577.188	90
577.399	96
577.61	81
577.821	78
578.032	116
578.243	259
578.454	748
578.665	206
578.875	90
579.086	92
579.297	89
579.508	83
579.718	93
579.929	81
580.14	93
580.35	90
580.561	90
580.772	91
580.982	76
581.193	92
581.403	89
581.614	87
581.825	92
582.035	95
582.246	100
582.456	80
582.667	76
582.877	85
583.087	80
583.298	99
583.508	83
583.719	100
583.929	83
584.139	85
584.35	82
584.56	91
584.77	77
584.981	95
585.191	86
585.401	85
