Data from Uncirc_1990_H10_HRD10591_00003.txt Node
Date: Wed Jan 03 11:53:52 EST 2024
User: Yrep
Spectrometer: HR+D1059
Trigger mode: 1
Integration Time (sec): 1.000000E-1
Scans to average: 1
Electric dark correction enabled: true
Nonlinearity correction enabled: false
Boxcar width: 0
XAxis mode: Wavelengths
Number of Pixels in Spectrum: 2048
>>>>>Begin Spectral Data<<<<<
223.165	-14.19
223.4	-14.19
223.635	-14.19
223.869	-20.19
224.104	-29.19
224.338	-13.19
224.573	-21.19
224.808	-9.19
225.042	-4.19
225.277	6.81
225.511	6.81
225.746	3.81
225.98	-5.19
226.215	23.81
226.449	13.81
226.683	13.81
226.918	15.81
227.152	31.81
227.387	29.81
227.621	39.81
227.856	36.81
228.09	51.81
228.324	60.81
228.559	59.81
228.793	44.81
229.027	45.81
229.262	67.81
229.496	66.81
229.73	78.81
229.964	75.81
230.199	69.81
230.433	75.81
230.667	68.81
230.901	79.81
231.136	80.81
231.37	92.81
231.604	91.81
231.838	82.81
232.072	83.81
232.306	71.81
232.541	83.81
232.775	93.81
233.009	89.81
233.243	63.81
233.477	78.81
233.711	71.81
233.945	77.81
234.179	76.81
234.413	87.81
234.647	77.81
234.881	73.81
235.115	76.81
235.349	85.81
235.583	75.81
235.817	89.81
236.051	69.81
236.285	69.81
236.519	77.81
236.753	91.81
236.987	78.81
237.221	88.81
237.455	83.81
237.689	75.81
237.922	81.81
238.156	55.81
238.39	66.81
238.624	73.81
238.858	77.81
239.091	71.81
239.325	75.81
239.559	81.81
239.793	100.81
240.027	86.81
240.26	77.81
240.494	58.81
240.728	79.81
240.961	70.81
241.195	71.81
241.429	76.81
241.662	62.81
241.896	79.81
242.13	77.81
242.363	78.81
242.597	85.81
242.83	78.81
243.064	73.81
243.298	60.81
243.531	59.81
243.765	69.81
243.998	73.81
244.232	77.81
244.465	82.81
244.699	76.81
244.932	83.81
245.166	73.81
245.399	80.81
245.633	79.81
245.866	81.81
246.099	83.81
246.333	89.81
246.566	66.81
246.8	90.81
247.033	74.81
247.266	65.81
247.5	71.81
247.733	71.81
247.966	69.81
248.2	84.81
248.433	80.81
248.666	91.81
248.899	87.81
249.133	87.81
249.366	96.81
249.599	104.81
249.832	70.81
250.066	73.81
250.299	78.81
250.532	82.81
250.765	88.81
250.998	76.81
251.231	89.81
251.465	86.81
251.698	83.81
251.931	74.81
252.164	84.81
252.397	73.81
252.63	82.81
252.863	68.81
253.096	78.81
253.329	66.81
253.562	89.81
253.795	68.81
254.028	69.81
254.261	81.81
254.494	73.81
254.727	87.81
254.96	81.81
255.193	82.81
255.426	88.81
255.659	92.81
255.892	85.81
256.124	69.81
256.357	84.81
256.59	89.81
256.823	67.81
257.056	86.81
257.289	79.81
257.521	87.81
257.754	77.81
257.987	77.81
258.22	78.81
258.452	83.81
258.685	81.81
258.918	77.81
259.151	82.81
259.383	75.81
259.616	87.81
259.849	82.81
260.081	77.81
260.314	81.81
260.547	86.81
260.779	80.81
261.012	77.81
261.244	83.81
261.477	83.81
261.71	80.81
261.942	102.81
262.175	105.81
262.407	87.81
262.64	61.81
262.872	89.81
263.105	87.81
263.337	93.81
263.57	85.81
263.802	94.81
264.035	76.81
264.267	77.81
264.499	83.81
264.732	81.81
264.964	88.81
265.197	90.81
265.429	71.81
265.661	69.81
265.894	89.81
266.126	96.81
266.358	82.81
266.591	82.81
266.823	77.81
267.055	81.81
267.287	76.81
267.52	69.81
267.752	88.81
267.984	77.81
268.216	70.81
268.448	80.81
268.681	88.81
268.913	93.81
269.145	88.81
269.377	89.81
269.609	73.81
269.841	76.81
270.073	70.81
270.306	79.81
270.538	86.81
270.77	91.81
271.002	93.81
271.234	89.81
271.466	90.81
271.698	83.81
271.93	82.81
272.162	83.81
272.394	67.81
272.626	74.81
272.858	74.81
273.09	83.81
273.322	76.81
273.553	71.81
273.785	82.81
274.017	69.81
274.249	89.81
274.481	66.81
274.713	78.81
274.945	83.81
275.176	84.81
275.408	87.81
275.64	86.81
275.872	90.81
276.104	96.81
276.335	78.81
276.567	99.81
276.799	93.81
277.031	100.81
277.262	81.81
277.494	89.81
277.726	75.81
277.957	77.81
278.189	80.81
278.421	81.81
278.652	85.81
278.884	82.81
279.115	74.81
279.347	69.81
279.579	77.81
279.81	82.81
280.042	91.81
280.273	77.81
280.505	73.81
280.736	76.81
280.968	89.81
281.199	92.81
281.431	95.81
281.662	85.81
281.894	91.81
282.125	99.81
282.356	109.81
282.588	113.81
282.819	99.81
283.051	105.81
283.282	91.81
283.513	89.81
283.745	84.81
283.976	81.81
284.207	78.81
284.439	89.81
284.67	86.81
284.901	89.81
285.132	88.81
285.364	74.81
285.595	83.81
285.826	78.81
286.057	82.81
286.288	96.81
286.52	70.81
286.751	74.81
286.982	67.81
287.213	93.81
287.444	86.81
287.675	75.81
287.906	101.81
288.138	92.81
288.369	87.81
288.6	72.81
288.831	90.81
289.062	89.81
289.293	89.81
289.524	73.81
289.755	88.81
289.986	92.81
290.217	78.81
290.448	81.81
290.679	92.81
290.91	68.81
291.141	90.81
291.371	87.81
291.602	82.81
291.833	94.81
292.064	88.81
292.295	73.81
292.526	93.81
292.757	65.81
292.987	77.81
293.218	74.81
293.449	94.81
293.68	91.81
293.91	69.81
294.141	90.81
294.372	88.81
294.603	76.81
294.833	89.81
295.064	90.81
295.295	81.81
295.525	69.81
295.756	81.81
295.987	99.81
296.217	109.81
296.448	101.81
296.679	81.81
296.909	103.81
297.14	77.81
297.37	71.81
297.601	77.81
297.831	78.81
298.062	81.81
298.292	91.81
298.523	101.81
298.753	86.81
298.984	83.81
299.214	82.81
299.445	94.81
299.675	101.81
299.905	74.81
300.136	83.81
300.366	86.81
300.597	75.81
300.827	102.81
301.057	97.81
301.288	89.81
301.518	86.81
301.748	83.81
301.979	93.81
302.209	89.81
302.439	85.81
302.669	78.81
302.9	80.81
303.13	77.81
303.36	88.81
303.59	87.81
303.82	103.81
304.051	86.81
304.281	85.81
304.511	96.81
304.741	95.81
304.971	78.81
305.201	92.81
305.431	80.81
305.661	89.81
305.891	98.81
306.121	94.81
306.352	88.81
306.582	103.81
306.812	93.81
307.042	87.81
307.272	87.81
307.502	85.81
307.731	73.81
307.961	87.81
308.191	90.81
308.421	98.81
308.651	83.81
308.881	90.81
309.111	75.81
309.341	90.81
309.571	83.81
309.8	83.81
310.03	98.81
310.26	105.81
310.49	93.81
310.72	89.81
310.949	77.81
311.179	99.81
311.409	116.81
311.639	94.81
311.868	103.81
312.098	85.81
312.328	93.81
312.557	93.81
312.787	101.81
313.017	106.81
313.246	87.81
313.476	94.81
313.706	85.81
313.935	87.81
314.165	94.81
314.394	89.81
314.624	104.81
314.853	88.81
315.083	87.81
315.312	86.81
315.542	85.81
315.771	91.81
316.001	85.81
316.23	93.81
316.46	89.81
316.689	103.81
316.919	98.81
317.148	98.81
317.377	81.81
317.607	95.81
317.836	94.81
318.065	94.81
318.295	93.81
318.524	96.81
318.753	85.81
318.983	83.81
319.212	89.81
319.441	92.81
319.67	96.81
319.9	86.81
320.129	90.81
320.358	78.81
320.587	84.81
320.816	84.81
321.046	92.81
321.275	86.81
321.504	86.81
321.733	101.81
321.962	96.81
322.191	100.81
322.42	88.81
322.649	99.81
322.878	96.81
323.108	120.81
323.337	132.81
323.566	112.81
323.795	149.81
324.024	155.81
324.253	305.81
324.482	618.81
324.71	1261.81
324.939	1660.81
325.168	627.81
325.397	205.81
325.626	141.81
325.855	112.81
326.084	115.81
326.313	123.81
326.542	142.81
326.77	183.81
326.999	367.81
327.228	733.81
327.457	1324.81
327.686	1047.81
327.914	291.81
328.143	167.81
328.372	128.81
328.6	113.81
328.829	107.81
329.058	101.81
329.287	99.81
329.515	102.81
329.744	102.81
329.972	107.81
330.201	98.81
330.43	94.81
330.658	109.81
330.887	121.81
331.115	97.81
331.344	109.81
331.572	82.81
331.801	107.81
332.03	86.81
332.258	93.81
332.486	87.81
332.715	103.81
332.943	80.81
333.172	84.81
333.4	98.81
333.629	109.81
333.857	96.81
334.085	103.81
334.314	93.81
334.542	91.81
334.771	95.81
334.999	97.81
335.227	87.81
335.455	94.81
335.684	101.81
335.912	91.81
336.14	87.81
336.369	92.81
336.597	98.81
336.825	94.81
337.053	104.81
337.281	103.81
337.51	96.81
337.738	87.81
337.966	95.81
338.194	81.81
338.422	90.81
338.65	92.81
338.878	89.81
339.106	84.81
339.334	95.81
339.562	98.81
339.79	97.81
340.018	90.81
340.246	96.81
340.474	89.81
340.702	89.81
340.93	83.81
341.158	97.81
341.386	94.81
341.614	87.81
341.842	82.81
342.07	92.81
342.298	90.81
342.526	81.81
342.754	74.81
342.981	84.81
343.209	79.81
343.437	91.81
343.665	94.81
343.893	83.81
344.12	97.81
344.348	94.81
344.576	91.81
344.804	94.81
345.031	95.81
345.259	99.81
345.487	87.81
345.714	104.81
345.942	79.81
346.17	98.81
346.397	92.81
346.625	85.81
346.853	98.81
347.08	96.81
347.308	89.81
347.535	82.81
347.763	88.81
347.99	95.81
348.218	95.81
348.445	106.81
348.673	98.81
348.9	107.81
349.128	83.81
349.355	97.81
349.583	89.81
349.81	89.81
350.037	75.81
350.265	86.81
350.492	95.81
350.72	93.81
350.947	105.81
351.174	105.81
351.402	99.81
351.629	97.81
351.856	93.81
352.083	93.81
352.311	91.81
352.538	103.81
352.765	100.81
352.992	102.81
353.22	109.81
353.447	105.81
353.674	89.81
353.901	103.81
354.128	96.81
354.355	98.81
354.583	92.81
354.81	100.81
355.037	106.81
355.264	107.81
355.491	101.81
355.718	68.81
355.945	88.81
356.172	85.81
356.399	98.81
356.626	92.81
356.853	94.81
357.08	99.81
357.307	88.81
357.534	89.81
357.761	95.81
357.988	89.81
358.215	96.81
358.441	85.81
358.668	93.81
358.895	78.81
359.122	91.81
359.349	85.81
359.576	91.81
359.802	93.81
360.029	104.81
360.256	97.81
360.483	95.81
360.709	80.81
360.936	102.81
361.163	88.81
361.39	92.81
361.616	98.81
361.843	94.81
362.07	97.81
362.296	92.81
362.523	95.81
362.749	96.81
362.976	82.81
363.203	89.81
363.429	97.81
363.656	89.81
363.882	93.81
364.109	81.81
364.335	90.81
364.562	100.81
364.788	84.81
365.015	82.81
365.241	85.81
365.468	90.81
365.694	89.81
365.92	72.81
366.147	95.81
366.373	95.81
366.599	93.81
366.826	98.81
367.052	78.81
367.278	85.81
367.505	89.81
367.731	87.81
367.957	78.81
368.184	93.81
368.41	90.81
368.636	103.81
368.862	106.81
369.089	96.81
369.315	94.81
369.541	84.81
369.767	82.81
369.993	96.81
370.219	90.81
370.445	86.81
370.672	82.81
370.898	94.81
371.124	81.81
371.35	76.81
371.576	91.81
371.802	93.81
372.028	77.81
372.254	89.81
372.48	95.81
372.706	79.81
372.932	98.81
373.158	85.81
373.384	90.81
373.61	79.81
373.835	94.81
374.061	81.81
374.287	88.81
374.513	93.81
374.739	96.81
374.965	105.81
375.191	105.81
375.416	99.81
375.642	100.81
375.868	94.81
376.094	93.81
376.319	93.81
376.545	82.81
376.771	83.81
376.997	91.81
377.222	85.81
377.448	81.81
377.674	94.81
377.899	101.81
378.125	81.81
378.35	103.81
378.576	92.81
378.802	91.81
379.027	81.81
379.253	97.81
379.478	71.81
379.704	86.81
379.929	99.81
380.155	88.81
380.38	108.81
380.606	82.81
380.831	101.81
381.057	103.81
381.282	96.81
381.507	89.81
381.733	90.81
381.958	81.81
382.184	101.81
382.409	84.81
382.634	107.81
382.86	98.81
383.085	93.81
383.31	108.81
383.535	96.81
383.761	110.81
383.986	97.81
384.211	88.81
384.436	89.81
384.662	112.81
384.887	103.81
385.112	110.81
385.337	109.81
385.562	100.81
385.787	113.81
386.013	106.81
386.238	119.81
386.463	85.81
386.688	106.81
386.913	117.81
387.138	116.81
387.363	111.81
387.588	113.81
387.813	101.81
388.038	111.81
388.263	114.81
388.488	96.81
388.713	105.81
388.938	93.81
389.163	108.81
389.387	89.81
389.612	100.81
389.837	97.81
390.062	105.81
390.287	96.81
390.512	98.81
390.736	102.81
390.961	100.81
391.186	89.81
391.411	106.81
391.636	92.81
391.86	93.81
392.085	95.81
392.31	102.81
392.534	68.81
392.759	86.81
392.984	88.81
393.208	97.81
393.433	103.81
393.658	94.81
393.882	85.81
394.107	90.81
394.331	96.81
394.556	91.81
394.78	95.81
395.005	86.81
395.229	85.81
395.454	82.81
395.678	94.81
395.903	86.81
396.127	81.81
396.352	91.81
396.576	79.81
396.801	84.81
397.025	101.81
397.249	86.81
397.474	92.81
397.698	87.81
397.922	77.81
398.147	87.81
398.371	78.81
398.595	85.81
398.82	86.81
399.044	91.81
399.268	97.81
399.492	78.81
399.717	104.81
399.941	83.81
400.165	92.81
400.389	86.81
400.613	77.81
400.837	83.81
401.062	100.81
401.286	87.81
401.51	98.81
401.734	87.81
401.958	98.81
402.182	119.81
402.406	127.81
402.63	100.81
402.854	87.81
403.078	96.81
403.302	82.81
403.526	87.81
403.75	108.81
403.974	88.81
404.198	80.81
404.422	91.81
404.645	86.81
404.869	88.81
405.093	85.81
405.317	105.81
405.541	96.81
405.765	93.81
405.988	90.81
406.212	144.81
406.436	163.81
406.66	124.81
406.883	93.81
407.107	92.81
407.331	103.81
407.555	93.81
407.778	97.81
408.002	85.81
408.226	88.81
408.449	93.81
408.673	86.81
408.896	85.81
409.12	75.81
409.344	85.81
409.567	82.81
409.791	103.81
410.014	93.81
410.238	73.81
410.461	91.81
410.685	99.81
410.908	101.81
411.132	94.81
411.355	102.81
411.578	87.81
411.802	98.81
412.025	96.81
412.249	93.81
412.472	83.81
412.695	84.81
412.919	86.81
413.142	87.81
413.365	102.81
413.589	96.81
413.812	86.81
414.035	76.81
414.258	70.81
414.482	80.81
414.705	86.81
414.928	85.81
415.151	97.81
415.374	93.81
415.597	90.81
415.821	86.81
416.044	79.81
416.267	97.81
416.49	97.81
416.713	84.81
416.936	87.81
417.159	95.81
417.382	83.81
417.605	85.81
417.828	94.81
418.051	95.81
418.274	81.81
418.497	91.81
418.72	81.81
418.943	83.81
419.166	82.81
419.389	101.81
419.611	89.81
419.834	88.81
420.057	88.81
420.28	94.81
420.503	88.81
420.726	95.81
420.948	91.81
421.171	92.81
421.394	90.81
421.617	96.81
421.839	95.81
422.062	103.81
422.285	94.81
422.507	108.81
422.73	97.81
422.953	93.81
423.175	100.81
423.398	90.81
423.621	91.81
423.843	82.81
424.066	93.81
424.288	92.81
424.511	94.81
424.733	98.81
424.956	101.81
425.178	91.81
425.401	96.81
425.623	87.81
425.846	94.81
426.068	87.81
426.291	77.81
426.513	88.81
426.735	93.81
426.958	83.81
427.18	110.81
427.402	108.81
427.625	121.81
427.847	110.81
428.069	91.81
428.292	91.81
428.514	93.81
428.736	87.81
428.958	81.81
429.181	85.81
429.403	85.81
429.625	81.81
429.847	81.81
430.069	94.81
430.292	93.81
430.514	97.81
430.736	81.81
430.958	80.81
431.18	102.81
431.402	81.81
431.624	86.81
431.846	95.81
432.068	82.81
432.29	85.81
432.512	89.81
432.734	76.81
432.956	92.81
433.178	89.81
433.4	101.81
433.622	100.81
433.844	85.81
434.066	85.81
434.287	89.81
434.509	84.81
434.731	90.81
434.953	88.81
435.175	78.81
435.397	74.81
435.618	71.81
435.84	97.81
436.062	115.81
436.284	101.81
436.505	96.81
436.727	89.81
436.949	87.81
437.17	91.81
437.392	68.81
437.614	96.81
437.835	101.81
438.057	100.81
438.278	111.81
438.5	92.81
438.721	114.81
438.943	93.81
439.165	89.81
439.386	76.81
439.608	77.81
439.829	90.81
440.05	97.81
440.272	115.81
440.493	95.81
440.715	105.81
440.936	81.81
441.158	78.81
441.379	74.81
441.6	95.81
441.822	102.81
442.043	99.81
442.264	90.81
442.486	91.81
442.707	83.81
442.928	110.81
443.149	120.81
443.371	108.81
443.592	96.81
443.813	110.81
444.034	99.81
444.255	95.81
444.476	87.81
444.698	84.81
444.919	92.81
445.14	137.81
445.361	118.81
445.582	106.81
445.803	116.81
446.024	104.81
446.245	116.81
446.466	114.81
446.687	86.81
446.908	85.81
447.129	87.81
447.35	101.81
447.571	91.81
447.792	82.81
448.013	82.81
448.234	110.81
448.455	106.81
448.675	133.81
448.896	112.81
449.117	99.81
449.338	86.81
449.559	113.81
449.779	99.81
450	95.81
450.221	88.81
450.442	85.81
450.662	86.81
450.883	91.81
451.104	103.81
451.324	90.81
451.545	98.81
451.766	100.81
451.986	84.81
452.207	85.81
452.428	76.81
452.648	90.81
452.869	86.81
453.089	107.81
453.31	101.81
453.53	84.81
453.751	80.81
453.971	82.81
454.192	109.81
454.412	90.81
454.633	79.81
454.853	92.81
455.073	77.81
455.294	94.81
455.514	97.81
455.734	86.81
455.955	89.81
456.175	60.81
456.395	93.81
456.616	90.81
456.836	89.81
457.056	85.81
457.276	78.81
457.497	90.81
457.717	80.81
457.937	70.81
458.157	82.81
458.377	90.81
458.598	96.81
458.818	141.81
459.038	134.81
459.258	92.81
459.478	94.81
459.698	77.81
459.918	79.81
460.138	86.81
460.358	95.81
460.578	75.81
460.798	81.81
461.018	73.81
461.238	78.81
461.458	95.81
461.678	89.81
461.898	89.81
462.118	91.81
462.338	90.81
462.558	80.81
462.777	90.81
462.997	73.81
463.217	80.81
463.437	83.81
463.657	81.81
463.876	87.81
464.096	90.81
464.316	89.81
464.536	77.81
464.755	102.81
464.975	89.81
465.195	128.81
465.414	129.81
465.634	88.81
465.854	91.81
466.073	86.81
466.293	94.81
466.512	80.81
466.732	80.81
466.951	69.81
467.171	79.81
467.391	89.81
467.61	95.81
467.829	80.81
468.049	73.81
468.268	91.81
468.488	90.81
468.707	84.81
468.927	81.81
469.146	74.81
469.365	86.81
469.585	85.81
469.804	81.81
470.023	70.81
470.243	93.81
470.462	98.81
470.681	95.81
470.901	84.81
471.12	73.81
471.339	85.81
471.558	87.81
471.777	89.81
471.997	84.81
472.216	68.81
472.435	98.81
472.654	82.81
472.873	70.81
473.092	97.81
473.311	75.81
473.53	82.81
473.749	93.81
473.968	94.81
474.187	102.81
474.406	96.81
474.625	99.81
474.844	86.81
475.063	78.81
475.282	90.81
475.501	85.81
475.72	86.81
475.939	89.81
476.158	92.81
476.377	93.81
476.596	87.81
476.814	78.81
477.033	83.81
477.252	91.81
477.471	103.81
477.69	86.81
477.908	76.81
478.127	81.81
478.346	90.81
478.564	73.81
478.783	89.81
479.002	97.81
479.22	81.81
479.439	94.81
479.658	93.81
479.876	87.81
480.095	75.81
480.313	98.81
480.532	79.81
480.751	95.81
480.969	98.81
481.188	103.81
481.406	93.81
481.624	89.81
481.843	92.81
482.061	82.81
482.28	93.81
482.498	81.81
482.717	98.81
482.935	87.81
483.153	88.81
483.372	86.81
483.59	86.81
483.808	73.81
484.027	82.81
484.245	91.81
484.463	88.81
484.681	94.81
484.9	89.81
485.118	82.81
485.336	108.81
485.554	98.81
485.772	93.81
485.99	107.81
486.209	102.81
486.427	92.81
486.645	87.81
486.863	109.81
487.081	85.81
487.299	105.81
487.517	98.81
487.735	93.81
487.953	102.81
488.171	84.81
488.389	85.81
488.607	94.81
488.825	83.81
489.043	86.81
489.261	89.81
489.479	89.81
489.696	91.81
489.914	96.81
490.132	96.81
490.35	86.81
490.568	95.81
490.786	91.81
491.003	90.81
491.221	93.81
491.439	100.81
491.657	88.81
491.874	84.81
492.092	94.81
492.31	95.81
492.527	94.81
492.745	82.81
492.963	83.81
493.18	94.81
493.398	78.81
493.615	98.81
493.833	96.81
494.05	94.81
494.268	100.81
494.485	81.81
494.703	83.81
494.92	88.81
495.138	83.81
495.355	85.81
495.573	87.81
495.79	88.81
496.008	100.81
496.225	96.81
496.442	80.81
496.66	91.81
496.877	92.81
497.094	97.81
497.312	88.81
497.529	80.81
497.746	90.81
497.963	92.81
498.181	104.81
498.398	95.81
498.615	93.81
498.832	98.81
499.049	93.81
499.267	89.81
499.484	80.81
499.701	88.81
499.918	81.81
500.135	85.81
500.352	89.81
500.569	91.81
500.786	92.81
501.003	89.81
501.22	73.81
501.437	84.81
501.654	103.81
501.871	98.81
502.088	89.81
502.305	91.81
502.522	90.81
502.739	99.81
502.956	84.81
503.172	89.81
503.389	101.81
503.606	85.81
503.823	103.81
504.04	90.81
504.256	106.81
504.473	88.81
504.69	85.81
504.907	83.81
505.123	92.81
505.34	75.81
505.557	79.81
505.773	83.81
505.99	77.81
506.207	73.81
506.423	90.81
506.64	84.81
506.856	79.81
507.073	97.81
507.289	95.81
507.506	93.81
507.722	103.81
507.939	102.81
508.155	90.81
508.372	81.81
508.588	85.81
508.805	102.81
509.021	82.81
509.238	96.81
509.454	110.81
509.67	95.81
509.887	85.81
510.103	126.81
510.319	169.81
510.536	540.81
510.752	1726.81
510.968	478.81
511.184	122.81
511.401	97.81
511.617	100.81
511.833	81.81
512.049	93.81
512.265	93.81
512.481	89.81
512.698	95.81
512.914	95.81
513.13	98.81
513.346	104.81
513.562	84.81
513.778	101.81
513.994	77.81
514.21	107.81
514.426	92.81
514.642	114.81
514.858	101.81
515.074	131.81
515.29	314.81
515.506	967.81
515.721	364.81
515.937	133.81
516.153	93.81
516.369	95.81
516.585	86.81
516.801	90.81
