Data from Uncirc_1990_H10_HRD10591_00019.txt Node
Date: Wed Jan 03 11:53:55 EST 2024
User: Yrep
Spectrometer: HR+D1059
Trigger mode: 1
Integration Time (sec): 1.000000E-1
Scans to average: 1
Electric dark correction enabled: true
Nonlinearity correction enabled: false
Boxcar width: 0
XAxis mode: Wavelengths
Number of Pixels in Spectrum: 2048
>>>>>Begin Spectral Data<<<<<
223.165	-13.94
223.4	-13.94
223.635	-13.94
223.869	-10.94
224.104	-17.94
224.338	-19.94
224.573	-18.94
224.808	-15.94
225.042	-0.94
225.277	-4.94
225.511	-2.94
225.746	5.06
225.98	6.06
226.215	3.06
226.449	12.06
226.683	17.06
226.918	25.06
227.152	38.06
227.387	34.06
227.621	28.06
227.856	41.06
228.09	43.06
228.324	38.06
228.559	61.06
228.793	49.06
229.027	61.06
229.262	62.06
229.496	67.06
229.73	61.06
229.964	77.06
230.199	86.06
230.433	77.06
230.667	75.06
230.901	62.06
231.136	68.06
231.37	77.06
231.604	77.06
231.838	70.06
232.072	75.06
232.306	92.06
232.541	68.06
232.775	84.06
233.009	74.06
233.243	88.06
233.477	88.06
233.711	69.06
233.945	73.06
234.179	66.06
234.413	88.06
234.647	91.06
234.881	76.06
235.115	84.06
235.349	70.06
235.583	83.06
235.817	82.06
236.051	65.06
236.285	70.06
236.519	71.06
236.753	78.06
236.987	83.06
237.221	77.06
237.455	77.06
237.689	76.06
237.922	70.06
238.156	75.06
238.39	72.06
238.624	62.06
238.858	82.06
239.091	69.06
239.325	75.06
239.559	80.06
239.793	82.06
240.027	89.06
240.26	75.06
240.494	67.06
240.728	75.06
240.961	80.06
241.195	63.06
241.429	65.06
241.662	66.06
241.896	82.06
242.13	71.06
242.363	78.06
242.597	82.06
242.83	63.06
243.064	77.06
243.298	82.06
243.531	89.06
243.765	71.06
243.998	85.06
244.232	67.06
244.465	74.06
244.699	80.06
244.932	98.06
245.166	91.06
245.399	83.06
245.633	76.06
245.866	73.06
246.099	78.06
246.333	77.06
246.566	76.06
246.8	83.06
247.033	63.06
247.266	81.06
247.5	70.06
247.733	55.06
247.966	80.06
248.2	74.06
248.433	78.06
248.666	79.06
248.899	67.06
249.133	74.06
249.366	92.06
249.599	101.06
249.832	81.06
250.066	75.06
250.299	78.06
250.532	80.06
250.765	73.06
250.998	69.06
251.231	68.06
251.465	87.06
251.698	85.06
251.931	64.06
252.164	82.06
252.397	90.06
252.63	66.06
252.863	83.06
253.096	101.06
253.329	83.06
253.562	80.06
253.795	87.06
254.028	85.06
254.261	67.06
254.494	66.06
254.727	87.06
254.96	81.06
255.193	74.06
255.426	75.06
255.659	88.06
255.892	87.06
256.124	87.06
256.357	76.06
256.59	85.06
256.823	81.06
257.056	74.06
257.289	76.06
257.521	77.06
257.754	78.06
257.987	81.06
258.22	70.06
258.452	79.06
258.685	73.06
258.918	77.06
259.151	74.06
259.383	87.06
259.616	75.06
259.849	77.06
260.081	91.06
260.314	68.06
260.547	86.06
260.779	68.06
261.012	94.06
261.244	63.06
261.477	93.06
261.71	91.06
261.942	106.06
262.175	96.06
262.407	75.06
262.64	83.06
262.872	80.06
263.105	82.06
263.337	85.06
263.57	88.06
263.802	78.06
264.035	84.06
264.267	84.06
264.499	87.06
264.732	75.06
264.964	88.06
265.197	88.06
265.429	84.06
265.661	96.06
265.894	76.06
266.126	78.06
266.358	90.06
266.591	74.06
266.823	87.06
267.055	85.06
267.287	82.06
267.52	90.06
267.752	79.06
267.984	69.06
268.216	66.06
268.448	80.06
268.681	92.06
268.913	76.06
269.145	86.06
269.377	89.06
269.609	87.06
269.841	83.06
270.073	78.06
270.306	86.06
270.538	79.06
270.77	78.06
271.002	76.06
271.234	76.06
271.466	83.06
271.698	81.06
271.93	67.06
272.162	75.06
272.394	86.06
272.626	79.06
272.858	74.06
273.09	85.06
273.322	74.06
273.553	83.06
273.785	78.06
274.017	89.06
274.249	93.06
274.481	97.06
274.713	90.06
274.945	79.06
275.176	83.06
275.408	78.06
275.64	79.06
275.872	80.06
276.104	95.06
276.335	91.06
276.567	94.06
276.799	93.06
277.031	89.06
277.262	85.06
277.494	70.06
277.726	84.06
277.957	89.06
278.189	88.06
278.421	83.06
278.652	86.06
278.884	86.06
279.115	82.06
279.347	66.06
279.579	82.06
279.81	98.06
280.042	98.06
280.273	82.06
280.505	94.06
280.736	94.06
280.968	77.06
281.199	90.06
281.431	78.06
281.662	89.06
281.894	84.06
282.125	80.06
282.356	98.06
282.588	143.06
282.819	99.06
283.051	75.06
283.282	86.06
283.513	94.06
283.745	78.06
283.976	93.06
284.207	78.06
284.439	79.06
284.67	104.06
284.901	79.06
285.132	93.06
285.364	83.06
285.595	80.06
285.826	80.06
286.057	93.06
286.288	87.06
286.52	86.06
286.751	77.06
286.982	81.06
287.213	70.06
287.444	76.06
287.675	89.06
287.906	81.06
288.138	94.06
288.369	94.06
288.6	93.06
288.831	85.06
289.062	81.06
289.293	83.06
289.524	99.06
289.755	99.06
289.986	81.06
290.217	100.06
290.448	97.06
290.679	79.06
290.91	79.06
291.141	93.06
291.371	95.06
291.602	90.06
291.833	67.06
292.064	88.06
292.295	98.06
292.526	87.06
292.757	98.06
292.987	92.06
293.218	95.06
293.449	93.06
293.68	90.06
293.91	75.06
294.141	97.06
294.372	83.06
294.603	93.06
294.833	86.06
295.064	86.06
295.295	83.06
295.525	89.06
295.756	97.06
295.987	99.06
296.217	130.06
296.448	111.06
296.679	84.06
296.909	91.06
297.14	81.06
297.37	91.06
297.601	81.06
297.831	90.06
298.062	87.06
298.292	94.06
298.523	90.06
298.753	86.06
298.984	79.06
299.214	85.06
299.445	93.06
299.675	78.06
299.905	104.06
300.136	93.06
300.366	92.06
300.597	93.06
300.827	89.06
301.057	82.06
301.288	110.06
301.518	95.06
301.748	91.06
301.979	103.06
302.209	84.06
302.439	83.06
302.669	85.06
302.9	78.06
303.13	87.06
303.36	82.06
303.59	96.06
303.82	92.06
304.051	94.06
304.281	81.06
304.511	93.06
304.741	82.06
304.971	85.06
305.201	81.06
305.431	80.06
305.661	93.06
305.891	84.06
306.121	90.06
306.352	94.06
306.582	98.06
306.812	90.06
307.042	102.06
307.272	85.06
307.502	102.06
307.731	98.06
307.961	100.06
308.191	93.06
308.421	86.06
308.651	83.06
308.881	88.06
309.111	100.06
309.341	91.06
309.571	86.06
309.8	82.06
310.03	92.06
310.26	95.06
310.49	93.06
310.72	80.06
310.949	89.06
311.179	98.06
311.409	97.06
311.639	87.06
311.868	90.06
312.098	93.06
312.328	88.06
312.557	91.06
312.787	88.06
313.017	101.06
313.246	89.06
313.476	87.06
313.706	110.06
313.935	98.06
314.165	115.06
314.394	101.06
314.624	98.06
314.853	99.06
315.083	86.06
315.312	94.06
315.542	100.06
315.771	87.06
316.001	78.06
316.23	93.06
316.46	87.06
316.689	99.06
316.919	94.06
317.148	89.06
317.377	95.06
317.607	92.06
317.836	94.06
318.065	92.06
318.295	80.06
318.524	94.06
318.753	101.06
318.983	103.06
319.212	89.06
319.441	108.06
319.67	105.06
319.9	86.06
320.129	81.06
320.358	94.06
320.587	82.06
320.816	94.06
321.046	107.06
321.275	97.06
321.504	95.06
321.733	106.06
321.962	105.06
322.191	92.06
322.42	109.06
322.649	101.06
322.878	99.06
323.108	116.06
323.337	101.06
323.566	111.06
323.795	142.06
324.024	198.06
324.253	352.06
324.482	717.06
324.71	1478.06
324.939	1991.06
325.168	738.06
325.397	213.06
325.626	143.06
325.855	122.06
326.084	118.06
326.313	130.06
326.542	142.06
326.77	217.06
326.999	423.06
327.228	859.06
327.457	1507.06
327.686	1235.06
327.914	338.06
328.143	181.06
328.372	126.06
328.6	118.06
328.829	116.06
329.058	107.06
329.287	109.06
329.515	103.06
329.744	93.06
329.972	87.06
330.201	100.06
330.43	101.06
330.658	108.06
330.887	125.06
331.115	116.06
331.344	102.06
331.572	100.06
331.801	86.06
332.03	92.06
332.258	108.06
332.486	87.06
332.715	102.06
332.943	92.06
333.172	81.06
333.4	96.06
333.629	117.06
333.857	109.06
334.085	97.06
334.314	97.06
334.542	97.06
334.771	84.06
334.999	95.06
335.227	94.06
335.455	88.06
335.684	93.06
335.912	86.06
336.14	99.06
336.369	93.06
336.597	97.06
336.825	92.06
337.053	88.06
337.281	103.06
337.51	91.06
337.738	81.06
337.966	94.06
338.194	92.06
338.422	105.06
338.65	86.06
338.878	83.06
339.106	86.06
339.334	80.06
339.562	85.06
339.79	100.06
340.018	86.06
340.246	85.06
340.474	102.06
340.702	70.06
340.93	102.06
341.158	81.06
341.386	91.06
341.614	97.06
341.842	85.06
342.07	97.06
342.298	97.06
342.526	81.06
342.754	84.06
342.981	88.06
343.209	85.06
343.437	104.06
343.665	93.06
343.893	99.06
344.12	85.06
344.348	91.06
344.576	103.06
344.804	92.06
345.031	84.06
345.259	89.06
345.487	106.06
345.714	94.06
345.942	92.06
346.17	95.06
346.397	97.06
346.625	87.06
346.853	82.06
347.08	98.06
347.308	99.06
347.535	88.06
347.763	98.06
347.99	98.06
348.218	94.06
348.445	96.06
348.673	97.06
348.9	90.06
349.128	107.06
349.355	113.06
349.583	90.06
349.81	101.06
350.037	94.06
350.265	97.06
350.492	108.06
350.72	100.06
350.947	105.06
351.174	93.06
351.402	94.06
351.629	95.06
351.856	107.06
352.083	95.06
352.311	100.06
352.538	113.06
352.765	121.06
352.992	115.06
353.22	99.06
353.447	105.06
353.674	101.06
353.901	70.06
354.128	96.06
354.355	89.06
354.583	122.06
354.81	107.06
355.037	96.06
355.264	102.06
355.491	87.06
355.718	95.06
355.945	89.06
356.172	94.06
356.399	90.06
356.626	117.06
356.853	106.06
357.08	97.06
357.307	89.06
357.534	96.06
357.761	87.06
357.988	97.06
358.215	98.06
358.441	81.06
358.668	80.06
358.895	90.06
359.122	95.06
359.349	83.06
359.576	89.06
359.802	97.06
360.029	89.06
360.256	108.06
360.483	110.06
360.709	75.06
360.936	105.06
361.163	86.06
361.39	101.06
361.616	89.06
361.843	81.06
362.07	99.06
362.296	94.06
362.523	83.06
362.749	97.06
362.976	81.06
363.203	90.06
363.429	82.06
363.656	87.06
363.882	79.06
364.109	89.06
364.335	82.06
364.562	96.06
364.788	89.06
365.015	82.06
365.241	90.06
365.468	93.06
365.694	98.06
365.92	93.06
366.147	85.06
366.373	86.06
366.599	87.06
366.826	93.06
367.052	93.06
367.278	91.06
367.505	94.06
367.731	79.06
367.957	92.06
368.184	98.06
368.41	108.06
368.636	111.06
368.862	112.06
369.089	98.06
369.315	93.06
369.541	88.06
369.767	84.06
369.993	98.06
370.219	88.06
370.445	83.06
370.672	96.06
370.898	97.06
371.124	86.06
371.35	92.06
371.576	95.06
371.802	81.06
372.028	83.06
372.254	84.06
372.48	100.06
372.706	84.06
372.932	87.06
373.158	74.06
373.384	94.06
373.61	95.06
373.835	92.06
374.061	89.06
374.287	93.06
374.513	85.06
374.739	90.06
374.965	83.06
375.191	89.06
375.416	94.06
375.642	91.06
375.868	110.06
376.094	86.06
376.319	95.06
376.545	88.06
376.771	87.06
376.997	91.06
377.222	81.06
377.448	96.06
377.674	82.06
377.899	86.06
378.125	97.06
378.35	98.06
378.576	82.06
378.802	92.06
379.027	96.06
379.253	81.06
379.478	90.06
379.704	74.06
379.929	93.06
380.155	101.06
380.38	98.06
380.606	97.06
380.831	97.06
381.057	87.06
381.282	98.06
381.507	95.06
381.733	82.06
381.958	88.06
382.184	92.06
382.409	102.06
382.634	93.06
382.86	97.06
383.085	91.06
383.31	93.06
383.535	112.06
383.761	105.06
383.986	106.06
384.211	96.06
384.436	89.06
384.662	106.06
384.887	100.06
385.112	91.06
385.337	98.06
385.562	89.06
385.787	102.06
386.013	113.06
386.238	93.06
386.463	104.06
386.688	100.06
386.913	103.06
387.138	96.06
387.363	110.06
387.588	87.06
387.813	107.06
388.038	113.06
388.263	108.06
388.488	107.06
388.713	104.06
388.938	101.06
389.163	96.06
389.387	102.06
389.612	96.06
389.837	102.06
390.062	108.06
390.287	90.06
390.512	92.06
390.736	93.06
390.961	68.06
391.186	92.06
391.411	100.06
391.636	87.06
391.86	96.06
392.085	95.06
392.31	84.06
392.534	77.06
392.759	85.06
392.984	78.06
393.208	85.06
393.433	93.06
393.658	94.06
393.882	83.06
394.107	94.06
394.331	103.06
394.556	86.06
394.78	87.06
395.005	92.06
395.229	80.06
395.454	92.06
395.678	77.06
395.903	81.06
396.127	91.06
396.352	78.06
396.576	82.06
396.801	98.06
397.025	78.06
397.249	89.06
397.474	97.06
397.698	74.06
397.922	81.06
398.147	92.06
398.371	84.06
398.595	86.06
398.82	91.06
399.044	83.06
399.268	94.06
399.492	98.06
399.717	92.06
399.941	78.06
400.165	98.06
400.389	80.06
400.613	84.06
400.837	96.06
401.062	84.06
401.286	93.06
401.51	104.06
401.734	90.06
401.958	95.06
402.182	115.06
402.406	145.06
402.63	119.06
402.854	98.06
403.078	94.06
403.302	80.06
403.526	90.06
403.75	86.06
403.974	88.06
404.198	87.06
404.422	78.06
404.645	85.06
404.869	83.06
405.093	102.06
405.317	89.06
405.541	92.06
405.765	101.06
405.988	94.06
406.212	157.06
406.436	193.06
406.66	125.06
406.883	102.06
407.107	96.06
407.331	86.06
407.555	90.06
407.778	95.06
408.002	98.06
408.226	82.06
408.449	74.06
408.673	92.06
408.896	91.06
409.12	94.06
409.344	84.06
409.567	87.06
409.791	89.06
410.014	93.06
410.238	105.06
410.461	99.06
410.685	92.06
410.908	98.06
411.132	102.06
411.355	84.06
411.578	91.06
411.802	82.06
412.025	85.06
412.249	94.06
412.472	98.06
412.695	68.06
412.919	89.06
413.142	85.06
413.365	93.06
413.589	88.06
413.812	107.06
414.035	97.06
414.258	93.06
414.482	79.06
414.705	84.06
414.928	102.06
415.151	101.06
415.374	99.06
415.597	79.06
415.821	97.06
416.044	94.06
416.267	76.06
416.49	93.06
416.713	94.06
416.936	73.06
417.159	104.06
417.382	94.06
417.605	90.06
417.828	90.06
418.051	81.06
418.274	96.06
418.497	81.06
418.72	89.06
418.943	93.06
419.166	109.06
419.389	92.06
419.611	68.06
419.834	92.06
420.057	86.06
420.28	77.06
420.503	103.06
420.726	96.06
420.948	75.06
421.171	95.06
421.394	87.06
421.617	88.06
421.839	87.06
422.062	82.06
422.285	84.06
422.507	86.06
422.73	103.06
422.953	97.06
423.175	99.06
423.398	108.06
423.621	84.06
423.843	87.06
424.066	91.06
424.288	94.06
424.511	85.06
424.733	95.06
424.956	81.06
425.178	107.06
425.401	100.06
425.623	98.06
425.846	87.06
426.068	97.06
426.291	84.06
426.513	94.06
426.735	91.06
426.958	102.06
427.18	103.06
427.402	123.06
427.625	158.06
427.847	113.06
428.069	84.06
428.292	94.06
428.514	81.06
428.736	89.06
428.958	78.06
429.181	87.06
429.403	85.06
429.625	81.06
429.847	91.06
430.069	92.06
430.292	95.06
430.514	82.06
430.736	75.06
430.958	86.06
431.18	87.06
431.402	80.06
431.624	73.06
431.846	83.06
432.068	80.06
432.29	81.06
432.512	87.06
432.734	89.06
432.956	96.06
433.178	107.06
433.4	100.06
433.622	92.06
433.844	98.06
434.066	99.06
434.287	79.06
434.509	84.06
434.731	97.06
434.953	84.06
435.175	91.06
435.397	94.06
435.618	98.06
435.84	94.06
436.062	117.06
436.284	107.06
436.505	107.06
436.727	84.06
436.949	93.06
437.17	75.06
437.392	100.06
437.614	110.06
437.835	97.06
438.057	116.06
438.278	95.06
438.5	103.06
438.721	112.06
438.943	114.06
439.165	89.06
439.386	96.06
439.608	90.06
439.829	82.06
440.05	117.06
440.272	141.06
440.493	81.06
440.715	96.06
440.936	83.06
441.158	92.06
441.379	75.06
441.6	95.06
441.822	86.06
442.043	95.06
442.264	105.06
442.486	99.06
442.707	98.06
442.928	101.06
443.149	126.06
443.371	130.06
443.592	100.06
443.813	100.06
444.034	104.06
444.255	99.06
444.476	81.06
444.698	78.06
444.919	88.06
445.14	130.06
445.361	121.06
445.582	117.06
445.803	150.06
446.024	139.06
446.245	125.06
446.466	95.06
446.687	95.06
446.908	99.06
447.129	91.06
447.35	82.06
447.571	83.06
447.792	73.06
448.013	84.06
448.234	106.06
448.455	106.06
448.675	114.06
448.896	112.06
449.117	106.06
449.338	101.06
449.559	123.06
449.779	116.06
450	89.06
450.221	93.06
450.442	75.06
450.662	90.06
450.883	95.06
451.104	106.06
451.324	91.06
451.545	90.06
451.766	78.06
451.986	83.06
452.207	78.06
452.428	87.06
452.648	101.06
452.869	123.06
453.089	99.06
453.31	98.06
453.53	97.06
453.751	92.06
453.971	94.06
454.192	98.06
454.412	81.06
454.633	78.06
454.853	82.06
455.073	84.06
455.294	86.06
455.514	94.06
455.734	92.06
455.955	86.06
456.175	88.06
456.395	83.06
456.616	84.06
456.836	101.06
457.056	94.06
457.276	75.06
457.497	92.06
457.717	87.06
457.937	78.06
458.157	87.06
458.377	83.06
458.598	100.06
458.818	134.06
459.038	139.06
459.258	92.06
459.478	85.06
459.698	87.06
459.918	96.06
460.138	103.06
460.358	97.06
460.578	77.06
460.798	83.06
461.018	73.06
461.238	68.06
461.458	78.06
461.678	84.06
461.898	92.06
462.118	82.06
462.338	96.06
462.558	97.06
462.777	89.06
462.997	80.06
463.217	87.06
463.437	65.06
463.657	86.06
463.876	85.06
464.096	71.06
464.316	96.06
464.536	91.06
464.755	89.06
464.975	113.06
465.195	142.06
465.414	124.06
465.634	89.06
465.854	77.06
466.073	98.06
466.293	91.06
466.512	69.06
466.732	93.06
466.951	76.06
467.171	85.06
467.391	84.06
467.61	89.06
467.829	106.06
468.049	83.06
468.268	105.06
468.488	76.06
468.707	76.06
468.927	85.06
469.146	74.06
469.365	83.06
469.585	78.06
469.804	88.06
470.023	103.06
470.243	103.06
470.462	90.06
470.681	95.06
470.901	88.06
471.12	86.06
471.339	85.06
471.558	94.06
471.777	96.06
471.997	91.06
472.216	96.06
472.435	84.06
472.654	91.06
472.873	87.06
473.092	84.06
473.311	79.06
473.53	79.06
473.749	90.06
473.968	79.06
474.187	108.06
474.406	102.06
474.625	90.06
474.844	94.06
475.063	78.06
475.282	89.06
475.501	87.06
475.72	94.06
475.939	74.06
476.158	86.06
476.377	97.06
476.596	87.06
476.814	85.06
477.033	82.06
477.252	82.06
477.471	96.06
477.69	86.06
477.908	94.06
478.127	93.06
478.346	90.06
478.564	82.06
478.783	88.06
479.002	75.06
479.22	94.06
479.439	91.06
479.658	104.06
479.876	65.06
480.095	94.06
480.313	83.06
480.532	89.06
480.751	93.06
480.969	85.06
481.188	92.06
481.406	94.06
481.624	86.06
481.843	76.06
482.061	92.06
482.28	81.06
482.498	73.06
482.717	84.06
482.935	92.06
483.153	90.06
483.372	98.06
483.59	105.06
483.808	82.06
484.027	87.06
484.245	86.06
484.463	100.06
484.681	92.06
484.9	96.06
485.118	98.06
485.336	93.06
485.554	100.06
485.772	101.06
485.99	105.06
486.209	103.06
486.427	97.06
486.645	83.06
486.863	98.06
487.081	91.06
487.299	100.06
487.517	96.06
487.735	84.06
487.953	95.06
488.171	98.06
488.389	85.06
488.607	98.06
488.825	96.06
489.043	94.06
489.261	74.06
489.479	79.06
489.696	100.06
489.914	69.06
490.132	74.06
490.35	82.06
490.568	87.06
490.786	81.06
491.003	81.06
491.221	89.06
491.439	93.06
491.657	94.06
491.874	93.06
492.092	93.06
492.31	100.06
492.527	95.06
492.745	94.06
492.963	79.06
493.18	84.06
493.398	103.06
493.615	106.06
493.833	97.06
494.05	80.06
494.268	88.06
494.485	95.06
494.703	102.06
494.92	97.06
495.138	87.06
495.355	93.06
495.573	94.06
495.79	89.06
496.008	87.06
496.225	87.06
496.442	86.06
496.66	100.06
496.877	100.06
497.094	87.06
497.312	92.06
497.529	81.06
497.746	84.06
497.963	84.06
498.181	91.06
498.398	82.06
498.615	95.06
498.832	87.06
499.049	92.06
499.267	89.06
499.484	84.06
499.701	79.06
499.918	93.06
500.135	90.06
500.352	82.06
500.569	94.06
500.786	88.06
501.003	92.06
501.22	98.06
501.437	97.06
501.654	79.06
501.871	102.06
502.088	98.06
502.305	99.06
502.522	86.06
502.739	88.06
502.956	86.06
503.172	94.06
503.389	81.06
503.606	96.06
503.823	100.06
504.04	99.06
504.256	87.06
504.473	83.06
504.69	85.06
504.907	89.06
505.123	86.06
505.34	94.06
505.557	93.06
505.773	95.06
505.99	100.06
506.207	82.06
506.423	79.06
506.64	98.06
506.856	79.06
507.073	91.06
507.289	97.06
507.506	92.06
507.722	107.06
507.939	107.06
508.155	87.06
508.372	99.06
508.588	93.06
508.805	97.06
509.021	86.06
509.238	102.06
509.454	82.06
509.67	108.06
509.887	120.06
510.103	123.06
510.319	209.06
510.536	645.06
510.752	2087.06
510.968	581.06
511.184	142.06
511.401	97.06
511.617	91.06
511.833	98.06
512.049	96.06
512.265	96.06
512.481	94.06
512.698	84.06
512.914	91.06
513.13	99.06
513.346	73.06
513.562	99.06
513.778	81.06
513.994	92.06
514.21	97.06
514.426	120.06
514.642	102.06
514.858	122.06
515.074	159.06
515.29	375.06
515.506	1198.06
515.721	454.06
515.937	143.06
516.153	98.06
516.369	98.06
516.585	82.06
