Data from Uncirc_1990_H10_HRD10591_00016.txt Node
Date: Wed Jan 03 11:53:54 EST 2024
User: Yrep
Spectrometer: HR+D1059
Trigger mode: 1
Integration Time (sec): 1.000000E-1
Scans to average: 1
Electric dark correction enabled: true
Nonlinearity correction enabled: false
Boxcar width: 0
XAxis mode: Wavelengths
Number of Pixels in Spectrum: 2048
>>>>>Begin Spectral Data<<<<<
223.165	-24.38
223.4	-24.38
223.635	-24.38
223.869	-20.38
224.104	-22.38
224.338	-18.38
224.573	-11.38
224.808	10.62
225.042	-6.38
225.277	-8.38
225.511	-6.38
225.746	-1.38
225.98	10.62
226.215	10.62
226.449	3.62
226.683	21.62
226.918	27.62
227.152	34.62
227.387	21.62
227.621	38.62
227.856	49.62
228.09	46.62
228.324	55.62
228.559	64.62
228.793	51.62
229.027	71.62
229.262	61.62
229.496	68.62
229.73	78.62
229.964	83.62
230.199	63.62
230.433	65.62
230.667	76.62
230.901	84.62
231.136	66.62
231.37	80.62
231.604	67.62
231.838	99.62
232.072	69.62
232.306	80.62
232.541	83.62
232.775	83.62
233.009	86.62
233.243	79.62
233.477	92.62
233.711	79.62
233.945	73.62
234.179	77.62
234.413	97.62
234.647	79.62
234.881	77.62
235.115	70.62
235.349	71.62
235.583	78.62
235.817	79.62
236.051	64.62
236.285	79.62
236.519	73.62
236.753	81.62
236.987	86.62
237.221	78.62
237.455	79.62
237.689	75.62
237.922	57.62
238.156	103.62
238.39	80.62
238.624	71.62
238.858	79.62
239.091	89.62
239.325	85.62
239.559	79.62
239.793	67.62
240.027	68.62
240.26	66.62
240.494	82.62
240.728	87.62
240.961	60.62
241.195	82.62
241.429	81.62
241.662	83.62
241.896	75.62
242.13	76.62
242.363	73.62
242.597	80.62
242.83	81.62
243.064	60.62
243.298	71.62
243.531	71.62
243.765	71.62
243.998	85.62
244.232	85.62
244.465	77.62
244.699	87.62
244.932	87.62
245.166	64.62
245.399	75.62
245.633	78.62
245.866	91.62
246.099	84.62
246.333	61.62
246.566	67.62
246.8	69.62
247.033	88.62
247.266	77.62
247.5	77.62
247.733	65.62
247.966	75.62
248.2	83.62
248.433	67.62
248.666	75.62
248.899	85.62
249.133	83.62
249.366	88.62
249.599	87.62
249.832	84.62
250.066	83.62
250.299	69.62
250.532	95.62
250.765	85.62
250.998	83.62
251.231	80.62
251.465	76.62
251.698	75.62
251.931	84.62
252.164	86.62
252.397	80.62
252.63	61.62
252.863	79.62
253.096	59.62
253.329	83.62
253.562	97.62
253.795	77.62
254.028	88.62
254.261	76.62
254.494	85.62
254.727	86.62
254.96	87.62
255.193	71.62
255.426	87.62
255.659	85.62
255.892	81.62
256.124	72.62
256.357	65.62
256.59	85.62
256.823	75.62
257.056	68.62
257.289	75.62
257.521	70.62
257.754	86.62
257.987	86.62
258.22	71.62
258.452	69.62
258.685	79.62
258.918	84.62
259.151	89.62
259.383	90.62
259.616	77.62
259.849	92.62
260.081	84.62
260.314	93.62
260.547	78.62
260.779	81.62
261.012	84.62
261.244	89.62
261.477	100.62
261.71	92.62
261.942	108.62
262.175	104.62
262.407	90.62
262.64	86.62
262.872	95.62
263.105	95.62
263.337	90.62
263.57	91.62
263.802	85.62
264.035	81.62
264.267	94.62
264.499	87.62
264.732	60.62
264.964	95.62
265.197	87.62
265.429	81.62
265.661	82.62
265.894	93.62
266.126	100.62
266.358	91.62
266.591	87.62
266.823	99.62
267.055	78.62
267.287	84.62
267.52	93.62
267.752	91.62
267.984	94.62
268.216	94.62
268.448	89.62
268.681	83.62
268.913	81.62
269.145	84.62
269.377	104.62
269.609	92.62
269.841	84.62
270.073	95.62
270.306	78.62
270.538	71.62
270.77	77.62
271.002	92.62
271.234	95.62
271.466	90.62
271.698	84.62
271.93	70.62
272.162	93.62
272.394	92.62
272.626	84.62
272.858	89.62
273.09	90.62
273.322	83.62
273.553	93.62
273.785	97.62
274.017	93.62
274.249	98.62
274.481	89.62
274.713	84.62
274.945	100.62
275.176	75.62
275.408	101.62
275.64	83.62
275.872	88.62
276.104	86.62
276.335	92.62
276.567	89.62
276.799	89.62
277.031	94.62
277.262	85.62
277.494	84.62
277.726	88.62
277.957	84.62
278.189	83.62
278.421	97.62
278.652	73.62
278.884	93.62
279.115	88.62
279.347	77.62
279.579	87.62
279.81	89.62
280.042	88.62
280.273	81.62
280.505	100.62
280.736	80.62
280.968	69.62
281.199	94.62
281.431	81.62
281.662	87.62
281.894	89.62
282.125	85.62
282.356	97.62
282.588	120.62
282.819	112.62
283.051	85.62
283.282	90.62
283.513	84.62
283.745	91.62
283.976	86.62
284.207	89.62
284.439	101.62
284.67	80.62
284.901	90.62
285.132	87.62
285.364	92.62
285.595	85.62
285.826	95.62
286.057	80.62
286.288	87.62
286.52	88.62
286.751	105.62
286.982	109.62
287.213	93.62
287.444	93.62
287.675	96.62
287.906	99.62
288.138	87.62
288.369	100.62
288.6	93.62
288.831	76.62
289.062	78.62
289.293	95.62
289.524	93.62
289.755	88.62
289.986	75.62
290.217	83.62
290.448	82.62
290.679	72.62
290.91	84.62
291.141	86.62
291.371	82.62
291.602	93.62
291.833	92.62
292.064	91.62
292.295	94.62
292.526	99.62
292.757	78.62
292.987	86.62
293.218	68.62
293.449	95.62
293.68	90.62
293.91	92.62
294.141	86.62
294.372	105.62
294.603	96.62
294.833	76.62
295.064	81.62
295.295	97.62
295.525	102.62
295.756	89.62
295.987	105.62
296.217	130.62
296.448	115.62
296.679	95.62
296.909	91.62
297.14	60.62
297.37	92.62
297.601	82.62
297.831	89.62
298.062	79.62
298.292	82.62
298.523	92.62
298.753	79.62
298.984	73.62
299.214	94.62
299.445	98.62
299.675	84.62
299.905	96.62
300.136	82.62
300.366	88.62
300.597	84.62
300.827	89.62
301.057	110.62
301.288	95.62
301.518	78.62
301.748	92.62
301.979	117.62
302.209	80.62
302.439	90.62
302.669	90.62
302.9	88.62
303.13	99.62
303.36	101.62
303.59	85.62
303.82	118.62
304.051	96.62
304.281	93.62
304.511	104.62
304.741	91.62
304.971	84.62
305.201	96.62
305.431	86.62
305.661	94.62
305.891	98.62
306.121	100.62
306.352	100.62
306.582	101.62
306.812	99.62
307.042	86.62
307.272	79.62
307.502	91.62
307.731	86.62
307.961	91.62
308.191	99.62
308.421	88.62
308.651	95.62
308.881	99.62
309.111	108.62
309.341	84.62
309.571	110.62
309.8	93.62
310.03	82.62
310.26	89.62
310.49	98.62
310.72	111.62
310.949	101.62
311.179	84.62
311.409	80.62
311.639	95.62
311.868	104.62
312.098	90.62
312.328	86.62
312.557	92.62
312.787	104.62
313.017	91.62
313.246	96.62
313.476	96.62
313.706	94.62
313.935	92.62
314.165	94.62
314.394	97.62
314.624	85.62
314.853	97.62
315.083	94.62
315.312	77.62
315.542	87.62
315.771	82.62
316.001	82.62
316.23	91.62
316.46	83.62
316.689	81.62
316.919	85.62
317.148	91.62
317.377	88.62
317.607	104.62
317.836	95.62
318.065	96.62
318.295	98.62
318.524	89.62
318.753	97.62
318.983	89.62
319.212	95.62
319.441	109.62
319.67	110.62
319.9	104.62
320.129	95.62
320.358	97.62
320.587	97.62
320.816	95.62
321.046	114.62
321.275	105.62
321.504	102.62
321.733	99.62
321.962	101.62
322.191	104.62
322.42	100.62
322.649	109.62
322.878	103.62
323.108	106.62
323.337	120.62
323.566	125.62
323.795	147.62
324.024	181.62
324.253	321.62
324.482	687.62
324.71	1398.62
324.939	1884.62
325.168	691.62
325.397	203.62
325.626	137.62
325.855	129.62
326.084	111.62
326.313	128.62
326.542	145.62
326.77	181.62
326.999	374.62
327.228	768.62
327.457	1449.62
327.686	1143.62
327.914	309.62
328.143	174.62
328.372	127.62
328.6	115.62
328.829	107.62
329.058	102.62
329.287	117.62
329.515	114.62
329.744	110.62
329.972	94.62
330.201	107.62
330.43	109.62
330.658	103.62
330.887	125.62
331.115	89.62
331.344	95.62
331.572	105.62
331.801	104.62
332.03	93.62
332.258	89.62
332.486	86.62
332.715	100.62
332.943	91.62
333.172	91.62
333.4	87.62
333.629	98.62
333.857	89.62
334.085	105.62
334.314	108.62
334.542	101.62
334.771	95.62
334.999	85.62
335.227	98.62
335.455	91.62
335.684	90.62
335.912	103.62
336.14	82.62
336.369	103.62
336.597	89.62
336.825	84.62
337.053	91.62
337.281	104.62
337.51	83.62
337.738	94.62
337.966	80.62
338.194	99.62
338.422	95.62
338.65	108.62
338.878	93.62
339.106	90.62
339.334	90.62
339.562	92.62
339.79	87.62
340.018	92.62
340.246	91.62
340.474	86.62
340.702	87.62
340.93	87.62
341.158	88.62
341.386	102.62
341.614	78.62
341.842	90.62
342.07	81.62
342.298	103.62
342.526	87.62
342.754	89.62
342.981	89.62
343.209	87.62
343.437	100.62
343.665	102.62
343.893	106.62
344.12	84.62
344.348	90.62
344.576	82.62
344.804	88.62
345.031	87.62
345.259	101.62
345.487	78.62
345.714	87.62
345.942	91.62
346.17	99.62
346.397	81.62
346.625	101.62
346.853	98.62
347.08	101.62
347.308	92.62
347.535	99.62
347.763	95.62
347.99	90.62
348.218	108.62
348.445	104.62
348.673	104.62
348.9	85.62
349.128	96.62
349.355	96.62
349.583	97.62
349.81	97.62
350.037	84.62
350.265	88.62
350.492	89.62
350.72	101.62
350.947	98.62
351.174	110.62
351.402	96.62
351.629	96.62
351.856	102.62
352.083	125.62
352.311	113.62
352.538	104.62
352.765	107.62
352.992	123.62
353.22	113.62
353.447	95.62
353.674	105.62
353.901	97.62
354.128	98.62
354.355	106.62
354.583	101.62
354.81	91.62
355.037	81.62
355.264	103.62
355.491	92.62
355.718	98.62
355.945	92.62
356.172	104.62
356.399	106.62
356.626	104.62
356.853	93.62
357.08	87.62
357.307	83.62
357.534	78.62
357.761	100.62
357.988	91.62
358.215	97.62
358.441	94.62
358.668	93.62
358.895	110.62
359.122	96.62
359.349	85.62
359.576	88.62
359.802	96.62
360.029	106.62
360.256	95.62
360.483	103.62
360.709	99.62
360.936	93.62
361.163	90.62
361.39	96.62
361.616	91.62
361.843	84.62
362.07	98.62
362.296	93.62
362.523	84.62
362.749	100.62
362.976	92.62
363.203	92.62
363.429	104.62
363.656	88.62
363.882	90.62
364.109	89.62
364.335	91.62
364.562	81.62
364.788	81.62
365.015	100.62
365.241	77.62
365.468	103.62
365.694	105.62
365.92	107.62
366.147	91.62
366.373	97.62
366.599	84.62
366.826	103.62
367.052	89.62
367.278	93.62
367.505	93.62
367.731	85.62
367.957	88.62
368.184	92.62
368.41	88.62
368.636	101.62
368.862	119.62
369.089	95.62
369.315	71.62
369.541	99.62
369.767	95.62
369.993	88.62
370.219	90.62
370.445	91.62
370.672	89.62
370.898	103.62
371.124	84.62
371.35	98.62
371.576	89.62
371.802	78.62
372.028	80.62
372.254	93.62
372.48	95.62
372.706	88.62
372.932	81.62
373.158	79.62
373.384	85.62
373.61	103.62
373.835	92.62
374.061	96.62
374.287	99.62
374.513	92.62
374.739	77.62
374.965	85.62
375.191	89.62
375.416	90.62
375.642	99.62
375.868	80.62
376.094	90.62
376.319	85.62
376.545	90.62
376.771	83.62
376.997	86.62
377.222	99.62
377.448	101.62
377.674	83.62
377.899	90.62
378.125	85.62
378.35	80.62
378.576	87.62
378.802	89.62
379.027	89.62
379.253	85.62
379.478	95.62
379.704	101.62
379.929	87.62
380.155	101.62
380.38	91.62
380.606	94.62
380.831	101.62
381.057	91.62
381.282	95.62
381.507	94.62
381.733	99.62
381.958	104.62
382.184	102.62
382.409	92.62
382.634	95.62
382.86	100.62
383.085	92.62
383.31	103.62
383.535	94.62
383.761	109.62
383.986	90.62
384.211	104.62
384.436	92.62
384.662	99.62
384.887	108.62
385.112	95.62
385.337	102.62
385.562	104.62
385.787	106.62
386.013	91.62
386.238	110.62
386.463	117.62
386.688	107.62
386.913	103.62
387.138	96.62
387.363	84.62
387.588	122.62
387.813	99.62
388.038	105.62
388.263	120.62
388.488	104.62
388.713	94.62
388.938	100.62
389.163	83.62
389.387	86.62
389.612	87.62
389.837	99.62
390.062	102.62
390.287	93.62
390.512	95.62
390.736	93.62
390.961	104.62
391.186	91.62
391.411	84.62
391.636	91.62
391.86	97.62
392.085	91.62
392.31	92.62
392.534	87.62
392.759	109.62
392.984	90.62
393.208	90.62
393.433	98.62
393.658	95.62
393.882	75.62
394.107	89.62
394.331	105.62
394.556	86.62
394.78	94.62
395.005	86.62
395.229	97.62
395.454	87.62
395.678	84.62
395.903	99.62
396.127	78.62
396.352	98.62
396.576	94.62
396.801	83.62
397.025	71.62
397.249	85.62
397.474	88.62
397.698	91.62
397.922	90.62
398.147	86.62
398.371	95.62
398.595	75.62
398.82	95.62
399.044	91.62
399.268	91.62
399.492	95.62
399.717	94.62
399.941	90.62
400.165	104.62
400.389	92.62
400.613	97.62
400.837	95.62
401.062	92.62
401.286	86.62
401.51	111.62
401.734	91.62
401.958	104.62
402.182	109.62
402.406	125.62
402.63	116.62
402.854	92.62
403.078	96.62
403.302	96.62
403.526	92.62
403.75	87.62
403.974	79.62
404.198	98.62
404.422	85.62
404.645	93.62
404.869	91.62
405.093	90.62
405.317	87.62
405.541	92.62
405.765	90.62
405.988	87.62
406.212	136.62
406.436	187.62
406.66	138.62
406.883	95.62
407.107	94.62
407.331	97.62
407.555	98.62
407.778	86.62
408.002	102.62
408.226	84.62
408.449	94.62
408.673	99.62
408.896	88.62
409.12	93.62
409.344	93.62
409.567	73.62
409.791	91.62
410.014	84.62
410.238	86.62
410.461	99.62
410.685	73.62
410.908	102.62
411.132	98.62
411.355	102.62
411.578	81.62
411.802	89.62
412.025	91.62
412.249	98.62
412.472	92.62
412.695	91.62
412.919	83.62
413.142	93.62
413.365	101.62
413.589	90.62
413.812	88.62
414.035	111.62
414.258	85.62
414.482	91.62
414.705	95.62
414.928	91.62
415.151	105.62
415.374	94.62
415.597	92.62
415.821	81.62
416.044	79.62
416.267	89.62
416.49	89.62
416.713	75.62
416.936	90.62
417.159	94.62
417.382	88.62
417.605	99.62
417.828	92.62
418.051	111.62
418.274	89.62
418.497	93.62
418.72	102.62
418.943	95.62
419.166	106.62
419.389	89.62
419.611	79.62
419.834	102.62
420.057	104.62
420.28	76.62
420.503	84.62
420.726	87.62
420.948	95.62
421.171	100.62
421.394	115.62
421.617	94.62
421.839	81.62
422.062	75.62
422.285	78.62
422.507	88.62
422.73	87.62
422.953	96.62
423.175	85.62
423.398	97.62
423.621	81.62
423.843	83.62
424.066	97.62
424.288	87.62
424.511	103.62
424.733	92.62
424.956	93.62
425.178	100.62
425.401	94.62
425.623	94.62
425.846	100.62
426.068	87.62
426.291	100.62
426.513	83.62
426.735	94.62
426.958	88.62
427.18	98.62
427.402	120.62
427.625	159.62
427.847	107.62
428.069	99.62
428.292	91.62
428.514	91.62
428.736	82.62
428.958	87.62
429.181	83.62
429.403	87.62
429.625	90.62
429.847	87.62
430.069	93.62
430.292	110.62
430.514	75.62
430.736	95.62
430.958	87.62
431.18	92.62
431.402	100.62
431.624	89.62
431.846	95.62
432.068	98.62
432.29	90.62
432.512	92.62
432.734	85.62
432.956	78.62
433.178	102.62
433.4	93.62
433.622	88.62
433.844	87.62
434.066	84.62
434.287	93.62
434.509	95.62
434.731	95.62
434.953	75.62
435.175	87.62
435.397	96.62
435.618	100.62
435.84	94.62
436.062	102.62
436.284	108.62
436.505	103.62
436.727	93.62
436.949	94.62
437.17	101.62
437.392	88.62
437.614	99.62
437.835	100.62
438.057	105.62
438.278	90.62
438.5	100.62
438.721	115.62
438.943	95.62
439.165	91.62
439.386	96.62
439.608	96.62
439.829	110.62
440.05	103.62
440.272	109.62
440.493	93.62
440.715	88.62
440.936	83.62
441.158	91.62
441.379	83.62
441.6	88.62
441.822	95.62
442.043	85.62
442.264	95.62
442.486	96.62
442.707	98.62
442.928	102.62
443.149	114.62
443.371	123.62
443.592	109.62
443.813	113.62
444.034	98.62
444.255	88.62
444.476	87.62
444.698	94.62
444.919	88.62
445.14	152.62
445.361	134.62
445.582	118.62
445.803	127.62
446.024	131.62
446.245	101.62
446.466	110.62
446.687	87.62
446.908	83.62
447.129	84.62
447.35	96.62
447.571	90.62
447.792	86.62
448.013	97.62
448.234	112.62
448.455	95.62
448.675	110.62
448.896	115.62
449.117	99.62
449.338	98.62
449.559	124.62
449.779	123.62
450	86.62
450.221	81.62
450.442	75.62
450.662	96.62
450.883	110.62
451.104	113.62
451.324	99.62
451.545	85.62
451.766	87.62
451.986	78.62
452.207	92.62
452.428	94.62
452.648	104.62
452.869	102.62
453.089	108.62
453.31	108.62
453.53	87.62
453.751	85.62
453.971	95.62
454.192	118.62
454.412	87.62
454.633	94.62
454.853	86.62
455.073	92.62
455.294	104.62
455.514	93.62
455.734	91.62
455.955	101.62
456.175	96.62
456.395	95.62
456.616	81.62
456.836	91.62
457.056	97.62
457.276	81.62
457.497	92.62
457.717	99.62
457.937	88.62
458.157	88.62
458.377	97.62
458.598	104.62
458.818	128.62
459.038	143.62
459.258	112.62
459.478	94.62
459.698	85.62
459.918	88.62
460.138	85.62
460.358	99.62
460.578	92.62
460.798	88.62
461.018	88.62
461.238	89.62
461.458	86.62
461.678	91.62
461.898	93.62
462.118	83.62
462.338	92.62
462.558	89.62
462.777	86.62
462.997	72.62
463.217	91.62
463.437	85.62
463.657	89.62
463.876	91.62
464.096	88.62
464.316	89.62
464.536	92.62
464.755	88.62
464.975	104.62
465.195	119.62
465.414	127.62
465.634	98.62
465.854	79.62
466.073	97.62
466.293	78.62
466.512	71.62
466.732	83.62
466.951	93.62
467.171	88.62
467.391	94.62
467.61	91.62
467.829	97.62
468.049	88.62
468.268	84.62
468.488	96.62
468.707	83.62
468.927	83.62
469.146	78.62
469.365	77.62
469.585	79.62
469.804	109.62
470.023	92.62
470.243	92.62
470.462	101.62
470.681	97.62
470.901	92.62
471.12	80.62
471.339	89.62
471.558	97.62
471.777	92.62
471.997	88.62
472.216	85.62
472.435	104.62
472.654	84.62
472.873	99.62
473.092	84.62
473.311	100.62
473.53	76.62
473.749	91.62
473.968	87.62
474.187	97.62
474.406	94.62
474.625	94.62
474.844	83.62
475.063	93.62
475.282	76.62
475.501	83.62
475.72	100.62
475.939	94.62
476.158	89.62
476.377	85.62
476.596	75.62
476.814	97.62
477.033	88.62
477.252	88.62
477.471	96.62
477.69	104.62
477.908	90.62
478.127	93.62
478.346	96.62
478.564	99.62
478.783	76.62
479.002	79.62
479.22	84.62
479.439	99.62
479.658	93.62
479.876	86.62
480.095	89.62
480.313	77.62
480.532	69.62
480.751	84.62
480.969	83.62
481.188	105.62
481.406	81.62
481.624	85.62
481.843	86.62
482.061	85.62
482.28	89.62
482.498	86.62
482.717	86.62
482.935	79.62
483.153	83.62
483.372	93.62
483.59	78.62
483.808	83.62
484.027	85.62
484.245	79.62
484.463	92.62
484.681	95.62
484.9	92.62
485.118	106.62
485.336	93.62
485.554	94.62
485.772	103.62
485.99	98.62
486.209	103.62
486.427	107.62
486.645	110.62
486.863	108.62
487.081	87.62
487.299	99.62
487.517	112.62
487.735	88.62
487.953	100.62
488.171	90.62
488.389	91.62
488.607	99.62
488.825	103.62
489.043	99.62
489.261	78.62
489.479	84.62
489.696	95.62
489.914	93.62
490.132	85.62
490.35	80.62
490.568	93.62
490.786	83.62
491.003	92.62
491.221	91.62
491.439	108.62
491.657	111.62
491.874	98.62
492.092	80.62
492.31	88.62
492.527	88.62
492.745	81.62
492.963	97.62
493.18	103.62
493.398	112.62
493.615	105.62
493.833	100.62
494.05	80.62
494.268	98.62
494.485	86.62
494.703	89.62
494.92	94.62
495.138	99.62
495.355	93.62
495.573	85.62
495.79	100.62
496.008	86.62
496.225	93.62
496.442	85.62
496.66	105.62
496.877	92.62
497.094	103.62
497.312	94.62
497.529	81.62
497.746	96.62
497.963	89.62
498.181	83.62
498.398	95.62
498.615	110.62
498.832	111.62
499.049	91.62
499.267	100.62
499.484	95.62
499.701	84.62
499.918	101.62
500.135	90.62
500.352	92.62
500.569	95.62
500.786	93.62
501.003	89.62
501.22	86.62
501.437	101.62
501.654	96.62
501.871	99.62
502.088	100.62
502.305	102.62
502.522	82.62
502.739	91.62
502.956	96.62
503.172	104.62
503.389	97.62
503.606	95.62
503.823	96.62
504.04	87.62
504.256	95.62
504.473	92.62
504.69	101.62
504.907	95.62
505.123	89.62
505.34	93.62
505.557	95.62
505.773	104.62
505.99	87.62
506.207	93.62
506.423	94.62
506.64	90.62
506.856	93.62
507.073	98.62
507.289	86.62
507.506	96.62
507.722	84.62
507.939	93.62
508.155	102.62
508.372	88.62
508.588	99.62
508.805	91.62
509.021	108.62
509.238	100.62
509.454	109.62
509.67	105.62
509.887	103.62
510.103	127.62
510.319	182.62
510.536	619.62
510.752	1900.62
510.968	537.62
511.184	135.62
511.401	102.62
511.617	92.62
511.833	84.62
512.049	87.62
512.265	97.62
512.481	87.62
512.698	96.62
512.914	86.62
513.13	81.62
513.346	99.62
513.562	89.62
513.778	91.62
513.994	101.62
514.21	103.62
514.426	119.62
514.642	116.62
514.858	116.62
515.074	137.62
515.29	356.62
515.506	1134.62
515.721	415.62
515.937	145.62
