Data from Uncirc_1990_H10_HRD10591_00022.txt Node
Date: Wed Jan 03 11:53:56 EST 2024
User: Yrep
Spectrometer: HR+D1059
Trigger mode: 1
Integration Time (sec): 1.000000E-1
Scans to average: 1
Electric dark correction enabled: true
Nonlinearity correction enabled: false
Boxcar width: 0
XAxis mode: Wavelengths
Number of Pixels in Spectrum: 2048
>>>>>Begin Spectral Data<<<<<
223.165	-15.81
223.4	-15.81
223.635	-15.81
223.869	-25.81
224.104	-19.81
224.338	-26.81
224.573	-11.81
224.808	-11.81
225.042	-7.81
225.277	-5.81
225.511	3.19
225.746	13.19
225.98	-5.81
226.215	12.19
226.449	22.19
226.683	26.19
226.918	15.19
227.152	39.19
227.387	46.19
227.621	37.19
227.856	62.19
228.09	44.19
228.324	46.19
228.559	42.19
228.793	62.19
229.027	60.19
229.262	72.19
229.496	64.19
229.73	88.19
229.964	68.19
230.199	67.19
230.433	89.19
230.667	76.19
230.901	85.19
231.136	85.19
231.37	78.19
231.604	70.19
231.838	77.19
232.072	87.19
232.306	86.19
232.541	72.19
232.775	79.19
233.009	94.19
233.243	87.19
233.477	79.19
233.711	86.19
233.945	88.19
234.179	76.19
234.413	61.19
234.647	87.19
234.881	83.19
235.115	78.19
235.349	79.19
235.583	85.19
235.817	86.19
236.051	96.19
236.285	81.19
236.519	72.19
236.753	80.19
236.987	67.19
237.221	86.19
237.455	80.19
237.689	91.19
237.922	72.19
238.156	84.19
238.39	72.19
238.624	62.19
238.858	69.19
239.091	73.19
239.325	74.19
239.559	76.19
239.793	70.19
240.027	72.19
240.26	75.19
240.494	94.19
240.728	86.19
240.961	87.19
241.195	80.19
241.429	78.19
241.662	88.19
241.896	76.19
242.13	76.19
242.363	73.19
242.597	101.19
242.83	89.19
243.064	79.19
243.298	93.19
243.531	77.19
243.765	70.19
243.998	71.19
244.232	85.19
244.465	82.19
244.699	87.19
244.932	71.19
245.166	69.19
245.399	79.19
245.633	90.19
245.866	65.19
246.099	71.19
246.333	66.19
246.566	90.19
246.8	80.19
247.033	80.19
247.266	83.19
247.5	84.19
247.733	76.19
247.966	84.19
248.2	76.19
248.433	73.19
248.666	90.19
248.899	97.19
249.133	72.19
249.366	93.19
249.599	92.19
249.832	84.19
250.066	84.19
250.299	79.19
250.532	80.19
250.765	82.19
250.998	88.19
251.231	89.19
251.465	79.19
251.698	80.19
251.931	85.19
252.164	98.19
252.397	87.19
252.63	86.19
252.863	77.19
253.096	62.19
253.329	88.19
253.562	85.19
253.795	78.19
254.028	89.19
254.261	78.19
254.494	81.19
254.727	85.19
254.96	84.19
255.193	88.19
255.426	69.19
255.659	82.19
255.892	80.19
256.124	94.19
256.357	99.19
256.59	72.19
256.823	88.19
257.056	69.19
257.289	69.19
257.521	73.19
257.754	74.19
257.987	98.19
258.22	88.19
258.452	80.19
258.685	83.19
258.918	84.19
259.151	86.19
259.383	88.19
259.616	83.19
259.849	86.19
260.081	77.19
260.314	82.19
260.547	78.19
260.779	80.19
261.012	99.19
261.244	105.19
261.477	106.19
261.71	105.19
261.942	92.19
262.175	108.19
262.407	94.19
262.64	82.19
262.872	88.19
263.105	84.19
263.337	90.19
263.57	87.19
263.802	93.19
264.035	82.19
264.267	85.19
264.499	79.19
264.732	80.19
264.964	85.19
265.197	91.19
265.429	86.19
265.661	82.19
265.894	88.19
266.126	97.19
266.358	95.19
266.591	78.19
266.823	69.19
267.055	71.19
267.287	85.19
267.52	92.19
267.752	86.19
267.984	84.19
268.216	70.19
268.448	84.19
268.681	84.19
268.913	88.19
269.145	97.19
269.377	104.19
269.609	85.19
269.841	85.19
270.073	82.19
270.306	87.19
270.538	81.19
270.77	73.19
271.002	84.19
271.234	74.19
271.466	94.19
271.698	94.19
271.93	93.19
272.162	81.19
272.394	80.19
272.626	92.19
272.858	82.19
273.09	89.19
273.322	91.19
273.553	86.19
273.785	91.19
274.017	73.19
274.249	90.19
274.481	85.19
274.713	89.19
274.945	93.19
275.176	96.19
275.408	88.19
275.64	87.19
275.872	78.19
276.104	84.19
276.335	94.19
276.567	88.19
276.799	116.19
277.031	95.19
277.262	90.19
277.494	82.19
277.726	78.19
277.957	84.19
278.189	85.19
278.421	74.19
278.652	76.19
278.884	80.19
279.115	59.19
279.347	94.19
279.579	79.19
279.81	88.19
280.042	77.19
280.273	76.19
280.505	78.19
280.736	74.19
280.968	83.19
281.199	80.19
281.431	87.19
281.662	107.19
281.894	95.19
282.125	95.19
282.356	120.19
282.588	127.19
282.819	113.19
283.051	87.19
283.282	93.19
283.513	88.19
283.745	84.19
283.976	85.19
284.207	88.19
284.439	83.19
284.67	94.19
284.901	104.19
285.132	88.19
285.364	107.19
285.595	89.19
285.826	83.19
286.057	97.19
286.288	90.19
286.52	101.19
286.751	94.19
286.982	82.19
287.213	97.19
287.444	85.19
287.675	93.19
287.906	92.19
288.138	87.19
288.369	92.19
288.6	84.19
288.831	79.19
289.062	86.19
289.293	85.19
289.524	70.19
289.755	73.19
289.986	82.19
290.217	92.19
290.448	80.19
290.679	86.19
290.91	95.19
291.141	85.19
291.371	96.19
291.602	85.19
291.833	84.19
292.064	92.19
292.295	86.19
292.526	90.19
292.757	85.19
292.987	93.19
293.218	104.19
293.449	81.19
293.68	86.19
293.91	83.19
294.141	80.19
294.372	78.19
294.603	72.19
294.833	96.19
295.064	91.19
295.295	89.19
295.525	91.19
295.756	105.19
295.987	105.19
296.217	121.19
296.448	113.19
296.679	98.19
296.909	100.19
297.14	78.19
297.37	77.19
297.601	86.19
297.831	86.19
298.062	93.19
298.292	92.19
298.523	97.19
298.753	81.19
298.984	92.19
299.214	79.19
299.445	79.19
299.675	100.19
299.905	87.19
300.136	96.19
300.366	87.19
300.597	88.19
300.827	94.19
301.057	101.19
301.288	103.19
301.518	87.19
301.748	89.19
301.979	103.19
302.209	83.19
302.439	100.19
302.669	81.19
302.9	88.19
303.13	100.19
303.36	98.19
303.59	88.19
303.82	104.19
304.051	98.19
304.281	97.19
304.511	89.19
304.741	100.19
304.971	84.19
305.201	89.19
305.431	90.19
305.661	85.19
305.891	80.19
306.121	100.19
306.352	107.19
306.582	106.19
306.812	93.19
307.042	88.19
307.272	81.19
307.502	90.19
307.731	102.19
307.961	91.19
308.191	93.19
308.421	98.19
308.651	91.19
308.881	99.19
309.111	103.19
309.341	97.19
309.571	93.19
309.8	94.19
310.03	90.19
310.26	95.19
310.49	93.19
310.72	106.19
310.949	93.19
311.179	101.19
311.409	104.19
311.639	95.19
311.868	94.19
312.098	93.19
312.328	84.19
312.557	86.19
312.787	108.19
313.017	102.19
313.246	100.19
313.476	99.19
313.706	95.19
313.935	85.19
314.165	90.19
314.394	101.19
314.624	113.19
314.853	99.19
315.083	98.19
315.312	92.19
315.542	104.19
315.771	85.19
316.001	108.19
316.23	95.19
316.46	99.19
316.689	88.19
316.919	94.19
317.148	98.19
317.377	103.19
317.607	101.19
317.836	96.19
318.065	88.19
318.295	98.19
318.524	88.19
318.753	91.19
318.983	94.19
319.212	104.19
319.441	118.19
319.67	112.19
319.9	100.19
320.129	101.19
320.358	93.19
320.587	91.19
320.816	97.19
321.046	99.19
321.275	106.19
321.504	95.19
321.733	98.19
321.962	99.19
322.191	99.19
322.42	107.19
322.649	102.19
322.878	106.19
323.108	120.19
323.337	118.19
323.566	121.19
323.795	155.19
324.024	182.19
324.253	352.19
324.482	739.19
324.71	1500.19
324.939	2063.19
325.168	734.19
325.397	228.19
325.626	139.19
325.855	119.19
326.084	132.19
326.313	138.19
326.542	140.19
326.77	207.19
326.999	434.19
327.228	857.19
327.457	1550.19
327.686	1273.19
327.914	339.19
328.143	184.19
328.372	134.19
328.6	113.19
328.829	93.19
329.058	130.19
329.287	130.19
329.515	125.19
329.744	92.19
329.972	101.19
330.201	106.19
330.43	114.19
330.658	118.19
330.887	131.19
331.115	111.19
331.344	105.19
331.572	99.19
331.801	96.19
332.03	103.19
332.258	94.19
332.486	87.19
332.715	76.19
332.943	97.19
333.172	123.19
333.4	88.19
333.629	101.19
333.857	113.19
334.085	109.19
334.314	97.19
334.542	89.19
334.771	96.19
334.999	103.19
335.227	84.19
335.455	92.19
335.684	106.19
335.912	89.19
336.14	81.19
336.369	99.19
336.597	87.19
336.825	96.19
337.053	84.19
337.281	86.19
337.51	88.19
337.738	103.19
337.966	85.19
338.194	96.19
338.422	95.19
338.65	88.19
338.878	94.19
339.106	88.19
339.334	93.19
339.562	74.19
339.79	81.19
340.018	84.19
340.246	82.19
340.474	93.19
340.702	85.19
340.93	86.19
341.158	92.19
341.386	93.19
341.614	87.19
341.842	92.19
342.07	95.19
342.298	106.19
342.526	103.19
342.754	82.19
342.981	100.19
343.209	81.19
343.437	107.19
343.665	96.19
343.893	102.19
344.12	108.19
344.348	94.19
344.576	101.19
344.804	105.19
345.031	100.19
345.259	97.19
345.487	104.19
345.714	95.19
345.942	99.19
346.17	92.19
346.397	100.19
346.625	86.19
346.853	80.19
347.08	85.19
347.308	94.19
347.535	89.19
347.763	98.19
347.99	100.19
348.218	104.19
348.445	99.19
348.673	103.19
348.9	113.19
349.128	100.19
349.355	87.19
349.583	96.19
349.81	93.19
350.037	87.19
350.265	87.19
350.492	93.19
350.72	98.19
350.947	108.19
351.174	115.19
351.402	105.19
351.629	102.19
351.856	108.19
352.083	111.19
352.311	105.19
352.538	113.19
352.765	110.19
352.992	115.19
353.22	117.19
353.447	101.19
353.674	99.19
353.901	94.19
354.128	96.19
354.355	92.19
354.583	98.19
354.81	112.19
355.037	91.19
355.264	105.19
355.491	88.19
355.718	92.19
355.945	89.19
356.172	95.19
356.399	99.19
356.626	95.19
356.853	90.19
357.08	96.19
357.307	75.19
357.534	101.19
357.761	86.19
357.988	94.19
358.215	89.19
358.441	85.19
358.668	106.19
358.895	114.19
359.122	93.19
359.349	90.19
359.576	86.19
359.802	100.19
360.029	92.19
360.256	102.19
360.483	105.19
360.709	79.19
360.936	102.19
361.163	105.19
361.39	103.19
361.616	91.19
361.843	96.19
362.07	102.19
362.296	102.19
362.523	82.19
362.749	98.19
362.976	85.19
363.203	85.19
363.429	90.19
363.656	89.19
363.882	102.19
364.109	102.19
364.335	101.19
364.562	92.19
364.788	88.19
365.015	78.19
365.241	84.19
365.468	102.19
365.694	108.19
365.92	97.19
366.147	80.19
366.373	94.19
366.599	88.19
366.826	112.19
367.052	95.19
367.278	98.19
367.505	93.19
367.731	84.19
367.957	89.19
368.184	91.19
368.41	99.19
368.636	106.19
368.862	115.19
369.089	114.19
369.315	101.19
369.541	87.19
369.767	106.19
369.993	88.19
370.219	89.19
370.445	92.19
370.672	82.19
370.898	92.19
371.124	118.19
371.35	96.19
371.576	90.19
371.802	97.19
372.028	89.19
372.254	96.19
372.48	89.19
372.706	86.19
372.932	82.19
373.158	87.19
373.384	93.19
373.61	96.19
373.835	80.19
374.061	101.19
374.287	96.19
374.513	103.19
374.739	80.19
374.965	97.19
375.191	90.19
375.416	82.19
375.642	82.19
375.868	95.19
376.094	100.19
376.319	93.19
376.545	92.19
376.771	99.19
376.997	85.19
377.222	92.19
377.448	89.19
377.674	95.19
377.899	91.19
378.125	81.19
378.35	91.19
378.576	92.19
378.802	96.19
379.027	99.19
379.253	87.19
379.478	93.19
379.704	98.19
379.929	103.19
380.155	91.19
380.38	97.19
380.606	82.19
380.831	91.19
381.057	88.19
381.282	94.19
381.507	96.19
381.733	92.19
381.958	106.19
382.184	101.19
382.409	98.19
382.634	103.19
382.86	88.19
383.085	83.19
383.31	87.19
383.535	104.19
383.761	100.19
383.986	104.19
384.211	112.19
384.436	105.19
384.662	103.19
384.887	95.19
385.112	104.19
385.337	93.19
385.562	100.19
385.787	95.19
386.013	104.19
386.238	105.19
386.463	112.19
386.688	108.19
386.913	100.19
387.138	100.19
387.363	105.19
387.588	97.19
387.813	101.19
388.038	87.19
388.263	116.19
388.488	100.19
388.713	108.19
388.938	85.19
389.163	113.19
389.387	92.19
389.612	93.19
389.837	95.19
390.062	92.19
390.287	100.19
390.512	87.19
390.736	97.19
390.961	90.19
391.186	87.19
391.411	84.19
391.636	93.19
391.86	85.19
392.085	80.19
392.31	101.19
392.534	81.19
392.759	94.19
392.984	102.19
393.208	94.19
393.433	98.19
393.658	84.19
393.882	84.19
394.107	94.19
394.331	73.19
394.556	89.19
394.78	79.19
395.005	101.19
395.229	82.19
395.454	86.19
395.678	87.19
395.903	91.19
396.127	88.19
396.352	96.19
396.576	82.19
396.801	91.19
397.025	92.19
397.249	91.19
397.474	98.19
397.698	89.19
397.922	98.19
398.147	89.19
398.371	78.19
398.595	90.19
398.82	76.19
399.044	92.19
399.268	80.19
399.492	73.19
399.717	90.19
399.941	101.19
400.165	89.19
400.389	82.19
400.613	93.19
400.837	87.19
401.062	92.19
401.286	90.19
401.51	85.19
401.734	82.19
401.958	96.19
402.182	111.19
402.406	137.19
402.63	110.19
402.854	82.19
403.078	91.19
403.302	83.19
403.526	96.19
403.75	94.19
403.974	106.19
404.198	98.19
404.422	79.19
404.645	86.19
404.869	92.19
405.093	96.19
405.317	92.19
405.541	102.19
405.765	93.19
405.988	106.19
406.212	158.19
406.436	201.19
406.66	130.19
406.883	97.19
407.107	105.19
407.331	97.19
407.555	104.19
407.778	96.19
408.002	97.19
408.226	104.19
408.449	86.19
408.673	89.19
408.896	98.19
409.12	107.19
409.344	79.19
409.567	92.19
409.791	93.19
410.014	96.19
410.238	111.19
410.461	104.19
410.685	104.19
410.908	97.19
411.132	99.19
411.355	103.19
411.578	93.19
411.802	88.19
412.025	81.19
412.249	92.19
412.472	81.19
412.695	91.19
412.919	88.19
413.142	82.19
413.365	73.19
413.589	78.19
413.812	80.19
414.035	97.19
414.258	91.19
414.482	99.19
414.705	88.19
414.928	86.19
415.151	97.19
415.374	96.19
415.597	88.19
415.821	104.19
416.044	103.19
416.267	102.19
416.49	82.19
416.713	96.19
416.936	96.19
417.159	98.19
417.382	97.19
417.605	99.19
417.828	95.19
418.051	95.19
418.274	99.19
418.497	93.19
418.72	81.19
418.943	86.19
419.166	80.19
419.389	96.19
419.611	77.19
419.834	84.19
420.057	91.19
420.28	89.19
420.503	69.19
420.726	99.19
420.948	87.19
421.171	90.19
421.394	79.19
421.617	102.19
421.839	82.19
422.062	85.19
422.285	97.19
422.507	89.19
422.73	110.19
422.953	105.19
423.175	93.19
423.398	83.19
423.621	90.19
423.843	96.19
424.066	94.19
424.288	98.19
424.511	84.19
424.733	86.19
424.956	101.19
425.178	101.19
425.401	107.19
425.623	98.19
425.846	85.19
426.068	86.19
426.291	90.19
426.513	92.19
426.735	82.19
426.958	98.19
427.18	92.19
427.402	132.19
427.625	156.19
427.847	119.19
428.069	92.19
428.292	94.19
428.514	100.19
428.736	101.19
428.958	81.19
429.181	82.19
429.403	71.19
429.625	74.19
429.847	85.19
430.069	110.19
430.292	92.19
430.514	94.19
430.736	98.19
430.958	93.19
431.18	96.19
431.402	81.19
431.624	88.19
431.846	86.19
432.068	97.19
432.29	88.19
432.512	102.19
432.734	95.19
432.956	78.19
433.178	90.19
433.4	89.19
433.622	91.19
433.844	73.19
434.066	85.19
434.287	99.19
434.509	91.19
434.731	80.19
434.953	93.19
435.175	96.19
435.397	96.19
435.618	97.19
435.84	108.19
436.062	123.19
436.284	104.19
436.505	100.19
436.727	82.19
436.949	90.19
437.17	98.19
437.392	96.19
437.614	92.19
437.835	96.19
438.057	107.19
438.278	105.19
438.5	112.19
438.721	114.19
438.943	100.19
439.165	90.19
439.386	72.19
439.608	106.19
439.829	89.19
440.05	113.19
440.272	128.19
440.493	112.19
440.715	89.19
440.936	84.19
441.158	82.19
441.379	96.19
441.6	97.19
441.822	94.19
442.043	85.19
442.264	94.19
442.486	91.19
442.707	88.19
442.928	90.19
443.149	128.19
443.371	131.19
443.592	97.19
443.813	120.19
444.034	101.19
444.255	94.19
444.476	80.19
444.698	93.19
444.919	98.19
445.14	123.19
445.361	119.19
445.582	112.19
445.803	120.19
446.024	124.19
446.245	121.19
446.466	110.19
446.687	80.19
446.908	92.19
447.129	96.19
447.35	72.19
447.571	102.19
447.792	101.19
448.013	96.19
448.234	92.19
448.455	101.19
448.675	114.19
448.896	137.19
449.117	101.19
449.338	110.19
449.559	123.19
449.779	141.19
450	105.19
450.221	87.19
450.442	83.19
450.662	81.19
450.883	93.19
451.104	111.19
451.324	97.19
451.545	86.19
451.766	88.19
451.986	100.19
452.207	85.19
452.428	87.19
452.648	93.19
452.869	96.19
453.089	109.19
453.31	115.19
453.53	88.19
453.751	94.19
453.971	104.19
454.192	105.19
454.412	71.19
454.633	89.19
454.853	87.19
455.073	88.19
455.294	90.19
455.514	101.19
455.734	80.19
455.955	100.19
456.175	77.19
456.395	87.19
456.616	88.19
456.836	72.19
457.056	70.19
457.276	93.19
457.497	88.19
457.717	84.19
457.937	89.19
458.157	92.19
458.377	89.19
458.598	103.19
458.818	141.19
459.038	138.19
459.258	106.19
459.478	99.19
459.698	69.19
459.918	76.19
460.138	92.19
460.358	85.19
460.578	80.19
460.798	84.19
461.018	86.19
461.238	95.19
461.458	84.19
461.678	85.19
461.898	90.19
462.118	86.19
462.338	85.19
462.558	100.19
462.777	93.19
462.997	97.19
463.217	85.19
463.437	93.19
463.657	78.19
463.876	88.19
464.096	96.19
464.316	95.19
464.536	93.19
464.755	92.19
464.975	96.19
465.195	140.19
465.414	148.19
465.634	93.19
465.854	95.19
466.073	96.19
466.293	100.19
466.512	98.19
466.732	95.19
466.951	97.19
467.171	87.19
467.391	97.19
467.61	90.19
467.829	103.19
468.049	102.19
468.268	95.19
468.488	94.19
468.707	78.19
468.927	87.19
469.146	99.19
469.365	85.19
469.585	96.19
469.804	105.19
470.023	94.19
470.243	97.19
470.462	112.19
470.681	114.19
470.901	102.19
471.12	85.19
471.339	96.19
471.558	78.19
471.777	77.19
471.997	88.19
472.216	89.19
472.435	95.19
472.654	107.19
472.873	88.19
473.092	82.19
473.311	94.19
473.53	83.19
473.749	92.19
473.968	99.19
474.187	100.19
474.406	80.19
474.625	86.19
474.844	93.19
475.063	80.19
475.282	82.19
475.501	77.19
475.72	81.19
475.939	96.19
476.158	95.19
476.377	89.19
476.596	92.19
476.814	94.19
477.033	85.19
477.252	94.19
477.471	82.19
477.69	90.19
477.908	72.19
478.127	101.19
478.346	89.19
478.564	97.19
478.783	90.19
479.002	99.19
479.22	106.19
479.439	110.19
479.658	91.19
479.876	95.19
480.095	91.19
480.313	93.19
480.532	91.19
480.751	96.19
480.969	86.19
481.188	108.19
481.406	101.19
481.624	83.19
481.843	93.19
482.061	96.19
482.28	76.19
482.498	84.19
482.717	92.19
482.935	74.19
483.153	78.19
483.372	83.19
483.59	88.19
483.808	88.19
484.027	85.19
484.245	92.19
484.463	81.19
484.681	95.19
484.9	83.19
485.118	90.19
485.336	84.19
485.554	98.19
485.772	92.19
485.99	97.19
486.209	107.19
486.427	97.19
486.645	105.19
486.863	113.19
487.081	102.19
487.299	113.19
487.517	91.19
487.735	93.19
487.953	99.19
488.171	100.19
488.389	93.19
488.607	103.19
488.825	80.19
489.043	76.19
489.261	93.19
489.479	100.19
489.696	90.19
489.914	83.19
490.132	95.19
490.35	85.19
490.568	88.19
490.786	98.19
491.003	96.19
491.221	84.19
491.439	96.19
491.657	89.19
491.874	100.19
492.092	92.19
492.31	94.19
492.527	83.19
492.745	104.19
492.963	84.19
493.18	95.19
493.398	95.19
493.615	81.19
493.833	99.19
494.05	98.19
494.268	66.19
494.485	77.19
494.703	93.19
494.92	88.19
495.138	86.19
495.355	95.19
495.573	83.19
495.79	84.19
496.008	97.19
496.225	94.19
496.442	92.19
496.66	97.19
496.877	80.19
497.094	92.19
497.312	85.19
497.529	85.19
497.746	95.19
497.963	91.19
498.181	91.19
498.398	106.19
498.615	108.19
498.832	109.19
499.049	93.19
499.267	98.19
499.484	88.19
499.701	105.19
499.918	92.19
500.135	90.19
500.352	74.19
500.569	91.19
500.786	100.19
501.003	92.19
501.22	92.19
501.437	92.19
501.654	109.19
501.871	96.19
502.088	86.19
502.305	86.19
502.522	101.19
502.739	98.19
502.956	82.19
503.172	84.19
503.389	96.19
503.606	89.19
503.823	95.19
504.04	101.19
504.256	97.19
504.473	94.19
504.69	103.19
504.907	93.19
505.123	94.19
505.34	93.19
505.557	88.19
505.773	80.19
505.99	94.19
506.207	95.19
506.423	102.19
506.64	102.19
506.856	99.19
507.073	92.19
507.289	82.19
507.506	99.19
507.722	104.19
507.939	95.19
508.155	100.19
508.372	105.19
508.588	99.19
508.805	96.19
509.021	97.19
509.238	102.19
509.454	101.19
509.67	71.19
509.887	120.19
510.103	122.19
510.319	205.19
510.536	666.19
510.752	2134.19
510.968	588.19
511.184	152.19
511.401	88.19
511.617	85.19
511.833	96.19
512.049	110.19
512.265	83.19
512.481	88.19
512.698	102.19
512.914	96.19
513.13	89.19
513.346	92.19
513.562	103.19
513.778	103.19
513.994	108.19
514.21	105.19
514.426	124.19
514.642	125.19
514.858	122.19
515.074	158.19
515.29	389.19
515.506	1221.19
