Data from Uncirc_1990_H10_HRD10591_00001.txt Node
Date: Wed Jan 03 11:53:51 EST 2024
User: Yrep
Spectrometer: HR+D1059
Trigger mode: 1
Integration Time (sec): 1.000000E-1
Scans to average: 1
Electric dark correction enabled: true
Nonlinearity correction enabled: false
Boxcar width: 0
XAxis mode: Wavelengths
Number of Pixels in Spectrum: 2048
>>>>>Begin Spectral Data<<<<<
223.165	-29.25
223.4	-29.25
223.635	-29.25
223.869	-16.25
224.104	-18.25
224.338	-8.25
224.573	-13.25
224.808	-3.25
225.042	-5.25
225.277	-6.25
225.511	-4.25
225.746	4.75
225.98	2.75
226.215	7.75
226.449	19.75
226.683	23.75
226.918	18.75
227.152	26.75
227.387	37.75
227.621	40.75
227.856	52.75
228.09	36.75
228.324	54.75
228.559	60.75
228.793	54.75
229.027	58.75
229.262	65.75
229.496	63.75
229.73	77.75
229.964	72.75
230.199	79.75
230.433	65.75
230.667	82.75
230.901	80.75
231.136	98.75
231.37	90.75
231.604	70.75
231.838	80.75
232.072	78.75
232.306	82.75
232.541	80.75
232.775	88.75
233.009	76.75
233.243	77.75
233.477	85.75
233.711	89.75
233.945	81.75
234.179	73.75
234.413	77.75
234.647	71.75
234.881	87.75
235.115	72.75
235.349	88.75
235.583	84.75
235.817	92.75
236.051	64.75
236.285	78.75
236.519	77.75
236.753	77.75
236.987	89.75
237.221	93.75
237.455	77.75
237.689	86.75
237.922	79.75
238.156	82.75
238.39	77.75
238.624	75.75
238.858	79.75
239.091	72.75
239.325	76.75
239.559	97.75
239.793	84.75
240.027	76.75
240.26	86.75
240.494	70.75
240.728	74.75
240.961	86.75
241.195	71.75
241.429	74.75
241.662	77.75
241.896	72.75
242.13	78.75
242.363	66.75
242.597	80.75
242.83	87.75
243.064	72.75
243.298	69.75
243.531	84.75
243.765	80.75
243.998	69.75
244.232	87.75
244.465	101.75
244.699	95.75
244.932	78.75
245.166	76.75
245.399	88.75
245.633	59.75
245.866	92.75
246.099	68.75
246.333	87.75
246.566	88.75
246.8	77.75
247.033	82.75
247.266	86.75
247.5	80.75
247.733	88.75
247.966	72.75
248.2	84.75
248.433	76.75
248.666	79.75
248.899	69.75
249.133	80.75
249.366	103.75
249.599	89.75
249.832	97.75
250.066	86.75
250.299	73.75
250.532	83.75
250.765	82.75
250.998	65.75
251.231	80.75
251.465	80.75
251.698	69.75
251.931	92.75
252.164	83.75
252.397	65.75
252.63	81.75
252.863	84.75
253.096	78.75
253.329	80.75
253.562	78.75
253.795	77.75
254.028	90.75
254.261	90.75
254.494	89.75
254.727	102.75
254.96	87.75
255.193	57.75
255.426	76.75
255.659	82.75
255.892	93.75
256.124	82.75
256.357	68.75
256.59	92.75
256.823	82.75
257.056	78.75
257.289	80.75
257.521	78.75
257.754	85.75
257.987	87.75
258.22	85.75
258.452	75.75
258.685	94.75
258.918	84.75
259.151	98.75
259.383	84.75
259.616	88.75
259.849	78.75
260.081	73.75
260.314	70.75
260.547	81.75
260.779	87.75
261.012	74.75
261.244	75.75
261.477	76.75
261.71	86.75
261.942	85.75
262.175	88.75
262.407	89.75
262.64	95.75
262.872	88.75
263.105	88.75
263.337	93.75
263.57	91.75
263.802	97.75
264.035	73.75
264.267	88.75
264.499	88.75
264.732	88.75
264.964	88.75
265.197	93.75
265.429	86.75
265.661	88.75
265.894	80.75
266.126	84.75
266.358	76.75
266.591	97.75
266.823	101.75
267.055	70.75
267.287	76.75
267.52	94.75
267.752	100.75
267.984	68.75
268.216	89.75
268.448	89.75
268.681	92.75
268.913	75.75
269.145	79.75
269.377	72.75
269.609	82.75
269.841	84.75
270.073	71.75
270.306	86.75
270.538	90.75
270.77	80.75
271.002	81.75
271.234	83.75
271.466	89.75
271.698	84.75
271.93	83.75
272.162	92.75
272.394	81.75
272.626	92.75
272.858	89.75
273.09	80.75
273.322	73.75
273.553	76.75
273.785	79.75
274.017	83.75
274.249	93.75
274.481	83.75
274.713	90.75
274.945	95.75
275.176	89.75
275.408	92.75
275.64	81.75
275.872	80.75
276.104	86.75
276.335	83.75
276.567	94.75
276.799	96.75
277.031	94.75
277.262	84.75
277.494	101.75
277.726	82.75
277.957	82.75
278.189	89.75
278.421	77.75
278.652	76.75
278.884	87.75
279.115	86.75
279.347	94.75
279.579	88.75
279.81	83.75
280.042	78.75
280.273	103.75
280.505	88.75
280.736	86.75
280.968	81.75
281.199	89.75
281.431	86.75
281.662	82.75
281.894	100.75
282.125	104.75
282.356	81.75
282.588	123.75
282.819	128.75
283.051	95.75
283.282	81.75
283.513	89.75
283.745	95.75
283.976	87.75
284.207	86.75
284.439	96.75
284.67	79.75
284.901	69.75
285.132	90.75
285.364	78.75
285.595	90.75
285.826	93.75
286.057	100.75
286.288	83.75
286.52	90.75
286.751	98.75
286.982	80.75
287.213	97.75
287.444	89.75
287.675	80.75
287.906	88.75
288.138	84.75
288.369	90.75
288.6	103.75
288.831	104.75
289.062	70.75
289.293	80.75
289.524	86.75
289.755	97.75
289.986	76.75
290.217	90.75
290.448	90.75
290.679	98.75
290.91	88.75
291.141	92.75
291.371	86.75
291.602	92.75
291.833	78.75
292.064	78.75
292.295	85.75
292.526	84.75
292.757	85.75
292.987	105.75
293.218	96.75
293.449	92.75
293.68	94.75
293.91	94.75
294.141	90.75
294.372	94.75
294.603	89.75
294.833	90.75
295.064	104.75
295.295	95.75
295.525	94.75
295.756	99.75
295.987	104.75
296.217	105.75
296.448	108.75
296.679	100.75
296.909	78.75
297.14	101.75
297.37	94.75
297.601	88.75
297.831	77.75
298.062	84.75
298.292	82.75
298.523	83.75
298.753	106.75
298.984	81.75
299.214	98.75
299.445	93.75
299.675	96.75
299.905	102.75
300.136	83.75
300.366	84.75
300.597	72.75
300.827	90.75
301.057	96.75
301.288	105.75
301.518	100.75
301.748	92.75
301.979	116.75
302.209	74.75
302.439	91.75
302.669	97.75
302.9	104.75
303.13	84.75
303.36	101.75
303.59	105.75
303.82	95.75
304.051	102.75
304.281	81.75
304.511	88.75
304.741	96.75
304.971	85.75
305.201	97.75
305.431	98.75
305.661	96.75
305.891	94.75
306.121	100.75
306.352	86.75
306.582	95.75
306.812	89.75
307.042	90.75
307.272	86.75
307.502	84.75
307.731	71.75
307.961	93.75
308.191	108.75
308.421	101.75
308.651	93.75
308.881	85.75
309.111	107.75
309.341	101.75
309.571	94.75
309.8	92.75
310.03	92.75
310.26	91.75
310.49	102.75
310.72	90.75
310.949	96.75
311.179	95.75
311.409	91.75
311.639	93.75
311.868	99.75
312.098	96.75
312.328	101.75
312.557	106.75
312.787	90.75
313.017	105.75
313.246	101.75
313.476	86.75
313.706	102.75
313.935	112.75
314.165	101.75
314.394	86.75
314.624	84.75
314.853	100.75
315.083	105.75
315.312	94.75
315.542	93.75
315.771	96.75
316.001	85.75
316.23	90.75
316.46	93.75
316.689	81.75
316.919	89.75
317.148	90.75
317.377	98.75
317.607	112.75
317.836	93.75
318.065	81.75
318.295	101.75
318.524	82.75
318.753	104.75
318.983	98.75
319.212	100.75
319.441	99.75
319.67	106.75
319.9	89.75
320.129	94.75
320.358	101.75
320.587	95.75
320.816	106.75
321.046	101.75
321.275	102.75
321.504	94.75
321.733	96.75
321.962	102.75
322.191	103.75
322.42	112.75
322.649	121.75
322.878	105.75
323.108	106.75
323.337	113.75
323.566	131.75
323.795	136.75
324.024	183.75
324.253	328.75
324.482	649.75
324.71	1265.75
324.939	1650.75
325.168	636.75
325.397	197.75
325.626	144.75
325.855	125.75
326.084	119.75
326.313	124.75
326.542	130.75
326.77	188.75
326.999	360.75
327.228	755.75
327.457	1306.75
327.686	1049.75
327.914	294.75
328.143	149.75
328.372	132.75
328.6	126.75
328.829	100.75
329.058	115.75
329.287	122.75
329.515	88.75
329.744	84.75
329.972	111.75
330.201	94.75
330.43	99.75
330.658	116.75
330.887	108.75
331.115	114.75
331.344	91.75
331.572	99.75
331.801	112.75
332.03	118.75
332.258	100.75
332.486	100.75
332.715	109.75
332.943	95.75
333.172	105.75
333.4	94.75
333.629	112.75
333.857	97.75
334.085	104.75
334.314	88.75
334.542	88.75
334.771	100.75
334.999	88.75
335.227	88.75
335.455	106.75
335.684	104.75
335.912	102.75
336.14	94.75
336.369	95.75
336.597	101.75
336.825	95.75
337.053	99.75
337.281	103.75
337.51	104.75
337.738	87.75
337.966	85.75
338.194	88.75
338.422	103.75
338.65	99.75
338.878	94.75
339.106	92.75
339.334	84.75
339.562	84.75
339.79	101.75
340.018	82.75
340.246	112.75
340.474	90.75
340.702	76.75
340.93	92.75
341.158	96.75
341.386	97.75
341.614	81.75
341.842	93.75
342.07	80.75
342.298	103.75
342.526	87.75
342.754	92.75
342.981	90.75
343.209	92.75
343.437	89.75
343.665	98.75
343.893	86.75
344.12	92.75
344.348	90.75
344.576	92.75
344.804	92.75
345.031	93.75
345.259	83.75
345.487	84.75
345.714	92.75
345.942	101.75
346.17	89.75
346.397	92.75
346.625	106.75
346.853	81.75
347.08	84.75
347.308	97.75
347.535	100.75
347.763	105.75
347.99	98.75
348.218	102.75
348.445	105.75
348.673	86.75
348.9	94.75
349.128	89.75
349.355	87.75
349.583	84.75
349.81	83.75
350.037	103.75
350.265	99.75
350.492	84.75
350.72	88.75
350.947	111.75
351.174	104.75
351.402	99.75
351.629	104.75
351.856	90.75
352.083	102.75
352.311	104.75
352.538	101.75
352.765	110.75
352.992	111.75
353.22	108.75
353.447	97.75
353.674	97.75
353.901	95.75
354.128	90.75
354.355	100.75
354.583	98.75
354.81	105.75
355.037	98.75
355.264	101.75
355.491	105.75
355.718	95.75
355.945	102.75
356.172	102.75
356.399	109.75
356.626	102.75
356.853	108.75
357.08	92.75
357.307	99.75
357.534	90.75
357.761	97.75
357.988	105.75
358.215	93.75
358.441	93.75
358.668	81.75
358.895	98.75
359.122	113.75
359.349	85.75
359.576	109.75
359.802	99.75
360.029	78.75
360.256	98.75
360.483	94.75
360.709	98.75
360.936	95.75
361.163	92.75
361.39	85.75
361.616	90.75
361.843	81.75
362.07	88.75
362.296	94.75
362.523	85.75
362.749	83.75
362.976	103.75
363.203	104.75
363.429	93.75
363.656	87.75
363.882	103.75
364.109	98.75
364.335	88.75
364.562	101.75
364.788	107.75
365.015	79.75
365.241	96.75
365.468	92.75
365.694	107.75
365.92	96.75
366.147	94.75
366.373	92.75
366.599	90.75
366.826	87.75
367.052	84.75
367.278	101.75
367.505	83.75
367.731	98.75
367.957	100.75
368.184	99.75
368.41	100.75
368.636	101.75
368.862	114.75
369.089	114.75
369.315	91.75
369.541	93.75
369.767	93.75
369.993	100.75
370.219	103.75
370.445	92.75
370.672	96.75
370.898	82.75
371.124	83.75
371.35	101.75
371.576	95.75
371.802	81.75
372.028	81.75
372.254	89.75
372.48	99.75
372.706	99.75
372.932	92.75
373.158	87.75
373.384	105.75
373.61	89.75
373.835	80.75
374.061	96.75
374.287	81.75
374.513	82.75
374.739	94.75
374.965	86.75
375.191	79.75
375.416	87.75
375.642	113.75
375.868	90.75
376.094	82.75
376.319	103.75
376.545	89.75
376.771	98.75
376.997	93.75
377.222	88.75
377.448	106.75
377.674	89.75
377.899	76.75
378.125	84.75
378.35	98.75
378.576	84.75
378.802	89.75
379.027	93.75
379.253	93.75
379.478	96.75
379.704	109.75
379.929	101.75
380.155	97.75
380.38	104.75
380.606	98.75
380.831	106.75
381.057	105.75
381.282	98.75
381.507	95.75
381.733	86.75
381.958	85.75
382.184	98.75
382.409	92.75
382.634	109.75
382.86	95.75
383.085	104.75
383.31	108.75
383.535	106.75
383.761	103.75
383.986	103.75
384.211	102.75
384.436	104.75
384.662	112.75
384.887	106.75
385.112	109.75
385.337	111.75
385.562	109.75
385.787	115.75
386.013	114.75
386.238	120.75
386.463	99.75
386.688	103.75
386.913	90.75
387.138	117.75
387.363	105.75
387.588	103.75
387.813	103.75
388.038	110.75
388.263	124.75
388.488	116.75
388.713	93.75
388.938	96.75
389.163	105.75
389.387	97.75
389.612	91.75
389.837	85.75
390.062	90.75
390.287	93.75
390.512	97.75
390.736	83.75
390.961	95.75
391.186	99.75
391.411	91.75
391.636	100.75
391.86	89.75
392.085	96.75
392.31	101.75
392.534	83.75
392.759	82.75
392.984	98.75
393.208	85.75
393.433	92.75
393.658	97.75
393.882	86.75
394.107	87.75
394.331	83.75
394.556	89.75
394.78	95.75
395.005	88.75
395.229	86.75
395.454	91.75
395.678	97.75
395.903	91.75
396.127	81.75
396.352	92.75
396.576	92.75
396.801	84.75
397.025	107.75
397.249	94.75
397.474	92.75
397.698	102.75
397.922	81.75
398.147	89.75
398.371	96.75
398.595	87.75
398.82	80.75
399.044	104.75
399.268	82.75
399.492	86.75
399.717	84.75
399.941	95.75
400.165	98.75
400.389	92.75
400.613	97.75
400.837	95.75
401.062	93.75
401.286	85.75
401.51	84.75
401.734	80.75
401.958	104.75
402.182	112.75
402.406	122.75
402.63	113.75
402.854	90.75
403.078	93.75
403.302	86.75
403.526	103.75
403.75	103.75
403.974	86.75
404.198	95.75
404.422	94.75
404.645	88.75
404.869	85.75
405.093	90.75
405.317	96.75
405.541	96.75
405.765	105.75
405.988	104.75
406.212	141.75
406.436	162.75
406.66	113.75
406.883	79.75
407.107	86.75
407.331	89.75
407.555	93.75
407.778	91.75
408.002	86.75
408.226	89.75
408.449	93.75
408.673	85.75
408.896	85.75
409.12	89.75
409.344	84.75
409.567	80.75
409.791	96.75
410.014	88.75
410.238	95.75
410.461	85.75
410.685	88.75
410.908	91.75
411.132	103.75
411.355	104.75
411.578	77.75
411.802	96.75
412.025	98.75
412.249	89.75
412.472	87.75
412.695	98.75
412.919	101.75
413.142	82.75
413.365	88.75
413.589	94.75
413.812	96.75
414.035	94.75
414.258	100.75
414.482	104.75
414.705	90.75
414.928	89.75
415.151	101.75
415.374	93.75
415.597	91.75
415.821	99.75
416.044	94.75
416.267	90.75
416.49	99.75
416.713	88.75
416.936	89.75
417.159	100.75
417.382	103.75
417.605	76.75
417.828	97.75
418.051	100.75
418.274	83.75
418.497	82.75
418.72	90.75
418.943	105.75
419.166	102.75
419.389	90.75
419.611	97.75
419.834	100.75
420.057	84.75
420.28	91.75
420.503	92.75
420.726	91.75
420.948	93.75
421.171	95.75
421.394	101.75
421.617	91.75
421.839	101.75
422.062	97.75
422.285	100.75
422.507	107.75
422.73	99.75
422.953	96.75
423.175	96.75
423.398	95.75
423.621	83.75
423.843	86.75
424.066	97.75
424.288	100.75
424.511	72.75
424.733	95.75
424.956	111.75
425.178	88.75
425.401	92.75
425.623	91.75
425.846	86.75
426.068	85.75
426.291	104.75
426.513	101.75
426.735	83.75
426.958	94.75
427.18	111.75
427.402	126.75
427.625	129.75
427.847	113.75
428.069	104.75
428.292	89.75
428.514	93.75
428.736	93.75
428.958	90.75
429.181	89.75
429.403	94.75
429.625	77.75
429.847	102.75
430.069	93.75
430.292	92.75
430.514	81.75
430.736	96.75
430.958	78.75
431.18	78.75
431.402	99.75
431.624	90.75
431.846	90.75
432.068	93.75
432.29	95.75
432.512	78.75
432.734	98.75
432.956	73.75
433.178	94.75
433.4	78.75
433.622	80.75
433.844	92.75
434.066	111.75
434.287	105.75
434.509	96.75
434.731	96.75
434.953	93.75
435.175	108.75
435.397	85.75
435.618	104.75
435.84	109.75
436.062	114.75
436.284	109.75
436.505	97.75
436.727	107.75
436.949	101.75
437.17	92.75
437.392	95.75
437.614	86.75
437.835	98.75
438.057	103.75
438.278	105.75
438.5	101.75
438.721	106.75
438.943	89.75
439.165	85.75
439.386	100.75
439.608	91.75
439.829	87.75
440.05	119.75
440.272	114.75
440.493	78.75
440.715	82.75
440.936	86.75
441.158	94.75
441.379	80.75
441.6	97.75
441.822	89.75
442.043	97.75
442.264	83.75
442.486	95.75
442.707	88.75
442.928	98.75
443.149	121.75
443.371	114.75
443.592	95.75
443.813	98.75
444.034	88.75
444.255	100.75
444.476	86.75
444.698	88.75
444.919	94.75
445.14	125.75
445.361	108.75
445.582	103.75
445.803	120.75
446.024	119.75
446.245	140.75
446.466	117.75
446.687	82.75
446.908	92.75
447.129	83.75
447.35	88.75
447.571	98.75
447.792	90.75
448.013	105.75
448.234	102.75
448.455	98.75
448.675	107.75
448.896	112.75
449.117	99.75
449.338	103.75
449.559	110.75
449.779	126.75
450	109.75
450.221	88.75
450.442	100.75
450.662	86.75
450.883	104.75
451.104	101.75
451.324	99.75
451.545	87.75
451.766	92.75
451.986	86.75
452.207	89.75
452.428	96.75
452.648	92.75
452.869	111.75
453.089	103.75
453.31	103.75
453.53	105.75
453.751	89.75
453.971	98.75
454.192	100.75
454.412	99.75
454.633	88.75
454.853	80.75
455.073	90.75
455.294	89.75
455.514	93.75
455.734	84.75
455.955	88.75
456.175	89.75
456.395	83.75
456.616	87.75
456.836	94.75
457.056	84.75
457.276	84.75
457.497	88.75
457.717	96.75
457.937	83.75
458.157	100.75
458.377	91.75
458.598	98.75
458.818	137.75
459.038	138.75
459.258	106.75
459.478	84.75
459.698	87.75
459.918	88.75
460.138	94.75
460.358	86.75
460.578	87.75
460.798	107.75
461.018	93.75
461.238	74.75
461.458	95.75
461.678	89.75
461.898	84.75
462.118	96.75
462.338	99.75
462.558	83.75
462.777	84.75
462.997	89.75
463.217	98.75
463.437	86.75
463.657	73.75
463.876	80.75
464.096	94.75
464.316	85.75
464.536	93.75
464.755	93.75
464.975	96.75
465.195	126.75
465.414	118.75
465.634	101.75
465.854	89.75
466.073	89.75
466.293	82.75
466.512	93.75
466.732	85.75
466.951	103.75
467.171	89.75
467.391	93.75
467.61	106.75
467.829	94.75
468.049	87.75
468.268	76.75
468.488	84.75
468.707	84.75
468.927	92.75
469.146	92.75
469.365	72.75
469.585	90.75
469.804	94.75
470.023	87.75
470.243	94.75
470.462	93.75
470.681	94.75
470.901	88.75
471.12	88.75
471.339	88.75
471.558	89.75
471.777	92.75
471.997	100.75
472.216	99.75
472.435	87.75
472.654	98.75
472.873	83.75
473.092	88.75
473.311	80.75
473.53	69.75
473.749	78.75
473.968	104.75
474.187	95.75
474.406	92.75
474.625	93.75
474.844	103.75
475.063	82.75
475.282	89.75
475.501	102.75
475.72	97.75
475.939	80.75
476.158	99.75
476.377	104.75
476.596	78.75
476.814	88.75
477.033	86.75
477.252	96.75
477.471	84.75
477.69	83.75
477.908	94.75
478.127	87.75
478.346	89.75
478.564	98.75
478.783	92.75
479.002	100.75
479.22	60.75
479.439	102.75
479.658	100.75
479.876	99.75
480.095	93.75
480.313	97.75
480.532	90.75
480.751	97.75
480.969	103.75
481.188	99.75
481.406	94.75
481.624	101.75
481.843	91.75
482.061	81.75
482.28	92.75
482.498	82.75
482.717	98.75
482.935	90.75
483.153	96.75
483.372	98.75
483.59	98.75
483.808	95.75
484.027	99.75
484.245	102.75
484.463	109.75
484.681	94.75
484.9	100.75
485.118	97.75
485.336	92.75
485.554	96.75
485.772	101.75
485.99	89.75
486.209	94.75
486.427	135.75
486.645	119.75
486.863	119.75
487.081	93.75
487.299	107.75
487.517	102.75
487.735	91.75
487.953	99.75
488.171	103.75
488.389	101.75
488.607	94.75
488.825	81.75
489.043	104.75
489.261	95.75
489.479	93.75
489.696	90.75
489.914	98.75
490.132	88.75
490.35	101.75
490.568	93.75
490.786	94.75
491.003	94.75
491.221	76.75
491.439	100.75
491.657	101.75
491.874	89.75
492.092	93.75
492.31	94.75
492.527	86.75
492.745	91.75
492.963	100.75
493.18	88.75
493.398	98.75
493.615	105.75
493.833	101.75
494.05	99.75
494.268	100.75
494.485	95.75
494.703	86.75
494.92	102.75
495.138	97.75
495.355	85.75
495.573	109.75
495.79	104.75
496.008	92.75
496.225	100.75
496.442	68.75
496.66	98.75
496.877	101.75
497.094	95.75
497.312	97.75
497.529	95.75
497.746	95.75
497.963	69.75
498.181	91.75
498.398	102.75
498.615	108.75
498.832	108.75
499.049	91.75
499.267	91.75
499.484	89.75
499.701	83.75
499.918	103.75
500.135	102.75
500.352	93.75
500.569	90.75
500.786	96.75
501.003	92.75
501.22	90.75
501.437	99.75
501.654	96.75
501.871	96.75
502.088	83.75
502.305	90.75
502.522	106.75
502.739	97.75
502.956	88.75
503.172	83.75
503.389	85.75
503.606	81.75
503.823	93.75
504.04	94.75
504.256	88.75
504.473	115.75
504.69	92.75
504.907	107.75
505.123	92.75
505.34	88.75
505.557	93.75
505.773	82.75
505.99	99.75
506.207	96.75
506.423	95.75
506.64	106.75
506.856	108.75
507.073	91.75
507.289	100.75
507.506	98.75
507.722	103.75
507.939	106.75
508.155	97.75
508.372	87.75
508.588	101.75
508.805	99.75
509.021	100.75
509.238	98.75
509.454	82.75
509.67	81.75
509.887	97.75
510.103	112.75
510.319	193.75
510.536	550.75
510.752	1674.75
510.968	481.75
511.184	123.75
511.401	95.75
511.617	117.75
511.833	92.75
512.049	95.75
512.265	102.75
512.481	99.75
512.698	101.75
512.914	87.75
513.13	89.75
513.346	92.75
513.562	80.75
513.778	94.75
513.994	101.75
514.21	112.75
514.426	115.75
514.642	110.75
514.858	113.75
515.074	129.75
