Data from Uncirc_1990_H10_HRD10591_00079.txt Node
Date: Wed Jan 03 11:54:07 EST 2024
User: Yrep
Spectrometer: HR+D1059
Trigger mode: 1
Integration Time (sec): 1.000000E-1
Scans to average: 1
Electric dark correction enabled: true
Nonlinearity correction enabled: false
Boxcar width: 0
XAxis mode: Wavelengths
Number of Pixels in Spectrum: 2048
>>>>>Begin Spectral Data<<<<<
223.165	-16.62
223.4	-16.62
223.635	-16.62
223.869	-20.62
224.104	-12.62
224.338	-32.62
224.573	-11.62
224.808	-12.62
225.042	-7.62
225.277	2.38
225.511	5.38
225.746	4.38
225.98	8.38
226.215	10.38
226.449	10.38
226.683	20.38
226.918	35.38
227.152	17.38
227.387	27.38
227.621	23.38
227.856	38.38
228.09	32.38
228.324	43.38
228.559	44.38
228.793	75.38
229.027	65.38
229.262	76.38
229.496	72.38
229.73	73.38
229.964	80.38
230.199	80.38
230.433	73.38
230.667	81.38
230.901	76.38
231.136	73.38
231.37	70.38
231.604	74.38
231.838	75.38
232.072	75.38
232.306	82.38
232.541	76.38
232.775	69.38
233.009	75.38
233.243	73.38
233.477	75.38
233.711	90.38
233.945	73.38
234.179	78.38
234.413	86.38
234.647	85.38
234.881	79.38
235.115	67.38
235.349	71.38
235.583	68.38
235.817	78.38
236.051	80.38
236.285	79.38
236.519	69.38
236.753	81.38
236.987	81.38
237.221	72.38
237.455	81.38
237.689	74.38
237.922	76.38
238.156	59.38
238.39	69.38
238.624	69.38
238.858	69.38
239.091	74.38
239.325	70.38
239.559	83.38
239.793	80.38
240.027	61.38
240.26	74.38
240.494	81.38
240.728	70.38
240.961	76.38
241.195	76.38
241.429	73.38
241.662	69.38
241.896	85.38
242.13	69.38
242.363	65.38
242.597	80.38
242.83	89.38
243.064	92.38
243.298	74.38
243.531	83.38
243.765	65.38
243.998	74.38
244.232	80.38
244.465	75.38
244.699	83.38
244.932	65.38
245.166	74.38
245.399	81.38
245.633	80.38
245.866	85.38
246.099	72.38
246.333	60.38
246.566	72.38
246.8	81.38
247.033	84.38
247.266	69.38
247.5	72.38
247.733	77.38
247.966	79.38
248.2	70.38
248.433	66.38
248.666	94.38
248.899	96.38
249.133	85.38
249.366	97.38
249.599	90.38
249.832	83.38
250.066	76.38
250.299	70.38
250.532	69.38
250.765	87.38
250.998	83.38
251.231	61.38
251.465	68.38
251.698	63.38
251.931	78.38
252.164	72.38
252.397	78.38
252.63	75.38
252.863	83.38
253.096	78.38
253.329	90.38
253.562	78.38
253.795	79.38
254.028	77.38
254.261	66.38
254.494	73.38
254.727	89.38
254.96	82.38
255.193	65.38
255.426	61.38
255.659	80.38
255.892	84.38
256.124	87.38
256.357	89.38
256.59	105.38
256.823	82.38
257.056	77.38
257.289	79.38
257.521	79.38
257.754	86.38
257.987	78.38
258.22	78.38
258.452	75.38
258.685	80.38
258.918	79.38
259.151	77.38
259.383	84.38
259.616	80.38
259.849	83.38
260.081	87.38
260.314	78.38
260.547	88.38
260.779	84.38
261.012	86.38
261.244	73.38
261.477	76.38
261.71	96.38
261.942	99.38
262.175	108.38
262.407	88.38
262.64	76.38
262.872	74.38
263.105	84.38
263.337	92.38
263.57	88.38
263.802	75.38
264.035	70.38
264.267	63.38
264.499	78.38
264.732	87.38
264.964	79.38
265.197	80.38
265.429	83.38
265.661	95.38
265.894	94.38
266.126	87.38
266.358	91.38
266.591	91.38
266.823	89.38
267.055	79.38
267.287	74.38
267.52	92.38
267.752	94.38
267.984	96.38
268.216	75.38
268.448	84.38
268.681	92.38
268.913	80.38
269.145	86.38
269.377	89.38
269.609	80.38
269.841	91.38
270.073	74.38
270.306	85.38
270.538	81.38
270.77	83.38
271.002	78.38
271.234	81.38
271.466	92.38
271.698	92.38
271.93	74.38
272.162	80.38
272.394	85.38
272.626	85.38
272.858	74.38
273.09	88.38
273.322	108.38
273.553	94.38
273.785	85.38
274.017	78.38
274.249	74.38
274.481	81.38
274.713	91.38
274.945	80.38
275.176	84.38
275.408	79.38
275.64	79.38
275.872	86.38
276.104	77.38
276.335	83.38
276.567	86.38
276.799	94.38
277.031	102.38
277.262	89.38
277.494	82.38
277.726	84.38
277.957	80.38
278.189	89.38
278.421	79.38
278.652	84.38
278.884	74.38
279.115	100.38
279.347	84.38
279.579	67.38
279.81	79.38
280.042	88.38
280.273	87.38
280.505	88.38
280.736	78.38
280.968	101.38
281.199	82.38
281.431	75.38
281.662	88.38
281.894	86.38
282.125	88.38
282.356	105.38
282.588	114.38
282.819	113.38
283.051	84.38
283.282	86.38
283.513	97.38
283.745	88.38
283.976	95.38
284.207	82.38
284.439	86.38
284.67	96.38
284.901	82.38
285.132	81.38
285.364	73.38
285.595	77.38
285.826	89.38
286.057	85.38
286.288	90.38
286.52	66.38
286.751	92.38
286.982	75.38
287.213	95.38
287.444	88.38
287.675	86.38
287.906	96.38
288.138	77.38
288.369	93.38
288.6	91.38
288.831	84.38
289.062	85.38
289.293	92.38
289.524	83.38
289.755	80.38
289.986	95.38
290.217	96.38
290.448	80.38
290.679	93.38
290.91	84.38
291.141	74.38
291.371	86.38
291.602	86.38
291.833	86.38
292.064	81.38
292.295	101.38
292.526	70.38
292.757	86.38
292.987	76.38
293.218	82.38
293.449	84.38
293.68	88.38
293.91	94.38
294.141	87.38
294.372	85.38
294.603	86.38
294.833	83.38
295.064	88.38
295.295	80.38
295.525	89.38
295.756	99.38
295.987	101.38
296.217	125.38
296.448	107.38
296.679	89.38
296.909	84.38
297.14	84.38
297.37	88.38
297.601	92.38
297.831	81.38
298.062	88.38
298.292	90.38
298.523	86.38
298.753	63.38
298.984	80.38
299.214	75.38
299.445	88.38
299.675	93.38
299.905	85.38
300.136	88.38
300.366	93.38
300.597	79.38
300.827	79.38
301.057	104.38
301.288	108.38
301.518	96.38
301.748	66.38
301.979	87.38
302.209	82.38
302.439	85.38
302.669	84.38
302.9	92.38
303.13	81.38
303.36	90.38
303.59	88.38
303.82	110.38
304.051	90.38
304.281	77.38
304.511	96.38
304.741	71.38
304.971	84.38
305.201	82.38
305.431	86.38
305.661	88.38
305.891	92.38
306.121	84.38
306.352	96.38
306.582	98.38
306.812	104.38
307.042	87.38
307.272	87.38
307.502	83.38
307.731	87.38
307.961	92.38
308.191	84.38
308.421	83.38
308.651	96.38
308.881	81.38
309.111	72.38
309.341	89.38
309.571	77.38
309.8	97.38
310.03	100.38
310.26	81.38
310.49	95.38
310.72	86.38
310.949	96.38
311.179	96.38
311.409	97.38
311.639	83.38
311.868	90.38
312.098	88.38
312.328	97.38
312.557	82.38
312.787	97.38
313.017	96.38
313.246	78.38
313.476	94.38
313.706	88.38
313.935	92.38
314.165	110.38
314.394	107.38
314.624	85.38
314.853	86.38
315.083	101.38
315.312	82.38
315.542	86.38
315.771	82.38
316.001	94.38
316.23	81.38
316.46	96.38
316.689	78.38
316.919	95.38
317.148	91.38
317.377	91.38
317.607	97.38
317.836	74.38
318.065	90.38
318.295	99.38
318.524	77.38
318.753	93.38
318.983	99.38
319.212	81.38
319.441	97.38
319.67	97.38
319.9	80.38
320.129	80.38
320.358	96.38
320.587	93.38
320.816	94.38
321.046	90.38
321.275	91.38
321.504	94.38
321.733	82.38
321.962	91.38
322.191	89.38
322.42	102.38
322.649	96.38
322.878	99.38
323.108	94.38
323.337	122.38
323.566	120.38
323.795	141.38
324.024	172.38
324.253	346.38
324.482	708.38
324.71	1498.38
324.939	2002.38
325.168	729.38
325.397	224.38
325.626	139.38
325.855	123.38
326.084	129.38
326.313	134.38
326.542	126.38
326.77	190.38
326.999	402.38
327.228	848.38
327.457	1555.38
327.686	1276.38
327.914	344.38
328.143	181.38
328.372	118.38
328.6	111.38
328.829	112.38
329.058	104.38
329.287	119.38
329.515	93.38
329.744	101.38
329.972	97.38
330.201	96.38
330.43	123.38
330.658	123.38
330.887	127.38
331.115	109.38
331.344	85.38
331.572	99.38
331.801	91.38
332.03	104.38
332.258	88.38
332.486	81.38
332.715	91.38
332.943	101.38
333.172	91.38
333.4	94.38
333.629	96.38
333.857	100.38
334.085	88.38
334.314	106.38
334.542	120.38
334.771	111.38
334.999	107.38
335.227	103.38
335.455	90.38
335.684	98.38
335.912	84.38
336.14	99.38
336.369	99.38
336.597	86.38
336.825	108.38
337.053	100.38
337.281	99.38
337.51	90.38
337.738	80.38
337.966	86.38
338.194	84.38
338.422	91.38
338.65	97.38
338.878	99.38
339.106	73.38
339.334	87.38
339.562	101.38
339.79	98.38
340.018	88.38
340.246	84.38
340.474	91.38
340.702	77.38
340.93	88.38
341.158	89.38
341.386	99.38
341.614	87.38
341.842	90.38
342.07	83.38
342.298	84.38
342.526	94.38
342.754	89.38
342.981	93.38
343.209	85.38
343.437	98.38
343.665	92.38
343.893	82.38
344.12	92.38
344.348	86.38
344.576	97.38
344.804	87.38
345.031	85.38
345.259	99.38
345.487	85.38
345.714	79.38
345.942	98.38
346.17	90.38
346.397	91.38
346.625	91.38
346.853	98.38
347.08	90.38
347.308	81.38
347.535	102.38
347.763	92.38
347.99	83.38
348.218	96.38
348.445	96.38
348.673	81.38
348.9	100.38
349.128	101.38
349.355	93.38
349.583	80.38
349.81	82.38
350.037	97.38
350.265	96.38
350.492	90.38
350.72	83.38
350.947	89.38
351.174	98.38
351.402	101.38
351.629	114.38
351.856	85.38
352.083	93.38
352.311	103.38
352.538	120.38
352.765	102.38
352.992	114.38
353.22	100.38
353.447	92.38
353.674	105.38
353.901	99.38
354.128	90.38
354.355	90.38
354.583	97.38
354.81	109.38
355.037	98.38
355.264	96.38
355.491	94.38
355.718	95.38
355.945	94.38
356.172	83.38
356.399	91.38
356.626	85.38
356.853	93.38
357.08	84.38
357.307	95.38
357.534	91.38
357.761	104.38
357.988	105.38
358.215	103.38
358.441	86.38
358.668	87.38
358.895	76.38
359.122	91.38
359.349	98.38
359.576	88.38
359.802	77.38
360.029	99.38
360.256	107.38
360.483	93.38
360.709	80.38
360.936	93.38
361.163	83.38
361.39	76.38
361.616	83.38
361.843	104.38
362.07	83.38
362.296	84.38
362.523	86.38
362.749	88.38
362.976	85.38
363.203	74.38
363.429	95.38
363.656	92.38
363.882	94.38
364.109	101.38
364.335	91.38
364.562	84.38
364.788	88.38
365.015	76.38
365.241	93.38
365.468	102.38
365.694	101.38
365.92	79.38
366.147	84.38
366.373	98.38
366.599	80.38
366.826	79.38
367.052	90.38
367.278	103.38
367.505	82.38
367.731	93.38
367.957	100.38
368.184	92.38
368.41	84.38
368.636	106.38
368.862	112.38
369.089	95.38
369.315	92.38
369.541	87.38
369.767	98.38
369.993	84.38
370.219	102.38
370.445	72.38
370.672	98.38
370.898	85.38
371.124	81.38
371.35	84.38
371.576	88.38
371.802	92.38
372.028	91.38
372.254	93.38
372.48	84.38
372.706	64.38
372.932	79.38
373.158	78.38
373.384	84.38
373.61	93.38
373.835	92.38
374.061	88.38
374.287	86.38
374.513	90.38
374.739	88.38
374.965	83.38
375.191	99.38
375.416	77.38
375.642	83.38
375.868	90.38
376.094	81.38
376.319	99.38
376.545	85.38
376.771	88.38
376.997	88.38
377.222	91.38
377.448	102.38
377.674	84.38
377.899	87.38
378.125	78.38
378.35	86.38
378.576	79.38
378.802	85.38
379.027	89.38
379.253	93.38
379.478	82.38
379.704	83.38
379.929	85.38
380.155	96.38
380.38	95.38
380.606	93.38
380.831	85.38
381.057	94.38
381.282	102.38
381.507	72.38
381.733	97.38
381.958	102.38
382.184	99.38
382.409	83.38
382.634	86.38
382.86	77.38
383.085	90.38
383.31	105.38
383.535	93.38
383.761	92.38
383.986	106.38
384.211	80.38
384.436	84.38
384.662	100.38
384.887	93.38
385.112	92.38
385.337	100.38
385.562	86.38
385.787	86.38
386.013	96.38
386.238	89.38
386.463	99.38
386.688	111.38
386.913	84.38
387.138	97.38
387.363	102.38
387.588	95.38
387.813	101.38
388.038	108.38
388.263	99.38
388.488	92.38
388.713	98.38
388.938	103.38
389.163	93.38
389.387	93.38
389.612	92.38
389.837	98.38
390.062	84.38
390.287	97.38
390.512	100.38
390.736	81.38
390.961	82.38
391.186	98.38
391.411	97.38
391.636	77.38
391.86	96.38
392.085	92.38
392.31	82.38
392.534	76.38
392.759	77.38
392.984	92.38
393.208	80.38
393.433	81.38
393.658	66.38
393.882	85.38
394.107	78.38
394.331	85.38
394.556	78.38
394.78	84.38
395.005	88.38
395.229	78.38
395.454	80.38
395.678	89.38
395.903	86.38
396.127	95.38
396.352	86.38
396.576	68.38
396.801	86.38
397.025	89.38
397.249	78.38
397.474	85.38
397.698	94.38
397.922	86.38
398.147	86.38
398.371	84.38
398.595	64.38
398.82	81.38
399.044	91.38
399.268	78.38
399.492	84.38
399.717	86.38
399.941	82.38
400.165	90.38
400.389	83.38
400.613	86.38
400.837	86.38
401.062	82.38
401.286	94.38
401.51	75.38
401.734	99.38
401.958	94.38
402.182	116.38
402.406	137.38
402.63	106.38
402.854	103.38
403.078	94.38
403.302	88.38
403.526	91.38
403.75	89.38
403.974	76.38
404.198	87.38
404.422	81.38
404.645	89.38
404.869	84.38
405.093	87.38
405.317	95.38
405.541	79.38
405.765	99.38
405.988	118.38
406.212	153.38
406.436	189.38
406.66	138.38
406.883	88.38
407.107	77.38
407.331	91.38
407.555	77.38
407.778	96.38
408.002	86.38
408.226	76.38
408.449	66.38
408.673	75.38
408.896	92.38
409.12	104.38
409.344	88.38
409.567	91.38
409.791	94.38
410.014	106.38
410.238	82.38
410.461	101.38
410.685	80.38
410.908	94.38
411.132	110.38
411.355	94.38
411.578	100.38
411.802	73.38
412.025	89.38
412.249	81.38
412.472	88.38
412.695	99.38
412.919	88.38
413.142	74.38
413.365	104.38
413.589	86.38
413.812	89.38
414.035	79.38
414.258	84.38
414.482	98.38
414.705	92.38
414.928	91.38
415.151	95.38
415.374	94.38
415.597	89.38
415.821	84.38
416.044	84.38
416.267	88.38
416.49	83.38
416.713	79.38
416.936	99.38
417.159	86.38
417.382	76.38
417.605	85.38
417.828	92.38
418.051	99.38
418.274	93.38
418.497	80.38
418.72	90.38
418.943	85.38
419.166	90.38
419.389	84.38
419.611	82.38
419.834	89.38
420.057	92.38
420.28	92.38
420.503	88.38
420.726	80.38
420.948	75.38
421.171	95.38
421.394	99.38
421.617	92.38
421.839	95.38
422.062	98.38
422.285	90.38
422.507	92.38
422.73	85.38
422.953	90.38
423.175	69.38
423.398	95.38
423.621	77.38
423.843	85.38
424.066	89.38
424.288	85.38
424.511	96.38
424.733	82.38
424.956	99.38
425.178	101.38
425.401	87.38
425.623	97.38
425.846	85.38
426.068	69.38
426.291	95.38
426.513	84.38
426.735	88.38
426.958	91.38
427.18	101.38
427.402	127.38
427.625	127.38
427.847	109.38
428.069	101.38
428.292	71.38
428.514	81.38
428.736	83.38
428.958	78.38
429.181	85.38
429.403	90.38
429.625	91.38
429.847	94.38
430.069	100.38
430.292	105.38
430.514	97.38
430.736	90.38
430.958	92.38
431.18	63.38
431.402	60.38
431.624	84.38
431.846	85.38
432.068	93.38
432.29	84.38
432.512	90.38
432.734	80.38
432.956	91.38
433.178	96.38
433.4	76.38
433.622	68.38
433.844	77.38
434.066	76.38
434.287	83.38
434.509	100.38
434.731	100.38
434.953	91.38
435.175	83.38
435.397	76.38
435.618	81.38
435.84	94.38
436.062	111.38
436.284	106.38
436.505	77.38
436.727	91.38
436.949	83.38
437.17	86.38
437.392	85.38
437.614	94.38
437.835	101.38
438.057	103.38
438.278	110.38
438.5	107.38
438.721	115.38
438.943	111.38
439.165	91.38
439.386	83.38
439.608	88.38
439.829	91.38
440.05	118.38
440.272	118.38
440.493	78.38
440.715	83.38
440.936	76.38
441.158	85.38
441.379	83.38
441.6	77.38
441.822	83.38
442.043	78.38
442.264	94.38
442.486	90.38
442.707	90.38
442.928	109.38
443.149	101.38
443.371	111.38
443.592	91.38
443.813	103.38
444.034	107.38
444.255	94.38
444.476	87.38
444.698	92.38
444.919	91.38
445.14	118.38
445.361	108.38
445.582	108.38
445.803	113.38
446.024	127.38
446.245	129.38
446.466	111.38
446.687	98.38
446.908	102.38
447.129	83.38
447.35	91.38
447.571	92.38
447.792	98.38
448.013	94.38
448.234	104.38
448.455	92.38
448.675	108.38
448.896	117.38
449.117	102.38
449.338	94.38
449.559	128.38
449.779	113.38
450	77.38
450.221	84.38
450.442	97.38
450.662	101.38
450.883	86.38
451.104	98.38
451.324	90.38
451.545	88.38
451.766	78.38
451.986	92.38
452.207	105.38
452.428	91.38
452.648	88.38
452.869	90.38
453.089	108.38
453.31	112.38
453.53	99.38
453.751	93.38
453.971	88.38
454.192	109.38
454.412	88.38
454.633	76.38
454.853	76.38
455.073	82.38
455.294	95.38
455.514	87.38
455.734	86.38
455.955	80.38
456.175	78.38
456.395	88.38
456.616	76.38
456.836	84.38
457.056	69.38
457.276	81.38
457.497	77.38
457.717	82.38
457.937	80.38
458.157	89.38
458.377	98.38
458.598	101.38
458.818	137.38
459.038	133.38
459.258	108.38
459.478	86.38
459.698	88.38
459.918	85.38
460.138	90.38
460.358	93.38
460.578	86.38
460.798	85.38
461.018	96.38
461.238	88.38
461.458	84.38
461.678	85.38
461.898	85.38
462.118	82.38
462.338	89.38
462.558	88.38
462.777	78.38
462.997	82.38
463.217	79.38
463.437	67.38
463.657	91.38
463.876	97.38
464.096	96.38
464.316	98.38
464.536	92.38
464.755	79.38
464.975	97.38
465.195	133.38
465.414	137.38
465.634	92.38
465.854	92.38
466.073	85.38
466.293	96.38
466.512	88.38
466.732	86.38
466.951	89.38
467.171	90.38
467.391	91.38
467.61	97.38
467.829	104.38
468.049	97.38
468.268	91.38
468.488	91.38
468.707	76.38
468.927	88.38
469.146	78.38
469.365	92.38
469.585	92.38
469.804	96.38
470.023	85.38
470.243	98.38
470.462	87.38
470.681	103.38
470.901	84.38
471.12	65.38
471.339	88.38
471.558	74.38
471.777	82.38
471.997	76.38
472.216	97.38
472.435	116.38
472.654	68.38
472.873	94.38
473.092	69.38
473.311	94.38
473.53	84.38
473.749	74.38
473.968	101.38
474.187	87.38
474.406	102.38
474.625	78.38
474.844	68.38
475.063	94.38
475.282	96.38
475.501	83.38
475.72	101.38
475.939	86.38
476.158	76.38
476.377	89.38
476.596	82.38
476.814	99.38
477.033	104.38
477.252	107.38
477.471	85.38
477.69	95.38
477.908	78.38
478.127	99.38
478.346	95.38
478.564	96.38
478.783	102.38
479.002	93.38
479.22	96.38
479.439	84.38
479.658	103.38
479.876	106.38
480.095	88.38
480.313	90.38
480.532	93.38
480.751	85.38
480.969	98.38
481.188	165.38
481.406	106.38
481.624	88.38
481.843	86.38
482.061	84.38
482.28	90.38
482.498	90.38
482.717	70.38
482.935	97.38
483.153	82.38
483.372	78.38
483.59	85.38
483.808	84.38
484.027	99.38
484.245	102.38
484.463	84.38
484.681	99.38
484.9	93.38
485.118	98.38
485.336	97.38
485.554	89.38
485.772	88.38
485.99	82.38
486.209	98.38
486.427	97.38
486.645	98.38
486.863	117.38
487.081	91.38
487.299	108.38
487.517	101.38
487.735	85.38
487.953	95.38
488.171	97.38
488.389	110.38
488.607	96.38
488.825	100.38
489.043	93.38
489.261	91.38
489.479	86.38
489.696	80.38
489.914	83.38
490.132	78.38
490.35	93.38
490.568	92.38
490.786	88.38
491.003	92.38
491.221	79.38
491.439	75.38
491.657	90.38
491.874	93.38
492.092	95.38
492.31	92.38
492.527	86.38
492.745	86.38
492.963	68.38
493.18	96.38
493.398	80.38
493.615	92.38
493.833	67.38
494.05	94.38
494.268	84.38
494.485	86.38
494.703	102.38
494.92	93.38
495.138	82.38
495.355	78.38
495.573	100.38
495.79	88.38
496.008	73.38
496.225	77.38
496.442	74.38
496.66	87.38
496.877	89.38
497.094	85.38
497.312	97.38
497.529	102.38
497.746	77.38
497.963	94.38
498.181	80.38
498.398	101.38
498.615	110.38
498.832	100.38
499.049	89.38
499.267	69.38
499.484	106.38
499.701	92.38
499.918	85.38
500.135	84.38
500.352	92.38
500.569	92.38
500.786	76.38
501.003	73.38
501.22	98.38
501.437	90.38
501.654	94.38
501.871	107.38
502.088	95.38
502.305	90.38
502.522	84.38
502.739	90.38
502.956	98.38
503.172	81.38
503.389	90.38
503.606	86.38
503.823	84.38
504.04	89.38
504.256	82.38
504.473	84.38
504.69	98.38
504.907	93.38
505.123	72.38
505.34	106.38
505.557	85.38
505.773	81.38
505.99	76.38
506.207	90.38
506.423	89.38
506.64	98.38
506.856	91.38
507.073	91.38
507.289	92.38
507.506	100.38
507.722	100.38
507.939	117.38
508.155	89.38
508.372	85.38
508.588	88.38
508.805	97.38
509.021	91.38
509.238	88.38
509.454	90.38
509.67	93.38
509.887	100.38
510.103	109.38
510.319	204.38
510.536	665.38
510.752	2069.38
510.968	596.38
511.184	164.38
511.401	112.38
511.617	96.38
511.833	87.38
512.049	101.38
512.265	82.38
512.481	95.38
512.698	85.38
512.914	96.38
513.13	80.38
513.346	89.38
513.562	83.38
513.778	101.38
513.994	88.38
514.21	105.38
514.426	99.38
514.642	126.38
514.858	122.38
515.074	133.38
515.29	376.38
515.506	1229.38
515.721	443.38
515.937	145.38
516.153	101.38
516.369	100.38
516.585	84.38
516.801	82.38
517.016	101.38
