Data from Uncirc_1990_H10_HRD10591_00070.txt Node
Date: Wed Jan 03 11:54:05 EST 2024
User: Yrep
Spectrometer: HR+D1059
Trigger mode: 1
Integration Time (sec): 1.000000E-1
Scans to average: 1
Electric dark correction enabled: true
Nonlinearity correction enabled: false
Boxcar width: 0
XAxis mode: Wavelengths
Number of Pixels in Spectrum: 2048
>>>>>Begin Spectral Data<<<<<
223.165	-25.19
223.4	-25.19
223.635	-25.19
223.869	-19.19
224.104	-12.19
224.338	-7.19
224.573	-11.19
224.808	-24.19
225.042	-12.19
225.277	2.81
225.511	-16.19
225.746	-8.19
225.98	6.81
226.215	19.81
226.449	16.81
226.683	17.81
226.918	30.81
227.152	40.81
227.387	35.81
227.621	33.81
227.856	45.81
228.09	44.81
228.324	54.81
228.559	72.81
228.793	57.81
229.027	72.81
229.262	63.81
229.496	63.81
229.73	97.81
229.964	94.81
230.199	74.81
230.433	78.81
230.667	75.81
230.901	80.81
231.136	84.81
231.37	73.81
231.604	82.81
231.838	91.81
232.072	98.81
232.306	86.81
232.541	82.81
232.775	70.81
233.009	95.81
233.243	87.81
233.477	86.81
233.711	80.81
233.945	79.81
234.179	79.81
234.413	82.81
234.647	81.81
234.881	89.81
235.115	78.81
235.349	71.81
235.583	87.81
235.817	84.81
236.051	78.81
236.285	74.81
236.519	95.81
236.753	90.81
236.987	74.81
237.221	82.81
237.455	84.81
237.689	91.81
237.922	79.81
238.156	87.81
238.39	79.81
238.624	71.81
238.858	77.81
239.091	89.81
239.325	71.81
239.559	90.81
239.793	88.81
240.027	94.81
240.26	82.81
240.494	88.81
240.728	84.81
240.961	70.81
241.195	88.81
241.429	87.81
241.662	89.81
241.896	77.81
242.13	74.81
242.363	79.81
242.597	84.81
242.83	88.81
243.064	89.81
243.298	82.81
243.531	88.81
243.765	75.81
243.998	91.81
244.232	87.81
244.465	87.81
244.699	83.81
244.932	79.81
245.166	72.81
245.399	85.81
245.633	80.81
245.866	93.81
246.099	92.81
246.333	93.81
246.566	86.81
246.8	72.81
247.033	103.81
247.266	70.81
247.5	83.81
247.733	83.81
247.966	79.81
248.2	92.81
248.433	88.81
248.666	85.81
248.899	98.81
249.133	78.81
249.366	105.81
249.599	86.81
249.832	82.81
250.066	95.81
250.299	84.81
250.532	89.81
250.765	88.81
250.998	75.81
251.231	73.81
251.465	84.81
251.698	92.81
251.931	84.81
252.164	82.81
252.397	88.81
252.63	75.81
252.863	81.81
253.096	94.81
253.329	76.81
253.562	66.81
253.795	87.81
254.028	85.81
254.261	82.81
254.494	88.81
254.727	67.81
254.96	81.81
255.193	76.81
255.426	84.81
255.659	87.81
255.892	87.81
256.124	85.81
256.357	97.81
256.59	68.81
256.823	83.81
257.056	86.81
257.289	96.81
257.521	79.81
257.754	67.81
257.987	86.81
258.22	92.81
258.452	88.81
258.685	81.81
258.918	74.81
259.151	93.81
259.383	100.81
259.616	87.81
259.849	92.81
260.081	97.81
260.314	88.81
260.547	82.81
260.779	80.81
261.012	96.81
261.244	81.81
261.477	88.81
261.71	91.81
261.942	98.81
262.175	114.81
262.407	84.81
262.64	86.81
262.872	90.81
263.105	92.81
263.337	88.81
263.57	86.81
263.802	66.81
264.035	95.81
264.267	98.81
264.499	83.81
264.732	87.81
264.964	75.81
265.197	74.81
265.429	85.81
265.661	72.81
265.894	102.81
266.126	85.81
266.358	82.81
266.591	89.81
266.823	74.81
267.055	85.81
267.287	89.81
267.52	94.81
267.752	87.81
267.984	88.81
268.216	97.81
268.448	71.81
268.681	80.81
268.913	78.81
269.145	89.81
269.377	98.81
269.609	73.81
269.841	89.81
270.073	87.81
270.306	81.81
270.538	90.81
270.77	68.81
271.002	74.81
271.234	93.81
271.466	87.81
271.698	79.81
271.93	83.81
272.162	89.81
272.394	99.81
272.626	95.81
272.858	79.81
273.09	88.81
273.322	94.81
273.553	90.81
273.785	97.81
274.017	93.81
274.249	97.81
274.481	102.81
274.713	84.81
274.945	92.81
275.176	80.81
275.408	100.81
275.64	101.81
275.872	88.81
276.104	90.81
276.335	95.81
276.567	84.81
276.799	112.81
277.031	115.81
277.262	104.81
277.494	82.81
277.726	99.81
277.957	95.81
278.189	91.81
278.421	81.81
278.652	76.81
278.884	87.81
279.115	79.81
279.347	91.81
279.579	89.81
279.81	88.81
280.042	91.81
280.273	80.81
280.505	86.81
280.736	86.81
280.968	108.81
281.199	86.81
281.431	93.81
281.662	92.81
281.894	94.81
282.125	94.81
282.356	94.81
282.588	126.81
282.819	119.81
283.051	92.81
283.282	89.81
283.513	110.81
283.745	88.81
283.976	87.81
284.207	84.81
284.439	81.81
284.67	86.81
284.901	94.81
285.132	95.81
285.364	86.81
285.595	72.81
285.826	91.81
286.057	91.81
286.288	91.81
286.52	100.81
286.751	87.81
286.982	86.81
287.213	92.81
287.444	86.81
287.675	89.81
287.906	87.81
288.138	85.81
288.369	95.81
288.6	101.81
288.831	71.81
289.062	100.81
289.293	93.81
289.524	99.81
289.755	81.81
289.986	91.81
290.217	78.81
290.448	86.81
290.679	84.81
290.91	85.81
291.141	94.81
291.371	107.81
291.602	90.81
291.833	80.81
292.064	97.81
292.295	89.81
292.526	90.81
292.757	90.81
292.987	91.81
293.218	90.81
293.449	97.81
293.68	91.81
293.91	86.81
294.141	106.81
294.372	81.81
294.603	74.81
294.833	97.81
295.064	87.81
295.295	89.81
295.525	87.81
295.756	86.81
295.987	121.81
296.217	130.81
296.448	131.81
296.679	89.81
296.909	88.81
297.14	92.81
297.37	92.81
297.601	88.81
297.831	103.81
298.062	99.81
298.292	92.81
298.523	85.81
298.753	93.81
298.984	86.81
299.214	99.81
299.445	110.81
299.675	91.81
299.905	102.81
300.136	105.81
300.366	94.81
300.597	96.81
300.827	87.81
301.057	102.81
301.288	92.81
301.518	107.81
301.748	84.81
301.979	98.81
302.209	100.81
302.439	101.81
302.669	91.81
302.9	74.81
303.13	107.81
303.36	94.81
303.59	98.81
303.82	106.81
304.051	88.81
304.281	78.81
304.511	98.81
304.741	103.81
304.971	105.81
305.201	101.81
305.431	78.81
305.661	81.81
305.891	106.81
306.121	103.81
306.352	102.81
306.582	104.81
306.812	93.81
307.042	92.81
307.272	87.81
307.502	100.81
307.731	110.81
307.961	86.81
308.191	99.81
308.421	84.81
308.651	97.81
308.881	85.81
309.111	108.81
309.341	95.81
309.571	108.81
309.8	90.81
310.03	100.81
310.26	94.81
310.49	92.81
310.72	111.81
310.949	105.81
311.179	90.81
311.409	73.81
311.639	93.81
311.868	82.81
312.098	86.81
312.328	91.81
312.557	94.81
312.787	101.81
313.017	98.81
313.246	91.81
313.476	103.81
313.706	97.81
313.935	99.81
314.165	107.81
314.394	92.81
314.624	105.81
314.853	115.81
315.083	96.81
315.312	95.81
315.542	100.81
315.771	110.81
316.001	99.81
316.23	97.81
316.46	99.81
316.689	101.81
316.919	98.81
317.148	91.81
317.377	94.81
317.607	99.81
317.836	94.81
318.065	91.81
318.295	76.81
318.524	84.81
318.753	94.81
318.983	100.81
319.212	106.81
319.441	115.81
319.67	106.81
319.9	95.81
320.129	96.81
320.358	99.81
320.587	100.81
320.816	110.81
321.046	108.81
321.275	107.81
321.504	98.81
321.733	112.81
321.962	112.81
322.191	96.81
322.42	95.81
322.649	99.81
322.878	124.81
323.108	118.81
323.337	130.81
323.566	135.81
323.795	138.81
324.024	200.81
324.253	393.81
324.482	799.81
324.71	1680.81
324.939	2235.81
325.168	802.81
325.397	238.81
325.626	148.81
325.855	147.81
326.084	119.81
326.313	122.81
326.542	139.81
326.77	227.81
326.999	459.81
327.228	938.81
327.457	1706.81
327.686	1338.81
327.914	373.81
328.143	195.81
328.372	138.81
328.6	132.81
328.829	111.81
329.058	119.81
329.287	122.81
329.515	110.81
329.744	106.81
329.972	117.81
330.201	114.81
330.43	111.81
330.658	113.81
330.887	141.81
331.115	119.81
331.344	98.81
331.572	111.81
331.801	96.81
332.03	91.81
332.258	110.81
332.486	88.81
332.715	94.81
332.943	98.81
333.172	92.81
333.4	92.81
333.629	119.81
333.857	106.81
334.085	105.81
334.314	111.81
334.542	118.81
334.771	104.81
334.999	100.81
335.227	82.81
335.455	90.81
335.684	106.81
335.912	107.81
336.14	98.81
336.369	84.81
336.597	102.81
336.825	94.81
337.053	90.81
337.281	94.81
337.51	89.81
337.738	86.81
337.966	105.81
338.194	92.81
338.422	99.81
338.65	94.81
338.878	90.81
339.106	96.81
339.334	102.81
339.562	96.81
339.79	87.81
340.018	105.81
340.246	84.81
340.474	84.81
340.702	94.81
340.93	97.81
341.158	97.81
341.386	100.81
341.614	97.81
341.842	98.81
342.07	98.81
342.298	94.81
342.526	101.81
342.754	101.81
342.981	95.81
343.209	87.81
343.437	96.81
343.665	107.81
343.893	108.81
344.12	110.81
344.348	98.81
344.576	89.81
344.804	90.81
345.031	90.81
345.259	108.81
345.487	88.81
345.714	99.81
345.942	82.81
346.17	105.81
346.397	95.81
346.625	98.81
346.853	105.81
347.08	89.81
347.308	110.81
347.535	105.81
347.763	98.81
347.99	84.81
348.218	102.81
348.445	105.81
348.673	92.81
348.9	101.81
349.128	100.81
349.355	90.81
349.583	98.81
349.81	92.81
350.037	106.81
350.265	92.81
350.492	97.81
350.72	89.81
350.947	96.81
351.174	111.81
351.402	112.81
351.629	97.81
351.856	107.81
352.083	105.81
352.311	97.81
352.538	110.81
352.765	117.81
352.992	112.81
353.22	101.81
353.447	103.81
353.674	113.81
353.901	97.81
354.128	106.81
354.355	86.81
354.583	92.81
354.81	95.81
355.037	100.81
355.264	102.81
355.491	99.81
355.718	87.81
355.945	86.81
356.172	89.81
356.399	100.81
356.626	84.81
356.853	97.81
357.08	99.81
357.307	93.81
357.534	98.81
357.761	99.81
357.988	99.81
358.215	98.81
358.441	111.81
358.668	94.81
358.895	93.81
359.122	95.81
359.349	92.81
359.576	103.81
359.802	91.81
360.029	106.81
360.256	108.81
360.483	104.81
360.709	92.81
360.936	103.81
361.163	97.81
361.39	97.81
361.616	97.81
361.843	106.81
362.07	99.81
362.296	98.81
362.523	80.81
362.749	99.81
362.976	93.81
363.203	97.81
363.429	88.81
363.656	96.81
363.882	89.81
364.109	91.81
364.335	104.81
364.562	98.81
364.788	82.81
365.015	100.81
365.241	117.81
365.468	96.81
365.694	103.81
365.92	95.81
366.147	90.81
366.373	89.81
366.599	84.81
366.826	106.81
367.052	80.81
367.278	91.81
367.505	96.81
367.731	93.81
367.957	108.81
368.184	96.81
368.41	89.81
368.636	110.81
368.862	116.81
369.089	107.81
369.315	90.81
369.541	78.81
369.767	95.81
369.993	100.81
370.219	94.81
370.445	84.81
370.672	84.81
370.898	82.81
371.124	94.81
371.35	89.81
371.576	90.81
371.802	101.81
372.028	86.81
372.254	96.81
372.48	84.81
372.706	91.81
372.932	95.81
373.158	103.81
373.384	96.81
373.61	102.81
373.835	88.81
374.061	104.81
374.287	93.81
374.513	90.81
374.739	81.81
374.965	94.81
375.191	84.81
375.416	96.81
375.642	97.81
375.868	104.81
376.094	91.81
376.319	96.81
376.545	90.81
376.771	92.81
376.997	105.81
377.222	97.81
377.448	92.81
377.674	90.81
377.899	87.81
378.125	97.81
378.35	107.81
378.576	92.81
378.802	95.81
379.027	90.81
379.253	96.81
379.478	86.81
379.704	88.81
379.929	102.81
380.155	98.81
380.38	92.81
380.606	102.81
380.831	92.81
381.057	99.81
381.282	109.81
381.507	102.81
381.733	97.81
381.958	108.81
382.184	95.81
382.409	101.81
382.634	112.81
382.86	106.81
383.085	105.81
383.31	92.81
383.535	102.81
383.761	91.81
383.986	89.81
384.211	95.81
384.436	107.81
384.662	96.81
384.887	100.81
385.112	111.81
385.337	98.81
385.562	92.81
385.787	89.81
386.013	106.81
386.238	111.81
386.463	100.81
386.688	112.81
386.913	84.81
387.138	88.81
387.363	102.81
387.588	95.81
387.813	101.81
388.038	107.81
388.263	123.81
388.488	111.81
388.713	92.81
388.938	106.81
389.163	82.81
389.387	105.81
389.612	104.81
389.837	89.81
390.062	89.81
390.287	101.81
390.512	95.81
390.736	96.81
390.961	100.81
391.186	87.81
391.411	112.81
391.636	108.81
391.86	90.81
392.085	78.81
392.31	96.81
392.534	90.81
392.759	76.81
392.984	90.81
393.208	87.81
393.433	90.81
393.658	99.81
393.882	86.81
394.107	86.81
394.331	82.81
394.556	79.81
394.78	80.81
395.005	91.81
395.229	79.81
395.454	95.81
395.678	101.81
395.903	96.81
396.127	99.81
396.352	92.81
396.576	96.81
396.801	92.81
397.025	90.81
397.249	93.81
397.474	101.81
397.698	88.81
397.922	84.81
398.147	82.81
398.371	94.81
398.595	88.81
398.82	94.81
399.044	91.81
399.268	93.81
399.492	90.81
399.717	92.81
399.941	89.81
400.165	96.81
400.389	94.81
400.613	84.81
400.837	89.81
401.062	77.81
401.286	96.81
401.51	95.81
401.734	82.81
401.958	107.81
402.182	120.81
402.406	162.81
402.63	126.81
402.854	106.81
403.078	94.81
403.302	95.81
403.526	86.81
403.75	82.81
403.974	83.81
404.198	89.81
404.422	85.81
404.645	90.81
404.869	91.81
405.093	102.81
405.317	95.81
405.541	97.81
405.765	105.81
405.988	116.81
406.212	173.81
406.436	209.81
406.66	143.81
406.883	111.81
407.107	86.81
407.331	104.81
407.555	95.81
407.778	103.81
408.002	88.81
408.226	96.81
408.449	93.81
408.673	90.81
408.896	93.81
409.12	90.81
409.344	100.81
409.567	94.81
409.791	86.81
410.014	105.81
410.238	107.81
410.461	102.81
410.685	99.81
410.908	104.81
411.132	105.81
411.355	108.81
411.578	88.81
411.802	75.81
412.025	86.81
412.249	91.81
412.472	81.81
412.695	92.81
412.919	83.81
413.142	78.81
413.365	82.81
413.589	88.81
413.812	78.81
414.035	87.81
414.258	98.81
414.482	86.81
414.705	75.81
414.928	89.81
415.151	95.81
415.374	83.81
415.597	94.81
415.821	94.81
416.044	95.81
416.267	86.81
416.49	103.81
416.713	100.81
416.936	96.81
417.159	92.81
417.382	91.81
417.605	96.81
417.828	106.81
418.051	97.81
418.274	82.81
418.497	88.81
418.72	98.81
418.943	96.81
419.166	100.81
419.389	89.81
419.611	97.81
419.834	92.81
420.057	94.81
420.28	97.81
420.503	79.81
420.726	96.81
420.948	93.81
421.171	96.81
421.394	92.81
421.617	91.81
421.839	89.81
422.062	106.81
422.285	96.81
422.507	102.81
422.73	106.81
422.953	90.81
423.175	95.81
423.398	98.81
423.621	91.81
423.843	89.81
424.066	90.81
424.288	92.81
424.511	98.81
424.733	105.81
424.956	107.81
425.178	87.81
425.401	81.81
425.623	112.81
425.846	95.81
426.068	95.81
426.291	89.81
426.513	92.81
426.735	98.81
426.958	103.81
427.18	97.81
427.402	129.81
427.625	142.81
427.847	152.81
428.069	105.81
428.292	100.81
428.514	104.81
428.736	91.81
428.958	93.81
429.181	99.81
429.403	87.81
429.625	91.81
429.847	105.81
430.069	101.81
430.292	90.81
430.514	81.81
430.736	90.81
430.958	78.81
431.18	95.81
431.402	89.81
431.624	96.81
431.846	101.81
432.068	99.81
432.29	83.81
432.512	91.81
432.734	101.81
432.956	92.81
433.178	102.81
433.4	102.81
433.622	114.81
433.844	100.81
434.066	85.81
434.287	94.81
434.509	88.81
434.731	94.81
434.953	86.81
435.175	95.81
435.397	106.81
435.618	82.81
435.84	120.81
436.062	116.81
436.284	95.81
436.505	112.81
436.727	104.81
436.949	102.81
437.17	107.81
437.392	91.81
437.614	88.81
437.835	105.81
438.057	123.81
438.278	108.81
438.5	115.81
438.721	129.81
438.943	116.81
439.165	83.81
439.386	82.81
439.608	97.81
439.829	94.81
440.05	113.81
440.272	126.81
440.493	102.81
440.715	90.81
440.936	80.81
441.158	91.81
441.379	100.81
441.6	105.81
441.822	87.81
442.043	98.81
442.264	125.81
442.486	108.81
442.707	99.81
442.928	121.81
443.149	136.81
443.371	127.81
443.592	115.81
443.813	118.81
444.034	102.81
444.255	105.81
444.476	99.81
444.698	102.81
444.919	101.81
445.14	138.81
445.361	130.81
445.582	104.81
445.803	128.81
446.024	125.81
446.245	124.81
446.466	115.81
446.687	82.81
446.908	97.81
447.129	97.81
447.35	103.81
447.571	81.81
447.792	94.81
448.013	105.81
448.234	94.81
448.455	113.81
448.675	111.81
448.896	113.81
449.117	108.81
449.338	99.81
449.559	119.81
449.779	119.81
450	97.81
450.221	97.81
450.442	85.81
450.662	97.81
450.883	88.81
451.104	124.81
451.324	102.81
451.545	90.81
451.766	105.81
451.986	103.81
452.207	101.81
452.428	99.81
452.648	105.81
452.869	111.81
453.089	118.81
453.31	110.81
453.53	80.81
453.751	106.81
453.971	102.81
454.192	108.81
454.412	87.81
454.633	92.81
454.853	92.81
455.073	76.81
455.294	105.81
455.514	94.81
455.734	88.81
455.955	82.81
456.175	82.81
456.395	82.81
456.616	88.81
456.836	77.81
457.056	87.81
457.276	96.81
457.497	96.81
457.717	76.81
457.937	99.81
458.157	87.81
458.377	94.81
458.598	96.81
458.818	142.81
459.038	151.81
459.258	116.81
459.478	80.81
459.698	85.81
459.918	89.81
460.138	93.81
460.358	89.81
460.578	101.81
460.798	91.81
461.018	82.81
461.238	95.81
461.458	86.81
461.678	87.81
461.898	90.81
462.118	91.81
462.338	85.81
462.558	85.81
462.777	93.81
462.997	81.81
463.217	100.81
463.437	85.81
463.657	87.81
463.876	89.81
464.096	100.81
464.316	97.81
464.536	90.81
464.755	96.81
464.975	108.81
465.195	143.81
465.414	143.81
465.634	111.81
465.854	91.81
466.073	90.81
466.293	89.81
466.512	99.81
466.732	87.81
466.951	101.81
467.171	89.81
467.391	100.81
467.61	115.81
467.829	97.81
468.049	90.81
468.268	75.81
468.488	94.81
468.707	91.81
468.927	105.81
469.146	93.81
469.365	92.81
469.585	88.81
469.804	105.81
470.023	98.81
470.243	90.81
470.462	104.81
470.681	115.81
470.901	99.81
471.12	106.81
471.339	105.81
471.558	95.81
471.777	91.81
471.997	100.81
472.216	89.81
472.435	105.81
472.654	95.81
472.873	90.81
473.092	87.81
473.311	85.81
473.53	84.81
473.749	98.81
473.968	98.81
474.187	96.81
474.406	95.81
474.625	81.81
474.844	91.81
475.063	98.81
475.282	97.81
475.501	92.81
475.72	89.81
475.939	96.81
476.158	92.81
476.377	89.81
476.596	98.81
476.814	84.81
477.033	94.81
477.252	96.81
477.471	93.81
477.69	89.81
477.908	91.81
478.127	79.81
478.346	106.81
478.564	97.81
478.783	89.81
479.002	89.81
479.22	84.81
479.439	107.81
479.658	102.81
479.876	86.81
480.095	82.81
480.313	88.81
480.532	103.81
480.751	92.81
480.969	112.81
481.188	142.81
481.406	135.81
481.624	103.81
481.843	96.81
482.061	80.81
482.28	103.81
482.498	96.81
482.717	95.81
482.935	86.81
483.153	94.81
483.372	98.81
483.59	91.81
483.808	80.81
484.027	96.81
484.245	93.81
484.463	99.81
484.681	92.81
484.9	87.81
485.118	108.81
485.336	100.81
485.554	98.81
485.772	78.81
485.99	112.81
486.209	105.81
486.427	113.81
486.645	110.81
486.863	128.81
487.081	99.81
487.299	99.81
487.517	91.81
487.735	88.81
487.953	93.81
488.171	107.81
488.389	97.81
488.607	90.81
488.825	90.81
489.043	89.81
489.261	95.81
489.479	91.81
489.696	96.81
489.914	90.81
490.132	75.81
490.35	97.81
490.568	86.81
490.786	89.81
491.003	94.81
491.221	90.81
491.439	103.81
491.657	90.81
491.874	84.81
492.092	97.81
492.31	104.81
492.527	89.81
492.745	87.81
492.963	90.81
493.18	105.81
493.398	89.81
493.615	100.81
493.833	86.81
494.05	119.81
494.268	78.81
494.485	99.81
494.703	88.81
494.92	100.81
495.138	95.81
495.355	94.81
495.573	97.81
495.79	89.81
496.008	84.81
496.225	88.81
496.442	95.81
496.66	108.81
496.877	101.81
497.094	101.81
497.312	88.81
497.529	94.81
497.746	100.81
497.963	100.81
498.181	93.81
498.398	103.81
498.615	102.81
498.832	105.81
499.049	106.81
499.267	78.81
499.484	98.81
499.701	87.81
499.918	96.81
500.135	89.81
500.352	102.81
500.569	94.81
500.786	90.81
501.003	90.81
501.22	88.81
501.437	86.81
501.654	99.81
501.871	110.81
502.088	88.81
502.305	102.81
502.522	105.81
502.739	88.81
502.956	82.81
503.172	91.81
503.389	101.81
503.606	94.81
503.823	94.81
504.04	96.81
504.256	92.81
504.473	100.81
504.69	106.81
504.907	98.81
505.123	104.81
505.34	99.81
505.557	90.81
505.773	90.81
505.99	95.81
506.207	87.81
506.423	97.81
506.64	92.81
506.856	100.81
507.073	94.81
507.289	100.81
507.506	113.81
507.722	106.81
507.939	116.81
508.155	100.81
508.372	91.81
508.588	93.81
508.805	101.81
509.021	113.81
509.238	99.81
509.454	89.81
509.67	109.81
509.887	107.81
510.103	130.81
510.319	203.81
510.536	704.81
510.752	2280.81
510.968	625.81
511.184	152.81
511.401	117.81
511.617	101.81
511.833	85.81
512.049	97.81
512.265	91.81
512.481	105.81
512.698	94.81
512.914	97.81
513.13	96.81
513.346	99.81
513.562	98.81
513.778	99.81
513.994	112.81
514.21	110.81
514.426	125.81
