Data from Uncirc_1990_H10_HRD10591_00008.txt Node
Date: Wed Jan 03 11:53:53 EST 2024
User: Yrep
Spectrometer: HR+D1059
Trigger mode: 1
Integration Time (sec): 1.000000E-1
Scans to average: 1
Electric dark correction enabled: true
Nonlinearity correction enabled: false
Boxcar width: 0
XAxis mode: Wavelengths
Number of Pixels in Spectrum: 2048
>>>>>Begin Spectral Data<<<<<
223.165	-10
223.4	-10
223.635	-10
223.869	-20
224.104	-15
224.338	-18
224.573	-10
224.808	-18
225.042	-10
225.277	-1
225.511	0
225.746	3
225.98	14
226.215	19
226.449	24
226.683	-2
226.918	18
227.152	26
227.387	33
227.621	35
227.856	22
228.09	33
228.324	48
228.559	52
228.793	57
229.027	65
229.262	77
229.496	76
229.73	73
229.964	84
230.199	77
230.433	82
230.667	83
230.901	79
231.136	82
231.37	86
231.604	77
231.838	64
232.072	84
232.306	88
232.541	88
232.775	77
233.009	57
233.243	86
233.477	91
233.711	81
233.945	69
234.179	76
234.413	75
234.647	73
234.881	74
235.115	70
235.349	83
235.583	76
235.817	65
236.051	80
236.285	72
236.519	76
236.753	61
236.987	76
237.221	76
237.455	70
237.689	74
237.922	75
238.156	79
238.39	83
238.624	84
238.858	75
239.091	77
239.325	74
239.559	77
239.793	82
240.027	66
240.26	76
240.494	74
240.728	81
240.961	67
241.195	77
241.429	77
241.662	84
241.896	68
242.13	67
242.363	87
242.597	90
242.83	72
243.064	76
243.298	77
243.531	82
243.765	83
243.998	76
244.232	74
244.465	82
244.699	76
244.932	69
245.166	79
245.399	68
245.633	65
245.866	74
246.099	90
246.333	83
246.566	72
246.8	76
247.033	81
247.266	62
247.5	60
247.733	71
247.966	55
248.2	70
248.433	89
248.666	74
248.899	85
249.133	96
249.366	90
249.599	95
249.832	78
250.066	70
250.299	77
250.532	65
250.765	75
250.998	72
251.231	74
251.465	70
251.698	77
251.931	86
252.164	90
252.397	64
252.63	69
252.863	81
253.096	82
253.329	75
253.562	82
253.795	80
254.028	82
254.261	73
254.494	81
254.727	85
254.96	84
255.193	77
255.426	78
255.659	79
255.892	82
256.124	75
256.357	82
256.59	88
256.823	93
257.056	74
257.289	74
257.521	88
257.754	84
257.987	78
258.22	83
258.452	90
258.685	78
258.918	73
259.151	78
259.383	77
259.616	90
259.849	80
260.081	89
260.314	80
260.547	69
260.779	77
261.012	80
261.244	84
261.477	88
261.71	85
261.942	91
262.175	103
262.407	84
262.64	79
262.872	73
263.105	88
263.337	85
263.57	78
263.802	81
264.035	84
264.267	85
264.499	80
264.732	88
264.964	88
265.197	94
265.429	84
265.661	60
265.894	76
266.126	77
266.358	79
266.591	74
266.823	78
267.055	76
267.287	72
267.52	85
267.752	78
267.984	77
268.216	76
268.448	83
268.681	66
268.913	82
269.145	82
269.377	77
269.609	83
269.841	75
270.073	95
270.306	80
270.538	81
270.77	83
271.002	84
271.234	92
271.466	78
271.698	72
271.93	65
272.162	83
272.394	95
272.626	75
272.858	78
273.09	91
273.322	76
273.553	76
273.785	65
274.017	80
274.249	69
274.481	80
274.713	81
274.945	91
275.176	89
275.408	84
275.64	85
275.872	80
276.104	82
276.335	86
276.567	96
276.799	100
277.031	94
277.262	90
277.494	94
277.726	84
277.957	78
278.189	86
278.421	68
278.652	95
278.884	80
279.115	86
279.347	91
279.579	73
279.81	84
280.042	96
280.273	86
280.505	79
280.736	76
280.968	81
281.199	73
281.431	66
281.662	83
281.894	74
282.125	82
282.356	106
282.588	129
282.819	117
283.051	83
283.282	90
283.513	91
283.745	89
283.976	83
284.207	72
284.439	89
284.67	92
284.901	82
285.132	96
285.364	84
285.595	89
285.826	80
286.057	88
286.288	81
286.52	86
286.751	66
286.982	93
287.213	83
287.444	81
287.675	88
287.906	85
288.138	61
288.369	86
288.6	101
288.831	90
289.062	97
289.293	95
289.524	99
289.755	86
289.986	86
290.217	84
290.448	92
290.679	86
290.91	93
291.141	72
291.371	95
291.602	80
291.833	97
292.064	81
292.295	73
292.526	96
292.757	81
292.987	74
293.218	81
293.449	89
293.68	90
293.91	81
294.141	91
294.372	83
294.603	89
294.833	88
295.064	80
295.295	82
295.525	99
295.756	108
295.987	92
296.217	122
296.448	113
296.679	102
296.909	96
297.14	81
297.37	77
297.601	93
297.831	91
298.062	86
298.292	84
298.523	79
298.753	88
298.984	91
299.214	89
299.445	85
299.675	85
299.905	96
300.136	101
300.366	92
300.597	98
300.827	77
301.057	95
301.288	86
301.518	92
301.748	88
301.979	80
302.209	82
302.439	84
302.669	97
302.9	80
303.13	101
303.36	90
303.59	97
303.82	95
304.051	85
304.281	75
304.511	88
304.741	81
304.971	77
305.201	80
305.431	92
305.661	101
305.891	84
306.121	88
306.352	83
306.582	94
306.812	100
307.042	95
307.272	100
307.502	83
307.731	79
307.961	73
308.191	98
308.421	86
308.651	83
308.881	87
309.111	89
309.341	91
309.571	96
309.8	102
310.03	79
310.26	88
310.49	89
310.72	92
310.949	94
311.179	91
311.409	88
311.639	95
311.868	100
312.098	102
312.328	96
312.557	93
312.787	90
313.017	99
313.246	88
313.476	80
313.706	88
313.935	82
314.165	87
314.394	89
314.624	96
314.853	97
315.083	90
315.312	108
315.542	92
315.771	108
316.001	90
316.23	94
316.46	98
316.689	96
316.919	98
317.148	91
317.377	100
317.607	92
317.836	92
318.065	85
318.295	94
318.524	83
318.753	89
318.983	93
319.212	92
319.441	97
319.67	88
319.9	87
320.129	91
320.358	77
320.587	92
320.816	108
321.046	85
321.275	96
321.504	84
321.733	85
321.962	98
322.191	96
322.42	106
322.649	109
322.878	109
323.108	101
323.337	101
323.566	122
323.795	134
324.024	180
324.253	324
324.482	641
324.71	1330
324.939	1759
325.168	677
325.397	219
325.626	125
325.855	107
326.084	103
326.313	110
326.542	129
326.77	194
326.999	380
327.228	740
327.457	1380
327.686	1107
327.914	321
328.143	162
328.372	132
328.6	113
328.829	89
329.058	108
329.287	116
329.515	115
329.744	98
329.972	108
330.201	91
330.43	94
330.658	99
330.887	110
331.115	101
331.344	93
331.572	98
331.801	111
332.03	93
332.258	84
332.486	82
332.715	90
332.943	85
333.172	105
333.4	81
333.629	100
333.857	103
334.085	96
334.314	85
334.542	98
334.771	98
334.999	90
335.227	84
335.455	90
335.684	92
335.912	80
336.14	100
336.369	98
336.597	106
336.825	99
337.053	89
337.281	94
337.51	94
337.738	93
337.966	86
338.194	87
338.422	77
338.65	96
338.878	97
339.106	98
339.334	85
339.562	84
339.79	91
340.018	90
340.246	88
340.474	80
340.702	96
340.93	99
341.158	91
341.386	76
341.614	93
341.842	93
342.07	98
342.298	96
342.526	78
342.754	92
342.981	80
343.209	94
343.437	89
343.665	89
343.893	85
344.12	84
344.348	97
344.576	99
344.804	88
345.031	98
345.259	94
345.487	78
345.714	91
345.942	97
346.17	79
346.397	80
346.625	93
346.853	84
347.08	78
347.308	78
347.535	87
347.763	92
347.99	90
348.218	94
348.445	102
348.673	92
348.9	90
349.128	84
349.355	98
349.583	90
349.81	86
350.037	100
350.265	105
350.492	97
350.72	80
350.947	86
351.174	107
351.402	116
351.629	84
351.856	106
352.083	110
352.311	99
352.538	95
352.765	98
352.992	114
353.22	110
353.447	125
353.674	98
353.901	100
354.128	89
354.355	88
354.583	96
354.81	106
355.037	93
355.264	88
355.491	100
355.718	105
355.945	97
356.172	100
356.399	74
356.626	81
356.853	98
357.08	90
357.307	81
357.534	89
357.761	95
357.988	94
358.215	97
358.441	97
358.668	73
358.895	75
359.122	89
359.349	84
359.576	104
359.802	80
360.029	98
360.256	106
360.483	86
360.709	94
360.936	90
361.163	93
361.39	89
361.616	97
361.843	79
362.07	89
362.296	98
362.523	76
362.749	83
362.976	69
363.203	76
363.429	85
363.656	86
363.882	101
364.109	91
364.335	96
364.562	97
364.788	84
365.015	102
365.241	102
365.468	94
365.694	105
365.92	105
366.147	81
366.373	92
366.599	89
366.826	84
367.052	90
367.278	95
367.505	88
367.731	87
367.957	89
368.184	94
368.41	99
368.636	92
368.862	99
369.089	76
369.315	96
369.541	95
369.767	95
369.993	90
370.219	85
370.445	92
370.672	82
370.898	90
371.124	81
371.35	97
371.576	81
371.802	94
372.028	94
372.254	80
372.48	76
372.706	84
372.932	79
373.158	85
373.384	93
373.61	86
373.835	101
374.061	86
374.287	84
374.513	88
374.739	87
374.965	91
375.191	69
375.416	89
375.642	92
375.868	90
376.094	81
376.319	94
376.545	97
376.771	77
376.997	75
377.222	93
377.448	85
377.674	89
377.899	96
378.125	88
378.35	88
378.576	89
378.802	96
379.027	90
379.253	99
379.478	93
379.704	90
379.929	89
380.155	78
380.38	89
380.606	103
380.831	91
381.057	94
381.282	98
381.507	80
381.733	106
381.958	85
382.184	102
382.409	95
382.634	100
382.86	94
383.085	109
383.31	90
383.535	108
383.761	87
383.986	96
384.211	79
384.436	96
384.662	90
384.887	90
385.112	106
385.337	88
385.562	98
385.787	90
386.013	99
386.238	118
386.463	112
386.688	110
386.913	116
387.138	97
387.363	99
387.588	113
387.813	99
388.038	107
388.263	123
388.488	101
388.713	83
388.938	105
389.163	92
389.387	107
389.612	91
389.837	109
390.062	90
390.287	107
390.512	92
390.736	99
390.961	76
391.186	93
391.411	96
391.636	92
391.86	86
392.085	86
392.31	89
392.534	82
392.759	93
392.984	83
393.208	86
393.433	88
393.658	84
393.882	88
394.107	68
394.331	67
394.556	90
394.78	85
395.005	78
395.229	88
395.454	94
395.678	86
395.903	87
396.127	80
396.352	85
396.576	90
396.801	82
397.025	88
397.249	90
397.474	77
397.698	94
397.922	92
398.147	73
398.371	93
398.595	96
398.82	91
399.044	88
399.268	80
399.492	83
399.717	77
399.941	96
400.165	92
400.389	67
400.613	77
400.837	82
401.062	86
401.286	83
401.51	84
401.734	92
401.958	97
402.182	106
402.406	127
402.63	118
402.854	93
403.078	86
403.302	93
403.526	90
403.75	93
403.974	89
404.198	85
404.422	73
404.645	82
404.869	89
405.093	104
405.317	90
405.541	98
405.765	98
405.988	107
406.212	139
406.436	189
406.66	125
406.883	102
407.107	88
407.331	102
407.555	95
407.778	75
408.002	93
408.226	88
408.449	94
408.673	80
408.896	81
409.12	94
409.344	82
409.567	88
409.791	76
410.014	84
410.238	96
410.461	88
410.685	101
410.908	87
411.132	95
411.355	94
411.578	92
411.802	84
412.025	94
412.249	92
412.472	82
412.695	92
412.919	79
413.142	84
413.365	93
413.589	91
413.812	88
414.035	95
414.258	81
414.482	78
414.705	86
414.928	94
415.151	87
415.374	83
415.597	102
415.821	80
416.044	102
416.267	99
416.49	85
416.713	97
416.936	85
417.159	90
417.382	85
417.605	82
417.828	96
418.051	90
418.274	94
418.497	93
418.72	90
418.943	86
419.166	84
419.389	78
419.611	98
419.834	92
420.057	88
420.28	83
420.503	78
420.726	87
420.948	93
421.171	79
421.394	87
421.617	89
421.839	84
422.062	86
422.285	88
422.507	104
422.73	106
422.953	87
423.175	87
423.398	74
423.621	90
423.843	89
424.066	85
424.288	96
424.511	89
424.733	88
424.956	114
425.178	93
425.401	83
425.623	101
425.846	91
426.068	88
426.291	73
426.513	85
426.735	98
426.958	99
427.18	100
427.402	105
427.625	127
427.847	105
428.069	90
428.292	86
428.514	68
428.736	63
428.958	91
429.181	82
429.403	83
429.625	88
429.847	80
430.069	109
430.292	89
430.514	98
430.736	78
430.958	93
431.18	84
431.402	79
431.624	87
431.846	74
432.068	89
432.29	88
432.512	106
432.734	84
432.956	84
433.178	101
433.4	112
433.622	88
433.844	87
434.066	96
434.287	105
434.509	91
434.731	87
434.953	92
435.175	85
435.397	100
435.618	89
435.84	109
436.062	115
436.284	97
436.505	84
436.727	99
436.949	80
437.17	91
437.392	81
437.614	82
437.835	95
438.057	101
438.278	98
438.5	87
438.721	109
438.943	89
439.165	85
439.386	72
439.608	85
439.829	92
440.05	107
440.272	126
440.493	90
440.715	78
440.936	74
441.158	92
441.379	87
441.6	90
441.822	86
442.043	100
442.264	95
442.486	104
442.707	92
442.928	97
443.149	104
443.371	111
443.592	96
443.813	108
444.034	98
444.255	92
444.476	99
444.698	88
444.919	76
445.14	137
445.361	134
445.582	102
445.803	116
446.024	117
446.245	117
446.466	105
446.687	85
446.908	88
447.129	63
447.35	93
447.571	84
447.792	93
448.013	107
448.234	95
448.455	97
448.675	114
448.896	120
449.117	96
449.338	98
449.559	116
449.779	120
450	92
450.221	78
450.442	78
450.662	93
450.883	100
451.104	108
451.324	80
451.545	93
451.766	94
451.986	78
452.207	91
452.428	79
452.648	101
452.869	97
453.089	108
453.31	88
453.53	82
453.751	95
453.971	97
454.192	98
454.412	88
454.633	96
454.853	69
455.073	79
455.294	94
455.514	82
455.734	93
455.955	80
456.175	93
456.395	97
456.616	93
456.836	75
457.056	83
457.276	96
457.497	92
457.717	94
457.937	89
458.157	91
458.377	85
458.598	86
458.818	110
459.038	120
459.258	100
459.478	92
459.698	84
459.918	84
460.138	78
460.358	75
460.578	90
460.798	79
461.018	83
461.238	90
461.458	78
461.678	84
461.898	82
462.118	81
462.338	81
462.558	61
462.777	76
462.997	84
463.217	92
463.437	86
463.657	84
463.876	89
464.096	84
464.316	83
464.536	95
464.755	87
464.975	94
465.195	132
465.414	122
465.634	92
465.854	70
466.073	80
466.293	85
466.512	77
466.732	87
466.951	88
467.171	90
467.391	86
467.61	88
467.829	85
468.049	87
468.268	86
468.488	85
468.707	85
468.927	90
469.146	84
469.365	73
469.585	90
469.804	93
470.023	84
470.243	81
470.462	99
470.681	98
470.901	91
471.12	93
471.339	84
471.558	76
471.777	92
471.997	77
472.216	87
472.435	90
472.654	76
472.873	82
473.092	86
473.311	93
473.53	91
473.749	92
473.968	84
474.187	87
474.406	92
474.625	86
474.844	87
475.063	80
475.282	83
475.501	98
475.72	76
475.939	80
476.158	90
476.377	90
476.596	78
476.814	90
477.033	84
477.252	79
477.471	74
477.69	84
477.908	85
478.127	81
478.346	83
478.564	92
478.783	85
479.002	88
479.22	80
479.439	87
479.658	74
479.876	79
480.095	84
480.313	96
480.532	98
480.751	85
480.969	97
481.188	98
481.406	90
481.624	80
481.843	91
482.061	84
482.28	83
482.498	88
482.717	86
482.935	99
483.153	105
483.372	78
483.59	68
483.808	74
484.027	91
484.245	102
484.463	92
484.681	91
484.9	92
485.118	91
485.336	93
485.554	89
485.772	99
485.99	111
486.209	99
486.427	108
486.645	115
486.863	105
487.081	107
487.299	91
487.517	90
487.735	94
487.953	89
488.171	98
488.389	97
488.607	98
488.825	90
489.043	80
489.261	89
489.479	86
489.696	92
489.914	96
490.132	77
490.35	94
490.568	88
490.786	86
491.003	80
491.221	83
491.439	88
491.657	109
491.874	100
492.092	99
492.31	102
492.527	102
492.745	84
492.963	83
493.18	92
493.398	85
493.615	100
493.833	94
494.05	81
494.268	82
494.485	80
494.703	87
494.92	88
495.138	105
495.355	88
495.573	89
495.79	94
496.008	89
496.225	99
496.442	76
496.66	79
496.877	84
497.094	80
497.312	85
497.529	104
497.746	84
497.963	84
498.181	80
498.398	91
498.615	102
498.832	103
499.049	97
499.267	78
499.484	77
499.701	88
499.918	97
500.135	81
500.352	79
500.569	84
500.786	95
501.003	81
501.22	90
501.437	86
501.654	96
501.871	89
502.088	88
502.305	79
502.522	83
502.739	95
502.956	89
503.172	77
503.389	91
503.606	106
503.823	93
504.04	95
504.256	85
504.473	85
504.69	90
504.907	92
505.123	96
505.34	95
505.557	85
505.773	94
505.99	88
506.207	81
506.423	86
506.64	86
506.856	87
507.073	92
507.289	96
507.506	84
507.722	103
507.939	93
508.155	89
508.372	80
508.588	94
508.805	94
509.021	98
509.238	92
509.454	93
509.67	90
509.887	93
510.103	101
510.319	185
510.536	618
510.752	1850
510.968	533
511.184	145
511.401	104
511.617	92
511.833	97
512.049	99
512.265	87
512.481	89
512.698	72
512.914	85
513.13	88
513.346	90
513.562	91
513.778	94
513.994	93
514.21	106
514.426	102
514.642	120
514.858	105
515.074	141
515.29	346
515.506	1080
515.721	410
515.937	126
516.153	90
516.369	97
516.585	95
516.801	84
517.016	96
517.232	86
517.448	106
517.664	97
517.879	104
518.095	78
518.311	88
518.527	101
518.742	95
518.958	86
519.173	98
519.389	84
519.605	88
519.82	78
520.036	82
520.251	99
520.467	86
520.682	107
520.898	109
521.113	108
521.329	124
521.544	163
521.76	426
521.975	1758
522.19	1068
522.406	245
522.621	122
522.836	93
523.052	94
523.267	77
523.482	85
523.698	88
523.913	116
524.128	111
524.343	97
524.559	90
524.774	99
524.989	94
525.204	94
525.419	106
525.634	80
525.849	98
526.064	89
526.28	87
526.495	78
526.71	86
526.925	82
527.14	75
527.355	75
527.57	102
527.785	77
527.999	75
528.214	96
528.429	82
528.644	101
528.859	96
529.074	80
529.289	112
529.503	142
529.718	94
529.933	88
530.148	74
530.363	96
530.577	86
530.792	88
531.007	99
531.221	96
531.436	76
531.651	86
531.865	82
532.08	100
532.295	83
532.509	83
532.724	93
532.938	97
533.153	79
533.367	90
533.582	100
533.796	75
534.011	101
534.225	99
534.44	100
534.654	112
534.868	103
535.083	92
535.297	91
535.511	96
535.726	108
535.94	81
536.154	91
536.369	95
536.583	89
536.797	107
537.011	98
537.225	88
537.44	81
537.654	93
537.868	64
538.082	96
538.296	92
538.51	77
538.724	93
538.938	85
539.153	105
539.367	107
539.581	102
539.795	113
540.009	98
540.222	80
540.436	101
540.65	85
540.864	93
541.078	106
541.292	90
541.506	85
541.72	109
541.934	88
542.147	103
542.361	91
542.575	92
542.789	76
543.002	88
543.216	94
543.43	85
543.644	76
543.857	93
544.071	73
544.285	96
544.498	88
544.712	102
544.925	84
545.139	99
545.352	76
545.566	83
545.779	93
545.993	89
546.206	94
546.42	89
546.633	85
546.847	95
547.06	81
547.274	86
547.487	93
547.7	78
547.914	81
548.127	84
548.34	75
548.554	88
548.767	89
548.98	94
549.193	84
549.407	89
549.62	89
549.833	76
550.046	73
550.259	80
550.473	81
550.686	90
550.899	91
551.112	93
551.325	88
551.538	100
551.751	66
551.964	80
552.177	90
552.39	95
552.603	80
552.816	100
553.029	84
553.242	87
553.455	85
553.667	113
553.88	98
554.093	99
554.306	82
554.519	78
554.732	87
554.944	92
555.157	70
555.37	87
555.583	97
555.795	91
556.008	101
556.221	92
556.433	78
556.646	80
556.859	97
557.071	80
557.284	88
557.496	85
557.709	90
557.921	94
558.134	89
558.346	83
558.559	91
558.771	78
558.984	83
559.196	83
559.409	85
559.621	95
559.833	79
560.046	94
560.258	94
560.47	80
560.683	85
560.895	70
561.107	76
561.32	85
561.532	85
561.744	103
561.956	101
562.168	84
562.381	80
562.593	91
562.805	78
563.017	99
563.229	100
563.441	80
563.653	92
563.865	81
564.077	80
564.289	73
564.501	88
564.713	80
564.925	92
565.137	82
565.349	91
565.561	82
565.773	86
565.985	73
566.197	89
566.408	93
566.62	90
566.832	98
567.044	89
567.255	82
567.467	76
567.679	94
567.891	91
568.102	81
568.314	85
568.526	99
568.737	78
568.949	94
569.161	86
569.372	88
569.584	98
569.795	89
570.007	104
570.218	205
570.43	136
570.641	94
570.853	82
571.064	92
571.276	77
571.487	84
571.698	92
571.91	80
572.121	86
572.333	85
572.544	81
572.755	94
572.966	88
573.178	105
573.389	87
573.6	84
573.811	78
574.023	86
574.234	62
574.445	86
574.656	86
574.867	90
575.078	97
575.289	82
575.501	89
575.712	67
575.923	79
576.134	82
576.345	87
576.556	91
576.767	78
576.978	82
577.188	91
577.399	96
577.61	104
577.821	93
578.032	109
578.243	233
578.454	628
578.665	190
578.875	99
579.086	91
579.297	83
579.508	84
579.718	96
579.929	82
580.14	98
580.35	98
580.561	85
580.772	78
580.982	82
581.193	79
581.403	91
581.614	86
581.825	93
582.035	85
582.246	84
582.456	100
582.667	80
582.877	90
583.087	89
583.298	88
583.508	93
583.719	83
583.929	85
584.139	80
584.35	84
584.56	97
584.77	100
584.981	89
585.191	75
585.401	82
585.611	93
585.821	97
586.032	85
586.242	84
586.452	82
