Data from Uncirc_1990_H10_HRD10591_00087.txt Node
Date: Wed Jan 03 11:54:09 EST 2024
User: Yrep
Spectrometer: HR+D1059
Trigger mode: 1
Integration Time (sec): 1.000000E-1
Scans to average: 1
Electric dark correction enabled: true
Nonlinearity correction enabled: false
Boxcar width: 0
XAxis mode: Wavelengths
Number of Pixels in Spectrum: 2048
>>>>>Begin Spectral Data<<<<<
223.165	-13.75
223.4	-13.75
223.635	-13.75
223.869	-11.75
224.104	-28.75
224.338	-19.75
224.573	-22.75
224.808	2.25
225.042	2.25
225.277	-5.75
225.511	-0.75
225.746	7.25
225.98	2.25
226.215	18.25
226.449	5.25
226.683	19.25
226.918	22.25
227.152	24.25
227.387	35.25
227.621	43.25
227.856	46.25
228.09	58.25
228.324	50.25
228.559	54.25
228.793	55.25
229.027	61.25
229.262	56.25
229.496	60.25
229.73	79.25
229.964	69.25
230.199	71.25
230.433	67.25
230.667	90.25
230.901	71.25
231.136	87.25
231.37	87.25
231.604	79.25
231.838	90.25
232.072	86.25
232.306	77.25
232.541	75.25
232.775	89.25
233.009	86.25
233.243	81.25
233.477	71.25
233.711	84.25
233.945	82.25
234.179	69.25
234.413	72.25
234.647	73.25
234.881	74.25
235.115	77.25
235.349	75.25
235.583	64.25
235.817	68.25
236.051	82.25
236.285	69.25
236.519	72.25
236.753	66.25
236.987	77.25
237.221	87.25
237.455	95.25
237.689	58.25
237.922	75.25
238.156	71.25
238.39	78.25
238.624	82.25
238.858	79.25
239.091	98.25
239.325	82.25
239.559	75.25
239.793	80.25
240.027	87.25
240.26	69.25
240.494	91.25
240.728	75.25
240.961	78.25
241.195	86.25
241.429	85.25
241.662	76.25
241.896	76.25
242.13	86.25
242.363	69.25
242.597	74.25
242.83	76.25
243.064	79.25
243.298	82.25
243.531	69.25
243.765	78.25
243.998	81.25
244.232	76.25
244.465	84.25
244.699	90.25
244.932	76.25
245.166	80.25
245.399	81.25
245.633	78.25
245.866	79.25
246.099	74.25
246.333	76.25
246.566	76.25
246.8	70.25
247.033	86.25
247.266	81.25
247.5	71.25
247.733	78.25
247.966	87.25
248.2	86.25
248.433	78.25
248.666	79.25
248.899	71.25
249.133	88.25
249.366	95.25
249.599	88.25
249.832	78.25
250.066	76.25
250.299	81.25
250.532	93.25
250.765	76.25
250.998	84.25
251.231	78.25
251.465	82.25
251.698	84.25
251.931	79.25
252.164	82.25
252.397	74.25
252.63	63.25
252.863	68.25
253.096	80.25
253.329	74.25
253.562	84.25
253.795	75.25
254.028	79.25
254.261	86.25
254.494	75.25
254.727	70.25
254.96	81.25
255.193	83.25
255.426	77.25
255.659	87.25
255.892	85.25
256.124	74.25
256.357	78.25
256.59	81.25
256.823	68.25
257.056	100.25
257.289	82.25
257.521	88.25
257.754	82.25
257.987	100.25
258.22	80.25
258.452	81.25
258.685	95.25
258.918	87.25
259.151	83.25
259.383	96.25
259.616	90.25
259.849	83.25
260.081	87.25
260.314	89.25
260.547	92.25
260.779	80.25
261.012	88.25
261.244	91.25
261.477	94.25
261.71	88.25
261.942	88.25
262.175	110.25
262.407	87.25
262.64	82.25
262.872	72.25
263.105	74.25
263.337	86.25
263.57	81.25
263.802	79.25
264.035	80.25
264.267	77.25
264.499	89.25
264.732	76.25
264.964	87.25
265.197	92.25
265.429	72.25
265.661	88.25
265.894	74.25
266.126	88.25
266.358	78.25
266.591	80.25
266.823	91.25
267.055	76.25
267.287	86.25
267.52	82.25
267.752	85.25
267.984	92.25
268.216	76.25
268.448	93.25
268.681	90.25
268.913	76.25
269.145	77.25
269.377	87.25
269.609	85.25
269.841	105.25
270.073	80.25
270.306	83.25
270.538	94.25
270.77	87.25
271.002	86.25
271.234	94.25
271.466	71.25
271.698	83.25
271.93	94.25
272.162	88.25
272.394	100.25
272.626	78.25
272.858	91.25
273.09	103.25
273.322	87.25
273.553	89.25
273.785	96.25
274.017	82.25
274.249	84.25
274.481	82.25
274.713	81.25
274.945	91.25
275.176	88.25
275.408	80.25
275.64	87.25
275.872	83.25
276.104	85.25
276.335	80.25
276.567	100.25
276.799	95.25
277.031	101.25
277.262	75.25
277.494	84.25
277.726	84.25
277.957	64.25
278.189	82.25
278.421	91.25
278.652	90.25
278.884	79.25
279.115	89.25
279.347	91.25
279.579	83.25
279.81	92.25
280.042	88.25
280.273	85.25
280.505	84.25
280.736	94.25
280.968	76.25
281.199	85.25
281.431	86.25
281.662	87.25
281.894	84.25
282.125	96.25
282.356	114.25
282.588	122.25
282.819	107.25
283.051	89.25
283.282	80.25
283.513	86.25
283.745	88.25
283.976	86.25
284.207	96.25
284.439	96.25
284.67	86.25
284.901	98.25
285.132	85.25
285.364	87.25
285.595	65.25
285.826	78.25
286.057	84.25
286.288	85.25
286.52	84.25
286.751	81.25
286.982	91.25
287.213	82.25
287.444	83.25
287.675	93.25
287.906	84.25
288.138	90.25
288.369	83.25
288.6	94.25
288.831	95.25
289.062	101.25
289.293	88.25
289.524	84.25
289.755	100.25
289.986	78.25
290.217	87.25
290.448	84.25
290.679	85.25
290.91	103.25
291.141	92.25
291.371	93.25
291.602	89.25
291.833	85.25
292.064	79.25
292.295	102.25
292.526	87.25
292.757	102.25
292.987	82.25
293.218	75.25
293.449	93.25
293.68	81.25
293.91	91.25
294.141	77.25
294.372	84.25
294.603	96.25
294.833	87.25
295.064	85.25
295.295	110.25
295.525	80.25
295.756	106.25
295.987	118.25
296.217	131.25
296.448	115.25
296.679	95.25
296.909	107.25
297.14	98.25
297.37	90.25
297.601	99.25
297.831	88.25
298.062	84.25
298.292	91.25
298.523	93.25
298.753	71.25
298.984	84.25
299.214	82.25
299.445	91.25
299.675	84.25
299.905	94.25
300.136	92.25
300.366	102.25
300.597	99.25
300.827	86.25
301.057	78.25
301.288	102.25
301.518	107.25
301.748	99.25
301.979	98.25
302.209	94.25
302.439	63.25
302.669	90.25
302.9	93.25
303.13	94.25
303.36	92.25
303.59	90.25
303.82	99.25
304.051	101.25
304.281	106.25
304.511	98.25
304.741	90.25
304.971	79.25
305.201	87.25
305.431	89.25
305.661	84.25
305.891	94.25
306.121	87.25
306.352	82.25
306.582	80.25
306.812	94.25
307.042	87.25
307.272	102.25
307.502	102.25
307.731	80.25
307.961	84.25
308.191	76.25
308.421	79.25
308.651	88.25
308.881	93.25
309.111	103.25
309.341	96.25
309.571	95.25
309.8	95.25
310.03	101.25
310.26	89.25
310.49	99.25
310.72	104.25
310.949	113.25
311.179	102.25
311.409	87.25
311.639	80.25
311.868	100.25
312.098	87.25
312.328	93.25
312.557	99.25
312.787	105.25
313.017	97.25
313.246	86.25
313.476	93.25
313.706	87.25
313.935	90.25
314.165	87.25
314.394	94.25
314.624	92.25
314.853	108.25
315.083	75.25
315.312	88.25
315.542	98.25
315.771	100.25
316.001	98.25
316.23	95.25
316.46	75.25
316.689	78.25
316.919	96.25
317.148	78.25
317.377	90.25
317.607	87.25
317.836	96.25
318.065	104.25
318.295	99.25
318.524	92.25
318.753	92.25
318.983	113.25
319.212	106.25
319.441	108.25
319.67	110.25
319.9	92.25
320.129	91.25
320.358	85.25
320.587	77.25
320.816	100.25
321.046	103.25
321.275	99.25
321.504	94.25
321.733	104.25
321.962	105.25
322.191	109.25
322.42	119.25
322.649	107.25
322.878	105.25
323.108	119.25
323.337	104.25
323.566	123.25
323.795	151.25
324.024	183.25
324.253	364.25
324.482	784.25
324.71	1621.25
324.939	2231.25
325.168	793.25
325.397	243.25
325.626	146.25
325.855	123.25
326.084	130.25
326.313	129.25
326.542	150.25
326.77	234.25
326.999	442.25
327.228	887.25
327.457	1650.25
327.686	1316.25
327.914	359.25
328.143	193.25
328.372	140.25
328.6	148.25
328.829	118.25
329.058	129.25
329.287	135.25
329.515	111.25
329.744	97.25
329.972	98.25
330.201	100.25
330.43	120.25
330.658	125.25
330.887	133.25
331.115	123.25
331.344	113.25
331.572	104.25
331.801	110.25
332.03	102.25
332.258	104.25
332.486	84.25
332.715	84.25
332.943	99.25
333.172	86.25
333.4	94.25
333.629	108.25
333.857	121.25
334.085	114.25
334.314	98.25
334.542	104.25
334.771	112.25
334.999	105.25
335.227	90.25
335.455	95.25
335.684	98.25
335.912	92.25
336.14	89.25
336.369	98.25
336.597	92.25
336.825	105.25
337.053	87.25
337.281	85.25
337.51	92.25
337.738	103.25
337.966	92.25
338.194	84.25
338.422	82.25
338.65	90.25
338.878	90.25
339.106	91.25
339.334	90.25
339.562	82.25
339.79	89.25
340.018	92.25
340.246	89.25
340.474	96.25
340.702	90.25
340.93	94.25
341.158	98.25
341.386	94.25
341.614	102.25
341.842	94.25
342.07	77.25
342.298	91.25
342.526	101.25
342.754	101.25
342.981	87.25
343.209	98.25
343.437	100.25
343.665	110.25
343.893	90.25
344.12	91.25
344.348	100.25
344.576	106.25
344.804	97.25
345.031	106.25
345.259	109.25
345.487	103.25
345.714	102.25
345.942	78.25
346.17	91.25
346.397	87.25
346.625	91.25
346.853	82.25
347.08	90.25
347.308	98.25
347.535	96.25
347.763	91.25
347.99	98.25
348.218	92.25
348.445	107.25
348.673	98.25
348.9	91.25
349.128	76.25
349.355	87.25
349.583	94.25
349.81	98.25
350.037	100.25
350.265	92.25
350.492	86.25
350.72	82.25
350.947	91.25
351.174	108.25
351.402	113.25
351.629	106.25
351.856	88.25
352.083	89.25
352.311	86.25
352.538	99.25
352.765	112.25
352.992	111.25
353.22	112.25
353.447	97.25
353.674	102.25
353.901	102.25
354.128	84.25
354.355	84.25
354.583	95.25
354.81	96.25
355.037	113.25
355.264	95.25
355.491	94.25
355.718	92.25
355.945	88.25
356.172	88.25
356.399	92.25
356.626	87.25
356.853	92.25
357.08	98.25
357.307	84.25
357.534	76.25
357.761	84.25
357.988	87.25
358.215	90.25
358.441	85.25
358.668	94.25
358.895	97.25
359.122	95.25
359.349	104.25
359.576	101.25
359.802	98.25
360.029	118.25
360.256	98.25
360.483	98.25
360.709	86.25
360.936	98.25
361.163	101.25
361.39	87.25
361.616	103.25
361.843	79.25
362.07	95.25
362.296	97.25
362.523	85.25
362.749	83.25
362.976	80.25
363.203	90.25
363.429	95.25
363.656	97.25
363.882	78.25
364.109	95.25
364.335	82.25
364.562	82.25
364.788	96.25
365.015	96.25
365.241	102.25
365.468	89.25
365.694	108.25
365.92	91.25
366.147	100.25
366.373	84.25
366.599	82.25
366.826	99.25
367.052	93.25
367.278	111.25
367.505	93.25
367.731	82.25
367.957	88.25
368.184	95.25
368.41	100.25
368.636	108.25
368.862	117.25
369.089	103.25
369.315	95.25
369.541	85.25
369.767	78.25
369.993	85.25
370.219	98.25
370.445	85.25
370.672	85.25
370.898	85.25
371.124	95.25
371.35	92.25
371.576	82.25
371.802	90.25
372.028	96.25
372.254	81.25
372.48	84.25
372.706	79.25
372.932	94.25
373.158	77.25
373.384	96.25
373.61	101.25
373.835	88.25
374.061	84.25
374.287	80.25
374.513	103.25
374.739	86.25
374.965	104.25
375.191	87.25
375.416	103.25
375.642	97.25
375.868	102.25
376.094	87.25
376.319	81.25
376.545	94.25
376.771	86.25
376.997	93.25
377.222	93.25
377.448	98.25
377.674	90.25
377.899	71.25
378.125	95.25
378.35	102.25
378.576	87.25
378.802	80.25
379.027	99.25
379.253	99.25
379.478	88.25
379.704	77.25
379.929	69.25
380.155	85.25
380.38	92.25
380.606	84.25
380.831	101.25
381.057	96.25
381.282	80.25
381.507	86.25
381.733	86.25
381.958	94.25
382.184	87.25
382.409	94.25
382.634	102.25
382.86	96.25
383.085	97.25
383.31	94.25
383.535	94.25
383.761	94.25
383.986	96.25
384.211	94.25
384.436	111.25
384.662	93.25
384.887	109.25
385.112	101.25
385.337	94.25
385.562	89.25
385.787	102.25
386.013	96.25
386.238	104.25
386.463	96.25
386.688	114.25
386.913	98.25
387.138	94.25
387.363	86.25
387.588	98.25
387.813	109.25
388.038	93.25
388.263	91.25
388.488	102.25
388.713	110.25
388.938	114.25
389.163	97.25
389.387	91.25
389.612	80.25
389.837	104.25
390.062	92.25
390.287	87.25
390.512	88.25
390.736	90.25
390.961	92.25
391.186	93.25
391.411	86.25
391.636	94.25
391.86	74.25
392.085	99.25
392.31	68.25
392.534	84.25
392.759	77.25
392.984	95.25
393.208	93.25
393.433	86.25
393.658	93.25
393.882	79.25
394.107	96.25
394.331	103.25
394.556	79.25
394.78	93.25
395.005	87.25
395.229	102.25
395.454	86.25
395.678	76.25
395.903	79.25
396.127	72.25
396.352	97.25
396.576	98.25
396.801	80.25
397.025	77.25
397.249	85.25
397.474	82.25
397.698	96.25
397.922	95.25
398.147	84.25
398.371	82.25
398.595	86.25
398.82	80.25
399.044	83.25
399.268	84.25
399.492	78.25
399.717	96.25
399.941	101.25
400.165	87.25
400.389	96.25
400.613	79.25
400.837	90.25
401.062	82.25
401.286	85.25
401.51	80.25
401.734	102.25
401.958	90.25
402.182	117.25
402.406	141.25
402.63	114.25
402.854	91.25
403.078	88.25
403.302	74.25
403.526	98.25
403.75	93.25
403.974	82.25
404.198	94.25
404.422	92.25
404.645	87.25
404.869	97.25
405.093	91.25
405.317	95.25
405.541	106.25
405.765	88.25
405.988	110.25
406.212	153.25
406.436	219.25
406.66	125.25
406.883	78.25
407.107	91.25
407.331	97.25
407.555	91.25
407.778	88.25
408.002	90.25
408.226	99.25
408.449	92.25
408.673	97.25
408.896	108.25
409.12	95.25
409.344	89.25
409.567	100.25
409.791	91.25
410.014	91.25
410.238	86.25
410.461	108.25
410.685	96.25
410.908	100.25
411.132	101.25
411.355	91.25
411.578	86.25
411.802	90.25
412.025	84.25
412.249	76.25
412.472	92.25
412.695	97.25
412.919	86.25
413.142	83.25
413.365	77.25
413.589	96.25
413.812	100.25
414.035	91.25
414.258	83.25
414.482	86.25
414.705	96.25
414.928	76.25
415.151	97.25
415.374	102.25
415.597	86.25
415.821	87.25
416.044	101.25
416.267	76.25
416.49	109.25
416.713	77.25
416.936	102.25
417.159	81.25
417.382	62.25
417.605	93.25
417.828	92.25
418.051	96.25
418.274	80.25
418.497	87.25
418.72	75.25
418.943	81.25
419.166	90.25
419.389	103.25
419.611	90.25
419.834	98.25
420.057	88.25
420.28	91.25
420.503	107.25
420.726	91.25
420.948	76.25
421.171	88.25
421.394	86.25
421.617	79.25
421.839	87.25
422.062	93.25
422.285	98.25
422.507	99.25
422.73	101.25
422.953	102.25
423.175	77.25
423.398	91.25
423.621	86.25
423.843	85.25
424.066	91.25
424.288	78.25
424.511	86.25
424.733	95.25
424.956	104.25
425.178	92.25
425.401	88.25
425.623	99.25
425.846	102.25
426.068	97.25
426.291	103.25
426.513	77.25
426.735	82.25
426.958	103.25
427.18	96.25
427.402	130.25
427.625	166.25
427.847	131.25
428.069	122.25
428.292	95.25
428.514	81.25
428.736	86.25
428.958	92.25
429.181	86.25
429.403	72.25
429.625	80.25
429.847	96.25
430.069	100.25
430.292	86.25
430.514	78.25
430.736	79.25
430.958	90.25
431.18	98.25
431.402	79.25
431.624	93.25
431.846	92.25
432.068	87.25
432.29	100.25
432.512	82.25
432.734	90.25
432.956	94.25
433.178	93.25
433.4	101.25
433.622	102.25
433.844	93.25
434.066	91.25
434.287	98.25
434.509	90.25
434.731	86.25
434.953	81.25
435.175	92.25
435.397	90.25
435.618	87.25
435.84	105.25
436.062	128.25
436.284	110.25
436.505	100.25
436.727	96.25
436.949	79.25
437.17	82.25
437.392	90.25
437.614	103.25
437.835	93.25
438.057	124.25
438.278	98.25
438.5	81.25
438.721	119.25
438.943	98.25
439.165	90.25
439.386	89.25
439.608	85.25
439.829	104.25
440.05	117.25
440.272	156.25
440.493	95.25
440.715	92.25
440.936	97.25
441.158	96.25
441.379	90.25
441.6	97.25
441.822	92.25
442.043	109.25
442.264	112.25
442.486	103.25
442.707	76.25
442.928	95.25
443.149	122.25
443.371	104.25
443.592	116.25
443.813	97.25
444.034	102.25
444.255	91.25
444.476	78.25
444.698	94.25
444.919	93.25
445.14	124.25
445.361	116.25
445.582	111.25
445.803	133.25
446.024	117.25
446.245	125.25
446.466	102.25
446.687	84.25
446.908	96.25
447.129	88.25
447.35	90.25
447.571	87.25
447.792	93.25
448.013	87.25
448.234	112.25
448.455	89.25
448.675	117.25
448.896	113.25
449.117	105.25
449.338	98.25
449.559	111.25
449.779	124.25
450	93.25
450.221	88.25
450.442	91.25
450.662	94.25
450.883	93.25
451.104	103.25
451.324	96.25
451.545	89.25
451.766	78.25
451.986	77.25
452.207	81.25
452.428	102.25
452.648	105.25
452.869	102.25
453.089	112.25
453.31	115.25
453.53	83.25
453.751	97.25
453.971	84.25
454.192	115.25
454.412	99.25
454.633	95.25
454.853	88.25
455.073	80.25
455.294	97.25
455.514	114.25
455.734	83.25
455.955	72.25
456.175	78.25
456.395	74.25
456.616	80.25
456.836	96.25
457.056	75.25
457.276	75.25
457.497	93.25
457.717	79.25
457.937	95.25
458.157	83.25
458.377	93.25
458.598	105.25
458.818	132.25
459.038	161.25
459.258	123.25
459.478	79.25
459.698	98.25
459.918	76.25
460.138	81.25
460.358	84.25
460.578	81.25
460.798	80.25
461.018	108.25
461.238	98.25
461.458	76.25
461.678	89.25
461.898	91.25
462.118	91.25
462.338	91.25
462.558	91.25
462.777	88.25
462.997	91.25
463.217	100.25
463.437	82.25
463.657	83.25
463.876	93.25
464.096	92.25
464.316	88.25
464.536	95.25
464.755	100.25
464.975	111.25
465.195	157.25
465.414	134.25
465.634	83.25
465.854	72.25
466.073	94.25
466.293	90.25
466.512	95.25
466.732	106.25
466.951	76.25
467.171	90.25
467.391	85.25
467.61	94.25
467.829	89.25
468.049	94.25
468.268	108.25
468.488	78.25
468.707	86.25
468.927	91.25
469.146	95.25
469.365	85.25
469.585	90.25
469.804	76.25
470.023	86.25
470.243	104.25
470.462	96.25
470.681	104.25
470.901	95.25
471.12	90.25
471.339	86.25
471.558	97.25
471.777	94.25
471.997	89.25
472.216	106.25
472.435	121.25
472.654	90.25
472.873	101.25
473.092	86.25
473.311	71.25
473.53	69.25
473.749	92.25
473.968	97.25
474.187	103.25
474.406	91.25
474.625	79.25
474.844	102.25
475.063	86.25
475.282	95.25
475.501	91.25
475.72	80.25
475.939	82.25
476.158	76.25
476.377	98.25
476.596	94.25
476.814	92.25
477.033	88.25
477.252	75.25
477.471	83.25
477.69	70.25
477.908	87.25
478.127	92.25
478.346	107.25
478.564	96.25
478.783	86.25
479.002	81.25
479.22	80.25
479.439	90.25
479.658	89.25
479.876	89.25
480.095	68.25
480.313	106.25
480.532	92.25
480.751	94.25
480.969	101.25
481.188	163.25
481.406	128.25
481.624	76.25
481.843	80.25
482.061	95.25
482.28	87.25
482.498	87.25
482.717	98.25
482.935	97.25
483.153	85.25
483.372	89.25
483.59	77.25
483.808	83.25
484.027	83.25
484.245	88.25
484.463	93.25
484.681	91.25
484.9	89.25
485.118	104.25
485.336	106.25
485.554	83.25
485.772	94.25
485.99	102.25
486.209	100.25
486.427	99.25
486.645	95.25
486.863	115.25
487.081	86.25
487.299	95.25
487.517	101.25
487.735	97.25
487.953	87.25
488.171	78.25
488.389	91.25
488.607	102.25
488.825	71.25
489.043	80.25
489.261	91.25
489.479	84.25
489.696	98.25
489.914	109.25
490.132	100.25
490.35	94.25
490.568	83.25
490.786	89.25
491.003	72.25
491.221	99.25
491.439	94.25
491.657	98.25
491.874	101.25
492.092	80.25
492.31	110.25
492.527	86.25
492.745	87.25
492.963	77.25
493.18	84.25
493.398	90.25
493.615	101.25
493.833	94.25
494.05	87.25
494.268	109.25
494.485	92.25
494.703	71.25
494.92	92.25
495.138	88.25
495.355	101.25
495.573	92.25
495.79	94.25
496.008	99.25
496.225	84.25
496.442	94.25
496.66	98.25
496.877	96.25
497.094	99.25
497.312	91.25
497.529	96.25
497.746	94.25
497.963	93.25
498.181	90.25
498.398	102.25
498.615	112.25
498.832	101.25
499.049	98.25
499.267	70.25
499.484	90.25
499.701	93.25
499.918	98.25
500.135	86.25
500.352	85.25
500.569	76.25
500.786	102.25
501.003	90.25
501.22	75.25
501.437	87.25
501.654	80.25
501.871	92.25
502.088	82.25
502.305	85.25
502.522	86.25
502.739	84.25
502.956	80.25
503.172	96.25
503.389	81.25
503.606	92.25
503.823	90.25
504.04	93.25
504.256	96.25
504.473	86.25
504.69	95.25
504.907	78.25
505.123	100.25
505.34	97.25
505.557	83.25
505.773	82.25
505.99	85.25
506.207	100.25
506.423	103.25
506.64	96.25
506.856	111.25
507.073	95.25
507.289	94.25
507.506	104.25
507.722	92.25
507.939	104.25
508.155	85.25
508.372	99.25
508.588	95.25
508.805	88.25
509.021	95.25
509.238	92.25
509.454	90.25
509.67	95.25
509.887	108.25
510.103	133.25
510.319	192.25
510.536	675.25
510.752	2252.25
510.968	641.25
511.184	147.25
511.401	124.25
511.617	99.25
511.833	99.25
512.049	87.25
512.265	89.25
512.481	102.25
512.698	91.25
512.914	93.25
513.13	87.25
513.346	102.25
513.562	84.25
513.778	84.25
513.994	90.25
514.21	93.25
514.426	120.25
514.642	128.25
514.858	112.25
515.074	149.25
515.29	412.25
515.506	1316.25
515.721	480.25
515.937	145.25
