Data from Uncirc_1990_H10_HRD10591_00073.txt Node
Date: Wed Jan 03 11:54:06 EST 2024
User: Yrep
Spectrometer: HR+D1059
Trigger mode: 1
Integration Time (sec): 1.000000E-1
Scans to average: 1
Electric dark correction enabled: true
Nonlinearity correction enabled: false
Boxcar width: 0
XAxis mode: Wavelengths
Number of Pixels in Spectrum: 2048
>>>>>Begin Spectral Data<<<<<
223.165	-18.12
223.4	-18.12
223.635	-18.12
223.869	-24.12
224.104	-24.12
224.338	-2.12
224.573	-10.12
224.808	3.88
225.042	-16.12
225.277	7.88
225.511	-5.12
225.746	12.88
225.98	-1.12
226.215	9.88
226.449	4.88
226.683	31.88
226.918	19.88
227.152	9.88
227.387	35.88
227.621	39.88
227.856	54.88
228.09	37.88
228.324	61.88
228.559	51.88
228.793	181.88
229.027	448.88
229.262	527.88
229.496	626.88
229.73	845.88
229.964	823.88
230.199	572.88
230.433	492.88
230.667	488.88
230.901	459.88
231.136	451.88
231.37	474.88
231.604	461.88
231.838	483.88
232.072	483.88
232.306	466.88
232.541	471.88
232.775	481.88
233.009	487.88
233.243	489.88
233.477	486.88
233.711	484.88
233.945	501.88
234.179	525.88
234.413	537.88
234.647	523.88
234.881	520.88
235.115	541.88
235.349	564.88
235.583	572.88
235.817	575.88
236.051	632.88
236.285	617.88
236.519	635.88
236.753	701.88
236.987	930.88
237.221	1389.88
237.455	1544.88
237.689	921.88
237.922	751.88
238.156	746.88
238.39	705.88
238.624	653.88
238.858	685.88
239.091	681.88
239.325	682.88
239.559	697.88
239.793	715.88
240.027	783.88
240.26	921.88
240.494	985.88
240.728	961.88
240.961	923.88
241.195	832.88
241.429	828.88
241.662	781.88
241.896	801.88
242.13	791.88
242.363	803.88
242.597	823.88
242.83	853.88
243.064	853.88
243.298	866.88
243.531	843.88
243.765	855.88
243.998	870.88
244.232	863.88
244.465	900.88
244.699	900.88
244.932	879.88
245.166	925.88
245.399	930.88
245.633	929.88
245.866	938.88
246.099	947.88
246.333	975.88
246.566	995.88
246.8	1006.88
247.033	995.88
247.266	1074.88
247.5	1120.88
247.733	1176.88
247.966	1180.88
248.2	1126.88
248.433	1171.88
248.666	1218.88
248.899	1327.88
249.133	1461.88
249.366	1456.88
249.599	1310.88
249.832	1237.88
250.066	1240.88
250.299	1275.88
250.532	1350.88
250.765	1524.88
250.998	1763.88
251.231	1658.88
251.465	1532.88
251.698	1484.88
251.931	1410.88
252.164	1418.88
252.397	1451.88
252.63	1514.88
252.863	1580.88
253.096	1682.88
253.329	1771.88
253.562	1703.88
253.795	1608.88
254.028	1587.88
254.261	1647.88
254.494	1870.88
254.727	2146.88
254.96	2254.88
255.193	2012.88
255.426	1804.88
255.659	1695.88
255.892	1638.88
256.124	1604.88
256.357	1598.88
256.59	1565.88
256.823	1584.88
257.056	1525.88
257.289	1557.88
257.521	1583.88
257.754	1579.88
257.987	1567.88
258.22	1549.88
258.452	1521.88
258.685	1583.88
258.918	1596.88
259.151	1628.88
259.383	1740.88
259.616	1710.88
259.849	1827.88
260.081	1968.88
260.314	2119.88
260.547	2086.88
260.779	1910.88
261.012	1787.88
261.244	1745.88
261.477	1739.88
261.71	1731.88
261.942	1741.88
262.175	1798.88
262.407	1739.88
262.64	1665.88
262.872	1708.88
263.105	1669.88
263.337	1646.88
263.57	1709.88
263.802	1700.88
264.035	1711.88
264.267	1739.88
264.499	1730.88
264.732	1726.88
264.964	1743.88
265.197	1761.88
265.429	1758.88
265.661	1715.88
265.894	1727.88
266.126	1759.88
266.358	1808.88
266.591	1852.88
266.823	1892.88
267.055	1950.88
267.287	1936.88
267.52	1900.88
267.752	1881.88
267.984	1941.88
268.216	1918.88
268.448	1961.88
268.681	2012.88
268.913	2205.88
269.145	2359.88
269.377	2430.88
269.609	2330.88
269.841	2308.88
270.073	2435.88
270.306	2719.88
270.538	2895.88
270.77	2770.88
271.002	2588.88
271.234	2529.88
271.466	2640.88
271.698	2783.88
271.93	2808.88
272.162	2866.88
272.394	2747.88
272.626	2583.88
272.858	2414.88
273.09	2324.88
273.322	2307.88
273.553	2287.88
273.785	2266.88
274.017	2272.88
274.249	2273.88
274.481	2310.88
274.713	2287.88
274.945	2367.88
275.176	2331.88
275.408	2332.88
275.64	2329.88
275.872	2263.88
276.104	2287.88
276.335	2357.88
276.567	2413.88
276.799	2605.88
277.031	2845.88
277.262	2936.88
277.494	2788.88
277.726	2673.88
277.957	2588.88
278.189	2500.88
278.421	2439.88
278.652	2413.88
278.884	2399.88
279.115	2375.88
279.347	2456.88
279.579	2404.88
279.81	2410.88
280.042	2412.88
280.273	2466.88
280.505	2437.88
280.736	2420.88
280.968	2432.88
281.199	2449.88
281.431	2494.88
281.662	2501.88
281.894	2480.88
282.125	2541.88
282.356	2711.88
282.588	2852.88
282.819	2696.88
283.051	2582.88
283.282	2553.88
283.513	2552.88
283.745	2626.88
283.976	2682.88
284.207	2741.88
284.439	2720.88
284.67	2652.88
284.901	2660.88
285.132	2649.88
285.364	2683.88
285.595	2697.88
285.826	2664.88
286.057	2674.88
286.288	2690.88
286.52	2693.88
286.751	2717.88
286.982	2741.88
287.213	2749.88
287.444	2718.88
287.675	2806.88
287.906	2971.88
288.138	2945.88
288.369	2950.88
288.6	3050.88
288.831	2875.88
289.062	2862.88
289.293	2875.88
289.524	2872.88
289.755	2817.88
289.986	2863.88
290.217	2791.88
290.448	2845.88
290.679	2860.88
290.91	2861.88
291.141	2830.88
291.371	2844.88
291.602	2839.88
291.833	2823.88
292.064	2875.88
292.295	2909.88
292.526	2867.88
292.757	2903.88
292.987	2865.88
293.218	2832.88
293.449	2883.88
293.68	2884.88
293.91	2887.88
294.141	2892.88
294.372	2832.88
294.603	2868.88
294.833	2937.88
295.064	2917.88
295.295	2927.88
295.525	2934.88
295.756	2971.88
295.987	3068.88
296.217	3159.88
296.448	3180.88
296.679	2997.88
296.909	2984.88
297.14	3027.88
297.37	3081.88
297.601	3128.88
297.831	3040.88
298.062	3019.88
298.292	3159.88
298.523	3143.88
298.753	3169.88
298.984	3119.88
299.214	3085.88
299.445	3123.88
299.675	3109.88
299.905	3182.88
300.136	3199.88
300.366	3187.88
300.597	3251.88
300.827	3340.88
301.057	3413.88
301.288	3420.88
301.518	3315.88
301.748	3323.88
301.979	3444.88
302.209	3455.88
302.439	3400.88
302.669	3338.88
302.9	3337.88
303.13	3363.88
303.36	3375.88
303.59	3438.88
303.82	3469.88
304.051	3394.88
304.281	3376.88
304.511	3297.88
304.741	3355.88
304.971	3364.88
305.201	3288.88
305.431	3313.88
305.661	3383.88
305.891	3336.88
306.121	3322.88
306.352	3393.88
306.582	3365.88
306.812	3278.88
307.042	3347.88
307.272	3280.88
307.502	3291.88
307.731	3347.88
307.961	3330.88
308.191	3318.88
308.421	3330.88
308.651	3378.88
308.881	3357.88
309.111	3385.88
309.341	3366.88
309.571	3504.88
309.8	3600.88
310.03	3634.88
310.26	3663.88
310.49	3640.88
310.72	3763.88
310.949	3806.88
311.179	3767.88
311.409	3678.88
311.639	3653.88
311.868	3688.88
312.098	3685.88
312.328	3788.88
312.557	3898.88
312.787	4031.88
313.017	3912.88
313.246	3857.88
313.476	3825.88
313.706	3752.88
313.935	3873.88
314.165	3997.88
314.394	3976.88
314.624	3987.88
314.853	3878.88
315.083	3811.88
315.312	3826.88
315.542	3752.88
315.771	3689.88
316.001	3724.88
316.23	3715.88
316.46	3691.88
316.689	3734.88
316.919	3807.88
317.148	3848.88
317.377	3845.88
317.607	3792.88
317.836	3781.88
318.065	3734.88
318.295	3699.88
318.524	3728.88
318.753	3701.88
318.983	3719.88
319.212	3653.88
319.441	3766.88
319.67	3775.88
319.9	3718.88
320.129	3698.88
320.358	3751.88
320.587	3795.88
320.816	3842.88
321.046	3908.88
321.275	3856.88
321.504	3810.88
321.733	3893.88
321.962	3976.88
322.191	3965.88
322.42	4140.88
322.649	4193.88
322.878	4282.88
323.108	4350.88
323.337	4622.88
323.566	4724.88
323.795	4989.88
324.024	5557.88
324.253	7286.88
324.482	10941.88
324.71	15316.88
324.939	15625.88
325.168	13232.88
325.397	6732.88
325.626	5287.88
325.855	4854.88
326.084	4815.88
326.313	4848.88
326.542	4979.88
326.77	5595.88
326.999	6983.88
327.228	10325.88
327.457	14452.88
327.686	13762.88
327.914	7453.88
328.143	5845.88
328.372	5419.88
328.6	5222.88
328.829	5225.88
329.058	5375.88
329.287	5344.88
329.515	5048.88
329.744	4818.88
329.972	4865.88
330.201	5003.88
330.43	5174.88
330.658	5453.88
330.887	5747.88
331.115	5340.88
331.344	5023.88
331.572	4983.88
331.801	5044.88
332.03	5031.88
332.258	4925.88
332.486	4936.88
332.715	5063.88
332.943	5169.88
333.172	5302.88
333.4	5513.88
333.629	5619.88
333.857	5722.88
334.085	5638.88
334.314	5607.88
334.542	5664.88
334.771	5595.88
334.999	5354.88
335.227	5251.88
335.455	5286.88
335.684	5124.88
335.912	5099.88
336.14	4949.88
336.369	4970.88
336.597	5017.88
336.825	5049.88
337.053	4912.88
337.281	4815.88
337.51	4831.88
337.738	4768.88
337.966	4704.88
338.194	4736.88
338.422	4719.88
338.65	4611.88
338.878	4546.88
339.106	4604.88
339.334	4539.88
339.562	4559.88
339.79	4441.88
340.018	4427.88
340.246	4463.88
340.474	4542.88
340.702	4453.88
340.93	4528.88
341.158	4448.88
341.386	4494.88
341.614	4456.88
341.842	4375.88
342.07	4379.88
342.298	4361.88
342.526	4294.88
342.754	4356.88
342.981	4377.88
343.209	4433.88
343.437	4661.88
343.665	4953.88
343.893	5224.88
344.12	5184.88
344.348	4974.88
344.576	4809.88
344.804	4781.88
345.031	4623.88
345.259	4619.88
345.487	4496.88
345.714	4420.88
345.942	4331.88
346.17	4254.88
346.397	4226.88
346.625	4183.88
346.853	4181.88
347.08	4240.88
347.308	4285.88
347.535	4297.88
347.763	4359.88
347.99	4275.88
348.218	4323.88
348.445	4386.88
348.673	4260.88
348.9	4198.88
349.128	4169.88
349.355	4073.88
349.583	4159.88
349.81	4077.88
350.037	4109.88
350.265	4084.88
350.492	4075.88
350.72	4172.88
350.947	4132.88
351.174	4224.88
351.402	4264.88
351.629	4134.88
351.856	4228.88
352.083	4252.88
352.311	4275.88
352.538	4264.88
352.765	4200.88
352.992	4130.88
353.22	4141.88
353.447	4168.88
353.674	4072.88
353.901	4056.88
354.128	4004.88
354.355	3921.88
354.583	4033.88
354.81	4013.88
355.037	4022.88
355.264	3934.88
355.491	3966.88
355.718	3945.88
355.945	3970.88
356.172	3986.88
356.399	4014.88
356.626	3999.88
356.853	4003.88
357.08	3968.88
357.307	3987.88
357.534	3973.88
357.761	4013.88
357.988	4046.88
358.215	4015.88
358.441	4081.88
358.668	4053.88
358.895	4103.88
359.122	4119.88
359.349	4176.88
359.576	4309.88
359.802	4450.88
360.029	4610.88
360.256	4600.88
360.483	4389.88
360.709	4235.88
360.936	4191.88
361.163	4208.88
361.39	4227.88
361.616	4282.88
361.843	4236.88
362.07	4133.88
362.296	4189.88
362.523	4203.88
362.749	4162.88
362.976	4163.88
363.203	4119.88
363.429	4111.88
363.656	4102.88
363.882	4098.88
364.109	4010.88
364.335	4040.88
364.562	4098.88
364.788	4060.88
365.015	4076.88
365.241	4087.88
365.468	4119.88
365.694	4091.88
365.92	4135.88
366.147	4061.88
366.373	4051.88
366.599	4058.88
366.826	4028.88
367.052	4023.88
367.278	4117.88
367.505	4114.88
367.731	4173.88
367.957	4106.88
368.184	4116.88
368.41	4201.88
368.636	4311.88
368.862	4293.88
369.089	4242.88
369.315	4175.88
369.541	4134.88
369.767	4158.88
369.993	4213.88
370.219	4259.88
370.445	4200.88
370.672	4215.88
370.898	4240.88
371.124	4303.88
371.35	4303.88
371.576	4335.88
371.802	4355.88
372.028	4293.88
372.254	4297.88
372.48	4428.88
372.706	4399.88
372.932	4550.88
373.158	4444.88
373.384	4358.88
373.61	4415.88
373.835	4362.88
374.061	4375.88
374.287	4420.88
374.513	4519.88
374.739	4641.88
374.965	4771.88
375.191	4741.88
375.416	4695.88
375.642	4584.88
375.868	4523.88
376.094	4462.88
376.319	4358.88
376.545	4375.88
376.771	4401.88
376.997	4401.88
377.222	4382.88
377.448	4263.88
377.674	4304.88
377.899	4317.88
378.125	4246.88
378.35	4296.88
378.576	4335.88
378.802	4287.88
379.027	4310.88
379.253	4316.88
379.478	4285.88
379.704	4319.88
379.929	4358.88
380.155	4377.88
380.38	4325.88
380.606	4372.88
380.831	4353.88
381.057	4405.88
381.282	4391.88
381.507	4353.88
381.733	4484.88
381.958	4437.88
382.184	4487.88
382.409	4545.88
382.634	4577.88
382.86	4607.88
383.085	4625.88
383.31	4687.88
383.535	4764.88
383.761	4821.88
383.986	4914.88
384.211	4943.88
384.436	5123.88
384.662	5124.88
384.887	5208.88
385.112	5145.88
385.337	5185.88
385.562	5215.88
385.787	5305.88
386.013	5333.88
386.238	5365.88
386.463	5331.88
386.688	5335.88
386.913	5219.88
387.138	5171.88
387.363	5174.88
387.588	5089.88
387.813	5153.88
388.038	5175.88
388.263	5159.88
388.488	5195.88
388.713	5216.88
388.938	5121.88
389.163	5147.88
389.387	5145.88
389.612	5060.88
389.837	5083.88
390.062	5097.88
390.287	5089.88
390.512	5115.88
390.736	5167.88
390.961	5289.88
391.186	5382.88
391.411	5553.88
391.636	5618.88
391.86	5803.88
392.085	5852.88
392.31	5747.88
392.534	5659.88
392.759	5582.88
392.984	5401.88
393.208	5399.88
393.433	5345.88
393.658	5399.88
393.882	5457.88
394.107	5462.88
394.331	5500.88
394.556	5479.88
394.78	5536.88
395.005	5555.88
395.229	5536.88
395.454	5690.88
395.678	5867.88
395.903	5879.88
396.127	5944.88
396.352	5733.88
396.576	5437.88
396.801	5451.88
397.025	5590.88
397.249	5698.88
397.474	5821.88
397.698	5859.88
397.922	5977.88
398.147	6147.88
398.371	6232.88
398.595	6261.88
398.82	6588.88
399.044	7133.88
399.268	7947.88
399.492	8997.88
399.717	9623.88
399.941	9419.88
400.165	8804.88
400.389	8181.88
400.613	7314.88
400.837	6929.88
401.062	6724.88
401.286	6636.88
401.51	6556.88
401.734	6497.88
401.958	6671.88
402.182	6756.88
402.406	6879.88
402.63	6842.88
402.854	7055.88
403.078	7152.88
403.302	7264.88
403.526	7303.88
403.75	7439.88
403.974	7446.88
404.198	7439.88
404.422	7620.88
404.645	7457.88
404.869	7335.88
405.093	7643.88
405.317	7709.88
405.541	7706.88
405.765	7352.88
405.988	7207.88
406.212	7500.88
406.436	7687.88
406.66	7767.88
406.883	7796.88
407.107	8372.88
407.331	8887.88
407.555	9367.88
407.778	9185.88
408.002	8351.88
408.226	7876.88
408.449	7795.88
408.673	7724.88
408.896	7855.88
409.12	8077.88
409.344	7611.88
409.567	7255.88
409.791	7194.88
410.014	7027.88
410.238	6891.88
410.461	7124.88
410.685	7114.88
410.908	7270.88
411.132	7469.88
411.355	7459.88
411.578	7080.88
411.802	6787.88
412.025	6821.88
412.249	6951.88
412.472	6933.88
412.695	6924.88
412.919	6673.88
413.142	6536.88
413.365	6473.88
413.589	6498.88
413.812	6461.88
414.035	6315.88
414.258	6388.88
414.482	6371.88
414.705	6562.88
414.928	6459.88
415.151	6415.88
415.374	6461.88
415.597	6376.88
415.821	6278.88
416.044	6393.88
416.267	6310.88
416.49	6337.88
416.713	6229.88
416.936	6407.88
417.159	6331.88
417.382	6405.88
417.605	6381.88
417.828	6628.88
418.051	6656.88
418.274	6491.88
418.497	6471.88
418.72	6667.88
418.943	6536.88
419.166	6945.88
419.389	7323.88
419.611	7181.88
419.834	6958.88
420.057	6909.88
420.28	6699.88
420.503	6498.88
420.726	6629.88
420.948	6757.88
421.171	7097.88
421.394	7057.88
421.617	6639.88
421.839	6584.88
422.062	6682.88
422.285	6835.88
422.507	7623.88
422.73	8157.88
422.953	7543.88
423.175	6982.88
423.398	6995.88
423.621	7092.88
423.843	7304.88
424.066	7339.88
424.288	7155.88
424.511	7389.88
424.733	7873.88
424.956	8431.88
425.178	7838.88
425.401	8076.88
425.623	7918.88
425.846	6818.88
426.068	6722.88
426.291	6689.88
426.513	6663.88
426.735	6747.88
426.958	7255.88
427.18	8103.88
427.402	9221.88
427.625	9154.88
427.847	7766.88
428.069	6907.88
428.292	6528.88
428.514	6180.88
428.736	6093.88
428.958	6049.88
429.181	5926.88
429.403	5884.88
429.625	6103.88
429.847	6327.88
430.069	6926.88
430.292	6501.88
430.514	5881.88
430.736	5908.88
430.958	5844.88
431.18	5737.88
431.402	5767.88
431.624	5671.88
431.846	5787.88
432.068	5767.88
432.29	5830.88
432.512	5876.88
432.734	5880.88
432.956	5845.88
433.178	5860.88
433.4	5927.88
433.622	5822.88
433.844	5796.88
434.066	5787.88
434.287	5858.88
434.509	6079.88
434.731	6409.88
434.953	6546.88
435.175	6595.88
435.397	6795.88
435.618	6712.88
435.84	7051.88
436.062	8083.88
436.284	7923.88
436.505	6611.88
436.727	6252.88
436.949	6063.88
437.17	5893.88
437.392	5846.88
437.614	6079.88
437.835	6459.88
438.057	7366.88
438.278	8087.88
438.5	8128.88
438.721	8913.88
438.943	7873.88
439.165	6518.88
439.386	6345.88
439.608	6345.88
439.829	6451.88
440.05	6743.88
440.272	7121.88
440.493	6512.88
440.715	6210.88
440.936	6126.88
441.158	6211.88
441.379	6306.88
441.6	6639.88
441.822	6984.88
442.043	7343.88
442.264	8270.88
442.486	7965.88
442.707	7007.88
442.928	6807.88
443.149	7006.88
443.371	7267.88
443.592	7768.88
443.813	8857.88
444.034	8752.88
444.255	7629.88
444.476	7377.88
444.698	7627.88
444.919	7709.88
445.14	7480.88
445.361	7296.88
445.582	7479.88
445.803	8063.88
446.024	8860.88
446.245	8341.88
446.466	7515.88
446.687	6603.88
446.908	6221.88
447.129	5929.88
447.35	5779.88
447.571	5716.88
447.792	5651.88
448.013	5757.88
448.234	5937.88
448.455	6604.88
448.675	7886.88
448.896	8417.88
449.117	6884.88
449.338	7121.88
449.559	8587.88
449.779	8625.88
450	6537.88
450.221	5875.88
450.442	5678.88
450.662	5551.88
450.883	5650.88
451.104	5777.88
451.324	5581.88
451.545	5351.88
451.766	5245.88
451.986	5161.88
452.207	5087.88
452.428	5092.88
452.648	5166.88
452.869	5147.88
453.089	5169.88
453.31	5354.88
453.53	5141.88
453.751	5107.88
453.971	5120.88
454.192	5268.88
454.412	5012.88
454.633	5011.88
454.853	4930.88
455.073	4977.88
455.294	5417.88
455.514	5981.88
455.734	5425.88
455.955	4873.88
456.175	4778.88
456.395	4712.88
456.616	4693.88
456.836	4715.88
457.056	4656.88
457.276	4664.88
457.497	4792.88
457.717	4703.88
457.937	4869.88
458.157	4895.88
458.377	5007.88
458.598	5406.88
458.818	6060.88
459.038	6836.88
459.258	6783.88
459.478	6058.88
459.698	5926.88
459.918	5935.88
460.138	6074.88
460.358	6267.88
460.578	6328.88
460.798	6364.88
461.018	6405.88
461.238	6239.88
461.458	6255.88
461.678	6281.88
461.898	6404.88
462.118	6387.88
462.338	6694.88
462.558	6899.88
462.777	7177.88
462.997	7844.88
463.217	8117.88
463.437	7885.88
463.657	7321.88
463.876	7153.88
464.096	7226.88
464.316	7249.88
464.536	7217.88
464.755	6991.88
464.975	6906.88
465.195	7135.88
465.414	7012.88
465.634	6245.88
465.854	5997.88
466.073	5675.88
466.293	5548.88
466.512	5334.88
466.732	5299.88
466.951	5236.88
467.171	5238.88
467.391	5337.88
467.61	5301.88
467.829	5317.88
468.049	5283.88
468.268	5131.88
468.488	5043.88
468.707	5008.88
468.927	5076.88
469.146	5097.88
469.365	5139.88
469.585	5085.88
469.804	5354.88
470.023	5457.88
470.243	5399.88
470.462	5492.88
470.681	5683.88
470.901	5561.88
471.12	5417.88
471.339	5382.88
471.558	5333.88
471.777	5161.88
471.997	5151.88
472.216	5101.88
472.435	5204.88
472.654	5111.88
472.873	4987.88
473.092	5078.88
473.311	5027.88
473.53	5092.88
473.749	5212.88
473.968	5638.88
474.187	6771.88
474.406	6299.88
474.625	5339.88
474.844	5162.88
475.063	5059.88
475.282	5179.88
475.501	5208.88
475.72	5146.88
475.939	5179.88
476.158	5251.88
476.377	5227.88
476.596	5230.88
476.814	5369.88
477.033	5367.88
477.252	5529.88
477.471	5621.88
477.69	5697.88
477.908	5881.88
478.127	6037.88
478.346	6019.88
478.564	6093.88
478.783	6216.88
479.002	6390.88
479.22	6363.88
479.439	6451.88
479.658	6539.88
479.876	6670.88
480.095	6762.88
480.313	7207.88
480.532	7049.88
480.751	6947.88
480.969	6888.88
481.188	6934.88
481.406	6667.88
481.624	6323.88
481.843	6220.88
482.061	6125.88
482.28	6041.88
482.498	5961.88
482.717	5980.88
482.935	5915.88
483.153	5949.88
483.372	5926.88
483.59	5904.88
483.808	5923.88
484.027	5943.88
484.245	5983.88
484.463	6007.88
484.681	6016.88
484.9	6058.88
485.118	6199.88
485.336	6200.88
485.554	6282.88
485.772	6359.88
485.99	6350.88
486.209	6380.88
486.427	6395.88
486.645	6397.88
486.863	6549.88
487.081	6464.88
487.299	6385.88
487.517	6388.88
487.735	6313.88
487.953	6270.88
