Data from Uncirc_1990_H10_HRD10591_00093.txt Node
Date: Wed Jan 03 11:54:10 EST 2024
User: Yrep
Spectrometer: HR+D1059
Trigger mode: 1
Integration Time (sec): 1.000000E-1
Scans to average: 1
Electric dark correction enabled: true
Nonlinearity correction enabled: false
Boxcar width: 0
XAxis mode: Wavelengths
Number of Pixels in Spectrum: 2048
>>>>>Begin Spectral Data<<<<<
223.165	-7.62
223.4	-7.62
223.635	-7.62
223.869	-25.62
224.104	-18.62
224.338	-20.62
224.573	-12.62
224.808	-25.62
225.042	-7.62
225.277	-11.62
225.511	8.38
225.746	-2.62
225.98	1.38
226.215	12.38
226.449	15.38
226.683	28.38
226.918	23.38
227.152	43.38
227.387	38.38
227.621	42.38
227.856	45.38
228.09	56.38
228.324	54.38
228.559	66.38
228.793	47.38
229.027	53.38
229.262	68.38
229.496	70.38
229.73	87.38
229.964	79.38
230.199	81.38
230.433	75.38
230.667	86.38
230.901	93.38
231.136	85.38
231.37	87.38
231.604	83.38
231.838	81.38
232.072	81.38
232.306	82.38
232.541	80.38
232.775	75.38
233.009	87.38
233.243	81.38
233.477	88.38
233.711	86.38
233.945	66.38
234.179	84.38
234.413	83.38
234.647	70.38
234.881	75.38
235.115	77.38
235.349	81.38
235.583	76.38
235.817	75.38
236.051	68.38
236.285	83.38
236.519	90.38
236.753	83.38
236.987	65.38
237.221	81.38
237.455	81.38
237.689	78.38
237.922	82.38
238.156	81.38
238.39	74.38
238.624	69.38
238.858	79.38
239.091	68.38
239.325	79.38
239.559	67.38
239.793	85.38
240.027	75.38
240.26	81.38
240.494	76.38
240.728	76.38
240.961	69.38
241.195	60.38
241.429	63.38
241.662	79.38
241.896	71.38
242.13	63.38
242.363	86.38
242.597	83.38
242.83	79.38
243.064	83.38
243.298	72.38
243.531	79.38
243.765	75.38
243.998	72.38
244.232	79.38
244.465	85.38
244.699	83.38
244.932	72.38
245.166	86.38
245.399	84.38
245.633	75.38
245.866	76.38
246.099	87.38
246.333	44.38
246.566	86.38
246.8	79.38
247.033	86.38
247.266	78.38
247.5	102.38
247.733	67.38
247.966	70.38
248.2	90.38
248.433	77.38
248.666	94.38
248.899	88.38
249.133	78.38
249.366	95.38
249.599	104.38
249.832	82.38
250.066	68.38
250.299	80.38
250.532	70.38
250.765	65.38
250.998	87.38
251.231	79.38
251.465	81.38
251.698	80.38
251.931	73.38
252.164	62.38
252.397	71.38
252.63	73.38
252.863	75.38
253.096	78.38
253.329	83.38
253.562	88.38
253.795	79.38
254.028	84.38
254.261	84.38
254.494	80.38
254.727	78.38
254.96	79.38
255.193	78.38
255.426	83.38
255.659	83.38
255.892	93.38
256.124	69.38
256.357	87.38
256.59	83.38
256.823	88.38
257.056	81.38
257.289	69.38
257.521	67.38
257.754	71.38
257.987	86.38
258.22	79.38
258.452	81.38
258.685	92.38
258.918	84.38
259.151	85.38
259.383	89.38
259.616	90.38
259.849	88.38
260.081	76.38
260.314	94.38
260.547	85.38
260.779	81.38
261.012	69.38
261.244	83.38
261.477	85.38
261.71	97.38
261.942	109.38
262.175	113.38
262.407	84.38
262.64	65.38
262.872	97.38
263.105	72.38
263.337	77.38
263.57	89.38
263.802	95.38
264.035	84.38
264.267	79.38
264.499	79.38
264.732	82.38
264.964	87.38
265.197	89.38
265.429	86.38
265.661	79.38
265.894	64.38
266.126	88.38
266.358	83.38
266.591	72.38
266.823	89.38
267.055	96.38
267.287	81.38
267.52	73.38
267.752	90.38
267.984	97.38
268.216	79.38
268.448	80.38
268.681	81.38
268.913	89.38
269.145	76.38
269.377	94.38
269.609	87.38
269.841	80.38
270.073	81.38
270.306	89.38
270.538	87.38
270.77	87.38
271.002	87.38
271.234	70.38
271.466	70.38
271.698	93.38
271.93	77.38
272.162	102.38
272.394	91.38
272.626	93.38
272.858	100.38
273.09	84.38
273.322	88.38
273.553	83.38
273.785	82.38
274.017	83.38
274.249	83.38
274.481	80.38
274.713	83.38
274.945	66.38
275.176	77.38
275.408	91.38
275.64	100.38
275.872	92.38
276.104	79.38
276.335	96.38
276.567	111.38
276.799	95.38
277.031	93.38
277.262	91.38
277.494	96.38
277.726	96.38
277.957	87.38
278.189	82.38
278.421	85.38
278.652	88.38
278.884	64.38
279.115	93.38
279.347	85.38
279.579	87.38
279.81	86.38
280.042	93.38
280.273	103.38
280.505	91.38
280.736	93.38
280.968	93.38
281.199	84.38
281.431	91.38
281.662	85.38
281.894	89.38
282.125	85.38
282.356	122.38
282.588	139.38
282.819	110.38
283.051	96.38
283.282	93.38
283.513	91.38
283.745	91.38
283.976	83.38
284.207	71.38
284.439	97.38
284.67	81.38
284.901	87.38
285.132	92.38
285.364	94.38
285.595	87.38
285.826	88.38
286.057	92.38
286.288	95.38
286.52	92.38
286.751	84.38
286.982	72.38
287.213	89.38
287.444	89.38
287.675	92.38
287.906	78.38
288.138	107.38
288.369	70.38
288.6	97.38
288.831	89.38
289.062	79.38
289.293	95.38
289.524	94.38
289.755	89.38
289.986	91.38
290.217	84.38
290.448	79.38
290.679	94.38
290.91	100.38
291.141	95.38
291.371	82.38
291.602	76.38
291.833	95.38
292.064	72.38
292.295	94.38
292.526	92.38
292.757	90.38
292.987	84.38
293.218	97.38
293.449	75.38
293.68	107.38
293.91	91.38
294.141	88.38
294.372	93.38
294.603	103.38
294.833	86.38
295.064	94.38
295.295	93.38
295.525	87.38
295.756	91.38
295.987	103.38
296.217	131.38
296.448	107.38
296.679	88.38
296.909	82.38
297.14	87.38
297.37	80.38
297.601	92.38
297.831	77.38
298.062	83.38
298.292	97.38
298.523	96.38
298.753	83.38
298.984	83.38
299.214	87.38
299.445	88.38
299.675	107.38
299.905	89.38
300.136	91.38
300.366	86.38
300.597	84.38
300.827	89.38
301.057	100.38
301.288	88.38
301.518	96.38
301.748	88.38
301.979	85.38
302.209	89.38
302.439	82.38
302.669	76.38
302.9	90.38
303.13	95.38
303.36	78.38
303.59	96.38
303.82	95.38
304.051	93.38
304.281	95.38
304.511	91.38
304.741	90.38
304.971	88.38
305.201	89.38
305.431	82.38
305.661	84.38
305.891	85.38
306.121	88.38
306.352	97.38
306.582	97.38
306.812	80.38
307.042	103.38
307.272	79.38
307.502	95.38
307.731	96.38
307.961	92.38
308.191	89.38
308.421	88.38
308.651	92.38
308.881	86.38
309.111	82.38
309.341	86.38
309.571	80.38
309.8	89.38
310.03	105.38
310.26	104.38
310.49	97.38
310.72	95.38
310.949	87.38
311.179	96.38
311.409	99.38
311.639	94.38
311.868	94.38
312.098	103.38
312.328	99.38
312.557	101.38
312.787	96.38
313.017	93.38
313.246	75.38
313.476	91.38
313.706	88.38
313.935	83.38
314.165	84.38
314.394	85.38
314.624	97.38
314.853	106.38
315.083	83.38
315.312	98.38
315.542	95.38
315.771	94.38
316.001	80.38
316.23	99.38
316.46	87.38
316.689	98.38
316.919	90.38
317.148	101.38
317.377	100.38
317.607	90.38
317.836	96.38
318.065	102.38
318.295	98.38
318.524	97.38
318.753	97.38
318.983	98.38
319.212	104.38
319.441	120.38
319.67	109.38
319.9	80.38
320.129	94.38
320.358	90.38
320.587	84.38
320.816	95.38
321.046	93.38
321.275	89.38
321.504	90.38
321.733	94.38
321.962	110.38
322.191	96.38
322.42	100.38
322.649	96.38
322.878	110.38
323.108	95.38
323.337	125.38
323.566	138.38
323.795	134.38
324.024	193.38
324.253	386.38
324.482	790.38
324.71	1621.38
324.939	2182.38
325.168	780.38
325.397	252.38
325.626	147.38
325.855	131.38
326.084	131.38
326.313	129.38
326.542	142.38
326.77	214.38
326.999	423.38
327.228	871.38
327.457	1671.38
327.686	1373.38
327.914	359.38
328.143	175.38
328.372	139.38
328.6	132.38
328.829	119.38
329.058	128.38
329.287	124.38
329.515	106.38
329.744	107.38
329.972	105.38
330.201	110.38
330.43	132.38
330.658	131.38
330.887	120.38
331.115	115.38
331.344	89.38
331.572	103.38
331.801	112.38
332.03	107.38
332.258	105.38
332.486	103.38
332.715	83.38
332.943	99.38
333.172	103.38
333.4	83.38
333.629	103.38
333.857	108.38
334.085	107.38
334.314	112.38
334.542	134.38
334.771	109.38
334.999	91.38
335.227	93.38
335.455	104.38
335.684	92.38
335.912	96.38
336.14	96.38
336.369	96.38
336.597	110.38
336.825	99.38
337.053	100.38
337.281	95.38
337.51	76.38
337.738	92.38
337.966	85.38
338.194	85.38
338.422	94.38
338.65	100.38
338.878	112.38
339.106	84.38
339.334	93.38
339.562	94.38
339.79	88.38
340.018	93.38
340.246	87.38
340.474	76.38
340.702	103.38
340.93	90.38
341.158	92.38
341.386	102.38
341.614	94.38
341.842	103.38
342.07	85.38
342.298	92.38
342.526	92.38
342.754	75.38
342.981	99.38
343.209	70.38
343.437	99.38
343.665	97.38
343.893	97.38
344.12	104.38
344.348	100.38
344.576	105.38
344.804	106.38
345.031	104.38
345.259	93.38
345.487	101.38
345.714	99.38
345.942	98.38
346.17	111.38
346.397	78.38
346.625	97.38
346.853	94.38
347.08	93.38
347.308	92.38
347.535	95.38
347.763	85.38
347.99	91.38
348.218	100.38
348.445	116.38
348.673	87.38
348.9	101.38
349.128	104.38
349.355	95.38
349.583	100.38
349.81	102.38
350.037	96.38
350.265	89.38
350.492	85.38
350.72	97.38
350.947	93.38
351.174	114.38
351.402	98.38
351.629	92.38
351.856	100.38
352.083	93.38
352.311	101.38
352.538	112.38
352.765	103.38
352.992	114.38
353.22	116.38
353.447	102.38
353.674	103.38
353.901	103.38
354.128	103.38
354.355	98.38
354.583	102.38
354.81	95.38
355.037	96.38
355.264	103.38
355.491	91.38
355.718	90.38
355.945	96.38
356.172	79.38
356.399	92.38
356.626	101.38
356.853	85.38
357.08	88.38
357.307	98.38
357.534	92.38
357.761	95.38
357.988	102.38
358.215	103.38
358.441	92.38
358.668	92.38
358.895	94.38
359.122	87.38
359.349	89.38
359.576	97.38
359.802	99.38
360.029	109.38
360.256	97.38
360.483	94.38
360.709	82.38
360.936	99.38
361.163	87.38
361.39	96.38
361.616	98.38
361.843	105.38
362.07	92.38
362.296	97.38
362.523	96.38
362.749	107.38
362.976	91.38
363.203	105.38
363.429	93.38
363.656	79.38
363.882	94.38
364.109	99.38
364.335	93.38
364.562	103.38
364.788	83.38
365.015	89.38
365.241	89.38
365.468	93.38
365.694	104.38
365.92	91.38
366.147	79.38
366.373	98.38
366.599	95.38
366.826	90.38
367.052	95.38
367.278	80.38
367.505	99.38
367.731	101.38
367.957	80.38
368.184	104.38
368.41	95.38
368.636	106.38
368.862	119.38
369.089	101.38
369.315	91.38
369.541	80.38
369.767	91.38
369.993	96.38
370.219	79.38
370.445	88.38
370.672	84.38
370.898	87.38
371.124	91.38
371.35	84.38
371.576	99.38
371.802	85.38
372.028	78.38
372.254	92.38
372.48	78.38
372.706	91.38
372.932	83.38
373.158	69.38
373.384	84.38
373.61	83.38
373.835	93.38
374.061	91.38
374.287	82.38
374.513	97.38
374.739	83.38
374.965	84.38
375.191	81.38
375.416	83.38
375.642	89.38
375.868	99.38
376.094	71.38
376.319	97.38
376.545	96.38
376.771	89.38
376.997	95.38
377.222	94.38
377.448	89.38
377.674	93.38
377.899	92.38
378.125	85.38
378.35	86.38
378.576	92.38
378.802	80.38
379.027	99.38
379.253	91.38
379.478	89.38
379.704	92.38
379.929	81.38
380.155	93.38
380.38	83.38
380.606	99.38
380.831	95.38
381.057	97.38
381.282	95.38
381.507	96.38
381.733	95.38
381.958	102.38
382.184	94.38
382.409	99.38
382.634	96.38
382.86	97.38
383.085	107.38
383.31	101.38
383.535	86.38
383.761	97.38
383.986	102.38
384.211	85.38
384.436	96.38
384.662	106.38
384.887	99.38
385.112	89.38
385.337	109.38
385.562	99.38
385.787	92.38
386.013	107.38
386.238	89.38
386.463	92.38
386.688	104.38
386.913	107.38
387.138	99.38
387.363	119.38
387.588	89.38
387.813	102.38
388.038	94.38
388.263	112.38
388.488	104.38
388.713	95.38
388.938	102.38
389.163	99.38
389.387	117.38
389.612	92.38
389.837	97.38
390.062	92.38
390.287	101.38
390.512	89.38
390.736	91.38
390.961	99.38
391.186	102.38
391.411	92.38
391.636	87.38
391.86	87.38
392.085	89.38
392.31	99.38
392.534	75.38
392.759	89.38
392.984	92.38
393.208	76.38
393.433	81.38
393.658	85.38
393.882	97.38
394.107	96.38
394.331	87.38
394.556	94.38
394.78	95.38
395.005	95.38
395.229	80.38
395.454	70.38
395.678	96.38
395.903	83.38
396.127	92.38
396.352	104.38
396.576	91.38
396.801	76.38
397.025	92.38
397.249	93.38
397.474	99.38
397.698	88.38
397.922	87.38
398.147	100.38
398.371	79.38
398.595	86.38
398.82	83.38
399.044	98.38
399.268	94.38
399.492	71.38
399.717	105.38
399.941	91.38
400.165	95.38
400.389	87.38
400.613	97.38
400.837	100.38
401.062	82.38
401.286	88.38
401.51	102.38
401.734	100.38
401.958	103.38
402.182	118.38
402.406	144.38
402.63	116.38
402.854	87.38
403.078	89.38
403.302	105.38
403.526	95.38
403.75	86.38
403.974	93.38
404.198	92.38
404.422	103.38
404.645	89.38
404.869	87.38
405.093	98.38
405.317	101.38
405.541	99.38
405.765	92.38
405.988	116.38
406.212	158.38
406.436	195.38
406.66	137.38
406.883	103.38
407.107	101.38
407.331	94.38
407.555	96.38
407.778	81.38
408.002	94.38
408.226	83.38
408.449	87.38
408.673	93.38
408.896	96.38
409.12	99.38
409.344	95.38
409.567	95.38
409.791	101.38
410.014	99.38
410.238	90.38
410.461	93.38
410.685	70.38
410.908	97.38
411.132	99.38
411.355	99.38
411.578	100.38
411.802	93.38
412.025	77.38
412.249	92.38
412.472	90.38
412.695	101.38
412.919	87.38
413.142	96.38
413.365	109.38
413.589	83.38
413.812	77.38
414.035	93.38
414.258	90.38
414.482	85.38
414.705	94.38
414.928	84.38
415.151	88.38
415.374	87.38
415.597	89.38
415.821	97.38
416.044	83.38
416.267	84.38
416.49	89.38
416.713	94.38
416.936	91.38
417.159	74.38
417.382	103.38
417.605	89.38
417.828	84.38
418.051	83.38
418.274	97.38
418.497	89.38
418.72	102.38
418.943	94.38
419.166	94.38
419.389	85.38
419.611	82.38
419.834	94.38
420.057	97.38
420.28	95.38
420.503	94.38
420.726	98.38
420.948	92.38
421.171	89.38
421.394	96.38
421.617	95.38
421.839	84.38
422.062	72.38
422.285	105.38
422.507	89.38
422.73	104.38
422.953	91.38
423.175	85.38
423.398	85.38
423.621	97.38
423.843	73.38
424.066	79.38
424.288	104.38
424.511	97.38
424.733	99.38
424.956	91.38
425.178	89.38
425.401	98.38
425.623	92.38
425.846	87.38
426.068	94.38
426.291	93.38
426.513	92.38
426.735	90.38
426.958	90.38
427.18	100.38
427.402	121.38
427.625	151.38
427.847	128.38
428.069	120.38
428.292	88.38
428.514	76.38
428.736	84.38
428.958	94.38
429.181	86.38
429.403	84.38
429.625	101.38
429.847	86.38
430.069	102.38
430.292	86.38
430.514	75.38
430.736	93.38
430.958	101.38
431.18	92.38
431.402	92.38
431.624	85.38
431.846	95.38
432.068	85.38
432.29	89.38
432.512	91.38
432.734	89.38
432.956	90.38
433.178	85.38
433.4	95.38
433.622	100.38
433.844	96.38
434.066	89.38
434.287	96.38
434.509	105.38
434.731	93.38
434.953	95.38
435.175	98.38
435.397	99.38
435.618	112.38
435.84	91.38
436.062	115.38
436.284	121.38
436.505	84.38
436.727	110.38
436.949	97.38
437.17	87.38
437.392	100.38
437.614	72.38
437.835	114.38
438.057	118.38
438.278	105.38
438.5	101.38
438.721	120.38
438.943	95.38
439.165	97.38
439.386	84.38
439.608	95.38
439.829	87.38
440.05	101.38
440.272	120.38
440.493	93.38
440.715	100.38
440.936	92.38
441.158	96.38
441.379	89.38
441.6	87.38
441.822	79.38
442.043	103.38
442.264	108.38
442.486	111.38
442.707	98.38
442.928	109.38
443.149	133.38
443.371	126.38
443.592	107.38
443.813	120.38
444.034	87.38
444.255	76.38
444.476	70.38
444.698	94.38
444.919	90.38
445.14	127.38
445.361	127.38
445.582	114.38
445.803	126.38
446.024	121.38
446.245	136.38
446.466	124.38
446.687	101.38
446.908	87.38
447.129	84.38
447.35	92.38
447.571	95.38
447.792	75.38
448.013	83.38
448.234	105.38
448.455	93.38
448.675	108.38
448.896	116.38
449.117	99.38
449.338	107.38
449.559	112.38
449.779	125.38
450	88.38
450.221	81.38
450.442	80.38
450.662	94.38
450.883	90.38
451.104	92.38
451.324	104.38
451.545	79.38
451.766	89.38
451.986	93.38
452.207	94.38
452.428	84.38
452.648	95.38
452.869	111.38
453.089	101.38
453.31	116.38
453.53	95.38
453.751	85.38
453.971	100.38
454.192	115.38
454.412	100.38
454.633	80.38
454.853	77.38
455.073	83.38
455.294	93.38
455.514	99.38
455.734	91.38
455.955	84.38
456.175	86.38
456.395	70.38
456.616	101.38
456.836	94.38
457.056	104.38
457.276	86.38
457.497	85.38
457.717	93.38
457.937	83.38
458.157	95.38
458.377	101.38
458.598	97.38
458.818	122.38
459.038	155.38
459.258	115.38
459.478	92.38
459.698	83.38
459.918	84.38
460.138	77.38
460.358	80.38
460.578	80.38
460.798	90.38
461.018	95.38
461.238	88.38
461.458	89.38
461.678	102.38
461.898	99.38
462.118	82.38
462.338	92.38
462.558	85.38
462.777	84.38
462.997	86.38
463.217	103.38
463.437	83.38
463.657	96.38
463.876	97.38
464.096	96.38
464.316	108.38
464.536	83.38
464.755	98.38
464.975	101.38
465.195	147.38
465.414	142.38
465.634	97.38
465.854	110.38
466.073	100.38
466.293	92.38
466.512	78.38
466.732	74.38
466.951	80.38
467.171	92.38
467.391	96.38
467.61	110.38
467.829	102.38
468.049	91.38
468.268	91.38
468.488	100.38
468.707	95.38
468.927	88.38
469.146	99.38
469.365	79.38
469.585	91.38
469.804	102.38
470.023	97.38
470.243	96.38
470.462	99.38
470.681	112.38
470.901	111.38
471.12	94.38
471.339	93.38
471.558	95.38
471.777	87.38
471.997	85.38
472.216	96.38
472.435	126.38
472.654	95.38
472.873	90.38
473.092	93.38
473.311	94.38
473.53	83.38
473.749	85.38
473.968	94.38
474.187	102.38
474.406	116.38
474.625	84.38
474.844	79.38
475.063	87.38
475.282	80.38
475.501	98.38
475.72	98.38
475.939	79.38
476.158	73.38
476.377	87.38
476.596	101.38
476.814	89.38
477.033	96.38
477.252	76.38
477.471	83.38
477.69	85.38
477.908	92.38
478.127	103.38
478.346	77.38
478.564	76.38
478.783	94.38
479.002	94.38
479.22	100.38
479.439	99.38
479.658	104.38
479.876	101.38
480.095	96.38
480.313	91.38
480.532	92.38
480.751	85.38
480.969	112.38
481.188	171.38
481.406	137.38
481.624	80.38
481.843	89.38
482.061	92.38
482.28	84.38
482.498	79.38
482.717	79.38
482.935	80.38
483.153	90.38
483.372	91.38
483.59	94.38
483.808	84.38
484.027	92.38
484.245	91.38
484.463	87.38
484.681	95.38
484.9	96.38
485.118	98.38
485.336	96.38
485.554	90.38
485.772	103.38
485.99	100.38
486.209	107.38
486.427	107.38
486.645	103.38
486.863	126.38
487.081	89.38
487.299	93.38
487.517	99.38
487.735	88.38
487.953	88.38
488.171	98.38
488.389	96.38
488.607	95.38
488.825	104.38
489.043	78.38
489.261	78.38
489.479	91.38
489.696	92.38
489.914	97.38
490.132	87.38
490.35	99.38
490.568	75.38
490.786	75.38
491.003	92.38
491.221	96.38
491.439	103.38
491.657	101.38
491.874	89.38
492.092	68.38
492.31	88.38
492.527	77.38
492.745	85.38
492.963	93.38
493.18	103.38
493.398	87.38
493.615	96.38
493.833	99.38
494.05	84.38
494.268	112.38
494.485	99.38
494.703	86.38
494.92	82.38
495.138	85.38
495.355	99.38
495.573	95.38
495.79	92.38
496.008	93.38
496.225	83.38
496.442	96.38
496.66	85.38
496.877	100.38
497.094	105.38
497.312	94.38
497.529	87.38
497.746	88.38
497.963	75.38
498.181	72.38
498.398	82.38
498.615	104.38
498.832	110.38
499.049	87.38
499.267	95.38
499.484	100.38
499.701	89.38
499.918	93.38
500.135	94.38
500.352	80.38
500.569	95.38
500.786	104.38
501.003	95.38
501.22	91.38
501.437	96.38
501.654	89.38
501.871	102.38
502.088	77.38
502.305	85.38
502.522	91.38
502.739	84.38
502.956	108.38
503.172	89.38
503.389	99.38
503.606	101.38
503.823	97.38
504.04	88.38
504.256	91.38
504.473	91.38
504.69	79.38
504.907	95.38
505.123	82.38
505.34	94.38
505.557	104.38
505.773	95.38
505.99	86.38
506.207	100.38
506.423	91.38
506.64	98.38
506.856	90.38
507.073	84.38
507.289	93.38
507.506	87.38
507.722	109.38
507.939	90.38
508.155	91.38
508.372	94.38
508.588	107.38
508.805	102.38
509.021	104.38
509.238	80.38
509.454	105.38
509.67	103.38
509.887	111.38
510.103	120.38
510.319	203.38
510.536	695.38
510.752	2236.38
510.968	617.38
511.184	143.38
511.401	114.38
511.617	107.38
511.833	96.38
512.049	91.38
512.265	105.38
512.481	108.38
512.698	91.38
512.914	92.38
513.13	92.38
513.346	95.38
513.562	100.38
513.778	82.38
513.994	102.38
514.21	88.38
514.426	124.38
514.642	123.38
514.858	119.38
515.074	156.38
515.29	400.38
515.506	1301.38
515.721	481.38
