Data from Uncirc_1990_H10_HRD10591_00002.txt Node
Date: Wed Jan 03 11:53:52 EST 2024
User: Yrep
Spectrometer: HR+D1059
Trigger mode: 1
Integration Time (sec): 1.000000E-1
Scans to average: 1
Electric dark correction enabled: true
Nonlinearity correction enabled: false
Boxcar width: 0
XAxis mode: Wavelengths
Number of Pixels in Spectrum: 2048
>>>>>Begin Spectral Data<<<<<
223.165	-7
223.4	-7
223.635	-7
223.869	-23
224.104	-12
224.338	-19
224.573	-23
224.808	-17
225.042	-17
225.277	-7
225.511	5
225.746	15
225.98	-6
226.215	17
226.449	19
226.683	22
226.918	22
227.152	31
227.387	33
227.621	44
227.856	37
228.09	40
228.324	40
228.559	45
228.793	61
229.027	63
229.262	69
229.496	71
229.73	83
229.964	77
230.199	72
230.433	68
230.667	78
230.901	76
231.136	84
231.37	83
231.604	67
231.838	82
232.072	84
232.306	62
232.541	86
232.775	85
233.009	82
233.243	79
233.477	76
233.711	97
233.945	77
234.179	77
234.413	91
234.647	70
234.881	81
235.115	62
235.349	79
235.583	66
235.817	72
236.051	77
236.285	66
236.519	66
236.753	80
236.987	72
237.221	74
237.455	76
237.689	79
237.922	76
238.156	74
238.39	82
238.624	81
238.858	79
239.091	65
239.325	65
239.559	83
239.793	80
240.027	71
240.26	58
240.494	86
240.728	75
240.961	93
241.195	83
241.429	85
241.662	71
241.896	104
242.13	81
242.363	57
242.597	74
242.83	63
243.064	67
243.298	76
243.531	76
243.765	71
243.998	73
244.232	84
244.465	91
244.699	91
244.932	89
245.166	72
245.399	75
245.633	74
245.866	66
246.099	77
246.333	68
246.566	85
246.8	68
247.033	83
247.266	88
247.5	69
247.733	75
247.966	72
248.2	83
248.433	92
248.666	83
248.899	88
249.133	92
249.366	92
249.599	94
249.832	82
250.066	69
250.299	71
250.532	87
250.765	84
250.998	78
251.231	79
251.465	89
251.698	84
251.931	74
252.164	86
252.397	87
252.63	86
252.863	74
253.096	76
253.329	69
253.562	78
253.795	64
254.028	77
254.261	66
254.494	86
254.727	87
254.96	64
255.193	83
255.426	86
255.659	78
255.892	88
256.124	94
256.357	83
256.59	82
256.823	85
257.056	91
257.289	79
257.521	80
257.754	72
257.987	80
258.22	79
258.452	81
258.685	80
258.918	78
259.151	87
259.383	72
259.616	80
259.849	85
260.081	78
260.314	85
260.547	90
260.779	88
261.012	76
261.244	82
261.477	87
261.71	94
261.942	90
262.175	91
262.407	87
262.64	82
262.872	76
263.105	75
263.337	80
263.57	79
263.802	93
264.035	80
264.267	75
264.499	83
264.732	79
264.964	75
265.197	76
265.429	83
265.661	87
265.894	82
266.126	88
266.358	79
266.591	79
266.823	79
267.055	87
267.287	95
267.52	71
267.752	84
267.984	80
268.216	81
268.448	79
268.681	72
268.913	86
269.145	91
269.377	83
269.609	64
269.841	82
270.073	72
270.306	72
270.538	91
270.77	83
271.002	82
271.234	85
271.466	76
271.698	85
271.93	82
272.162	82
272.394	73
272.626	94
272.858	86
273.09	104
273.322	82
273.553	89
273.785	79
274.017	87
274.249	83
274.481	87
274.713	96
274.945	74
275.176	98
275.408	91
275.64	69
275.872	91
276.104	78
276.335	90
276.567	95
276.799	95
277.031	101
277.262	103
277.494	92
277.726	83
277.957	80
278.189	92
278.421	84
278.652	93
278.884	94
279.115	76
279.347	82
279.579	92
279.81	59
280.042	93
280.273	63
280.505	81
280.736	88
280.968	84
281.199	83
281.431	82
281.662	98
281.894	98
282.125	101
282.356	118
282.588	139
282.819	110
283.051	78
283.282	90
283.513	100
283.745	82
283.976	86
284.207	93
284.439	88
284.67	86
284.901	103
285.132	85
285.364	82
285.595	86
285.826	92
286.057	100
286.288	70
286.52	77
286.751	82
286.982	97
287.213	90
287.444	86
287.675	80
287.906	84
288.138	81
288.369	80
288.6	92
288.831	90
289.062	96
289.293	88
289.524	93
289.755	103
289.986	97
290.217	71
290.448	74
290.679	94
290.91	76
291.141	85
291.371	96
291.602	98
291.833	88
292.064	88
292.295	83
292.526	89
292.757	84
292.987	86
293.218	84
293.449	86
293.68	91
293.91	92
294.141	91
294.372	90
294.603	74
294.833	90
295.064	89
295.295	87
295.525	79
295.756	91
295.987	109
296.217	115
296.448	113
296.679	90
296.909	93
297.14	96
297.37	86
297.601	91
297.831	80
298.062	88
298.292	95
298.523	86
298.753	86
298.984	92
299.214	87
299.445	85
299.675	84
299.905	78
300.136	94
300.366	88
300.597	98
300.827	96
301.057	115
301.288	94
301.518	104
301.748	88
301.979	113
302.209	97
302.439	78
302.669	98
302.9	96
303.13	84
303.36	106
303.59	92
303.82	106
304.051	94
304.281	94
304.511	88
304.741	75
304.971	88
305.201	98
305.431	81
305.661	88
305.891	86
306.121	87
306.352	81
306.582	86
306.812	81
307.042	87
307.272	92
307.502	94
307.731	90
307.961	77
308.191	86
308.421	92
308.651	78
308.881	83
309.111	86
309.341	88
309.571	99
309.8	95
310.03	90
310.26	83
310.49	82
310.72	83
310.949	85
311.179	92
311.409	97
311.639	107
311.868	110
312.098	98
312.328	91
312.557	95
312.787	95
313.017	89
313.246	95
313.476	95
313.706	87
313.935	87
314.165	88
314.394	98
314.624	92
314.853	97
315.083	97
315.312	91
315.542	66
315.771	92
316.001	93
316.23	103
316.46	88
316.689	100
316.919	83
317.148	95
317.377	95
317.607	102
317.836	98
318.065	99
318.295	104
318.524	102
318.753	83
318.983	93
319.212	107
319.441	96
319.67	95
319.9	100
320.129	96
320.358	95
320.587	86
320.816	92
321.046	97
321.275	85
321.504	104
321.733	102
321.962	98
322.191	102
322.42	84
322.649	107
322.878	114
323.108	101
323.337	123
323.566	126
323.795	141
324.024	172
324.253	335
324.482	662
324.71	1346
324.939	1850
325.168	667
325.397	206
325.626	134
325.855	126
326.084	127
326.313	126
326.542	127
326.77	195
326.999	373
327.228	785
327.457	1432
327.686	1149
327.914	323
328.143	152
328.372	115
328.6	115
328.829	89
329.058	108
329.287	117
329.515	99
329.744	98
329.972	86
330.201	100
330.43	101
330.658	108
330.887	121
331.115	111
331.344	96
331.572	96
331.801	98
332.03	110
332.258	95
332.486	98
332.715	102
332.943	96
333.172	90
333.4	101
333.629	101
333.857	101
334.085	100
334.314	101
334.542	99
334.771	83
334.999	93
335.227	91
335.455	91
335.684	95
335.912	81
336.14	86
336.369	90
336.597	92
336.825	90
337.053	78
337.281	101
337.51	113
337.738	91
337.966	82
338.194	95
338.422	86
338.65	96
338.878	100
339.106	93
339.334	74
339.562	86
339.79	79
340.018	96
340.246	79
340.474	84
340.702	86
340.93	105
341.158	95
341.386	92
341.614	90
341.842	93
342.07	80
342.298	90
342.526	76
342.754	86
342.981	82
343.209	83
343.437	95
343.665	104
343.893	91
344.12	99
344.348	105
344.576	88
344.804	90
345.031	96
345.259	99
345.487	94
345.714	96
345.942	90
346.17	95
346.397	95
346.625	91
346.853	96
347.08	82
347.308	91
347.535	90
347.763	96
347.99	97
348.218	91
348.445	84
348.673	84
348.9	102
349.128	90
349.355	101
349.583	92
349.81	110
350.037	90
350.265	101
350.492	104
350.72	96
350.947	101
351.174	91
351.402	116
351.629	88
351.856	100
352.083	98
352.311	93
352.538	101
352.765	101
352.992	89
353.22	118
353.447	107
353.674	76
353.901	102
354.128	108
354.355	86
354.583	92
354.81	89
355.037	97
355.264	96
355.491	107
355.718	95
355.945	95
356.172	113
356.399	96
356.626	104
356.853	95
357.08	102
357.307	87
357.534	86
357.761	95
357.988	78
358.215	101
358.441	94
358.668	85
358.895	83
359.122	87
359.349	87
359.576	105
359.802	95
360.029	113
360.256	98
360.483	83
360.709	86
360.936	103
361.163	92
361.39	99
361.616	86
361.843	99
362.07	101
362.296	83
362.523	75
362.749	94
362.976	101
363.203	88
363.429	76
363.656	89
363.882	77
364.109	94
364.335	116
364.562	97
364.788	101
365.015	92
365.241	96
365.468	119
365.694	112
365.92	95
366.147	96
366.373	100
366.599	88
366.826	82
367.052	81
367.278	85
367.505	96
367.731	96
367.957	86
368.184	91
368.41	92
368.636	101
368.862	115
369.089	98
369.315	88
369.541	93
369.767	82
369.993	86
370.219	82
370.445	75
370.672	90
370.898	94
371.124	90
371.35	82
371.576	85
371.802	93
372.028	84
372.254	101
372.48	74
372.706	87
372.932	87
373.158	83
373.384	93
373.61	93
373.835	94
374.061	88
374.287	92
374.513	104
374.739	88
374.965	90
375.191	92
375.416	82
375.642	95
375.868	92
376.094	108
376.319	79
376.545	91
376.771	101
376.997	83
377.222	76
377.448	84
377.674	92
377.899	101
378.125	84
378.35	84
378.576	95
378.802	100
379.027	88
379.253	91
379.478	94
379.704	98
379.929	91
380.155	96
380.38	83
380.606	85
380.831	98
381.057	106
381.282	94
381.507	76
381.733	106
381.958	99
382.184	115
382.409	97
382.634	100
382.86	93
383.085	98
383.31	108
383.535	96
383.761	103
383.986	91
384.211	94
384.436	90
384.662	98
384.887	104
385.112	104
385.337	99
385.562	103
385.787	103
386.013	118
386.238	123
386.463	99
386.688	123
386.913	100
387.138	113
387.363	111
387.588	102
387.813	108
388.038	98
388.263	108
388.488	107
388.713	86
388.938	91
389.163	104
389.387	104
389.612	113
389.837	88
390.062	98
390.287	81
390.512	95
390.736	102
390.961	87
391.186	102
391.411	88
391.636	86
391.86	97
392.085	85
392.31	75
392.534	86
392.759	76
392.984	90
393.208	102
393.433	114
393.658	93
393.882	86
394.107	83
394.331	85
394.556	67
394.78	78
395.005	85
395.229	92
395.454	106
395.678	82
395.903	71
396.127	85
396.352	86
396.576	78
396.801	101
397.025	99
397.249	88
397.474	92
397.698	92
397.922	87
398.147	88
398.371	69
398.595	78
398.82	89
399.044	81
399.268	99
399.492	88
399.717	95
399.941	96
400.165	87
400.389	98
400.613	90
400.837	86
401.062	84
401.286	91
401.51	87
401.734	87
401.958	88
402.182	118
402.406	135
402.63	115
402.854	93
403.078	97
403.302	102
403.526	83
403.75	93
403.974	96
404.198	89
404.422	89
404.645	96
404.869	99
405.093	91
405.317	87
405.541	95
405.765	99
405.988	119
406.212	146
406.436	170
406.66	125
406.883	83
407.107	98
407.331	82
407.555	87
407.778	95
408.002	77
408.226	89
408.449	77
408.673	103
408.896	105
409.12	78
409.344	92
409.567	85
409.791	95
410.014	97
410.238	92
410.461	95
410.685	116
410.908	94
411.132	110
411.355	104
411.578	115
411.802	92
412.025	87
412.249	99
412.472	86
412.695	95
412.919	96
413.142	90
413.365	93
413.589	97
413.812	81
414.035	76
414.258	84
414.482	88
414.705	95
414.928	92
415.151	99
415.374	94
415.597	97
415.821	92
416.044	87
416.267	85
416.49	93
416.713	86
416.936	81
417.159	88
417.382	84
417.605	99
417.828	90
418.051	99
418.274	92
418.497	87
418.72	103
418.943	96
419.166	84
419.389	87
419.611	83
419.834	96
420.057	80
420.28	87
420.503	95
420.726	88
420.948	88
421.171	92
421.394	108
421.617	86
421.839	85
422.062	91
422.285	92
422.507	93
422.73	101
422.953	90
423.175	87
423.398	74
423.621	94
423.843	80
424.066	91
424.288	84
424.511	89
424.733	92
424.956	95
425.178	93
425.401	101
425.623	93
425.846	87
426.068	82
426.291	99
426.513	94
426.735	102
426.958	96
427.18	99
427.402	114
427.625	133
427.847	112
428.069	94
428.292	84
428.514	94
428.736	79
428.958	96
429.181	88
429.403	82
429.625	96
429.847	91
430.069	89
430.292	100
430.514	94
430.736	92
430.958	84
431.18	81
431.402	85
431.624	93
431.846	96
432.068	95
432.29	75
432.512	77
432.734	86
432.956	88
433.178	108
433.4	91
433.622	93
433.844	83
434.066	94
434.287	105
434.509	90
434.731	84
434.953	81
435.175	76
435.397	92
435.618	95
435.84	86
436.062	112
436.284	108
436.505	110
436.727	106
436.949	107
437.17	96
437.392	93
437.614	83
437.835	89
438.057	102
438.278	93
438.5	93
438.721	116
438.943	108
439.165	91
439.386	86
439.608	87
439.829	101
440.05	117
440.272	123
440.493	88
440.715	86
440.936	95
441.158	90
441.379	94
441.6	89
441.822	91
442.043	90
442.264	96
442.486	106
442.707	95
442.928	112
443.149	118
443.371	125
443.592	88
443.813	108
444.034	97
444.255	92
444.476	78
444.698	86
444.919	75
445.14	113
445.361	113
445.582	98
445.803	117
446.024	132
446.245	114
446.466	96
446.687	99
446.908	82
447.129	71
447.35	96
447.571	95
447.792	90
448.013	102
448.234	94
448.455	94
448.675	95
448.896	110
449.117	82
449.338	99
449.559	117
449.779	121
450	94
450.221	90
450.442	87
450.662	91
450.883	99
451.104	93
451.324	93
451.545	90
451.766	79
451.986	97
452.207	94
452.428	96
452.648	109
452.869	112
453.089	98
453.31	102
453.53	90
453.751	86
453.971	102
454.192	107
454.412	88
454.633	91
454.853	83
455.073	74
455.294	101
455.514	91
455.734	96
455.955	102
456.175	91
456.395	87
456.616	92
456.836	103
457.056	98
457.276	86
457.497	75
457.717	94
457.937	74
458.157	98
458.377	80
458.598	97
458.818	133
459.038	132
459.258	101
459.478	102
459.698	86
459.918	85
460.138	88
460.358	75
460.578	74
460.798	83
461.018	88
461.238	91
461.458	87
461.678	80
461.898	83
462.118	88
462.338	87
462.558	83
462.777	87
462.997	82
463.217	83
463.437	74
463.657	92
463.876	108
464.096	97
464.316	85
464.536	93
464.755	101
464.975	109
465.195	128
465.414	140
465.634	108
465.854	87
466.073	100
466.293	86
466.512	90
466.732	99
466.951	85
467.171	76
467.391	95
467.61	100
467.829	91
468.049	103
468.268	93
468.488	74
468.707	75
468.927	79
469.146	99
469.365	86
469.585	86
469.804	88
470.023	99
470.243	93
470.462	95
470.681	107
470.901	84
471.12	95
471.339	92
471.558	85
471.777	94
471.997	86
472.216	86
472.435	77
472.654	83
472.873	84
473.092	91
473.311	87
473.53	95
473.749	79
473.968	95
474.187	88
474.406	89
474.625	92
474.844	90
475.063	88
475.282	86
475.501	96
475.72	98
475.939	99
476.158	93
476.377	94
476.596	96
476.814	96
477.033	83
477.252	94
477.471	94
477.69	84
477.908	93
478.127	88
478.346	80
478.564	93
478.783	90
479.002	87
479.22	89
479.439	104
479.658	101
479.876	99
480.095	95
480.313	83
480.532	89
480.751	92
480.969	94
481.188	100
481.406	110
481.624	85
481.843	91
482.061	83
482.28	87
482.498	83
482.717	90
482.935	70
483.153	99
483.372	93
483.59	98
483.808	90
484.027	74
484.245	95
484.463	82
484.681	92
484.9	86
485.118	97
485.336	93
485.554	104
485.772	101
485.99	90
486.209	101
486.427	97
486.645	91
486.863	101
487.081	91
487.299	96
487.517	109
487.735	104
487.953	87
488.171	94
488.389	98
488.607	92
488.825	96
489.043	81
489.261	84
489.479	99
489.696	82
489.914	78
490.132	102
490.35	108
490.568	98
490.786	103
491.003	87
491.221	95
491.439	103
491.657	89
491.874	95
492.092	99
492.31	110
492.527	87
492.745	94
492.963	98
493.18	96
493.398	98
493.615	92
493.833	92
494.05	78
494.268	82
494.485	99
494.703	89
494.92	109
495.138	69
495.355	81
495.573	86
495.79	97
496.008	102
496.225	88
496.442	84
496.66	99
496.877	82
497.094	93
497.312	104
497.529	88
497.746	87
497.963	90
498.181	84
498.398	102
498.615	115
498.832	98
499.049	93
499.267	94
499.484	92
499.701	98
499.918	91
500.135	88
500.352	98
500.569	91
500.786	97
501.003	101
501.22	94
501.437	89
501.654	94
501.871	123
502.088	89
502.305	95
502.522	87
502.739	89
502.956	87
503.172	89
503.389	98
503.606	103
503.823	93
504.04	100
504.256	93
504.473	94
504.69	93
504.907	106
505.123	105
505.34	94
505.557	86
505.773	74
505.99	101
506.207	99
506.423	98
506.64	98
506.856	80
507.073	79
507.289	74
507.506	92
507.722	104
507.939	104
508.155	102
508.372	98
508.588	90
508.805	90
509.021	91
509.238	100
509.454	92
509.67	87
509.887	99
510.103	125
510.319	162
510.536	617
510.752	1861
510.968	531
511.184	142
511.401	111
511.617	88
511.833	87
512.049	95
512.265	96
512.481	98
512.698	87
512.914	94
513.13	81
513.346	78
513.562	98
513.778	97
513.994	100
514.21	81
514.426	106
514.642	115
514.858	112
515.074	144
515.29	358
515.506	1091
515.721	418
515.937	143
516.153	94
516.369	104
516.585	79
516.801	95
517.016	100
517.232	88
517.448	87
517.664	93
517.879	91
518.095	99
518.311	82
518.527	89
518.742	84
518.958	87
519.173	90
519.389	86
519.605	91
519.82	90
520.036	91
520.251	109
520.467	110
520.682	93
520.898	83
521.113	107
521.329	127
521.544	166
521.76	432
521.975	1794
522.19	1037
522.406	252
522.621	116
522.836	96
523.052	109
523.267	92
523.482	93
523.698	107
523.913	94
524.128	94
524.343	96
524.559	98
524.774	83
524.989	93
525.204	110
525.419	91
525.634	85
525.849	94
526.064	90
526.28	92
526.495	80
526.71	91
526.925	99
527.14	88
527.355	96
527.57	98
527.785	83
527.999	82
528.214	89
528.429	90
528.644	92
528.859	92
529.074	111
529.289	117
529.503	140
529.718	100
529.933	100
530.148	95
530.363	82
530.577	100
530.792	87
531.007	94
531.221	98
531.436	84
531.651	95
531.865	107
532.08	82
532.295	100
532.509	92
532.724	88
532.938	100
533.153	96
533.367	93
533.582	90
533.796	100
534.011	75
534.225	95
534.44	90
534.654	102
534.868	86
535.083	96
535.297	87
535.511	95
535.726	108
535.94	105
536.154	93
536.369	95
536.583	84
536.797	81
537.011	82
537.225	95
537.44	97
537.654	95
537.868	88
538.082	99
538.296	103
538.51	93
538.724	82
538.938	83
539.153	95
539.367	104
539.581	97
539.795	98
540.009	89
540.222	91
540.436	74
540.65	98
540.864	95
541.078	112
541.292	96
541.506	97
541.72	90
541.934	108
542.147	99
542.361	93
542.575	91
542.789	86
543.002	82
543.216	86
543.43	104
543.644	88
543.857	108
544.071	92
544.285	89
544.498	97
544.712	90
544.925	89
545.139	87
545.352	86
545.566	92
545.779	92
545.993	93
546.206	88
546.42	82
546.633	99
546.847	96
547.06	103
547.274	103
547.487	68
547.7	98
547.914	80
548.127	92
548.34	91
548.554	80
548.767	85
548.98	90
549.193	86
549.407	81
549.62	94
549.833	92
550.046	81
550.259	78
550.473	90
550.686	103
550.899	104
551.112	91
551.325	101
551.538	78
551.751	94
551.964	81
552.177	89
552.39	96
552.603	94
552.816	84
553.029	97
553.242	86
553.455	103
553.667	108
553.88	90
554.093	85
554.306	76
554.519	82
554.732	88
554.944	97
555.157	89
555.37	87
555.583	70
555.795	85
556.008	82
556.221	92
556.433	87
556.646	84
556.859	82
557.071	85
557.284	82
557.496	74
557.709	83
557.921	93
558.134	88
558.346	94
558.559	94
558.771	94
558.984	87
559.196	82
559.409	92
559.621	94
559.833	94
560.046	83
560.258	87
560.47	98
560.683	103
560.895	107
561.107	76
561.32	90
561.532	85
561.744	78
561.956	91
562.168	106
562.381	88
562.593	95
562.805	86
563.017	93
563.229	88
563.441	87
563.653	91
563.865	88
564.077	92
564.289	84
564.501	82
564.713	77
564.925	95
565.137	95
565.349	87
565.561	103
565.773	88
565.985	93
566.197	101
566.408	81
566.62	87
566.832	70
567.044	100
567.255	75
567.467	91
567.679	78
567.891	84
568.102	75
568.314	86
568.526	87
568.737	88
568.949	88
569.161	92
569.372	74
569.584	78
569.795	92
570.007	116
570.218	211
570.43	127
570.641	97
570.853	83
571.064	83
571.276	92
571.487	98
571.698	79
571.91	92
572.121	67
572.333	100
572.544	82
572.755	77
572.966	80
573.178	87
573.389	86
573.6	84
573.811	84
574.023	86
574.234	63
574.445	88
574.656	94
574.867	91
575.078	84
575.289	84
575.501	91
575.712	84
575.923	83
576.134	86
576.345	84
576.556	75
576.767	93
576.978	101
577.188	86
577.399	81
577.61	86
577.821	110
578.032	102
578.243	235
578.454	624
578.665	190
578.875	105
579.086	101
579.297	96
579.508	100
579.718	77
579.929	83
580.14	74
580.35	82
580.561	88
580.772	105
580.982	84
581.193	77
581.403	80
581.614	88
581.825	83
582.035	91
582.246	82
582.456	97
582.667	97
582.877	81
583.087	97
583.298	94
583.508	90
583.719	86
583.929	99
584.139	75
584.35	89
584.56	84
584.77	85
584.981	91
585.191	94
