Data from Uncirc_1990_H10_HRD10591_00067.txt Node
Date: Wed Jan 03 11:54:05 EST 2024
User: Yrep
Spectrometer: HR+D1059
Trigger mode: 1
Integration Time (sec): 1.000000E-1
Scans to average: 1
Electric dark correction enabled: true
Nonlinearity correction enabled: false
Boxcar width: 0
XAxis mode: Wavelengths
Number of Pixels in Spectrum: 2048
>>>>>Begin Spectral Data<<<<<
223.165	-23.19
223.4	-23.19
223.635	-23.19
223.869	-12.19
224.104	-14.19
224.338	-14.19
224.573	-13.19
224.808	-19.19
225.042	-0.19
225.277	-7.19
225.511	3.81
225.746	1.81
225.98	0.81
226.215	8.81
226.449	6.81
226.683	13.81
226.918	33.81
227.152	33.81
227.387	42.81
227.621	44.81
227.856	43.81
228.09	37.81
228.324	58.81
228.559	56.81
228.793	65.81
229.027	89.81
229.262	76.81
229.496	89.81
229.73	82.81
229.964	86.81
230.199	77.81
230.433	83.81
230.667	97.81
230.901	83.81
231.136	88.81
231.37	77.81
231.604	81.81
231.838	91.81
232.072	92.81
232.306	77.81
232.541	77.81
232.775	79.81
233.009	83.81
233.243	97.81
233.477	86.81
233.711	91.81
233.945	81.81
234.179	87.81
234.413	73.81
234.647	88.81
234.881	81.81
235.115	93.81
235.349	99.81
235.583	88.81
235.817	94.81
236.051	73.81
236.285	94.81
236.519	73.81
236.753	92.81
236.987	79.81
237.221	79.81
237.455	95.81
237.689	84.81
237.922	83.81
238.156	79.81
238.39	79.81
238.624	79.81
238.858	74.81
239.091	85.81
239.325	81.81
239.559	84.81
239.793	86.81
240.027	84.81
240.26	70.81
240.494	90.81
240.728	87.81
240.961	87.81
241.195	85.81
241.429	61.81
241.662	90.81
241.896	79.81
242.13	82.81
242.363	81.81
242.597	78.81
242.83	69.81
243.064	79.81
243.298	84.81
243.531	72.81
243.765	90.81
243.998	83.81
244.232	57.81
244.465	73.81
244.699	87.81
244.932	85.81
245.166	90.81
245.399	88.81
245.633	79.81
245.866	72.81
246.099	72.81
246.333	69.81
246.566	82.81
246.8	88.81
247.033	88.81
247.266	86.81
247.5	89.81
247.733	79.81
247.966	96.81
248.2	91.81
248.433	87.81
248.666	72.81
248.899	92.81
249.133	93.81
249.366	100.81
249.599	96.81
249.832	87.81
250.066	73.81
250.299	95.81
250.532	81.81
250.765	86.81
250.998	93.81
251.231	95.81
251.465	83.81
251.698	87.81
251.931	83.81
252.164	87.81
252.397	81.81
252.63	84.81
252.863	92.81
253.096	91.81
253.329	90.81
253.562	84.81
253.795	94.81
254.028	82.81
254.261	86.81
254.494	96.81
254.727	87.81
254.96	93.81
255.193	80.81
255.426	78.81
255.659	82.81
255.892	96.81
256.124	85.81
256.357	82.81
256.59	81.81
256.823	92.81
257.056	92.81
257.289	86.81
257.521	72.81
257.754	90.81
257.987	81.81
258.22	73.81
258.452	76.81
258.685	99.81
258.918	64.81
259.151	101.81
259.383	86.81
259.616	83.81
259.849	80.81
260.081	85.81
260.314	86.81
260.547	85.81
260.779	83.81
261.012	93.81
261.244	84.81
261.477	99.81
261.71	96.81
261.942	109.81
262.175	114.81
262.407	96.81
262.64	90.81
262.872	92.81
263.105	88.81
263.337	99.81
263.57	88.81
263.802	94.81
264.035	79.81
264.267	76.81
264.499	83.81
264.732	87.81
264.964	83.81
265.197	98.81
265.429	91.81
265.661	83.81
265.894	96.81
266.126	94.81
266.358	90.81
266.591	80.81
266.823	93.81
267.055	83.81
267.287	88.81
267.52	87.81
267.752	88.81
267.984	83.81
268.216	86.81
268.448	83.81
268.681	87.81
268.913	95.81
269.145	93.81
269.377	94.81
269.609	83.81
269.841	88.81
270.073	80.81
270.306	94.81
270.538	90.81
270.77	96.81
271.002	91.81
271.234	83.81
271.466	92.81
271.698	85.81
271.93	84.81
272.162	74.81
272.394	103.81
272.626	91.81
272.858	81.81
273.09	79.81
273.322	95.81
273.553	91.81
273.785	89.81
274.017	80.81
274.249	83.81
274.481	87.81
274.713	95.81
274.945	86.81
275.176	100.81
275.408	88.81
275.64	95.81
275.872	92.81
276.104	98.81
276.335	109.81
276.567	98.81
276.799	109.81
277.031	120.81
277.262	95.81
277.494	99.81
277.726	80.81
277.957	93.81
278.189	73.81
278.421	92.81
278.652	87.81
278.884	85.81
279.115	101.81
279.347	85.81
279.579	92.81
279.81	83.81
280.042	90.81
280.273	99.81
280.505	92.81
280.736	97.81
280.968	96.81
281.199	89.81
281.431	99.81
281.662	101.81
281.894	89.81
282.125	92.81
282.356	96.81
282.588	118.81
282.819	119.81
283.051	103.81
283.282	95.81
283.513	103.81
283.745	71.81
283.976	90.81
284.207	90.81
284.439	77.81
284.67	81.81
284.901	89.81
285.132	96.81
285.364	86.81
285.595	75.81
285.826	96.81
286.057	105.81
286.288	95.81
286.52	86.81
286.751	84.81
286.982	75.81
287.213	83.81
287.444	93.81
287.675	99.81
287.906	91.81
288.138	96.81
288.369	95.81
288.6	86.81
288.831	87.81
289.062	86.81
289.293	95.81
289.524	100.81
289.755	96.81
289.986	74.81
290.217	87.81
290.448	87.81
290.679	98.81
290.91	100.81
291.141	83.81
291.371	99.81
291.602	85.81
291.833	88.81
292.064	84.81
292.295	100.81
292.526	98.81
292.757	101.81
292.987	101.81
293.218	84.81
293.449	96.81
293.68	76.81
293.91	90.81
294.141	113.81
294.372	87.81
294.603	96.81
294.833	96.81
295.064	89.81
295.295	97.81
295.525	91.81
295.756	106.81
295.987	115.81
296.217	133.81
296.448	120.81
296.679	92.81
296.909	88.81
297.14	87.81
297.37	92.81
297.601	84.81
297.831	83.81
298.062	95.81
298.292	90.81
298.523	101.81
298.753	95.81
298.984	89.81
299.214	92.81
299.445	87.81
299.675	88.81
299.905	79.81
300.136	98.81
300.366	98.81
300.597	79.81
300.827	81.81
301.057	91.81
301.288	91.81
301.518	117.81
301.748	96.81
301.979	93.81
302.209	88.81
302.439	100.81
302.669	91.81
302.9	78.81
303.13	98.81
303.36	89.81
303.59	87.81
303.82	95.81
304.051	95.81
304.281	96.81
304.511	99.81
304.741	104.81
304.971	91.81
305.201	91.81
305.431	98.81
305.661	87.81
305.891	92.81
306.121	95.81
306.352	91.81
306.582	108.81
306.812	95.81
307.042	103.81
307.272	104.81
307.502	97.81
307.731	95.81
307.961	100.81
308.191	97.81
308.421	101.81
308.651	99.81
308.881	102.81
309.111	101.81
309.341	99.81
309.571	107.81
309.8	95.81
310.03	105.81
310.26	98.81
310.49	84.81
310.72	111.81
310.949	120.81
311.179	101.81
311.409	115.81
311.639	94.81
311.868	93.81
312.098	90.81
312.328	91.81
312.557	92.81
312.787	106.81
313.017	96.81
313.246	95.81
313.476	100.81
313.706	90.81
313.935	107.81
314.165	103.81
314.394	91.81
314.624	88.81
314.853	104.81
315.083	92.81
315.312	83.81
315.542	99.81
315.771	93.81
316.001	87.81
316.23	91.81
316.46	85.81
316.689	89.81
316.919	92.81
317.148	96.81
317.377	88.81
317.607	99.81
317.836	97.81
318.065	96.81
318.295	97.81
318.524	89.81
318.753	91.81
318.983	85.81
319.212	106.81
319.441	112.81
319.67	109.81
319.9	113.81
320.129	104.81
320.358	88.81
320.587	91.81
320.816	107.81
321.046	92.81
321.275	103.81
321.504	108.81
321.733	87.81
321.962	88.81
322.191	101.81
322.42	94.81
322.649	104.81
322.878	119.81
323.108	107.81
323.337	108.81
323.566	129.81
323.795	137.81
324.024	207.81
324.253	345.81
324.482	745.81
324.71	1549.81
324.939	2007.81
325.168	740.81
325.397	250.81
325.626	137.81
325.855	122.81
326.084	134.81
326.313	126.81
326.542	141.81
326.77	216.81
326.999	417.81
327.228	865.81
327.457	1589.81
327.686	1280.81
327.914	351.81
328.143	189.81
328.372	151.81
328.6	127.81
328.829	105.81
329.058	135.81
329.287	123.81
329.515	116.81
329.744	98.81
329.972	103.81
330.201	115.81
330.43	118.81
330.658	112.81
330.887	132.81
331.115	130.81
331.344	98.81
331.572	112.81
331.801	104.81
332.03	99.81
332.258	92.81
332.486	84.81
332.715	96.81
332.943	78.81
333.172	96.81
333.4	94.81
333.629	103.81
333.857	117.81
334.085	119.81
334.314	109.81
334.542	114.81
334.771	130.81
334.999	102.81
335.227	95.81
335.455	88.81
335.684	106.81
335.912	98.81
336.14	91.81
336.369	97.81
336.597	97.81
336.825	87.81
337.053	100.81
337.281	103.81
337.51	101.81
337.738	84.81
337.966	96.81
338.194	107.81
338.422	109.81
338.65	90.81
338.878	85.81
339.106	84.81
339.334	101.81
339.562	96.81
339.79	87.81
340.018	104.81
340.246	100.81
340.474	94.81
340.702	92.81
340.93	100.81
341.158	99.81
341.386	109.81
341.614	112.81
341.842	89.81
342.07	95.81
342.298	106.81
342.526	97.81
342.754	97.81
342.981	90.81
343.209	95.81
343.437	116.81
343.665	95.81
343.893	94.81
344.12	96.81
344.348	90.81
344.576	100.81
344.804	89.81
345.031	99.81
345.259	83.81
345.487	106.81
345.714	99.81
345.942	99.81
346.17	100.81
346.397	95.81
346.625	99.81
346.853	89.81
347.08	103.81
347.308	94.81
347.535	96.81
347.763	116.81
347.99	98.81
348.218	113.81
348.445	115.81
348.673	109.81
348.9	105.81
349.128	89.81
349.355	91.81
349.583	95.81
349.81	86.81
350.037	98.81
350.265	91.81
350.492	104.81
350.72	98.81
350.947	97.81
351.174	91.81
351.402	121.81
351.629	97.81
351.856	108.81
352.083	99.81
352.311	104.81
352.538	103.81
352.765	110.81
352.992	111.81
353.22	116.81
353.447	111.81
353.674	102.81
353.901	115.81
354.128	88.81
354.355	97.81
354.583	109.81
354.81	91.81
355.037	99.81
355.264	106.81
355.491	106.81
355.718	96.81
355.945	92.81
356.172	94.81
356.399	96.81
356.626	91.81
356.853	85.81
357.08	99.81
357.307	87.81
357.534	94.81
357.761	92.81
357.988	103.81
358.215	89.81
358.441	88.81
358.668	82.81
358.895	106.81
359.122	84.81
359.349	85.81
359.576	104.81
359.802	91.81
360.029	119.81
360.256	115.81
360.483	95.81
360.709	93.81
360.936	113.81
361.163	104.81
361.39	102.81
361.616	87.81
361.843	91.81
362.07	94.81
362.296	101.81
362.523	83.81
362.749	92.81
362.976	102.81
363.203	98.81
363.429	95.81
363.656	105.81
363.882	94.81
364.109	90.81
364.335	81.81
364.562	91.81
364.788	98.81
365.015	87.81
365.241	99.81
365.468	113.81
365.694	106.81
365.92	108.81
366.147	106.81
366.373	94.81
366.599	88.81
366.826	100.81
367.052	83.81
367.278	88.81
367.505	104.81
367.731	84.81
367.957	87.81
368.184	93.81
368.41	96.81
368.636	101.81
368.862	116.81
369.089	105.81
369.315	96.81
369.541	100.81
369.767	95.81
369.993	89.81
370.219	103.81
370.445	81.81
370.672	86.81
370.898	96.81
371.124	104.81
371.35	88.81
371.576	87.81
371.802	79.81
372.028	92.81
372.254	115.81
372.48	103.81
372.706	75.81
372.932	92.81
373.158	93.81
373.384	87.81
373.61	96.81
373.835	105.81
374.061	95.81
374.287	84.81
374.513	81.81
374.739	87.81
374.965	88.81
375.191	98.81
375.416	98.81
375.642	96.81
375.868	95.81
376.094	97.81
376.319	113.81
376.545	98.81
376.771	92.81
376.997	89.81
377.222	101.81
377.448	89.81
377.674	110.81
377.899	93.81
378.125	99.81
378.35	99.81
378.576	90.81
378.802	91.81
379.027	89.81
379.253	102.81
379.478	83.81
379.704	86.81
379.929	88.81
380.155	101.81
380.38	89.81
380.606	83.81
380.831	100.81
381.057	94.81
381.282	83.81
381.507	120.81
381.733	103.81
381.958	109.81
382.184	87.81
382.409	103.81
382.634	88.81
382.86	101.81
383.085	102.81
383.31	105.81
383.535	114.81
383.761	103.81
383.986	108.81
384.211	95.81
384.436	90.81
384.662	108.81
384.887	101.81
385.112	82.81
385.337	105.81
385.562	94.81
385.787	101.81
386.013	105.81
386.238	112.81
386.463	95.81
386.688	106.81
386.913	111.81
387.138	101.81
387.363	96.81
387.588	111.81
387.813	106.81
388.038	105.81
388.263	112.81
388.488	120.81
388.713	95.81
388.938	98.81
389.163	107.81
389.387	117.81
389.612	91.81
389.837	79.81
390.062	108.81
390.287	100.81
390.512	74.81
390.736	105.81
390.961	96.81
391.186	92.81
391.411	87.81
391.636	104.81
391.86	95.81
392.085	81.81
392.31	92.81
392.534	84.81
392.759	89.81
392.984	88.81
393.208	105.81
393.433	93.81
393.658	99.81
393.882	91.81
394.107	95.81
394.331	104.81
394.556	89.81
394.78	85.81
395.005	85.81
395.229	93.81
395.454	90.81
395.678	109.81
395.903	91.81
396.127	86.81
396.352	71.81
396.576	87.81
396.801	87.81
397.025	67.81
397.249	87.81
397.474	97.81
397.698	99.81
397.922	87.81
398.147	100.81
398.371	99.81
398.595	88.81
398.82	89.81
399.044	90.81
399.268	92.81
399.492	86.81
399.717	99.81
399.941	91.81
400.165	104.81
400.389	88.81
400.613	103.81
400.837	88.81
401.062	105.81
401.286	87.81
401.51	103.81
401.734	95.81
401.958	113.81
402.182	124.81
402.406	142.81
402.63	102.81
402.854	92.81
403.078	109.81
403.302	100.81
403.526	101.81
403.75	105.81
403.974	92.81
404.198	99.81
404.422	90.81
404.645	90.81
404.869	98.81
405.093	102.81
405.317	99.81
405.541	105.81
405.765	99.81
405.988	104.81
406.212	165.81
406.436	205.81
406.66	132.81
406.883	102.81
407.107	103.81
407.331	87.81
407.555	94.81
407.778	105.81
408.002	90.81
408.226	72.81
408.449	98.81
408.673	89.81
408.896	90.81
409.12	101.81
409.344	94.81
409.567	97.81
409.791	105.81
410.014	103.81
410.238	103.81
410.461	99.81
410.685	87.81
410.908	95.81
411.132	107.81
411.355	116.81
411.578	113.81
411.802	88.81
412.025	92.81
412.249	91.81
412.472	96.81
412.695	89.81
412.919	102.81
413.142	97.81
413.365	101.81
413.589	98.81
413.812	103.81
414.035	103.81
414.258	101.81
414.482	103.81
414.705	93.81
414.928	87.81
415.151	97.81
415.374	116.81
415.597	101.81
415.821	89.81
416.044	80.81
416.267	105.81
416.49	85.81
416.713	90.81
416.936	98.81
417.159	93.81
417.382	89.81
417.605	93.81
417.828	95.81
418.051	96.81
418.274	92.81
418.497	84.81
418.72	85.81
418.943	112.81
419.166	88.81
419.389	84.81
419.611	89.81
419.834	99.81
420.057	96.81
420.28	95.81
420.503	83.81
420.726	102.81
420.948	109.81
421.171	87.81
421.394	82.81
421.617	89.81
421.839	104.81
422.062	102.81
422.285	91.81
422.507	95.81
422.73	109.81
422.953	118.81
423.175	88.81
423.398	100.81
423.621	100.81
423.843	96.81
424.066	91.81
424.288	90.81
424.511	98.81
424.733	106.81
424.956	109.81
425.178	105.81
425.401	113.81
425.623	99.81
425.846	75.81
426.068	99.81
426.291	97.81
426.513	86.81
426.735	98.81
426.958	101.81
427.18	97.81
427.402	132.81
427.625	158.81
427.847	121.81
428.069	120.81
428.292	91.81
428.514	89.81
428.736	97.81
428.958	101.81
429.181	102.81
429.403	94.81
429.625	101.81
429.847	95.81
430.069	88.81
430.292	98.81
430.514	87.81
430.736	102.81
430.958	91.81
431.18	92.81
431.402	88.81
431.624	97.81
431.846	96.81
432.068	86.81
432.29	81.81
432.512	88.81
432.734	99.81
432.956	95.81
433.178	107.81
433.4	104.81
433.622	83.81
433.844	95.81
434.066	97.81
434.287	86.81
434.509	82.81
434.731	102.81
434.953	99.81
435.175	80.81
435.397	94.81
435.618	94.81
435.84	97.81
436.062	114.81
436.284	116.81
436.505	112.81
436.727	107.81
436.949	86.81
437.17	89.81
437.392	89.81
437.614	98.81
437.835	111.81
438.057	121.81
438.278	120.81
438.5	100.81
438.721	109.81
438.943	101.81
439.165	92.81
439.386	78.81
439.608	96.81
439.829	96.81
440.05	107.81
440.272	127.81
440.493	97.81
440.715	75.81
440.936	91.81
441.158	87.81
441.379	93.81
441.6	90.81
441.822	92.81
442.043	92.81
442.264	120.81
442.486	101.81
442.707	106.81
442.928	114.81
443.149	135.81
443.371	119.81
443.592	108.81
443.813	105.81
444.034	107.81
444.255	100.81
444.476	97.81
444.698	90.81
444.919	108.81
445.14	148.81
445.361	124.81
445.582	125.81
445.803	145.81
446.024	134.81
446.245	135.81
446.466	116.81
446.687	96.81
446.908	105.81
447.129	106.81
447.35	92.81
447.571	93.81
447.792	111.81
448.013	102.81
448.234	121.81
448.455	113.81
448.675	118.81
448.896	123.81
449.117	105.81
449.338	113.81
449.559	115.81
449.779	125.81
450	105.81
450.221	88.81
450.442	99.81
450.662	98.81
450.883	105.81
451.104	120.81
451.324	99.81
451.545	98.81
451.766	81.81
451.986	88.81
452.207	101.81
452.428	94.81
452.648	101.81
452.869	104.81
453.089	109.81
453.31	114.81
453.53	101.81
453.751	97.81
453.971	96.81
454.192	103.81
454.412	94.81
454.633	92.81
454.853	91.81
455.073	95.81
455.294	89.81
455.514	116.81
455.734	115.81
455.955	96.81
456.175	85.81
456.395	92.81
456.616	84.81
456.836	88.81
457.056	89.81
457.276	89.81
457.497	84.81
457.717	94.81
457.937	92.81
458.157	101.81
458.377	91.81
458.598	108.81
458.818	132.81
459.038	153.81
459.258	119.81
459.478	98.81
459.698	95.81
459.918	82.81
460.138	104.81
460.358	97.81
460.578	86.81
460.798	77.81
461.018	86.81
461.238	93.81
461.458	86.81
461.678	98.81
461.898	95.81
462.118	98.81
462.338	90.81
462.558	94.81
462.777	98.81
462.997	104.81
463.217	96.81
463.437	100.81
463.657	86.81
463.876	97.81
464.096	101.81
464.316	106.81
464.536	98.81
464.755	97.81
464.975	111.81
465.195	161.81
465.414	162.81
465.634	99.81
465.854	102.81
466.073	91.81
466.293	96.81
466.512	105.81
466.732	87.81
466.951	92.81
467.171	104.81
467.391	113.81
467.61	110.81
467.829	105.81
468.049	95.81
468.268	82.81
468.488	96.81
468.707	88.81
468.927	81.81
469.146	94.81
469.365	101.81
469.585	96.81
469.804	88.81
470.023	104.81
470.243	84.81
470.462	93.81
470.681	95.81
470.901	100.81
471.12	95.81
471.339	87.81
471.558	96.81
471.777	107.81
471.997	92.81
472.216	121.81
472.435	105.81
472.654	87.81
472.873	80.81
473.092	97.81
473.311	102.81
473.53	96.81
473.749	96.81
473.968	94.81
474.187	96.81
474.406	112.81
474.625	95.81
474.844	90.81
475.063	90.81
475.282	96.81
475.501	91.81
475.72	94.81
475.939	89.81
476.158	90.81
476.377	98.81
476.596	74.81
476.814	100.81
477.033	96.81
477.252	99.81
477.471	77.81
477.69	81.81
477.908	88.81
478.127	99.81
478.346	95.81
478.564	100.81
478.783	86.81
479.002	105.81
479.22	102.81
479.439	112.81
479.658	111.81
479.876	91.81
480.095	96.81
480.313	105.81
480.532	95.81
480.751	100.81
480.969	97.81
481.188	147.81
481.406	116.81
481.624	99.81
481.843	102.81
482.061	92.81
482.28	98.81
482.498	109.81
482.717	82.81
482.935	98.81
483.153	96.81
483.372	100.81
483.59	92.81
483.808	98.81
484.027	85.81
484.245	96.81
484.463	102.81
484.681	94.81
484.9	89.81
485.118	117.81
485.336	95.81
485.554	112.81
485.772	120.81
485.99	109.81
486.209	103.81
486.427	103.81
486.645	107.81
486.863	112.81
487.081	121.81
487.299	116.81
487.517	104.81
487.735	91.81
487.953	105.81
488.171	95.81
488.389	105.81
488.607	96.81
488.825	104.81
489.043	102.81
489.261	103.81
489.479	98.81
489.696	96.81
489.914	89.81
490.132	96.81
490.35	97.81
490.568	102.81
490.786	92.81
491.003	102.81
491.221	94.81
491.439	100.81
491.657	100.81
491.874	97.81
492.092	99.81
492.31	101.81
492.527	88.81
492.745	87.81
492.963	105.81
493.18	88.81
493.398	89.81
493.615	94.81
493.833	96.81
494.05	84.81
494.268	88.81
494.485	88.81
494.703	101.81
494.92	94.81
495.138	98.81
495.355	86.81
495.573	98.81
495.79	114.81
496.008	105.81
496.225	98.81
496.442	106.81
496.66	103.81
496.877	100.81
497.094	97.81
497.312	106.81
497.529	98.81
497.746	109.81
497.963	90.81
498.181	83.81
498.398	97.81
498.615	117.81
498.832	116.81
499.049	108.81
499.267	92.81
499.484	107.81
499.701	99.81
499.918	93.81
500.135	100.81
500.352	102.81
500.569	95.81
500.786	107.81
501.003	100.81
501.22	98.81
501.437	104.81
501.654	115.81
501.871	96.81
502.088	104.81
502.305	85.81
502.522	96.81
502.739	107.81
502.956	94.81
503.172	96.81
503.389	87.81
503.606	99.81
503.823	101.81
504.04	97.81
504.256	97.81
504.473	99.81
504.69	89.81
504.907	86.81
505.123	100.81
505.34	93.81
505.557	89.81
505.773	91.81
505.99	89.81
506.207	89.81
506.423	84.81
506.64	97.81
506.856	91.81
507.073	89.81
507.289	105.81
507.506	92.81
507.722	113.81
507.939	115.81
508.155	103.81
508.372	98.81
508.588	100.81
508.805	93.81
509.021	100.81
509.238	99.81
509.454	99.81
509.67	99.81
509.887	98.81
510.103	132.81
510.319	198.81
510.536	663.81
510.752	2111.81
510.968	596.81
511.184	145.81
511.401	99.81
511.617	109.81
511.833	99.81
512.049	93.81
512.265	88.81
512.481	83.81
512.698	103.81
512.914	105.81
513.13	97.81
513.346	99.81
513.562	99.81
513.778	102.81
513.994	97.81
