Data from Uncirc_1990_H10_HRD10591_00037.txt Node
Date: Wed Jan 03 11:53:59 EST 2024
User: Yrep
Spectrometer: HR+D1059
Trigger mode: 1
Integration Time (sec): 1.000000E-1
Scans to average: 1
Electric dark correction enabled: true
Nonlinearity correction enabled: false
Boxcar width: 0
XAxis mode: Wavelengths
Number of Pixels in Spectrum: 2048
>>>>>Begin Spectral Data<<<<<
223.165	-18.06
223.4	-18.06
223.635	-18.06
223.869	-21.06
224.104	-17.06
224.338	-18.06
224.573	-18.06
224.808	0.94
225.042	0.94
225.277	5.94
225.511	-7.06
225.746	-4.06
225.98	7.94
226.215	0.94
226.449	18.94
226.683	17.94
226.918	23.94
227.152	25.94
227.387	26.94
227.621	48.94
227.856	56.94
228.09	50.94
228.324	49.94
228.559	43.94
228.793	38.94
229.027	52.94
229.262	59.94
229.496	72.94
229.73	74.94
229.964	83.94
230.199	78.94
230.433	86.94
230.667	86.94
230.901	69.94
231.136	82.94
231.37	72.94
231.604	91.94
231.838	85.94
232.072	81.94
232.306	74.94
232.541	73.94
232.775	89.94
233.009	78.94
233.243	99.94
233.477	74.94
233.711	76.94
233.945	72.94
234.179	69.94
234.413	84.94
234.647	78.94
234.881	77.94
235.115	55.94
235.349	72.94
235.583	89.94
235.817	79.94
236.051	76.94
236.285	64.94
236.519	72.94
236.753	78.94
236.987	77.94
237.221	82.94
237.455	74.94
237.689	70.94
237.922	74.94
238.156	69.94
238.39	72.94
238.624	70.94
238.858	85.94
239.091	80.94
239.325	75.94
239.559	88.94
239.793	74.94
240.027	62.94
240.26	74.94
240.494	79.94
240.728	65.94
240.961	66.94
241.195	89.94
241.429	67.94
241.662	64.94
241.896	78.94
242.13	63.94
242.363	67.94
242.597	86.94
242.83	80.94
243.064	70.94
243.298	66.94
243.531	75.94
243.765	76.94
243.998	74.94
244.232	65.94
244.465	88.94
244.699	84.94
244.932	74.94
245.166	69.94
245.399	80.94
245.633	67.94
245.866	72.94
246.099	82.94
246.333	79.94
246.566	78.94
246.8	78.94
247.033	84.94
247.266	82.94
247.5	86.94
247.733	73.94
247.966	68.94
248.2	81.94
248.433	74.94
248.666	71.94
248.899	78.94
249.133	71.94
249.366	92.94
249.599	91.94
249.832	75.94
250.066	84.94
250.299	61.94
250.532	84.94
250.765	64.94
250.998	73.94
251.231	77.94
251.465	74.94
251.698	67.94
251.931	68.94
252.164	64.94
252.397	84.94
252.63	74.94
252.863	74.94
253.096	95.94
253.329	80.94
253.562	91.94
253.795	84.94
254.028	85.94
254.261	85.94
254.494	80.94
254.727	80.94
254.96	69.94
255.193	77.94
255.426	79.94
255.659	78.94
255.892	88.94
256.124	82.94
256.357	80.94
256.59	84.94
256.823	69.94
257.056	72.94
257.289	83.94
257.521	90.94
257.754	78.94
257.987	82.94
258.22	83.94
258.452	92.94
258.685	75.94
258.918	69.94
259.151	89.94
259.383	87.94
259.616	81.94
259.849	84.94
260.081	98.94
260.314	78.94
260.547	73.94
260.779	82.94
261.012	78.94
261.244	79.94
261.477	94.94
261.71	93.94
261.942	101.94
262.175	92.94
262.407	86.94
262.64	78.94
262.872	92.94
263.105	93.94
263.337	78.94
263.57	83.94
263.802	95.94
264.035	89.94
264.267	77.94
264.499	69.94
264.732	80.94
264.964	66.94
265.197	86.94
265.429	78.94
265.661	75.94
265.894	83.94
266.126	75.94
266.358	84.94
266.591	69.94
266.823	83.94
267.055	85.94
267.287	72.94
267.52	79.94
267.752	78.94
267.984	98.94
268.216	79.94
268.448	84.94
268.681	84.94
268.913	82.94
269.145	61.94
269.377	80.94
269.609	96.94
269.841	92.94
270.073	72.94
270.306	80.94
270.538	76.94
270.77	81.94
271.002	68.94
271.234	97.94
271.466	96.94
271.698	94.94
271.93	82.94
272.162	88.94
272.394	91.94
272.626	82.94
272.858	66.94
273.09	82.94
273.322	83.94
273.553	78.94
273.785	88.94
274.017	84.94
274.249	86.94
274.481	89.94
274.713	72.94
274.945	79.94
275.176	84.94
275.408	81.94
275.64	75.94
275.872	82.94
276.104	95.94
276.335	82.94
276.567	93.94
276.799	85.94
277.031	97.94
277.262	78.94
277.494	97.94
277.726	91.94
277.957	94.94
278.189	70.94
278.421	77.94
278.652	81.94
278.884	91.94
279.115	75.94
279.347	91.94
279.579	80.94
279.81	91.94
280.042	93.94
280.273	83.94
280.505	86.94
280.736	99.94
280.968	94.94
281.199	90.94
281.431	88.94
281.662	89.94
281.894	81.94
282.125	101.94
282.356	116.94
282.588	113.94
282.819	105.94
283.051	95.94
283.282	85.94
283.513	92.94
283.745	82.94
283.976	72.94
284.207	75.94
284.439	81.94
284.67	84.94
284.901	90.94
285.132	65.94
285.364	87.94
285.595	76.94
285.826	94.94
286.057	74.94
286.288	81.94
286.52	85.94
286.751	82.94
286.982	86.94
287.213	84.94
287.444	95.94
287.675	74.94
287.906	77.94
288.138	87.94
288.369	90.94
288.6	89.94
288.831	79.94
289.062	90.94
289.293	90.94
289.524	76.94
289.755	87.94
289.986	79.94
290.217	74.94
290.448	82.94
290.679	93.94
290.91	82.94
291.141	94.94
291.371	87.94
291.602	91.94
291.833	86.94
292.064	80.94
292.295	83.94
292.526	84.94
292.757	91.94
292.987	83.94
293.218	83.94
293.449	83.94
293.68	81.94
293.91	88.94
294.141	83.94
294.372	80.94
294.603	83.94
294.833	81.94
295.064	80.94
295.295	109.94
295.525	93.94
295.756	102.94
295.987	110.94
296.217	119.94
296.448	122.94
296.679	97.94
296.909	65.94
297.14	81.94
297.37	82.94
297.601	76.94
297.831	85.94
298.062	92.94
298.292	97.94
298.523	78.94
298.753	92.94
298.984	76.94
299.214	96.94
299.445	92.94
299.675	85.94
299.905	100.94
300.136	91.94
300.366	92.94
300.597	88.94
300.827	87.94
301.057	102.94
301.288	106.94
301.518	99.94
301.748	80.94
301.979	97.94
302.209	96.94
302.439	86.94
302.669	84.94
302.9	67.94
303.13	91.94
303.36	78.94
303.59	92.94
303.82	93.94
304.051	98.94
304.281	85.94
304.511	102.94
304.741	100.94
304.971	86.94
305.201	93.94
305.431	89.94
305.661	86.94
305.891	94.94
306.121	91.94
306.352	83.94
306.582	93.94
306.812	75.94
307.042	81.94
307.272	92.94
307.502	88.94
307.731	98.94
307.961	89.94
308.191	88.94
308.421	82.94
308.651	85.94
308.881	84.94
309.111	100.94
309.341	89.94
309.571	87.94
309.8	87.94
310.03	97.94
310.26	101.94
310.49	98.94
310.72	94.94
310.949	92.94
311.179	74.94
311.409	100.94
311.639	80.94
311.868	89.94
312.098	79.94
312.328	93.94
312.557	88.94
312.787	81.94
313.017	90.94
313.246	105.94
313.476	102.94
313.706	82.94
313.935	89.94
314.165	84.94
314.394	96.94
314.624	105.94
314.853	93.94
315.083	84.94
315.312	83.94
315.542	84.94
315.771	84.94
316.001	77.94
316.23	92.94
316.46	77.94
316.689	90.94
316.919	95.94
317.148	100.94
317.377	83.94
317.607	101.94
317.836	86.94
318.065	88.94
318.295	93.94
318.524	93.94
318.753	89.94
318.983	86.94
319.212	93.94
319.441	94.94
319.67	108.94
319.9	88.94
320.129	82.94
320.358	91.94
320.587	108.94
320.816	84.94
321.046	102.94
321.275	106.94
321.504	96.94
321.733	110.94
321.962	84.94
322.191	87.94
322.42	104.94
322.649	98.94
322.878	105.94
323.108	101.94
323.337	110.94
323.566	130.94
323.795	143.94
324.024	196.94
324.253	370.94
324.482	773.94
324.71	1599.94
324.939	2121.94
325.168	761.94
325.397	235.94
325.626	145.94
325.855	116.94
326.084	125.94
326.313	129.94
326.542	139.94
326.77	212.94
326.999	419.94
327.228	870.94
327.457	1616.94
327.686	1322.94
327.914	353.94
328.143	189.94
328.372	131.94
328.6	110.94
328.829	115.94
329.058	109.94
329.287	109.94
329.515	99.94
329.744	89.94
329.972	81.94
330.201	94.94
330.43	112.94
330.658	111.94
330.887	122.94
331.115	117.94
331.344	103.94
331.572	86.94
331.801	102.94
332.03	104.94
332.258	92.94
332.486	96.94
332.715	91.94
332.943	85.94
333.172	101.94
333.4	106.94
333.629	96.94
333.857	96.94
334.085	109.94
334.314	99.94
334.542	84.94
334.771	93.94
334.999	91.94
335.227	101.94
335.455	104.94
335.684	98.94
335.912	82.94
336.14	99.94
336.369	93.94
336.597	99.94
336.825	108.94
337.053	89.94
337.281	88.94
337.51	82.94
337.738	91.94
337.966	104.94
338.194	102.94
338.422	86.94
338.65	93.94
338.878	89.94
339.106	86.94
339.334	93.94
339.562	74.94
339.79	85.94
340.018	98.94
340.246	101.94
340.474	89.94
340.702	80.94
340.93	90.94
341.158	86.94
341.386	84.94
341.614	103.94
341.842	92.94
342.07	84.94
342.298	81.94
342.526	88.94
342.754	89.94
342.981	93.94
343.209	84.94
343.437	94.94
343.665	100.94
343.893	93.94
344.12	86.94
344.348	104.94
344.576	85.94
344.804	92.94
345.031	88.94
345.259	107.94
345.487	95.94
345.714	103.94
345.942	102.94
346.17	92.94
346.397	84.94
346.625	91.94
346.853	97.94
347.08	93.94
347.308	93.94
347.535	91.94
347.763	89.94
347.99	85.94
348.218	109.94
348.445	107.94
348.673	110.94
348.9	89.94
349.128	101.94
349.355	85.94
349.583	98.94
349.81	83.94
350.037	98.94
350.265	85.94
350.492	97.94
350.72	88.94
350.947	94.94
351.174	113.94
351.402	104.94
351.629	93.94
351.856	90.94
352.083	88.94
352.311	108.94
352.538	107.94
352.765	96.94
352.992	100.94
353.22	121.94
353.447	101.94
353.674	87.94
353.901	101.94
354.128	97.94
354.355	85.94
354.583	110.94
354.81	100.94
355.037	106.94
355.264	105.94
355.491	91.94
355.718	91.94
355.945	99.94
356.172	105.94
356.399	99.94
356.626	80.94
356.853	87.94
357.08	91.94
357.307	92.94
357.534	90.94
357.761	92.94
357.988	102.94
358.215	87.94
358.441	72.94
358.668	89.94
358.895	88.94
359.122	90.94
359.349	98.94
359.576	84.94
359.802	80.94
360.029	109.94
360.256	101.94
360.483	86.94
360.709	93.94
360.936	94.94
361.163	96.94
361.39	77.94
361.616	83.94
361.843	81.94
362.07	96.94
362.296	86.94
362.523	75.94
362.749	101.94
362.976	85.94
363.203	81.94
363.429	80.94
363.656	85.94
363.882	73.94
364.109	94.94
364.335	84.94
364.562	83.94
364.788	82.94
365.015	84.94
365.241	88.94
365.468	88.94
365.694	89.94
365.92	97.94
366.147	86.94
366.373	96.94
366.599	85.94
366.826	95.94
367.052	79.94
367.278	90.94
367.505	92.94
367.731	95.94
367.957	97.94
368.184	89.94
368.41	107.94
368.636	90.94
368.862	119.94
369.089	90.94
369.315	86.94
369.541	90.94
369.767	81.94
369.993	93.94
370.219	90.94
370.445	84.94
370.672	82.94
370.898	89.94
371.124	86.94
371.35	82.94
371.576	72.94
371.802	84.94
372.028	87.94
372.254	89.94
372.48	78.94
372.706	82.94
372.932	89.94
373.158	76.94
373.384	90.94
373.61	98.94
373.835	96.94
374.061	92.94
374.287	83.94
374.513	88.94
374.739	93.94
374.965	81.94
375.191	78.94
375.416	90.94
375.642	93.94
375.868	85.94
376.094	89.94
376.319	77.94
376.545	96.94
376.771	94.94
376.997	91.94
377.222	100.94
377.448	96.94
377.674	98.94
377.899	93.94
378.125	93.94
378.35	93.94
378.576	82.94
378.802	92.94
379.027	84.94
379.253	102.94
379.478	81.94
379.704	94.94
379.929	96.94
380.155	86.94
380.38	83.94
380.606	83.94
380.831	85.94
381.057	81.94
381.282	85.94
381.507	84.94
381.733	100.94
381.958	90.94
382.184	92.94
382.409	93.94
382.634	97.94
382.86	102.94
383.085	99.94
383.31	88.94
383.535	104.94
383.761	86.94
383.986	102.94
384.211	96.94
384.436	92.94
384.662	81.94
384.887	97.94
385.112	91.94
385.337	94.94
385.562	103.94
385.787	93.94
386.013	104.94
386.238	99.94
386.463	95.94
386.688	102.94
386.913	100.94
387.138	104.94
387.363	105.94
387.588	91.94
387.813	93.94
388.038	96.94
388.263	105.94
388.488	113.94
388.713	83.94
388.938	93.94
389.163	102.94
389.387	79.94
389.612	77.94
389.837	93.94
390.062	86.94
390.287	98.94
390.512	87.94
390.736	92.94
390.961	83.94
391.186	88.94
391.411	88.94
391.636	97.94
391.86	73.94
392.085	84.94
392.31	87.94
392.534	78.94
392.759	80.94
392.984	84.94
393.208	87.94
393.433	113.94
393.658	91.94
393.882	93.94
394.107	72.94
394.331	88.94
394.556	85.94
394.78	93.94
395.005	93.94
395.229	82.94
395.454	82.94
395.678	85.94
395.903	99.94
396.127	96.94
396.352	81.94
396.576	73.94
396.801	81.94
397.025	88.94
397.249	86.94
397.474	97.94
397.698	92.94
397.922	90.94
398.147	85.94
398.371	75.94
398.595	82.94
398.82	88.94
399.044	83.94
399.268	72.94
399.492	82.94
399.717	90.94
399.941	93.94
400.165	98.94
400.389	94.94
400.613	78.94
400.837	83.94
401.062	93.94
401.286	100.94
401.51	69.94
401.734	101.94
401.958	99.94
402.182	109.94
402.406	136.94
402.63	109.94
402.854	94.94
403.078	91.94
403.302	90.94
403.526	79.94
403.75	78.94
403.974	94.94
404.198	76.94
404.422	81.94
404.645	83.94
404.869	81.94
405.093	86.94
405.317	94.94
405.541	92.94
405.765	99.94
405.988	109.94
406.212	144.94
406.436	188.94
406.66	139.94
406.883	94.94
407.107	88.94
407.331	89.94
407.555	80.94
407.778	99.94
408.002	95.94
408.226	85.94
408.449	80.94
408.673	84.94
408.896	86.94
409.12	93.94
409.344	85.94
409.567	82.94
409.791	85.94
410.014	88.94
410.238	99.94
410.461	105.94
410.685	101.94
410.908	103.94
411.132	95.94
411.355	100.94
411.578	83.94
411.802	92.94
412.025	71.94
412.249	91.94
412.472	89.94
412.695	85.94
412.919	78.94
413.142	78.94
413.365	80.94
413.589	82.94
413.812	89.94
414.035	85.94
414.258	86.94
414.482	84.94
414.705	81.94
414.928	85.94
415.151	92.94
415.374	89.94
415.597	81.94
415.821	93.94
416.044	83.94
416.267	68.94
416.49	67.94
416.713	98.94
416.936	93.94
417.159	90.94
417.382	83.94
417.605	88.94
417.828	86.94
418.051	98.94
418.274	96.94
418.497	71.94
418.72	72.94
418.943	89.94
419.166	83.94
419.389	75.94
419.611	94.94
419.834	82.94
420.057	81.94
420.28	88.94
420.503	76.94
420.726	90.94
420.948	63.94
421.171	98.94
421.394	102.94
421.617	99.94
421.839	100.94
422.062	106.94
422.285	74.94
422.507	77.94
422.73	100.94
422.953	81.94
423.175	94.94
423.398	81.94
423.621	94.94
423.843	83.94
424.066	74.94
424.288	72.94
424.511	91.94
424.733	85.94
424.956	107.94
425.178	102.94
425.401	92.94
425.623	81.94
425.846	85.94
426.068	97.94
426.291	94.94
426.513	98.94
426.735	90.94
426.958	85.94
427.18	88.94
427.402	125.94
427.625	146.94
427.847	115.94
428.069	102.94
428.292	92.94
428.514	93.94
428.736	90.94
428.958	85.94
429.181	76.94
429.403	87.94
429.625	89.94
429.847	77.94
430.069	89.94
430.292	105.94
430.514	94.94
430.736	85.94
430.958	81.94
431.18	91.94
431.402	84.94
431.624	78.94
431.846	74.94
432.068	80.94
432.29	87.94
432.512	89.94
432.734	89.94
432.956	95.94
433.178	101.94
433.4	103.94
433.622	97.94
433.844	85.94
434.066	91.94
434.287	84.94
434.509	92.94
434.731	97.94
434.953	106.94
435.175	76.94
435.397	95.94
435.618	84.94
435.84	97.94
436.062	92.94
436.284	107.94
436.505	98.94
436.727	96.94
436.949	91.94
437.17	102.94
437.392	78.94
437.614	96.94
437.835	99.94
438.057	117.94
438.278	114.94
438.5	102.94
438.721	120.94
438.943	100.94
439.165	87.94
439.386	75.94
439.608	95.94
439.829	86.94
440.05	101.94
440.272	120.94
440.493	91.94
440.715	99.94
440.936	108.94
441.158	93.94
441.379	85.94
441.6	90.94
441.822	90.94
442.043	81.94
442.264	84.94
442.486	96.94
442.707	82.94
442.928	97.94
443.149	105.94
443.371	120.94
443.592	91.94
443.813	115.94
444.034	106.94
444.255	93.94
444.476	82.94
444.698	80.94
444.919	93.94
445.14	128.94
445.361	117.94
445.582	101.94
445.803	123.94
446.024	119.94
446.245	115.94
446.466	109.94
446.687	96.94
446.908	80.94
447.129	93.94
447.35	83.94
447.571	86.94
447.792	87.94
448.013	86.94
448.234	102.94
448.455	94.94
448.675	85.94
448.896	108.94
449.117	92.94
449.338	95.94
449.559	116.94
449.779	117.94
450	83.94
450.221	80.94
450.442	88.94
450.662	98.94
450.883	101.94
451.104	91.94
451.324	96.94
451.545	88.94
451.766	85.94
451.986	68.94
452.207	79.94
452.428	88.94
452.648	89.94
452.869	101.94
453.089	100.94
453.31	100.94
453.53	77.94
453.751	84.94
453.971	97.94
454.192	84.94
454.412	84.94
454.633	93.94
454.853	85.94
455.073	82.94
455.294	80.94
455.514	106.94
455.734	82.94
455.955	73.94
456.175	81.94
456.395	75.94
456.616	81.94
456.836	86.94
457.056	79.94
457.276	88.94
457.497	95.94
457.717	81.94
457.937	86.94
458.157	86.94
458.377	76.94
458.598	111.94
458.818	126.94
459.038	128.94
459.258	101.94
459.478	81.94
459.698	83.94
459.918	84.94
460.138	85.94
460.358	81.94
460.578	90.94
460.798	84.94
461.018	75.94
461.238	86.94
461.458	78.94
461.678	78.94
461.898	86.94
462.118	84.94
462.338	75.94
462.558	70.94
462.777	74.94
462.997	72.94
463.217	87.94
463.437	91.94
463.657	79.94
463.876	89.94
464.096	92.94
464.316	85.94
464.536	96.94
464.755	93.94
464.975	92.94
465.195	147.94
465.414	143.94
465.634	104.94
465.854	88.94
466.073	68.94
466.293	76.94
466.512	83.94
466.732	73.94
466.951	79.94
467.171	84.94
467.391	76.94
467.61	87.94
467.829	100.94
468.049	80.94
468.268	97.94
468.488	82.94
468.707	91.94
468.927	82.94
469.146	76.94
469.365	81.94
469.585	82.94
469.804	90.94
470.023	110.94
470.243	90.94
470.462	84.94
470.681	93.94
470.901	68.94
471.12	72.94
471.339	76.94
471.558	62.94
471.777	85.94
471.997	89.94
472.216	97.94
472.435	88.94
472.654	97.94
472.873	92.94
473.092	90.94
473.311	85.94
473.53	84.94
473.749	73.94
473.968	92.94
474.187	91.94
474.406	103.94
474.625	80.94
474.844	84.94
475.063	87.94
475.282	101.94
475.501	81.94
475.72	85.94
475.939	97.94
476.158	76.94
476.377	86.94
476.596	81.94
476.814	92.94
477.033	88.94
477.252	80.94
477.471	108.94
477.69	80.94
477.908	81.94
478.127	82.94
478.346	91.94
478.564	81.94
478.783	102.94
479.002	95.94
479.22	82.94
479.439	108.94
479.658	115.94
479.876	103.94
480.095	96.94
480.313	86.94
480.532	107.94
480.751	81.94
480.969	97.94
481.188	97.94
481.406	101.94
481.624	89.94
481.843	85.94
482.061	90.94
482.28	86.94
482.498	88.94
482.717	91.94
482.935	97.94
483.153	84.94
483.372	84.94
483.59	95.94
483.808	87.94
484.027	93.94
484.245	84.94
484.463	92.94
484.681	94.94
484.9	94.94
485.118	97.94
485.336	95.94
485.554	100.94
485.772	90.94
485.99	95.94
486.209	101.94
486.427	102.94
486.645	83.94
486.863	110.94
487.081	101.94
487.299	93.94
487.517	92.94
487.735	89.94
487.953	96.94
488.171	89.94
488.389	90.94
488.607	103.94
488.825	70.94
489.043	84.94
489.261	94.94
489.479	84.94
489.696	96.94
489.914	90.94
490.132	86.94
490.35	76.94
490.568	81.94
490.786	85.94
491.003	76.94
491.221	88.94
491.439	85.94
491.657	73.94
491.874	86.94
492.092	84.94
492.31	83.94
492.527	84.94
492.745	94.94
492.963	81.94
493.18	79.94
493.398	83.94
493.615	97.94
493.833	98.94
494.05	89.94
494.268	91.94
494.485	105.94
494.703	106.94
494.92	90.94
495.138	86.94
495.355	80.94
495.573	94.94
495.79	86.94
496.008	81.94
496.225	94.94
496.442	93.94
496.66	94.94
496.877	102.94
497.094	100.94
497.312	94.94
497.529	98.94
497.746	85.94
497.963	76.94
498.181	76.94
498.398	99.94
498.615	118.94
498.832	106.94
499.049	93.94
499.267	81.94
499.484	93.94
499.701	92.94
499.918	94.94
500.135	93.94
500.352	88.94
500.569	90.94
500.786	100.94
501.003	92.94
501.22	77.94
501.437	85.94
501.654	89.94
501.871	105.94
502.088	91.94
502.305	85.94
502.522	85.94
502.739	94.94
502.956	98.94
503.172	97.94
503.389	82.94
503.606	109.94
503.823	97.94
504.04	86.94
504.256	87.94
504.473	73.94
504.69	77.94
504.907	91.94
505.123	91.94
505.34	77.94
505.557	96.94
505.773	88.94
505.99	96.94
506.207	86.94
506.423	95.94
506.64	86.94
506.856	86.94
507.073	67.94
507.289	96.94
507.506	91.94
507.722	106.94
507.939	97.94
508.155	97.94
508.372	84.94
508.588	89.94
508.805	86.94
509.021	85.94
509.238	92.94
509.454	88.94
509.67	88.94
509.887	95.94
510.103	117.94
510.319	198.94
510.536	668.94
510.752	2177.94
510.968	598.94
511.184	137.94
511.401	108.94
511.617	83.94
511.833	88.94
512.049	83.94
512.265	90.94
512.481	92.94
512.698	83.94
512.914	97.94
513.13	96.94
513.346	88.94
513.562	91.94
513.778	83.94
513.994	82.94
514.21	102.94
514.426	101.94
514.642	132.94
514.858	113.94
515.074	163.94
515.29	410.94
515.506	1237.94
515.721	450.94
515.937	138.94
516.153	104.94
516.369	96.94
516.585	95.94
516.801	92.94
