Data from Uncirc_1990_H10_HRD10591_00015.txt Node
Date: Wed Jan 03 11:53:54 EST 2024
User: Yrep
Spectrometer: HR+D1059
Trigger mode: 1
Integration Time (sec): 1.000000E-1
Scans to average: 1
Electric dark correction enabled: true
Nonlinearity correction enabled: false
Boxcar width: 0
XAxis mode: Wavelengths
Number of Pixels in Spectrum: 2048
>>>>>Begin Spectral Data<<<<<
223.165	-28.25
223.4	-28.25
223.635	-28.25
223.869	-5.25
224.104	-15.25
224.338	-17.25
224.573	-14.25
224.808	-5.25
225.042	-6.25
225.277	-1.25
225.511	-4.25
225.746	6.75
225.98	16.75
226.215	15.75
226.449	6.75
226.683	14.75
226.918	14.75
227.152	21.75
227.387	32.75
227.621	28.75
227.856	41.75
228.09	45.75
228.324	37.75
228.559	58.75
228.793	54.75
229.027	61.75
229.262	70.75
229.496	62.75
229.73	83.75
229.964	77.75
230.199	63.75
230.433	70.75
230.667	80.75
230.901	68.75
231.136	82.75
231.37	79.75
231.604	85.75
231.838	83.75
232.072	77.75
232.306	71.75
232.541	83.75
232.775	86.75
233.009	70.75
233.243	79.75
233.477	75.75
233.711	63.75
233.945	73.75
234.179	81.75
234.413	85.75
234.647	91.75
234.881	81.75
235.115	65.75
235.349	60.75
235.583	76.75
235.817	78.75
236.051	81.75
236.285	77.75
236.519	75.75
236.753	56.75
236.987	68.75
237.221	83.75
237.455	85.75
237.689	85.75
237.922	61.75
238.156	73.75
238.39	67.75
238.624	69.75
238.858	75.75
239.091	67.75
239.325	79.75
239.559	79.75
239.793	78.75
240.027	73.75
240.26	70.75
240.494	70.75
240.728	87.75
240.961	61.75
241.195	79.75
241.429	80.75
241.662	83.75
241.896	93.75
242.13	68.75
242.363	77.75
242.597	73.75
242.83	90.75
243.064	77.75
243.298	78.75
243.531	68.75
243.765	73.75
243.998	85.75
244.232	66.75
244.465	73.75
244.699	77.75
244.932	74.75
245.166	86.75
245.399	66.75
245.633	70.75
245.866	68.75
246.099	65.75
246.333	67.75
246.566	74.75
246.8	81.75
247.033	84.75
247.266	71.75
247.5	83.75
247.733	73.75
247.966	66.75
248.2	74.75
248.433	81.75
248.666	60.75
248.899	94.75
249.133	83.75
249.366	86.75
249.599	89.75
249.832	79.75
250.066	82.75
250.299	68.75
250.532	88.75
250.765	86.75
250.998	97.75
251.231	93.75
251.465	84.75
251.698	69.75
251.931	75.75
252.164	75.75
252.397	60.75
252.63	76.75
252.863	86.75
253.096	71.75
253.329	82.75
253.562	86.75
253.795	83.75
254.028	74.75
254.261	67.75
254.494	84.75
254.727	85.75
254.96	73.75
255.193	68.75
255.426	72.75
255.659	81.75
255.892	84.75
256.124	71.75
256.357	73.75
256.59	84.75
256.823	86.75
257.056	89.75
257.289	82.75
257.521	92.75
257.754	93.75
257.987	81.75
258.22	83.75
258.452	80.75
258.685	81.75
258.918	90.75
259.151	79.75
259.383	77.75
259.616	82.75
259.849	74.75
260.081	77.75
260.314	70.75
260.547	79.75
260.779	80.75
261.012	78.75
261.244	83.75
261.477	82.75
261.71	89.75
261.942	112.75
262.175	83.75
262.407	93.75
262.64	91.75
262.872	91.75
263.105	91.75
263.337	95.75
263.57	84.75
263.802	90.75
264.035	79.75
264.267	81.75
264.499	85.75
264.732	80.75
264.964	80.75
265.197	89.75
265.429	86.75
265.661	86.75
265.894	90.75
266.126	83.75
266.358	75.75
266.591	68.75
266.823	96.75
267.055	65.75
267.287	84.75
267.52	97.75
267.752	80.75
267.984	93.75
268.216	80.75
268.448	80.75
268.681	82.75
268.913	80.75
269.145	73.75
269.377	78.75
269.609	76.75
269.841	90.75
270.073	74.75
270.306	90.75
270.538	67.75
270.77	77.75
271.002	86.75
271.234	78.75
271.466	85.75
271.698	82.75
271.93	85.75
272.162	86.75
272.394	86.75
272.626	71.75
272.858	92.75
273.09	75.75
273.322	87.75
273.553	89.75
273.785	87.75
274.017	85.75
274.249	73.75
274.481	80.75
274.713	71.75
274.945	75.75
275.176	94.75
275.408	79.75
275.64	73.75
275.872	84.75
276.104	69.75
276.335	87.75
276.567	96.75
276.799	86.75
277.031	86.75
277.262	75.75
277.494	89.75
277.726	83.75
277.957	82.75
278.189	74.75
278.421	83.75
278.652	79.75
278.884	82.75
279.115	75.75
279.347	80.75
279.579	86.75
279.81	92.75
280.042	85.75
280.273	77.75
280.505	77.75
280.736	84.75
280.968	78.75
281.199	97.75
281.431	80.75
281.662	79.75
281.894	88.75
282.125	89.75
282.356	111.75
282.588	111.75
282.819	111.75
283.051	84.75
283.282	78.75
283.513	93.75
283.745	89.75
283.976	81.75
284.207	74.75
284.439	79.75
284.67	84.75
284.901	86.75
285.132	96.75
285.364	105.75
285.595	86.75
285.826	89.75
286.057	92.75
286.288	78.75
286.52	75.75
286.751	82.75
286.982	77.75
287.213	82.75
287.444	93.75
287.675	70.75
287.906	85.75
288.138	91.75
288.369	96.75
288.6	85.75
288.831	76.75
289.062	84.75
289.293	86.75
289.524	87.75
289.755	92.75
289.986	87.75
290.217	85.75
290.448	79.75
290.679	84.75
290.91	76.75
291.141	84.75
291.371	78.75
291.602	84.75
291.833	83.75
292.064	98.75
292.295	78.75
292.526	93.75
292.757	83.75
292.987	82.75
293.218	79.75
293.449	91.75
293.68	79.75
293.91	76.75
294.141	98.75
294.372	78.75
294.603	92.75
294.833	90.75
295.064	97.75
295.295	86.75
295.525	99.75
295.756	100.75
295.987	102.75
296.217	124.75
296.448	101.75
296.679	89.75
296.909	109.75
297.14	86.75
297.37	97.75
297.601	92.75
297.831	83.75
298.062	83.75
298.292	90.75
298.523	79.75
298.753	89.75
298.984	64.75
299.214	83.75
299.445	85.75
299.675	80.75
299.905	89.75
300.136	83.75
300.366	82.75
300.597	77.75
300.827	83.75
301.057	83.75
301.288	101.75
301.518	103.75
301.748	87.75
301.979	101.75
302.209	95.75
302.439	89.75
302.669	90.75
302.9	89.75
303.13	76.75
303.36	89.75
303.59	94.75
303.82	87.75
304.051	109.75
304.281	90.75
304.511	95.75
304.741	93.75
304.971	78.75
305.201	87.75
305.431	89.75
305.661	85.75
305.891	90.75
306.121	85.75
306.352	92.75
306.582	84.75
306.812	94.75
307.042	89.75
307.272	82.75
307.502	92.75
307.731	96.75
307.961	94.75
308.191	92.75
308.421	92.75
308.651	96.75
308.881	85.75
309.111	87.75
309.341	99.75
309.571	102.75
309.8	95.75
310.03	106.75
310.26	97.75
310.49	101.75
310.72	107.75
310.949	95.75
311.179	99.75
311.409	91.75
311.639	101.75
311.868	86.75
312.098	81.75
312.328	84.75
312.557	86.75
312.787	114.75
313.017	73.75
313.246	87.75
313.476	91.75
313.706	88.75
313.935	78.75
314.165	88.75
314.394	102.75
314.624	78.75
314.853	97.75
315.083	99.75
315.312	99.75
315.542	81.75
315.771	77.75
316.001	95.75
316.23	89.75
316.46	96.75
316.689	70.75
316.919	74.75
317.148	91.75
317.377	82.75
317.607	97.75
317.836	95.75
318.065	81.75
318.295	106.75
318.524	80.75
318.753	106.75
318.983	85.75
319.212	106.75
319.441	90.75
319.67	98.75
319.9	96.75
320.129	81.75
320.358	87.75
320.587	87.75
320.816	96.75
321.046	93.75
321.275	99.75
321.504	96.75
321.733	86.75
321.962	106.75
322.191	89.75
322.42	92.75
322.649	106.75
322.878	105.75
323.108	114.75
323.337	112.75
323.566	117.75
323.795	127.75
324.024	197.75
324.253	344.75
324.482	690.75
324.71	1406.75
324.939	1906.75
325.168	717.75
325.397	215.75
325.626	139.75
325.855	122.75
326.084	116.75
326.313	117.75
326.542	134.75
326.77	208.75
326.999	381.75
327.228	797.75
327.457	1427.75
327.686	1174.75
327.914	323.75
328.143	158.75
328.372	125.75
328.6	101.75
328.829	89.75
329.058	113.75
329.287	119.75
329.515	98.75
329.744	102.75
329.972	90.75
330.201	84.75
330.43	95.75
330.658	103.75
330.887	114.75
331.115	103.75
331.344	103.75
331.572	103.75
331.801	100.75
332.03	90.75
332.258	95.75
332.486	92.75
332.715	98.75
332.943	82.75
333.172	86.75
333.4	94.75
333.629	109.75
333.857	101.75
334.085	85.75
334.314	103.75
334.542	104.75
334.771	84.75
334.999	78.75
335.227	99.75
335.455	91.75
335.684	99.75
335.912	79.75
336.14	94.75
336.369	89.75
336.597	100.75
336.825	93.75
337.053	93.75
337.281	91.75
337.51	70.75
337.738	101.75
337.966	81.75
338.194	89.75
338.422	104.75
338.65	103.75
338.878	94.75
339.106	85.75
339.334	95.75
339.562	89.75
339.79	94.75
340.018	93.75
340.246	90.75
340.474	92.75
340.702	95.75
340.93	83.75
341.158	87.75
341.386	92.75
341.614	83.75
341.842	83.75
342.07	91.75
342.298	88.75
342.526	92.75
342.754	101.75
342.981	78.75
343.209	77.75
343.437	88.75
343.665	86.75
343.893	77.75
344.12	84.75
344.348	90.75
344.576	86.75
344.804	94.75
345.031	84.75
345.259	86.75
345.487	93.75
345.714	88.75
345.942	85.75
346.17	94.75
346.397	75.75
346.625	89.75
346.853	79.75
347.08	80.75
347.308	88.75
347.535	105.75
347.763	91.75
347.99	105.75
348.218	87.75
348.445	95.75
348.673	99.75
348.9	90.75
349.128	88.75
349.355	79.75
349.583	97.75
349.81	98.75
350.037	98.75
350.265	83.75
350.492	99.75
350.72	97.75
350.947	91.75
351.174	106.75
351.402	109.75
351.629	94.75
351.856	96.75
352.083	98.75
352.311	97.75
352.538	107.75
352.765	108.75
352.992	103.75
353.22	101.75
353.447	104.75
353.674	94.75
353.901	96.75
354.128	88.75
354.355	87.75
354.583	86.75
354.81	94.75
355.037	108.75
355.264	96.75
355.491	103.75
355.718	89.75
355.945	91.75
356.172	93.75
356.399	88.75
356.626	94.75
356.853	97.75
357.08	115.75
357.307	92.75
357.534	99.75
357.761	87.75
357.988	90.75
358.215	94.75
358.441	91.75
358.668	98.75
358.895	92.75
359.122	94.75
359.349	83.75
359.576	91.75
359.802	98.75
360.029	111.75
360.256	89.75
360.483	95.75
360.709	73.75
360.936	70.75
361.163	93.75
361.39	88.75
361.616	97.75
361.843	93.75
362.07	89.75
362.296	97.75
362.523	87.75
362.749	86.75
362.976	76.75
363.203	84.75
363.429	93.75
363.656	82.75
363.882	90.75
364.109	81.75
364.335	98.75
364.562	96.75
364.788	87.75
365.015	96.75
365.241	90.75
365.468	106.75
365.694	111.75
365.92	88.75
366.147	89.75
366.373	88.75
366.599	82.75
366.826	89.75
367.052	83.75
367.278	86.75
367.505	89.75
367.731	95.75
367.957	82.75
368.184	92.75
368.41	107.75
368.636	105.75
368.862	90.75
369.089	98.75
369.315	83.75
369.541	102.75
369.767	102.75
369.993	90.75
370.219	84.75
370.445	89.75
370.672	92.75
370.898	83.75
371.124	89.75
371.35	86.75
371.576	74.75
371.802	83.75
372.028	73.75
372.254	91.75
372.48	93.75
372.706	90.75
372.932	89.75
373.158	89.75
373.384	98.75
373.61	87.75
373.835	84.75
374.061	78.75
374.287	79.75
374.513	79.75
374.739	95.75
374.965	91.75
375.191	86.75
375.416	91.75
375.642	97.75
375.868	84.75
376.094	91.75
376.319	87.75
376.545	73.75
376.771	89.75
376.997	84.75
377.222	93.75
377.448	92.75
377.674	94.75
377.899	93.75
378.125	85.75
378.35	91.75
378.576	101.75
378.802	90.75
379.027	77.75
379.253	92.75
379.478	90.75
379.704	91.75
379.929	102.75
380.155	98.75
380.38	83.75
380.606	90.75
380.831	99.75
381.057	89.75
381.282	89.75
381.507	79.75
381.733	70.75
381.958	89.75
382.184	118.75
382.409	102.75
382.634	89.75
382.86	102.75
383.085	106.75
383.31	110.75
383.535	99.75
383.761	90.75
383.986	96.75
384.211	95.75
384.436	94.75
384.662	91.75
384.887	107.75
385.112	109.75
385.337	93.75
385.562	93.75
385.787	114.75
386.013	105.75
386.238	118.75
386.463	90.75
386.688	95.75
386.913	94.75
387.138	90.75
387.363	93.75
387.588	96.75
387.813	110.75
388.038	106.75
388.263	110.75
388.488	95.75
388.713	81.75
388.938	89.75
389.163	87.75
389.387	89.75
389.612	98.75
389.837	88.75
390.062	102.75
390.287	80.75
390.512	94.75
390.736	83.75
390.961	91.75
391.186	95.75
391.411	86.75
391.636	106.75
391.86	93.75
392.085	79.75
392.31	94.75
392.534	86.75
392.759	91.75
392.984	85.75
393.208	82.75
393.433	90.75
393.658	95.75
393.882	86.75
394.107	84.75
394.331	82.75
394.556	85.75
394.78	74.75
395.005	86.75
395.229	83.75
395.454	90.75
395.678	99.75
395.903	89.75
396.127	89.75
396.352	78.75
396.576	75.75
396.801	89.75
397.025	84.75
397.249	87.75
397.474	79.75
397.698	97.75
397.922	83.75
398.147	70.75
398.371	92.75
398.595	93.75
398.82	77.75
399.044	86.75
399.268	85.75
399.492	78.75
399.717	94.75
399.941	79.75
400.165	90.75
400.389	94.75
400.613	81.75
400.837	71.75
401.062	91.75
401.286	85.75
401.51	103.75
401.734	97.75
401.958	113.75
402.182	101.75
402.406	114.75
402.63	104.75
402.854	98.75
403.078	110.75
403.302	87.75
403.526	89.75
403.75	78.75
403.974	76.75
404.198	89.75
404.422	79.75
404.645	74.75
404.869	75.75
405.093	75.75
405.317	76.75
405.541	82.75
405.765	98.75
405.988	112.75
406.212	146.75
406.436	167.75
406.66	128.75
406.883	102.75
407.107	85.75
407.331	78.75
407.555	88.75
407.778	82.75
408.002	97.75
408.226	97.75
408.449	81.75
408.673	84.75
408.896	92.75
409.12	85.75
409.344	79.75
409.567	108.75
409.791	102.75
410.014	107.75
410.238	96.75
410.461	87.75
410.685	97.75
410.908	91.75
411.132	103.75
411.355	110.75
411.578	99.75
411.802	71.75
412.025	77.75
412.249	85.75
412.472	77.75
412.695	102.75
412.919	86.75
413.142	82.75
413.365	87.75
413.589	84.75
413.812	88.75
414.035	81.75
414.258	74.75
414.482	87.75
414.705	85.75
414.928	100.75
415.151	82.75
415.374	104.75
415.597	81.75
415.821	95.75
416.044	86.75
416.267	92.75
416.49	77.75
416.713	87.75
416.936	91.75
417.159	86.75
417.382	85.75
417.605	91.75
417.828	99.75
418.051	89.75
418.274	107.75
418.497	93.75
418.72	90.75
418.943	85.75
419.166	91.75
419.389	83.75
419.611	77.75
419.834	90.75
420.057	94.75
420.28	81.75
420.503	90.75
420.726	89.75
420.948	88.75
421.171	89.75
421.394	82.75
421.617	77.75
421.839	101.75
422.062	88.75
422.285	79.75
422.507	98.75
422.73	109.75
422.953	81.75
423.175	84.75
423.398	92.75
423.621	83.75
423.843	81.75
424.066	87.75
424.288	95.75
424.511	86.75
424.733	90.75
424.956	90.75
425.178	98.75
425.401	94.75
425.623	98.75
425.846	93.75
426.068	92.75
426.291	85.75
426.513	74.75
426.735	86.75
426.958	89.75
427.18	102.75
427.402	129.75
427.625	142.75
427.847	102.75
428.069	91.75
428.292	83.75
428.514	98.75
428.736	79.75
428.958	83.75
429.181	100.75
429.403	73.75
429.625	95.75
429.847	92.75
430.069	92.75
430.292	96.75
430.514	75.75
430.736	68.75
430.958	90.75
431.18	79.75
431.402	99.75
431.624	76.75
431.846	84.75
432.068	92.75
432.29	73.75
432.512	75.75
432.734	83.75
432.956	103.75
433.178	103.75
433.4	93.75
433.622	108.75
433.844	76.75
434.066	95.75
434.287	79.75
434.509	77.75
434.731	96.75
434.953	89.75
435.175	77.75
435.397	89.75
435.618	83.75
435.84	93.75
436.062	123.75
436.284	109.75
436.505	102.75
436.727	110.75
436.949	86.75
437.17	90.75
437.392	84.75
437.614	85.75
437.835	108.75
438.057	109.75
438.278	92.75
438.5	107.75
438.721	113.75
438.943	97.75
439.165	95.75
439.386	80.75
439.608	94.75
439.829	103.75
440.05	111.75
440.272	128.75
440.493	99.75
440.715	89.75
440.936	92.75
441.158	81.75
441.379	89.75
441.6	84.75
441.822	93.75
442.043	89.75
442.264	93.75
442.486	82.75
442.707	91.75
442.928	94.75
443.149	124.75
443.371	115.75
443.592	92.75
443.813	114.75
444.034	87.75
444.255	83.75
444.476	90.75
444.698	89.75
444.919	86.75
445.14	137.75
445.361	114.75
445.582	106.75
445.803	129.75
446.024	123.75
446.245	125.75
446.466	101.75
446.687	95.75
446.908	82.75
447.129	98.75
447.35	91.75
447.571	90.75
447.792	93.75
448.013	97.75
448.234	93.75
448.455	101.75
448.675	120.75
448.896	101.75
449.117	83.75
449.338	107.75
449.559	100.75
449.779	130.75
450	93.75
450.221	91.75
450.442	91.75
450.662	92.75
450.883	91.75
451.104	105.75
451.324	83.75
451.545	87.75
451.766	68.75
451.986	80.75
452.207	83.75
452.428	95.75
452.648	91.75
452.869	105.75
453.089	105.75
453.31	96.75
453.53	94.75
453.751	94.75
453.971	81.75
454.192	105.75
454.412	83.75
454.633	84.75
454.853	76.75
455.073	80.75
455.294	89.75
455.514	96.75
455.734	89.75
455.955	97.75
456.175	99.75
456.395	75.75
456.616	83.75
456.836	76.75
457.056	84.75
457.276	87.75
457.497	78.75
457.717	73.75
457.937	97.75
458.157	96.75
458.377	100.75
458.598	85.75
458.818	121.75
459.038	145.75
459.258	117.75
459.478	103.75
459.698	81.75
459.918	82.75
460.138	78.75
460.358	88.75
460.578	88.75
460.798	92.75
461.018	77.75
461.238	86.75
461.458	81.75
461.678	84.75
461.898	98.75
462.118	81.75
462.338	89.75
462.558	77.75
462.777	90.75
462.997	91.75
463.217	81.75
463.437	86.75
463.657	93.75
463.876	75.75
464.096	99.75
464.316	86.75
464.536	92.75
464.755	81.75
464.975	88.75
465.195	128.75
465.414	129.75
465.634	101.75
465.854	78.75
466.073	89.75
466.293	96.75
466.512	71.75
466.732	75.75
466.951	90.75
467.171	86.75
467.391	97.75
467.61	105.75
467.829	80.75
468.049	94.75
468.268	90.75
468.488	88.75
468.707	83.75
468.927	86.75
469.146	77.75
469.365	95.75
469.585	100.75
469.804	91.75
470.023	105.75
470.243	100.75
470.462	88.75
470.681	83.75
470.901	90.75
471.12	91.75
471.339	96.75
471.558	83.75
471.777	77.75
471.997	87.75
472.216	77.75
472.435	86.75
472.654	84.75
472.873	79.75
473.092	92.75
473.311	95.75
473.53	91.75
473.749	80.75
473.968	86.75
474.187	102.75
474.406	77.75
474.625	90.75
474.844	74.75
475.063	86.75
475.282	88.75
475.501	93.75
475.72	84.75
475.939	86.75
476.158	90.75
476.377	85.75
476.596	90.75
476.814	84.75
477.033	91.75
477.252	79.75
477.471	83.75
477.69	95.75
477.908	94.75
478.127	83.75
478.346	89.75
478.564	72.75
478.783	93.75
479.002	100.75
479.22	96.75
479.439	95.75
479.658	96.75
479.876	87.75
480.095	81.75
480.313	87.75
480.532	89.75
480.751	101.75
480.969	86.75
481.188	113.75
481.406	100.75
481.624	91.75
481.843	93.75
482.061	97.75
482.28	74.75
482.498	78.75
482.717	78.75
482.935	87.75
483.153	90.75
483.372	98.75
483.59	96.75
483.808	97.75
484.027	99.75
484.245	78.75
484.463	89.75
484.681	98.75
484.9	95.75
485.118	102.75
485.336	97.75
485.554	87.75
485.772	100.75
485.99	105.75
486.209	98.75
486.427	106.75
486.645	94.75
486.863	105.75
487.081	91.75
487.299	102.75
487.517	98.75
487.735	96.75
487.953	85.75
488.171	86.75
488.389	90.75
488.607	85.75
488.825	82.75
489.043	103.75
489.261	96.75
489.479	101.75
489.696	89.75
489.914	93.75
490.132	81.75
490.35	77.75
490.568	85.75
490.786	77.75
491.003	79.75
491.221	85.75
491.439	86.75
491.657	94.75
491.874	101.75
492.092	94.75
492.31	85.75
492.527	77.75
492.745	94.75
492.963	92.75
493.18	91.75
493.398	83.75
493.615	95.75
493.833	84.75
494.05	85.75
494.268	98.75
494.485	87.75
494.703	89.75
494.92	103.75
495.138	100.75
495.355	89.75
495.573	81.75
495.79	82.75
496.008	100.75
496.225	99.75
496.442	95.75
496.66	97.75
496.877	91.75
497.094	101.75
497.312	87.75
497.529	98.75
497.746	86.75
497.963	90.75
498.181	83.75
498.398	101.75
498.615	105.75
498.832	89.75
499.049	95.75
499.267	74.75
499.484	71.75
499.701	97.75
499.918	99.75
500.135	84.75
500.352	92.75
500.569	103.75
500.786	89.75
501.003	91.75
501.22	84.75
501.437	81.75
501.654	105.75
501.871	94.75
502.088	74.75
502.305	79.75
502.522	93.75
502.739	92.75
502.956	83.75
503.172	81.75
503.389	81.75
503.606	105.75
503.823	85.75
504.04	88.75
504.256	86.75
504.473	96.75
504.69	94.75
504.907	93.75
505.123	84.75
505.34	79.75
505.557	90.75
505.773	95.75
505.99	90.75
506.207	86.75
506.423	83.75
506.64	91.75
506.856	89.75
507.073	90.75
507.289	100.75
507.506	93.75
507.722	115.75
507.939	106.75
508.155	96.75
508.372	95.75
508.588	76.75
508.805	93.75
509.021	97.75
509.238	93.75
509.454	92.75
509.67	103.75
509.887	102.75
510.103	126.75
510.319	178.75
510.536	606.75
510.752	1862.75
510.968	532.75
511.184	139.75
511.401	91.75
511.617	100.75
511.833	86.75
512.049	101.75
512.265	98.75
512.481	90.75
512.698	82.75
512.914	86.75
513.13	92.75
513.346	87.75
513.562	101.75
513.778	87.75
513.994	84.75
514.21	112.75
514.426	91.75
514.642	117.75
514.858	112.75
515.074	140.75
515.29	339.75
515.506	1075.75
515.721	398.75
515.937	141.75
516.153	116.75
516.369	97.75
516.585	97.75
516.801	83.75
