Data from Uncirc_1990_H10_HRD10591_00010.txt Node
Date: Wed Jan 03 11:53:53 EST 2024
User: Yrep
Spectrometer: HR+D1059
Trigger mode: 1
Integration Time (sec): 1.000000E-1
Scans to average: 1
Electric dark correction enabled: true
Nonlinearity correction enabled: false
Boxcar width: 0
XAxis mode: Wavelengths
Number of Pixels in Spectrum: 2048
>>>>>Begin Spectral Data<<<<<
223.165	-21.12
223.4	-21.12
223.635	-21.12
223.869	-18.12
224.104	-8.12
224.338	-9.12
224.573	-11.12
224.808	-15.12
225.042	-4.12
225.277	-6.12
225.511	-13.12
225.746	13.88
225.98	24.88
226.215	3.88
226.449	12.88
226.683	4.88
226.918	24.88
227.152	20.88
227.387	34.88
227.621	40.88
227.856	47.88
228.09	49.88
228.324	57.88
228.559	65.88
228.793	56.88
229.027	68.88
229.262	74.88
229.496	70.88
229.73	91.88
229.964	84.88
230.199	68.88
230.433	72.88
230.667	72.88
230.901	77.88
231.136	71.88
231.37	83.88
231.604	78.88
231.838	82.88
232.072	98.88
232.306	84.88
232.541	84.88
232.775	92.88
233.009	72.88
233.243	76.88
233.477	89.88
233.711	79.88
233.945	100.88
234.179	77.88
234.413	98.88
234.647	76.88
234.881	85.88
235.115	87.88
235.349	96.88
235.583	79.88
235.817	79.88
236.051	83.88
236.285	77.88
236.519	74.88
236.753	70.88
236.987	80.88
237.221	62.88
237.455	76.88
237.689	76.88
237.922	88.88
238.156	72.88
238.39	81.88
238.624	84.88
238.858	76.88
239.091	84.88
239.325	70.88
239.559	80.88
239.793	73.88
240.027	88.88
240.26	91.88
240.494	76.88
240.728	65.88
240.961	68.88
241.195	79.88
241.429	88.88
241.662	88.88
241.896	70.88
242.13	87.88
242.363	74.88
242.597	76.88
242.83	66.88
243.064	80.88
243.298	86.88
243.531	67.88
243.765	84.88
243.998	72.88
244.232	82.88
244.465	78.88
244.699	83.88
244.932	76.88
245.166	65.88
245.399	77.88
245.633	83.88
245.866	76.88
246.099	86.88
246.333	82.88
246.566	98.88
246.8	74.88
247.033	84.88
247.266	85.88
247.5	87.88
247.733	74.88
247.966	69.88
248.2	80.88
248.433	82.88
248.666	77.88
248.899	84.88
249.133	93.88
249.366	91.88
249.599	89.88
249.832	95.88
250.066	80.88
250.299	81.88
250.532	92.88
250.765	74.88
250.998	88.88
251.231	69.88
251.465	84.88
251.698	83.88
251.931	94.88
252.164	92.88
252.397	88.88
252.63	93.88
252.863	86.88
253.096	84.88
253.329	76.88
253.562	73.88
253.795	94.88
254.028	76.88
254.261	90.88
254.494	89.88
254.727	85.88
254.96	91.88
255.193	73.88
255.426	92.88
255.659	80.88
255.892	93.88
256.124	89.88
256.357	86.88
256.59	85.88
256.823	85.88
257.056	77.88
257.289	85.88
257.521	78.88
257.754	91.88
257.987	83.88
258.22	78.88
258.452	81.88
258.685	90.88
258.918	80.88
259.151	73.88
259.383	92.88
259.616	86.88
259.849	88.88
260.081	94.88
260.314	90.88
260.547	94.88
260.779	90.88
261.012	80.88
261.244	69.88
261.477	82.88
261.71	94.88
261.942	110.88
262.175	95.88
262.407	79.88
262.64	87.88
262.872	96.88
263.105	80.88
263.337	82.88
263.57	85.88
263.802	80.88
264.035	69.88
264.267	80.88
264.499	90.88
264.732	78.88
264.964	81.88
265.197	74.88
265.429	82.88
265.661	91.88
265.894	84.88
266.126	82.88
266.358	89.88
266.591	83.88
266.823	95.88
267.055	93.88
267.287	80.88
267.52	92.88
267.752	95.88
267.984	71.88
268.216	76.88
268.448	92.88
268.681	94.88
268.913	88.88
269.145	80.88
269.377	85.88
269.609	82.88
269.841	88.88
270.073	85.88
270.306	83.88
270.538	90.88
270.77	97.88
271.002	110.88
271.234	89.88
271.466	84.88
271.698	95.88
271.93	78.88
272.162	83.88
272.394	78.88
272.626	76.88
272.858	86.88
273.09	89.88
273.322	105.88
273.553	87.88
273.785	96.88
274.017	94.88
274.249	82.88
274.481	79.88
274.713	97.88
274.945	87.88
275.176	94.88
275.408	92.88
275.64	87.88
275.872	79.88
276.104	81.88
276.335	80.88
276.567	84.88
276.799	108.88
277.031	82.88
277.262	93.88
277.494	86.88
277.726	85.88
277.957	74.88
278.189	85.88
278.421	100.88
278.652	81.88
278.884	98.88
279.115	90.88
279.347	92.88
279.579	84.88
279.81	88.88
280.042	84.88
280.273	88.88
280.505	76.88
280.736	83.88
280.968	90.88
281.199	79.88
281.431	94.88
281.662	83.88
281.894	79.88
282.125	96.88
282.356	112.88
282.588	116.88
282.819	105.88
283.051	96.88
283.282	100.88
283.513	93.88
283.745	84.88
283.976	88.88
284.207	96.88
284.439	88.88
284.67	72.88
284.901	88.88
285.132	88.88
285.364	80.88
285.595	101.88
285.826	80.88
286.057	109.88
286.288	86.88
286.52	80.88
286.751	82.88
286.982	89.88
287.213	80.88
287.444	95.88
287.675	85.88
287.906	94.88
288.138	88.88
288.369	96.88
288.6	88.88
288.831	80.88
289.062	94.88
289.293	93.88
289.524	100.88
289.755	89.88
289.986	87.88
290.217	78.88
290.448	91.88
290.679	100.88
290.91	92.88
291.141	90.88
291.371	92.88
291.602	80.88
291.833	91.88
292.064	80.88
292.295	82.88
292.526	85.88
292.757	84.88
292.987	81.88
293.218	93.88
293.449	86.88
293.68	101.88
293.91	88.88
294.141	92.88
294.372	92.88
294.603	95.88
294.833	97.88
295.064	95.88
295.295	89.88
295.525	105.88
295.756	102.88
295.987	109.88
296.217	140.88
296.448	113.88
296.679	96.88
296.909	102.88
297.14	82.88
297.37	91.88
297.601	94.88
297.831	93.88
298.062	100.88
298.292	89.88
298.523	92.88
298.753	97.88
298.984	85.88
299.214	88.88
299.445	91.88
299.675	96.88
299.905	104.88
300.136	87.88
300.366	92.88
300.597	82.88
300.827	101.88
301.057	90.88
301.288	89.88
301.518	95.88
301.748	85.88
301.979	114.88
302.209	90.88
302.439	81.88
302.669	86.88
302.9	85.88
303.13	92.88
303.36	104.88
303.59	101.88
303.82	106.88
304.051	90.88
304.281	89.88
304.511	102.88
304.741	80.88
304.971	72.88
305.201	90.88
305.431	106.88
305.661	87.88
305.891	80.88
306.121	86.88
306.352	109.88
306.582	97.88
306.812	102.88
307.042	108.88
307.272	80.88
307.502	111.88
307.731	93.88
307.961	74.88
308.191	85.88
308.421	80.88
308.651	76.88
308.881	94.88
309.111	96.88
309.341	97.88
309.571	98.88
309.8	86.88
310.03	84.88
310.26	82.88
310.49	101.88
310.72	101.88
310.949	94.88
311.179	92.88
311.409	102.88
311.639	94.88
311.868	99.88
312.098	109.88
312.328	95.88
312.557	109.88
312.787	100.88
313.017	111.88
313.246	93.88
313.476	100.88
313.706	92.88
313.935	96.88
314.165	101.88
314.394	88.88
314.624	97.88
314.853	92.88
315.083	102.88
315.312	95.88
315.542	104.88
315.771	91.88
316.001	97.88
316.23	94.88
316.46	84.88
316.689	95.88
316.919	99.88
317.148	103.88
317.377	100.88
317.607	84.88
317.836	99.88
318.065	93.88
318.295	87.88
318.524	96.88
318.753	90.88
318.983	100.88
319.212	92.88
319.441	100.88
319.67	105.88
319.9	87.88
320.129	107.88
320.358	103.88
320.587	103.88
320.816	101.88
321.046	94.88
321.275	96.88
321.504	100.88
321.733	88.88
321.962	98.88
322.191	108.88
322.42	98.88
322.649	103.88
322.878	114.88
323.108	110.88
323.337	118.88
323.566	122.88
323.795	145.88
324.024	179.88
324.253	353.88
324.482	718.88
324.71	1475.88
324.939	1970.88
325.168	751.88
325.397	232.88
325.626	143.88
325.855	130.88
326.084	116.88
326.313	132.88
326.542	144.88
326.77	215.88
326.999	404.88
327.228	881.88
327.457	1554.88
327.686	1234.88
327.914	338.88
328.143	180.88
328.372	130.88
328.6	126.88
328.829	105.88
329.058	112.88
329.287	114.88
329.515	113.88
329.744	104.88
329.972	86.88
330.201	89.88
330.43	110.88
330.658	97.88
330.887	123.88
331.115	117.88
331.344	87.88
331.572	97.88
331.801	105.88
332.03	100.88
332.258	99.88
332.486	91.88
332.715	93.88
332.943	95.88
333.172	109.88
333.4	106.88
333.629	102.88
333.857	99.88
334.085	105.88
334.314	86.88
334.542	92.88
334.771	81.88
334.999	98.88
335.227	99.88
335.455	88.88
335.684	97.88
335.912	105.88
336.14	101.88
336.369	91.88
336.597	104.88
336.825	109.88
337.053	97.88
337.281	89.88
337.51	98.88
337.738	88.88
337.966	95.88
338.194	106.88
338.422	87.88
338.65	88.88
338.878	96.88
339.106	96.88
339.334	92.88
339.562	81.88
339.79	87.88
340.018	88.88
340.246	100.88
340.474	81.88
340.702	86.88
340.93	76.88
341.158	85.88
341.386	109.88
341.614	99.88
341.842	91.88
342.07	87.88
342.298	103.88
342.526	92.88
342.754	85.88
342.981	96.88
343.209	82.88
343.437	106.88
343.665	100.88
343.893	86.88
344.12	86.88
344.348	81.88
344.576	84.88
344.804	94.88
345.031	104.88
345.259	110.88
345.487	85.88
345.714	104.88
345.942	89.88
346.17	101.88
346.397	98.88
346.625	78.88
346.853	80.88
347.08	91.88
347.308	99.88
347.535	94.88
347.763	84.88
347.99	98.88
348.218	103.88
348.445	100.88
348.673	92.88
348.9	103.88
349.128	100.88
349.355	95.88
349.583	96.88
349.81	97.88
350.037	78.88
350.265	93.88
350.492	94.88
350.72	117.88
350.947	103.88
351.174	96.88
351.402	99.88
351.629	93.88
351.856	101.88
352.083	106.88
352.311	97.88
352.538	105.88
352.765	102.88
352.992	111.88
353.22	119.88
353.447	109.88
353.674	105.88
353.901	105.88
354.128	104.88
354.355	97.88
354.583	87.88
354.81	102.88
355.037	110.88
355.264	102.88
355.491	100.88
355.718	81.88
355.945	95.88
356.172	96.88
356.399	87.88
356.626	103.88
356.853	109.88
357.08	93.88
357.307	105.88
357.534	110.88
357.761	99.88
357.988	92.88
358.215	112.88
358.441	102.88
358.668	89.88
358.895	86.88
359.122	82.88
359.349	91.88
359.576	97.88
359.802	103.88
360.029	115.88
360.256	105.88
360.483	105.88
360.709	99.88
360.936	97.88
361.163	92.88
361.39	93.88
361.616	100.88
361.843	98.88
362.07	98.88
362.296	106.88
362.523	86.88
362.749	88.88
362.976	99.88
363.203	92.88
363.429	94.88
363.656	85.88
363.882	86.88
364.109	93.88
364.335	87.88
364.562	86.88
364.788	93.88
365.015	89.88
365.241	97.88
365.468	107.88
365.694	112.88
365.92	102.88
366.147	110.88
366.373	86.88
366.599	73.88
366.826	94.88
367.052	86.88
367.278	96.88
367.505	88.88
367.731	91.88
367.957	92.88
368.184	98.88
368.41	100.88
368.636	110.88
368.862	122.88
369.089	107.88
369.315	96.88
369.541	83.88
369.767	101.88
369.993	79.88
370.219	90.88
370.445	86.88
370.672	70.88
370.898	93.88
371.124	91.88
371.35	96.88
371.576	103.88
371.802	87.88
372.028	86.88
372.254	96.88
372.48	98.88
372.706	92.88
372.932	79.88
373.158	104.88
373.384	90.88
373.61	85.88
373.835	101.88
374.061	86.88
374.287	88.88
374.513	82.88
374.739	91.88
374.965	99.88
375.191	101.88
375.416	93.88
375.642	101.88
375.868	109.88
376.094	102.88
376.319	80.88
376.545	92.88
376.771	101.88
376.997	90.88
377.222	105.88
377.448	104.88
377.674	87.88
377.899	106.88
378.125	93.88
378.35	93.88
378.576	88.88
378.802	94.88
379.027	94.88
379.253	81.88
379.478	89.88
379.704	108.88
379.929	90.88
380.155	96.88
380.38	102.88
380.606	100.88
380.831	88.88
381.057	84.88
381.282	98.88
381.507	92.88
381.733	87.88
381.958	93.88
382.184	98.88
382.409	120.88
382.634	106.88
382.86	95.88
383.085	98.88
383.31	96.88
383.535	108.88
383.761	92.88
383.986	100.88
384.211	101.88
384.436	96.88
384.662	90.88
384.887	114.88
385.112	111.88
385.337	111.88
385.562	98.88
385.787	100.88
386.013	99.88
386.238	95.88
386.463	112.88
386.688	104.88
386.913	113.88
387.138	101.88
387.363	100.88
387.588	93.88
387.813	103.88
388.038	99.88
388.263	121.88
388.488	107.88
388.713	98.88
388.938	111.88
389.163	101.88
389.387	99.88
389.612	101.88
389.837	96.88
390.062	99.88
390.287	97.88
390.512	82.88
390.736	89.88
390.961	100.88
391.186	92.88
391.411	88.88
391.636	97.88
391.86	99.88
392.085	96.88
392.31	83.88
392.534	85.88
392.759	90.88
392.984	85.88
393.208	94.88
393.433	96.88
393.658	103.88
393.882	77.88
394.107	93.88
394.331	92.88
394.556	81.88
394.78	78.88
395.005	86.88
395.229	89.88
395.454	94.88
395.678	88.88
395.903	95.88
396.127	87.88
396.352	86.88
396.576	82.88
396.801	88.88
397.025	79.88
397.249	87.88
397.474	80.88
397.698	90.88
397.922	77.88
398.147	99.88
398.371	82.88
398.595	99.88
398.82	87.88
399.044	84.88
399.268	100.88
399.492	89.88
399.717	103.88
399.941	102.88
400.165	94.88
400.389	86.88
400.613	83.88
400.837	91.88
401.062	99.88
401.286	100.88
401.51	93.88
401.734	91.88
401.958	104.88
402.182	111.88
402.406	134.88
402.63	114.88
402.854	95.88
403.078	84.88
403.302	77.88
403.526	88.88
403.75	95.88
403.974	102.88
404.198	72.88
404.422	92.88
404.645	85.88
404.869	94.88
405.093	104.88
405.317	95.88
405.541	92.88
405.765	99.88
405.988	112.88
406.212	150.88
406.436	210.88
406.66	134.88
406.883	95.88
407.107	84.88
407.331	89.88
407.555	105.88
407.778	77.88
408.002	84.88
408.226	89.88
408.449	86.88
408.673	95.88
408.896	86.88
409.12	91.88
409.344	96.88
409.567	97.88
409.791	95.88
410.014	87.88
410.238	104.88
410.461	104.88
410.685	86.88
410.908	115.88
411.132	117.88
411.355	102.88
411.578	97.88
411.802	80.88
412.025	97.88
412.249	103.88
412.472	92.88
412.695	84.88
412.919	85.88
413.142	80.88
413.365	89.88
413.589	87.88
413.812	73.88
414.035	90.88
414.258	98.88
414.482	86.88
414.705	85.88
414.928	95.88
415.151	84.88
415.374	96.88
415.597	92.88
415.821	80.88
416.044	96.88
416.267	87.88
416.49	101.88
416.713	93.88
416.936	96.88
417.159	79.88
417.382	80.88
417.605	79.88
417.828	95.88
418.051	94.88
418.274	103.88
418.497	105.88
418.72	86.88
418.943	108.88
419.166	92.88
419.389	89.88
419.611	103.88
419.834	94.88
420.057	89.88
420.28	95.88
420.503	90.88
420.726	90.88
420.948	100.88
421.171	99.88
421.394	92.88
421.617	81.88
421.839	96.88
422.062	82.88
422.285	91.88
422.507	106.88
422.73	88.88
422.953	101.88
423.175	94.88
423.398	87.88
423.621	103.88
423.843	100.88
424.066	81.88
424.288	99.88
424.511	99.88
424.733	99.88
424.956	100.88
425.178	102.88
425.401	93.88
425.623	87.88
425.846	89.88
426.068	97.88
426.291	90.88
426.513	90.88
426.735	87.88
426.958	101.88
427.18	100.88
427.402	126.88
427.625	145.88
427.847	116.88
428.069	99.88
428.292	106.88
428.514	87.88
428.736	87.88
428.958	100.88
429.181	78.88
429.403	79.88
429.625	87.88
429.847	90.88
430.069	98.88
430.292	92.88
430.514	94.88
430.736	85.88
430.958	95.88
431.18	74.88
431.402	94.88
431.624	95.88
431.846	84.88
432.068	81.88
432.29	93.88
432.512	102.88
432.734	98.88
432.956	97.88
433.178	98.88
433.4	93.88
433.622	87.88
433.844	85.88
434.066	86.88
434.287	92.88
434.509	102.88
434.731	102.88
434.953	95.88
435.175	77.88
435.397	77.88
435.618	89.88
435.84	103.88
436.062	110.88
436.284	114.88
436.505	101.88
436.727	98.88
436.949	88.88
437.17	84.88
437.392	86.88
437.614	91.88
437.835	100.88
438.057	117.88
438.278	117.88
438.5	113.88
438.721	109.88
438.943	103.88
439.165	84.88
439.386	85.88
439.608	82.88
439.829	105.88
440.05	123.88
440.272	132.88
440.493	109.88
440.715	102.88
440.936	76.88
441.158	83.88
441.379	92.88
441.6	82.88
441.822	96.88
442.043	91.88
442.264	102.88
442.486	100.88
442.707	100.88
442.928	104.88
443.149	127.88
443.371	111.88
443.592	100.88
443.813	122.88
444.034	113.88
444.255	92.88
444.476	85.88
444.698	93.88
444.919	92.88
445.14	122.88
445.361	121.88
445.582	109.88
445.803	132.88
446.024	116.88
446.245	131.88
446.466	106.88
446.687	104.88
446.908	95.88
447.129	81.88
447.35	84.88
447.571	108.88
447.792	94.88
448.013	96.88
448.234	108.88
448.455	92.88
448.675	116.88
448.896	114.88
449.117	97.88
449.338	93.88
449.559	138.88
449.779	126.88
450	93.88
450.221	88.88
450.442	97.88
450.662	95.88
450.883	101.88
451.104	88.88
451.324	87.88
451.545	76.88
451.766	101.88
451.986	78.88
452.207	89.88
452.428	91.88
452.648	94.88
452.869	100.88
453.089	117.88
453.31	97.88
453.53	83.88
453.751	104.88
453.971	102.88
454.192	103.88
454.412	88.88
454.633	84.88
454.853	99.88
455.073	78.88
455.294	84.88
455.514	106.88
455.734	93.88
455.955	89.88
456.175	88.88
456.395	69.88
456.616	73.88
456.836	82.88
457.056	88.88
457.276	88.88
457.497	97.88
457.717	93.88
457.937	80.88
458.157	87.88
458.377	80.88
458.598	114.88
458.818	149.88
459.038	149.88
459.258	129.88
459.478	85.88
459.698	84.88
459.918	96.88
460.138	90.88
460.358	92.88
460.578	100.88
460.798	81.88
461.018	84.88
461.238	97.88
461.458	91.88
461.678	104.88
461.898	82.88
462.118	72.88
462.338	89.88
462.558	91.88
462.777	76.88
462.997	78.88
463.217	94.88
463.437	94.88
463.657	87.88
463.876	89.88
464.096	94.88
464.316	83.88
464.536	92.88
464.755	89.88
464.975	107.88
465.195	146.88
465.414	143.88
465.634	94.88
465.854	98.88
466.073	90.88
466.293	93.88
466.512	100.88
466.732	94.88
466.951	85.88
467.171	92.88
467.391	100.88
467.61	106.88
467.829	108.88
468.049	96.88
468.268	79.88
468.488	93.88
468.707	76.88
468.927	93.88
469.146	87.88
469.365	86.88
469.585	85.88
469.804	82.88
470.023	95.88
470.243	81.88
470.462	97.88
470.681	94.88
470.901	95.88
471.12	85.88
471.339	83.88
471.558	83.88
471.777	94.88
471.997	84.88
472.216	83.88
472.435	87.88
472.654	91.88
472.873	92.88
473.092	86.88
473.311	87.88
473.53	104.88
473.749	100.88
473.968	100.88
474.187	99.88
474.406	86.88
474.625	78.88
474.844	81.88
475.063	81.88
475.282	94.88
475.501	93.88
475.72	79.88
475.939	93.88
476.158	92.88
476.377	78.88
476.596	78.88
476.814	92.88
477.033	101.88
477.252	94.88
477.471	80.88
477.69	83.88
477.908	94.88
478.127	103.88
478.346	81.88
478.564	97.88
478.783	98.88
479.002	95.88
479.22	92.88
479.439	103.88
479.658	94.88
479.876	102.88
480.095	97.88
480.313	95.88
480.532	91.88
480.751	87.88
480.969	92.88
481.188	105.88
481.406	116.88
481.624	88.88
481.843	97.88
482.061	85.88
482.28	97.88
482.498	98.88
482.717	90.88
482.935	84.88
483.153	82.88
483.372	89.88
483.59	100.88
483.808	101.88
484.027	97.88
484.245	98.88
484.463	108.88
484.681	106.88
484.9	98.88
485.118	97.88
485.336	99.88
485.554	99.88
485.772	102.88
485.99	93.88
486.209	100.88
486.427	116.88
486.645	113.88
486.863	111.88
487.081	99.88
487.299	76.88
487.517	85.88
487.735	87.88
487.953	106.88
488.171	98.88
488.389	102.88
488.607	97.88
488.825	111.88
489.043	82.88
489.261	93.88
489.479	100.88
489.696	92.88
489.914	78.88
490.132	96.88
490.35	95.88
490.568	85.88
490.786	84.88
491.003	93.88
491.221	87.88
491.439	78.88
491.657	86.88
491.874	89.88
492.092	92.88
492.31	88.88
492.527	96.88
492.745	96.88
492.963	94.88
493.18	95.88
493.398	85.88
493.615	93.88
493.833	94.88
494.05	99.88
494.268	96.88
494.485	86.88
494.703	96.88
494.92	83.88
495.138	88.88
495.355	86.88
495.573	89.88
495.79	90.88
496.008	104.88
496.225	86.88
496.442	93.88
496.66	98.88
496.877	94.88
497.094	94.88
497.312	96.88
497.529	83.88
497.746	101.88
497.963	103.88
498.181	100.88
498.398	95.88
498.615	104.88
498.832	95.88
499.049	93.88
499.267	90.88
499.484	87.88
499.701	89.88
499.918	89.88
500.135	86.88
500.352	96.88
500.569	92.88
500.786	79.88
501.003	89.88
501.22	85.88
501.437	78.88
501.654	104.88
501.871	87.88
502.088	102.88
502.305	92.88
502.522	96.88
502.739	82.88
502.956	89.88
503.172	91.88
503.389	92.88
503.606	102.88
503.823	104.88
504.04	91.88
504.256	93.88
504.473	103.88
504.69	99.88
504.907	106.88
505.123	83.88
505.34	86.88
505.557	99.88
505.773	113.88
505.99	89.88
506.207	96.88
506.423	97.88
506.64	88.88
506.856	97.88
507.073	96.88
507.289	89.88
507.506	101.88
507.722	104.88
507.939	103.88
508.155	81.88
508.372	96.88
508.588	95.88
508.805	91.88
509.021	95.88
509.238	101.88
509.454	98.88
509.67	107.88
509.887	111.88
510.103	135.88
510.319	209.88
510.536	716.88
510.752	2146.88
510.968	597.88
511.184	162.88
511.401	119.88
511.617	110.88
511.833	96.88
512.049	94.88
512.265	101.88
512.481	100.88
512.698	86.88
512.914	97.88
513.13	92.88
513.346	104.88
513.562	90.88
513.778	108.88
513.994	95.88
514.21	104.88
514.426	112.88
514.642	126.88
514.858	121.88
515.074	163.88
