Data from Uncirc_1990_H10_HRD10591_00049.txt Node
Date: Wed Jan 03 11:54:01 EST 2024
User: Yrep
Spectrometer: HR+D1059
Trigger mode: 1
Integration Time (sec): 1.000000E-1
Scans to average: 1
Electric dark correction enabled: true
Nonlinearity correction enabled: false
Boxcar width: 0
XAxis mode: Wavelengths
Number of Pixels in Spectrum: 2048
>>>>>Begin Spectral Data<<<<<
223.165	-19.69
223.4	-19.69
223.635	-19.69
223.869	-14.69
224.104	-12.69
224.338	-3.69
224.573	-8.69
224.808	-17.69
225.042	-1.69
225.277	-10.69
225.511	-13.69
225.746	7.31
225.98	22.31
226.215	-5.69
226.449	5.31
226.683	32.31
226.918	20.31
227.152	21.31
227.387	44.31
227.621	38.31
227.856	48.31
228.09	38.31
228.324	52.31
228.559	40.31
228.793	54.31
229.027	59.31
229.262	68.31
229.496	60.31
229.73	76.31
229.964	97.31
230.199	71.31
230.433	60.31
230.667	75.31
230.901	80.31
231.136	69.31
231.37	92.31
231.604	78.31
231.838	91.31
232.072	61.31
232.306	82.31
232.541	75.31
232.775	70.31
233.009	85.31
233.243	82.31
233.477	69.31
233.711	72.31
233.945	71.31
234.179	84.31
234.413	90.31
234.647	69.31
234.881	66.31
235.115	80.31
235.349	76.31
235.583	80.31
235.817	76.31
236.051	92.31
236.285	72.31
236.519	73.31
236.753	62.31
236.987	91.31
237.221	88.31
237.455	76.31
237.689	86.31
237.922	77.31
238.156	78.31
238.39	67.31
238.624	81.31
238.858	88.31
239.091	76.31
239.325	91.31
239.559	78.31
239.793	78.31
240.027	79.31
240.26	72.31
240.494	72.31
240.728	61.31
240.961	69.31
241.195	83.31
241.429	87.31
241.662	69.31
241.896	76.31
242.13	53.31
242.363	82.31
242.597	68.31
242.83	65.31
243.064	70.31
243.298	69.31
243.531	68.31
243.765	81.31
243.998	75.31
244.232	74.31
244.465	91.31
244.699	87.31
244.932	88.31
245.166	77.31
245.399	78.31
245.633	73.31
245.866	77.31
246.099	86.31
246.333	80.31
246.566	81.31
246.8	68.31
247.033	76.31
247.266	91.31
247.5	86.31
247.733	80.31
247.966	79.31
248.2	87.31
248.433	73.31
248.666	69.31
248.899	97.31
249.133	84.31
249.366	80.31
249.599	89.31
249.832	83.31
250.066	93.31
250.299	80.31
250.532	85.31
250.765	89.31
250.998	81.31
251.231	67.31
251.465	80.31
251.698	94.31
251.931	87.31
252.164	68.31
252.397	84.31
252.63	85.31
252.863	72.31
253.096	77.31
253.329	77.31
253.562	82.31
253.795	78.31
254.028	68.31
254.261	90.31
254.494	72.31
254.727	86.31
254.96	76.31
255.193	75.31
255.426	83.31
255.659	99.31
255.892	80.31
256.124	71.31
256.357	66.31
256.59	75.31
256.823	88.31
257.056	82.31
257.289	85.31
257.521	77.31
257.754	82.31
257.987	75.31
258.22	96.31
258.452	89.31
258.685	84.31
258.918	84.31
259.151	83.31
259.383	80.31
259.616	86.31
259.849	69.31
260.081	80.31
260.314	88.31
260.547	70.31
260.779	74.31
261.012	85.31
261.244	90.31
261.477	89.31
261.71	84.31
261.942	94.31
262.175	94.31
262.407	87.31
262.64	85.31
262.872	78.31
263.105	74.31
263.337	71.31
263.57	74.31
263.802	88.31
264.035	96.31
264.267	93.31
264.499	91.31
264.732	79.31
264.964	74.31
265.197	89.31
265.429	81.31
265.661	73.31
265.894	94.31
266.126	76.31
266.358	86.31
266.591	99.31
266.823	74.31
267.055	87.31
267.287	86.31
267.52	77.31
267.752	94.31
267.984	69.31
268.216	84.31
268.448	79.31
268.681	99.31
268.913	82.31
269.145	81.31
269.377	83.31
269.609	86.31
269.841	85.31
270.073	84.31
270.306	77.31
270.538	85.31
270.77	71.31
271.002	78.31
271.234	95.31
271.466	87.31
271.698	78.31
271.93	92.31
272.162	78.31
272.394	98.31
272.626	87.31
272.858	88.31
273.09	81.31
273.322	70.31
273.553	74.31
273.785	77.31
274.017	67.31
274.249	83.31
274.481	72.31
274.713	87.31
274.945	98.31
275.176	88.31
275.408	81.31
275.64	68.31
275.872	79.31
276.104	92.31
276.335	91.31
276.567	95.31
276.799	106.31
277.031	86.31
277.262	92.31
277.494	91.31
277.726	93.31
277.957	79.31
278.189	95.31
278.421	74.31
278.652	81.31
278.884	88.31
279.115	84.31
279.347	87.31
279.579	77.31
279.81	79.31
280.042	80.31
280.273	83.31
280.505	80.31
280.736	78.31
280.968	94.31
281.199	85.31
281.431	89.31
281.662	82.31
281.894	80.31
282.125	83.31
282.356	110.31
282.588	133.31
282.819	108.31
283.051	80.31
283.282	91.31
283.513	84.31
283.745	72.31
283.976	92.31
284.207	95.31
284.439	90.31
284.67	76.31
284.901	75.31
285.132	84.31
285.364	75.31
285.595	80.31
285.826	78.31
286.057	93.31
286.288	77.31
286.52	92.31
286.751	82.31
286.982	78.31
287.213	84.31
287.444	80.31
287.675	83.31
287.906	86.31
288.138	68.31
288.369	102.31
288.6	114.31
288.831	97.31
289.062	86.31
289.293	84.31
289.524	87.31
289.755	82.31
289.986	81.31
290.217	80.31
290.448	86.31
290.679	85.31
290.91	80.31
291.141	78.31
291.371	77.31
291.602	82.31
291.833	81.31
292.064	88.31
292.295	78.31
292.526	78.31
292.757	81.31
292.987	87.31
293.218	85.31
293.449	87.31
293.68	88.31
293.91	97.31
294.141	78.31
294.372	95.31
294.603	98.31
294.833	80.31
295.064	90.31
295.295	98.31
295.525	89.31
295.756	102.31
295.987	111.31
296.217	127.31
296.448	130.31
296.679	87.31
296.909	84.31
297.14	87.31
297.37	94.31
297.601	78.31
297.831	85.31
298.062	89.31
298.292	78.31
298.523	61.31
298.753	96.31
298.984	98.31
299.214	81.31
299.445	92.31
299.675	95.31
299.905	87.31
300.136	87.31
300.366	87.31
300.597	87.31
300.827	102.31
301.057	92.31
301.288	105.31
301.518	94.31
301.748	78.31
301.979	105.31
302.209	82.31
302.439	94.31
302.669	83.31
302.9	79.31
303.13	78.31
303.36	102.31
303.59	87.31
303.82	100.31
304.051	79.31
304.281	96.31
304.511	78.31
304.741	76.31
304.971	88.31
305.201	84.31
305.431	77.31
305.661	84.31
305.891	90.31
306.121	96.31
306.352	85.31
306.582	106.31
306.812	78.31
307.042	99.31
307.272	92.31
307.502	97.31
307.731	101.31
307.961	87.31
308.191	92.31
308.421	88.31
308.651	92.31
308.881	98.31
309.111	97.31
309.341	88.31
309.571	103.31
309.8	95.31
310.03	106.31
310.26	95.31
310.49	98.31
310.72	89.31
310.949	102.31
311.179	100.31
311.409	96.31
311.639	100.31
311.868	81.31
312.098	96.31
312.328	85.31
312.557	92.31
312.787	105.31
313.017	102.31
313.246	95.31
313.476	91.31
313.706	80.31
313.935	85.31
314.165	101.31
314.394	99.31
314.624	103.31
314.853	97.31
315.083	67.31
315.312	103.31
315.542	93.31
315.771	98.31
316.001	90.31
316.23	100.31
316.46	96.31
316.689	100.31
316.919	98.31
317.148	98.31
317.377	86.31
317.607	99.31
317.836	85.31
318.065	83.31
318.295	79.31
318.524	87.31
318.753	88.31
318.983	92.31
319.212	95.31
319.441	88.31
319.67	98.31
319.9	86.31
320.129	103.31
320.358	88.31
320.587	76.31
320.816	114.31
321.046	98.31
321.275	95.31
321.504	107.31
321.733	99.31
321.962	100.31
322.191	117.31
322.42	100.31
322.649	104.31
322.878	103.31
323.108	120.31
323.337	118.31
323.566	127.31
323.795	145.31
324.024	188.31
324.253	361.31
324.482	760.31
324.71	1491.31
324.939	1982.31
325.168	736.31
325.397	238.31
325.626	133.31
325.855	119.31
326.084	134.31
326.313	132.31
326.542	149.31
326.77	206.31
326.999	413.31
327.228	869.31
327.457	1538.31
327.686	1228.31
327.914	346.31
328.143	181.31
328.372	131.31
328.6	105.31
328.829	112.31
329.058	122.31
329.287	118.31
329.515	108.31
329.744	88.31
329.972	90.31
330.201	87.31
330.43	89.31
330.658	116.31
330.887	141.31
331.115	114.31
331.344	98.31
331.572	108.31
331.801	99.31
332.03	105.31
332.258	98.31
332.486	88.31
332.715	109.31
332.943	89.31
333.172	94.31
333.4	99.31
333.629	105.31
333.857	98.31
334.085	111.31
334.314	96.31
334.542	110.31
334.771	108.31
334.999	102.31
335.227	86.31
335.455	93.31
335.684	89.31
335.912	89.31
336.14	82.31
336.369	90.31
336.597	98.31
336.825	84.31
337.053	91.31
337.281	85.31
337.51	96.31
337.738	80.31
337.966	90.31
338.194	89.31
338.422	91.31
338.65	87.31
338.878	96.31
339.106	91.31
339.334	96.31
339.562	101.31
339.79	84.31
340.018	81.31
340.246	86.31
340.474	95.31
340.702	92.31
340.93	88.31
341.158	100.31
341.386	88.31
341.614	96.31
341.842	85.31
342.07	101.31
342.298	82.31
342.526	91.31
342.754	115.31
342.981	89.31
343.209	88.31
343.437	93.31
343.665	93.31
343.893	94.31
344.12	101.31
344.348	87.31
344.576	86.31
344.804	82.31
345.031	94.31
345.259	91.31
345.487	100.31
345.714	95.31
345.942	82.31
346.17	98.31
346.397	84.31
346.625	101.31
346.853	84.31
347.08	108.31
347.308	103.31
347.535	95.31
347.763	98.31
347.99	97.31
348.218	103.31
348.445	95.31
348.673	94.31
348.9	97.31
349.128	89.31
349.355	97.31
349.583	98.31
349.81	93.31
350.037	91.31
350.265	89.31
350.492	104.31
350.72	100.31
350.947	101.31
351.174	123.31
351.402	98.31
351.629	92.31
351.856	97.31
352.083	103.31
352.311	109.31
352.538	100.31
352.765	119.31
352.992	124.31
353.22	111.31
353.447	85.31
353.674	90.31
353.901	105.31
354.128	78.31
354.355	87.31
354.583	83.31
354.81	100.31
355.037	92.31
355.264	90.31
355.491	93.31
355.718	93.31
355.945	112.31
356.172	97.31
356.399	109.31
356.626	86.31
356.853	88.31
357.08	94.31
357.307	103.31
357.534	88.31
357.761	88.31
357.988	100.31
358.215	80.31
358.441	90.31
358.668	98.31
358.895	87.31
359.122	104.31
359.349	101.31
359.576	79.31
359.802	95.31
360.029	107.31
360.256	100.31
360.483	110.31
360.709	79.31
360.936	101.31
361.163	96.31
361.39	95.31
361.616	94.31
361.843	94.31
362.07	95.31
362.296	87.31
362.523	76.31
362.749	96.31
362.976	94.31
363.203	97.31
363.429	82.31
363.656	92.31
363.882	103.31
364.109	88.31
364.335	94.31
364.562	80.31
364.788	81.31
365.015	93.31
365.241	92.31
365.468	113.31
365.694	86.31
365.92	99.31
366.147	90.31
366.373	91.31
366.599	87.31
366.826	97.31
367.052	78.31
367.278	98.31
367.505	97.31
367.731	81.31
367.957	96.31
368.184	95.31
368.41	90.31
368.636	114.31
368.862	118.31
369.089	104.31
369.315	81.31
369.541	84.31
369.767	96.31
369.993	84.31
370.219	86.31
370.445	94.31
370.672	87.31
370.898	92.31
371.124	87.31
371.35	113.31
371.576	96.31
371.802	97.31
372.028	86.31
372.254	91.31
372.48	83.31
372.706	95.31
372.932	90.31
373.158	94.31
373.384	97.31
373.61	91.31
373.835	67.31
374.061	76.31
374.287	94.31
374.513	99.31
374.739	71.31
374.965	81.31
375.191	77.31
375.416	85.31
375.642	75.31
375.868	82.31
376.094	80.31
376.319	84.31
376.545	84.31
376.771	92.31
376.997	87.31
377.222	80.31
377.448	72.31
377.674	101.31
377.899	90.31
378.125	88.31
378.35	98.31
378.576	92.31
378.802	75.31
379.027	98.31
379.253	106.31
379.478	88.31
379.704	96.31
379.929	94.31
380.155	85.31
380.38	91.31
380.606	88.31
380.831	94.31
381.057	86.31
381.282	93.31
381.507	90.31
381.733	96.31
381.958	88.31
382.184	93.31
382.409	91.31
382.634	93.31
382.86	95.31
383.085	103.31
383.31	107.31
383.535	104.31
383.761	86.31
383.986	102.31
384.211	91.31
384.436	77.31
384.662	98.31
384.887	96.31
385.112	87.31
385.337	100.31
385.562	108.31
385.787	100.31
386.013	118.31
386.238	87.31
386.463	103.31
386.688	104.31
386.913	100.31
387.138	95.31
387.363	95.31
387.588	103.31
387.813	91.31
388.038	107.31
388.263	108.31
388.488	101.31
388.713	86.31
388.938	105.31
389.163	100.31
389.387	98.31
389.612	83.31
389.837	91.31
390.062	96.31
390.287	94.31
390.512	103.31
390.736	101.31
390.961	87.31
391.186	101.31
391.411	111.31
391.636	91.31
391.86	92.31
392.085	94.31
392.31	85.31
392.534	80.31
392.759	89.31
392.984	85.31
393.208	74.31
393.433	87.31
393.658	91.31
393.882	78.31
394.107	87.31
394.331	81.31
394.556	102.31
394.78	98.31
395.005	93.31
395.229	86.31
395.454	78.31
395.678	87.31
395.903	76.31
396.127	91.31
396.352	86.31
396.576	101.31
396.801	94.31
397.025	87.31
397.249	94.31
397.474	84.31
397.698	91.31
397.922	88.31
398.147	97.31
398.371	80.31
398.595	100.31
398.82	95.31
399.044	96.31
399.268	84.31
399.492	76.31
399.717	87.31
399.941	79.31
400.165	98.31
400.389	90.31
400.613	95.31
400.837	91.31
401.062	87.31
401.286	86.31
401.51	83.31
401.734	100.31
401.958	108.31
402.182	107.31
402.406	154.31
402.63	110.31
402.854	91.31
403.078	96.31
403.302	82.31
403.526	94.31
403.75	80.31
403.974	99.31
404.198	94.31
404.422	87.31
404.645	98.31
404.869	79.31
405.093	94.31
405.317	92.31
405.541	93.31
405.765	87.31
405.988	123.31
406.212	162.31
406.436	228.31
406.66	145.31
406.883	110.31
407.107	88.31
407.331	86.31
407.555	90.31
407.778	94.31
408.002	94.31
408.226	91.31
408.449	93.31
408.673	92.31
408.896	79.31
409.12	83.31
409.344	95.31
409.567	73.31
409.791	87.31
410.014	92.31
410.238	93.31
410.461	91.31
410.685	94.31
410.908	93.31
411.132	92.31
411.355	99.31
411.578	84.31
411.802	84.31
412.025	79.31
412.249	107.31
412.472	94.31
412.695	92.31
412.919	97.31
413.142	92.31
413.365	103.31
413.589	85.31
413.812	104.31
414.035	99.31
414.258	94.31
414.482	81.31
414.705	87.31
414.928	98.31
415.151	86.31
415.374	97.31
415.597	76.31
415.821	82.31
416.044	76.31
416.267	86.31
416.49	83.31
416.713	86.31
416.936	79.31
417.159	87.31
417.382	86.31
417.605	81.31
417.828	79.31
418.051	92.31
418.274	76.31
418.497	80.31
418.72	91.31
418.943	86.31
419.166	91.31
419.389	92.31
419.611	76.31
419.834	81.31
420.057	93.31
420.28	106.31
420.503	100.31
420.726	86.31
420.948	84.31
421.171	94.31
421.394	109.31
421.617	83.31
421.839	103.31
422.062	81.31
422.285	91.31
422.507	99.31
422.73	117.31
422.953	89.31
423.175	85.31
423.398	100.31
423.621	82.31
423.843	88.31
424.066	100.31
424.288	83.31
424.511	91.31
424.733	91.31
424.956	108.31
425.178	84.31
425.401	97.31
425.623	79.31
425.846	83.31
426.068	101.31
426.291	97.31
426.513	86.31
426.735	94.31
426.958	98.31
427.18	94.31
427.402	129.31
427.625	126.31
427.847	104.31
428.069	107.31
428.292	92.31
428.514	85.31
428.736	90.31
428.958	93.31
429.181	85.31
429.403	90.31
429.625	92.31
429.847	100.31
430.069	109.31
430.292	92.31
430.514	94.31
430.736	75.31
430.958	86.31
431.18	82.31
431.402	64.31
431.624	84.31
431.846	98.31
432.068	86.31
432.29	90.31
432.512	98.31
432.734	91.31
432.956	89.31
433.178	95.31
433.4	88.31
433.622	82.31
433.844	86.31
434.066	84.31
434.287	103.31
434.509	94.31
434.731	83.31
434.953	87.31
435.175	95.31
435.397	75.31
435.618	91.31
435.84	111.31
436.062	111.31
436.284	104.31
436.505	80.31
436.727	94.31
436.949	90.31
437.17	91.31
437.392	82.31
437.614	106.31
437.835	106.31
438.057	107.31
438.278	109.31
438.5	115.31
438.721	113.31
438.943	87.31
439.165	83.31
439.386	85.31
439.608	92.31
439.829	103.31
440.05	114.31
440.272	147.31
440.493	94.31
440.715	80.31
440.936	97.31
441.158	88.31
441.379	81.31
441.6	86.31
441.822	109.31
442.043	80.31
442.264	100.31
442.486	102.31
442.707	89.31
442.928	95.31
443.149	131.31
443.371	124.31
443.592	99.31
443.813	111.31
444.034	110.31
444.255	88.31
444.476	84.31
444.698	96.31
444.919	80.31
445.14	131.31
445.361	129.31
445.582	110.31
445.803	117.31
446.024	127.31
446.245	120.31
446.466	116.31
446.687	94.31
446.908	90.31
447.129	82.31
447.35	83.31
447.571	88.31
447.792	96.31
448.013	96.31
448.234	99.31
448.455	92.31
448.675	102.31
448.896	114.31
449.117	94.31
449.338	95.31
449.559	123.31
449.779	114.31
450	100.31
450.221	94.31
450.442	103.31
450.662	82.31
450.883	112.31
451.104	95.31
451.324	105.31
451.545	78.31
451.766	79.31
451.986	88.31
452.207	91.31
452.428	92.31
452.648	77.31
452.869	100.31
453.089	106.31
453.31	113.31
453.53	99.31
453.751	95.31
453.971	95.31
454.192	114.31
454.412	87.31
454.633	99.31
454.853	84.31
455.073	91.31
455.294	87.31
455.514	102.31
455.734	97.31
455.955	85.31
456.175	91.31
456.395	99.31
456.616	92.31
456.836	63.31
457.056	87.31
457.276	87.31
457.497	83.31
457.717	79.31
457.937	101.31
458.157	94.31
458.377	84.31
458.598	98.31
458.818	128.31
459.038	134.31
459.258	106.31
459.478	80.31
459.698	89.31
459.918	90.31
460.138	84.31
460.358	87.31
460.578	84.31
460.798	91.31
461.018	78.31
461.238	78.31
461.458	91.31
461.678	83.31
461.898	90.31
462.118	93.31
462.338	90.31
462.558	88.31
462.777	83.31
462.997	78.31
463.217	73.31
463.437	85.31
463.657	84.31
463.876	91.31
464.096	78.31
464.316	100.31
464.536	89.31
464.755	93.31
464.975	100.31
465.195	134.31
465.414	149.31
465.634	92.31
465.854	86.31
466.073	71.31
466.293	88.31
466.512	79.31
466.732	93.31
466.951	82.31
467.171	100.31
467.391	94.31
467.61	99.31
467.829	109.31
468.049	96.31
468.268	85.31
468.488	83.31
468.707	82.31
468.927	95.31
469.146	84.31
469.365	78.31
469.585	91.31
469.804	87.31
470.023	90.31
470.243	88.31
470.462	100.31
470.681	109.31
470.901	97.31
471.12	93.31
471.339	89.31
471.558	81.31
471.777	78.31
471.997	79.31
472.216	108.31
472.435	116.31
472.654	85.31
472.873	84.31
473.092	93.31
473.311	90.31
473.53	76.31
473.749	91.31
473.968	93.31
474.187	88.31
474.406	96.31
474.625	96.31
474.844	83.31
475.063	86.31
475.282	91.31
475.501	76.31
475.72	90.31
475.939	92.31
476.158	78.31
476.377	97.31
476.596	92.31
476.814	101.31
477.033	98.31
477.252	97.31
477.471	82.31
477.69	85.31
477.908	97.31
478.127	88.31
478.346	89.31
478.564	88.31
478.783	80.31
479.002	97.31
479.22	104.31
479.439	92.31
479.658	111.31
479.876	91.31
480.095	88.31
480.313	79.31
480.532	95.31
480.751	98.31
480.969	83.31
481.188	117.31
481.406	93.31
481.624	93.31
481.843	71.31
482.061	97.31
482.28	88.31
482.498	97.31
482.717	89.31
482.935	98.31
483.153	98.31
483.372	82.31
483.59	92.31
483.808	96.31
484.027	97.31
484.245	89.31
484.463	87.31
484.681	92.31
484.9	93.31
485.118	97.31
485.336	80.31
485.554	81.31
485.772	99.31
485.99	106.31
486.209	105.31
486.427	100.31
486.645	101.31
486.863	111.31
487.081	97.31
487.299	95.31
487.517	85.31
487.735	100.31
487.953	98.31
488.171	97.31
488.389	106.31
488.607	99.31
488.825	100.31
489.043	79.31
489.261	87.31
489.479	87.31
489.696	100.31
489.914	90.31
490.132	94.31
490.35	98.31
490.568	89.31
490.786	86.31
491.003	93.31
491.221	77.31
491.439	101.31
491.657	98.31
491.874	92.31
492.092	105.31
492.31	85.31
492.527	95.31
492.745	86.31
492.963	100.31
493.18	99.31
493.398	76.31
493.615	93.31
493.833	100.31
494.05	85.31
494.268	88.31
494.485	79.31
494.703	95.31
494.92	94.31
495.138	85.31
495.355	92.31
495.573	91.31
495.79	102.31
496.008	95.31
496.225	91.31
496.442	91.31
496.66	82.31
496.877	99.31
497.094	86.31
497.312	76.31
497.529	69.31
497.746	85.31
497.963	92.31
498.181	94.31
498.398	99.31
498.615	121.31
498.832	92.31
499.049	87.31
499.267	96.31
499.484	99.31
499.701	102.31
499.918	84.31
500.135	105.31
500.352	84.31
500.569	91.31
500.786	63.31
501.003	86.31
501.22	76.31
501.437	86.31
501.654	94.31
501.871	95.31
502.088	83.31
502.305	85.31
502.522	69.31
502.739	93.31
502.956	88.31
503.172	103.31
503.389	96.31
503.606	108.31
503.823	85.31
504.04	84.31
504.256	97.31
504.473	99.31
504.69	80.31
504.907	98.31
505.123	90.31
505.34	98.31
505.557	97.31
505.773	85.31
505.99	78.31
506.207	97.31
506.423	81.31
506.64	71.31
506.856	96.31
507.073	106.31
507.289	88.31
507.506	97.31
507.722	113.31
507.939	107.31
508.155	102.31
508.372	98.31
508.588	101.31
508.805	100.31
509.021	76.31
509.238	104.31
509.454	96.31
509.67	101.31
509.887	114.31
510.103	124.31
510.319	216.31
510.536	717.31
510.752	2262.31
510.968	629.31
511.184	150.31
511.401	103.31
511.617	98.31
511.833	74.31
512.049	86.31
512.265	99.31
512.481	95.31
512.698	99.31
512.914	110.31
513.13	77.31
513.346	89.31
513.562	88.31
513.778	101.31
513.994	92.31
514.21	98.31
514.426	112.31
514.642	121.31
514.858	117.31
515.074	140.31
515.29	400.31
515.506	1349.31
515.721	501.31
515.937	143.31
516.153	98.31
