Data from Uncirc_1990_H10_HRD10591_00066.txt Node
Date: Wed Jan 03 11:54:04 EST 2024
User: Yrep
Spectrometer: HR+D1059
Trigger mode: 1
Integration Time (sec): 1.000000E-1
Scans to average: 1
Electric dark correction enabled: true
Nonlinearity correction enabled: false
Boxcar width: 0
XAxis mode: Wavelengths
Number of Pixels in Spectrum: 2048
>>>>>Begin Spectral Data<<<<<
223.165	-15.75
223.4	-15.75
223.635	-15.75
223.869	-19.75
224.104	-18.75
224.338	-5.75
224.573	-12.75
224.808	-14.75
225.042	-14.75
225.277	-4.75
225.511	6.25
225.746	9.25
225.98	-6.75
226.215	12.25
226.449	19.25
226.683	20.25
226.918	15.25
227.152	31.25
227.387	30.25
227.621	42.25
227.856	44.25
228.09	50.25
228.324	40.25
228.559	57.25
228.793	47.25
229.027	62.25
229.262	49.25
229.496	65.25
229.73	83.25
229.964	89.25
230.199	70.25
230.433	75.25
230.667	77.25
230.901	83.25
231.136	74.25
231.37	78.25
231.604	76.25
231.838	95.25
232.072	77.25
232.306	75.25
232.541	81.25
232.775	74.25
233.009	84.25
233.243	86.25
233.477	70.25
233.711	71.25
233.945	77.25
234.179	83.25
234.413	69.25
234.647	80.25
234.881	78.25
235.115	76.25
235.349	74.25
235.583	75.25
235.817	79.25
236.051	57.25
236.285	86.25
236.519	76.25
236.753	70.25
236.987	62.25
237.221	79.25
237.455	87.25
237.689	77.25
237.922	79.25
238.156	76.25
238.39	82.25
238.624	70.25
238.858	78.25
239.091	89.25
239.325	77.25
239.559	67.25
239.793	81.25
240.027	67.25
240.26	95.25
240.494	79.25
240.728	82.25
240.961	84.25
241.195	66.25
241.429	77.25
241.662	77.25
241.896	72.25
242.13	73.25
242.363	57.25
242.597	76.25
242.83	81.25
243.064	92.25
243.298	83.25
243.531	86.25
243.765	86.25
243.998	66.25
244.232	93.25
244.465	87.25
244.699	88.25
244.932	71.25
245.166	87.25
245.399	79.25
245.633	73.25
245.866	73.25
246.099	79.25
246.333	87.25
246.566	70.25
246.8	75.25
247.033	71.25
247.266	64.25
247.5	76.25
247.733	84.25
247.966	82.25
248.2	92.25
248.433	85.25
248.666	66.25
248.899	76.25
249.133	82.25
249.366	82.25
249.599	90.25
249.832	80.25
250.066	69.25
250.299	71.25
250.532	91.25
250.765	83.25
250.998	64.25
251.231	58.25
251.465	60.25
251.698	75.25
251.931	70.25
252.164	73.25
252.397	68.25
252.63	88.25
252.863	66.25
253.096	76.25
253.329	70.25
253.562	58.25
253.795	79.25
254.028	83.25
254.261	74.25
254.494	89.25
254.727	76.25
254.96	82.25
255.193	87.25
255.426	70.25
255.659	68.25
255.892	71.25
256.124	89.25
256.357	81.25
256.59	91.25
256.823	75.25
257.056	86.25
257.289	73.25
257.521	74.25
257.754	67.25
257.987	69.25
258.22	74.25
258.452	84.25
258.685	77.25
258.918	91.25
259.151	86.25
259.383	89.25
259.616	81.25
259.849	95.25
260.081	79.25
260.314	77.25
260.547	82.25
260.779	74.25
261.012	89.25
261.244	79.25
261.477	85.25
261.71	83.25
261.942	99.25
262.175	103.25
262.407	86.25
262.64	81.25
262.872	70.25
263.105	82.25
263.337	80.25
263.57	71.25
263.802	69.25
264.035	90.25
264.267	81.25
264.499	73.25
264.732	81.25
264.964	81.25
265.197	79.25
265.429	84.25
265.661	92.25
265.894	87.25
266.126	78.25
266.358	78.25
266.591	82.25
266.823	79.25
267.055	65.25
267.287	86.25
267.52	83.25
267.752	68.25
267.984	79.25
268.216	84.25
268.448	84.25
268.681	77.25
268.913	71.25
269.145	77.25
269.377	82.25
269.609	84.25
269.841	61.25
270.073	65.25
270.306	63.25
270.538	77.25
270.77	75.25
271.002	85.25
271.234	78.25
271.466	76.25
271.698	79.25
271.93	93.25
272.162	75.25
272.394	83.25
272.626	77.25
272.858	81.25
273.09	87.25
273.322	80.25
273.553	85.25
273.785	83.25
274.017	78.25
274.249	74.25
274.481	79.25
274.713	75.25
274.945	85.25
275.176	85.25
275.408	82.25
275.64	74.25
275.872	87.25
276.104	80.25
276.335	84.25
276.567	88.25
276.799	103.25
277.031	89.25
277.262	80.25
277.494	94.25
277.726	85.25
277.957	84.25
278.189	80.25
278.421	89.25
278.652	82.25
278.884	93.25
279.115	83.25
279.347	85.25
279.579	92.25
279.81	79.25
280.042	86.25
280.273	81.25
280.505	102.25
280.736	76.25
280.968	89.25
281.199	87.25
281.431	90.25
281.662	95.25
281.894	103.25
282.125	95.25
282.356	106.25
282.588	113.25
282.819	106.25
283.051	90.25
283.282	90.25
283.513	95.25
283.745	78.25
283.976	94.25
284.207	80.25
284.439	88.25
284.67	75.25
284.901	83.25
285.132	93.25
285.364	86.25
285.595	84.25
285.826	89.25
286.057	86.25
286.288	81.25
286.52	75.25
286.751	85.25
286.982	86.25
287.213	83.25
287.444	87.25
287.675	91.25
287.906	97.25
288.138	86.25
288.369	103.25
288.6	93.25
288.831	87.25
289.062	93.25
289.293	89.25
289.524	83.25
289.755	78.25
289.986	80.25
290.217	87.25
290.448	91.25
290.679	89.25
290.91	83.25
291.141	75.25
291.371	87.25
291.602	77.25
291.833	76.25
292.064	83.25
292.295	75.25
292.526	86.25
292.757	71.25
292.987	90.25
293.218	75.25
293.449	90.25
293.68	96.25
293.91	74.25
294.141	83.25
294.372	87.25
294.603	78.25
294.833	81.25
295.064	84.25
295.295	102.25
295.525	99.25
295.756	90.25
295.987	102.25
296.217	127.25
296.448	112.25
296.679	97.25
296.909	81.25
297.14	83.25
297.37	94.25
297.601	79.25
297.831	102.25
298.062	89.25
298.292	100.25
298.523	107.25
298.753	93.25
298.984	91.25
299.214	87.25
299.445	84.25
299.675	92.25
299.905	89.25
300.136	92.25
300.366	93.25
300.597	86.25
300.827	90.25
301.057	111.25
301.288	91.25
301.518	88.25
301.748	86.25
301.979	99.25
302.209	75.25
302.439	81.25
302.669	85.25
302.9	83.25
303.13	91.25
303.36	97.25
303.59	91.25
303.82	94.25
304.051	96.25
304.281	93.25
304.511	89.25
304.741	85.25
304.971	90.25
305.201	96.25
305.431	85.25
305.661	88.25
305.891	103.25
306.121	98.25
306.352	96.25
306.582	105.25
306.812	89.25
307.042	102.25
307.272	106.25
307.502	97.25
307.731	92.25
307.961	88.25
308.191	93.25
308.421	82.25
308.651	89.25
308.881	90.25
309.111	96.25
309.341	95.25
309.571	87.25
309.8	86.25
310.03	89.25
310.26	94.25
310.49	83.25
310.72	98.25
310.949	94.25
311.179	103.25
311.409	97.25
311.639	96.25
311.868	88.25
312.098	91.25
312.328	96.25
312.557	106.25
312.787	105.25
313.017	104.25
313.246	91.25
313.476	102.25
313.706	84.25
313.935	90.25
314.165	88.25
314.394	85.25
314.624	105.25
314.853	99.25
315.083	88.25
315.312	87.25
315.542	90.25
315.771	95.25
316.001	94.25
316.23	103.25
316.46	98.25
316.689	94.25
316.919	94.25
317.148	95.25
317.377	94.25
317.607	105.25
317.836	89.25
318.065	95.25
318.295	82.25
318.524	98.25
318.753	84.25
318.983	93.25
319.212	83.25
319.441	112.25
319.67	109.25
319.9	101.25
320.129	90.25
320.358	111.25
320.587	96.25
320.816	106.25
321.046	108.25
321.275	95.25
321.504	109.25
321.733	85.25
321.962	110.25
322.191	101.25
322.42	102.25
322.649	107.25
322.878	102.25
323.108	94.25
323.337	121.25
323.566	116.25
323.795	145.25
324.024	196.25
324.253	375.25
324.482	731.25
324.71	1510.25
324.939	2043.25
325.168	748.25
325.397	223.25
325.626	128.25
325.855	124.25
326.084	126.25
326.313	125.25
326.542	145.25
326.77	229.25
326.999	427.25
327.228	871.25
327.457	1593.25
327.686	1281.25
327.914	350.25
328.143	182.25
328.372	147.25
328.6	106.25
328.829	102.25
329.058	117.25
329.287	112.25
329.515	114.25
329.744	101.25
329.972	91.25
330.201	104.25
330.43	120.25
330.658	114.25
330.887	127.25
331.115	127.25
331.344	80.25
331.572	85.25
331.801	101.25
332.03	101.25
332.258	99.25
332.486	99.25
332.715	84.25
332.943	83.25
333.172	85.25
333.4	96.25
333.629	103.25
333.857	102.25
334.085	110.25
334.314	104.25
334.542	115.25
334.771	101.25
334.999	97.25
335.227	100.25
335.455	96.25
335.684	108.25
335.912	99.25
336.14	95.25
336.369	85.25
336.597	100.25
336.825	109.25
337.053	69.25
337.281	82.25
337.51	95.25
337.738	87.25
337.966	96.25
338.194	98.25
338.422	95.25
338.65	97.25
338.878	85.25
339.106	92.25
339.334	85.25
339.562	86.25
339.79	90.25
340.018	95.25
340.246	105.25
340.474	80.25
340.702	83.25
340.93	85.25
341.158	91.25
341.386	94.25
341.614	89.25
341.842	99.25
342.07	88.25
342.298	96.25
342.526	81.25
342.754	85.25
342.981	85.25
343.209	83.25
343.437	92.25
343.665	83.25
343.893	77.25
344.12	100.25
344.348	89.25
344.576	89.25
344.804	94.25
345.031	97.25
345.259	99.25
345.487	86.25
345.714	96.25
345.942	88.25
346.17	85.25
346.397	85.25
346.625	90.25
346.853	105.25
347.08	78.25
347.308	99.25
347.535	89.25
347.763	104.25
347.99	108.25
348.218	101.25
348.445	95.25
348.673	103.25
348.9	94.25
349.128	91.25
349.355	84.25
349.583	83.25
349.81	86.25
350.037	105.25
350.265	90.25
350.492	98.25
350.72	74.25
350.947	99.25
351.174	105.25
351.402	94.25
351.629	107.25
351.856	94.25
352.083	83.25
352.311	115.25
352.538	95.25
352.765	96.25
352.992	110.25
353.22	99.25
353.447	95.25
353.674	102.25
353.901	97.25
354.128	95.25
354.355	99.25
354.583	102.25
354.81	99.25
355.037	93.25
355.264	105.25
355.491	86.25
355.718	101.25
355.945	96.25
356.172	93.25
356.399	90.25
356.626	107.25
356.853	100.25
357.08	88.25
357.307	87.25
357.534	89.25
357.761	95.25
357.988	90.25
358.215	87.25
358.441	104.25
358.668	90.25
358.895	83.25
359.122	83.25
359.349	88.25
359.576	96.25
359.802	106.25
360.029	110.25
360.256	112.25
360.483	89.25
360.709	94.25
360.936	79.25
361.163	91.25
361.39	91.25
361.616	85.25
361.843	104.25
362.07	87.25
362.296	86.25
362.523	78.25
362.749	78.25
362.976	85.25
363.203	103.25
363.429	93.25
363.656	88.25
363.882	89.25
364.109	90.25
364.335	92.25
364.562	82.25
364.788	85.25
365.015	76.25
365.241	92.25
365.468	94.25
365.694	100.25
365.92	99.25
366.147	70.25
366.373	89.25
366.599	90.25
366.826	76.25
367.052	92.25
367.278	101.25
367.505	90.25
367.731	97.25
367.957	85.25
368.184	96.25
368.41	92.25
368.636	100.25
368.862	118.25
369.089	83.25
369.315	88.25
369.541	81.25
369.767	87.25
369.993	98.25
370.219	93.25
370.445	94.25
370.672	95.25
370.898	76.25
371.124	95.25
371.35	83.25
371.576	81.25
371.802	89.25
372.028	80.25
372.254	82.25
372.48	80.25
372.706	85.25
372.932	84.25
373.158	91.25
373.384	85.25
373.61	89.25
373.835	94.25
374.061	82.25
374.287	95.25
374.513	86.25
374.739	98.25
374.965	92.25
375.191	96.25
375.416	96.25
375.642	96.25
375.868	91.25
376.094	88.25
376.319	90.25
376.545	93.25
376.771	96.25
376.997	93.25
377.222	93.25
377.448	90.25
377.674	82.25
377.899	108.25
378.125	99.25
378.35	97.25
378.576	79.25
378.802	94.25
379.027	90.25
379.253	84.25
379.478	101.25
379.704	78.25
379.929	78.25
380.155	65.25
380.38	94.25
380.606	81.25
380.831	77.25
381.057	88.25
381.282	100.25
381.507	90.25
381.733	93.25
381.958	95.25
382.184	96.25
382.409	75.25
382.634	88.25
382.86	93.25
383.085	78.25
383.31	83.25
383.535	89.25
383.761	99.25
383.986	95.25
384.211	106.25
384.436	106.25
384.662	86.25
384.887	102.25
385.112	82.25
385.337	93.25
385.562	88.25
385.787	94.25
386.013	101.25
386.238	111.25
386.463	108.25
386.688	109.25
386.913	91.25
387.138	84.25
387.363	112.25
387.588	108.25
387.813	109.25
388.038	90.25
388.263	109.25
388.488	100.25
388.713	101.25
388.938	98.25
389.163	92.25
389.387	75.25
389.612	91.25
389.837	88.25
390.062	83.25
390.287	80.25
390.512	85.25
390.736	83.25
390.961	88.25
391.186	85.25
391.411	103.25
391.636	106.25
391.86	84.25
392.085	83.25
392.31	85.25
392.534	87.25
392.759	83.25
392.984	102.25
393.208	91.25
393.433	70.25
393.658	99.25
393.882	87.25
394.107	82.25
394.331	86.25
394.556	94.25
394.78	90.25
395.005	80.25
395.229	83.25
395.454	87.25
395.678	85.25
395.903	94.25
396.127	77.25
396.352	86.25
396.576	91.25
396.801	84.25
397.025	82.25
397.249	81.25
397.474	92.25
397.698	102.25
397.922	82.25
398.147	73.25
398.371	90.25
398.595	97.25
398.82	96.25
399.044	97.25
399.268	86.25
399.492	94.25
399.717	101.25
399.941	85.25
400.165	71.25
400.389	93.25
400.613	89.25
400.837	92.25
401.062	92.25
401.286	81.25
401.51	85.25
401.734	80.25
401.958	95.25
402.182	116.25
402.406	151.25
402.63	108.25
402.854	93.25
403.078	83.25
403.302	84.25
403.526	79.25
403.75	82.25
403.974	92.25
404.198	81.25
404.422	101.25
404.645	76.25
404.869	83.25
405.093	101.25
405.317	109.25
405.541	102.25
405.765	99.25
405.988	107.25
406.212	160.25
406.436	208.25
406.66	112.25
406.883	93.25
407.107	83.25
407.331	94.25
407.555	79.25
407.778	99.25
408.002	95.25
408.226	101.25
408.449	92.25
408.673	67.25
408.896	102.25
409.12	103.25
409.344	85.25
409.567	89.25
409.791	93.25
410.014	100.25
410.238	95.25
410.461	95.25
410.685	101.25
410.908	97.25
411.132	98.25
411.355	98.25
411.578	96.25
411.802	97.25
412.025	78.25
412.249	84.25
412.472	90.25
412.695	100.25
412.919	91.25
413.142	70.25
413.365	95.25
413.589	95.25
413.812	98.25
414.035	99.25
414.258	93.25
414.482	84.25
414.705	82.25
414.928	92.25
415.151	90.25
415.374	99.25
415.597	75.25
415.821	87.25
416.044	97.25
416.267	95.25
416.49	82.25
416.713	84.25
416.936	88.25
417.159	83.25
417.382	86.25
417.605	100.25
417.828	81.25
418.051	93.25
418.274	82.25
418.497	87.25
418.72	87.25
418.943	103.25
419.166	94.25
419.389	105.25
419.611	93.25
419.834	93.25
420.057	100.25
420.28	84.25
420.503	89.25
420.726	70.25
420.948	105.25
421.171	83.25
421.394	85.25
421.617	89.25
421.839	82.25
422.062	89.25
422.285	92.25
422.507	99.25
422.73	92.25
422.953	89.25
423.175	90.25
423.398	75.25
423.621	81.25
423.843	91.25
424.066	99.25
424.288	91.25
424.511	94.25
424.733	95.25
424.956	105.25
425.178	90.25
425.401	95.25
425.623	97.25
425.846	91.25
426.068	100.25
426.291	77.25
426.513	103.25
426.735	81.25
426.958	104.25
427.18	108.25
427.402	132.25
427.625	162.25
427.847	119.25
428.069	98.25
428.292	92.25
428.514	94.25
428.736	81.25
428.958	87.25
429.181	87.25
429.403	81.25
429.625	71.25
429.847	85.25
430.069	98.25
430.292	77.25
430.514	75.25
430.736	87.25
430.958	75.25
431.18	93.25
431.402	77.25
431.624	81.25
431.846	76.25
432.068	87.25
432.29	93.25
432.512	96.25
432.734	86.25
432.956	88.25
433.178	86.25
433.4	105.25
433.622	86.25
433.844	103.25
434.066	89.25
434.287	89.25
434.509	78.25
434.731	94.25
434.953	71.25
435.175	93.25
435.397	80.25
435.618	92.25
435.84	104.25
436.062	106.25
436.284	101.25
436.505	109.25
436.727	97.25
436.949	96.25
437.17	87.25
437.392	83.25
437.614	89.25
437.835	102.25
438.057	101.25
438.278	110.25
438.5	87.25
438.721	110.25
438.943	106.25
439.165	78.25
439.386	68.25
439.608	82.25
439.829	96.25
440.05	116.25
440.272	140.25
440.493	104.25
440.715	89.25
440.936	93.25
441.158	87.25
441.379	88.25
441.6	94.25
441.822	100.25
442.043	85.25
442.264	82.25
442.486	94.25
442.707	94.25
442.928	114.25
443.149	119.25
443.371	110.25
443.592	103.25
443.813	116.25
444.034	98.25
444.255	86.25
444.476	91.25
444.698	92.25
444.919	79.25
445.14	127.25
445.361	113.25
445.582	110.25
445.803	126.25
446.024	122.25
446.245	124.25
446.466	116.25
446.687	87.25
446.908	90.25
447.129	91.25
447.35	71.25
447.571	84.25
447.792	100.25
448.013	107.25
448.234	83.25
448.455	107.25
448.675	102.25
448.896	114.25
449.117	100.25
449.338	94.25
449.559	122.25
449.779	127.25
450	91.25
450.221	76.25
450.442	92.25
450.662	89.25
450.883	103.25
451.104	115.25
451.324	97.25
451.545	86.25
451.766	88.25
451.986	91.25
452.207	94.25
452.428	96.25
452.648	83.25
452.869	87.25
453.089	102.25
453.31	122.25
453.53	92.25
453.751	86.25
453.971	98.25
454.192	102.25
454.412	93.25
454.633	93.25
454.853	82.25
455.073	78.25
455.294	83.25
455.514	83.25
455.734	94.25
455.955	85.25
456.175	68.25
456.395	81.25
456.616	69.25
456.836	78.25
457.056	83.25
457.276	70.25
457.497	91.25
457.717	81.25
457.937	96.25
458.157	90.25
458.377	92.25
458.598	112.25
458.818	125.25
459.038	144.25
459.258	109.25
459.478	97.25
459.698	85.25
459.918	98.25
460.138	81.25
460.358	77.25
460.578	80.25
460.798	92.25
461.018	93.25
461.238	89.25
461.458	86.25
461.678	85.25
461.898	96.25
462.118	90.25
462.338	89.25
462.558	97.25
462.777	84.25
462.997	83.25
463.217	85.25
463.437	73.25
463.657	80.25
463.876	97.25
464.096	87.25
464.316	76.25
464.536	93.25
464.755	89.25
464.975	76.25
465.195	161.25
465.414	139.25
465.634	91.25
465.854	93.25
466.073	77.25
466.293	87.25
466.512	77.25
466.732	79.25
466.951	75.25
467.171	90.25
467.391	100.25
467.61	89.25
467.829	78.25
468.049	100.25
468.268	90.25
468.488	94.25
468.707	87.25
468.927	94.25
469.146	88.25
469.365	82.25
469.585	87.25
469.804	89.25
470.023	102.25
470.243	94.25
470.462	83.25
470.681	105.25
470.901	99.25
471.12	73.25
471.339	97.25
471.558	67.25
471.777	79.25
471.997	89.25
472.216	90.25
472.435	89.25
472.654	82.25
472.873	86.25
473.092	93.25
473.311	75.25
473.53	66.25
473.749	90.25
473.968	90.25
474.187	75.25
474.406	92.25
474.625	88.25
474.844	94.25
475.063	100.25
475.282	92.25
475.501	82.25
475.72	83.25
475.939	92.25
476.158	83.25
476.377	74.25
476.596	74.25
476.814	94.25
477.033	95.25
477.252	82.25
477.471	85.25
477.69	81.25
477.908	82.25
478.127	84.25
478.346	82.25
478.564	79.25
478.783	85.25
479.002	95.25
479.22	91.25
479.439	82.25
479.658	101.25
479.876	84.25
480.095	88.25
480.313	65.25
480.532	87.25
480.751	86.25
480.969	103.25
481.188	125.25
481.406	117.25
481.624	86.25
481.843	81.25
482.061	83.25
482.28	80.25
482.498	91.25
482.717	94.25
482.935	95.25
483.153	91.25
483.372	91.25
483.59	82.25
483.808	79.25
484.027	83.25
484.245	98.25
484.463	90.25
484.681	86.25
484.9	89.25
485.118	101.25
485.336	91.25
485.554	93.25
485.772	95.25
485.99	105.25
486.209	98.25
486.427	104.25
486.645	94.25
486.863	112.25
487.081	95.25
487.299	98.25
487.517	109.25
487.735	91.25
487.953	94.25
488.171	99.25
488.389	98.25
488.607	92.25
488.825	86.25
489.043	80.25
489.261	91.25
489.479	95.25
489.696	91.25
489.914	86.25
490.132	97.25
490.35	84.25
490.568	70.25
490.786	93.25
491.003	83.25
491.221	109.25
491.439	97.25
491.657	91.25
491.874	89.25
492.092	99.25
492.31	93.25
492.527	83.25
492.745	93.25
492.963	103.25
493.18	83.25
493.398	89.25
493.615	85.25
493.833	84.25
494.05	87.25
494.268	84.25
494.485	98.25
494.703	84.25
494.92	81.25
495.138	81.25
495.355	84.25
495.573	75.25
495.79	82.25
496.008	98.25
496.225	93.25
496.442	81.25
496.66	84.25
496.877	100.25
497.094	103.25
497.312	99.25
497.529	101.25
497.746	97.25
497.963	80.25
498.181	86.25
498.398	103.25
498.615	109.25
498.832	96.25
499.049	89.25
499.267	80.25
499.484	99.25
499.701	101.25
499.918	93.25
500.135	85.25
500.352	81.25
500.569	79.25
500.786	94.25
501.003	79.25
501.22	95.25
501.437	84.25
501.654	105.25
501.871	101.25
502.088	90.25
502.305	84.25
502.522	85.25
502.739	82.25
502.956	85.25
503.172	93.25
503.389	93.25
503.606	90.25
503.823	84.25
504.04	100.25
504.256	93.25
504.473	94.25
504.69	95.25
504.907	99.25
505.123	83.25
505.34	82.25
505.557	90.25
505.773	86.25
505.99	94.25
506.207	101.25
506.423	99.25
506.64	87.25
506.856	108.25
507.073	95.25
507.289	79.25
507.506	96.25
507.722	107.25
507.939	99.25
508.155	109.25
508.372	100.25
508.588	83.25
508.805	77.25
509.021	91.25
509.238	95.25
509.454	90.25
509.67	87.25
509.887	91.25
510.103	121.25
510.319	210.25
510.536	696.25
510.752	2141.25
510.968	609.25
511.184	143.25
511.401	104.25
511.617	94.25
511.833	95.25
512.049	94.25
512.265	97.25
512.481	91.25
512.698	105.25
512.914	91.25
513.13	89.25
513.346	101.25
513.562	104.25
513.778	82.25
513.994	87.25
514.21	90.25
514.426	104.25
514.642	127.25
514.858	108.25
515.074	143.25
515.29	382.25
515.506	1261.25
515.721	478.25
515.937	157.25
516.153	107.25
516.369	97.25
