Data from Uncirc_1990_H10_HRD10591_00046.txt Node
Date: Wed Jan 03 11:54:00 EST 2024
User: Yrep
Spectrometer: HR+D1059
Trigger mode: 1
Integration Time (sec): 1.000000E-1
Scans to average: 1
Electric dark correction enabled: true
Nonlinearity correction enabled: false
Boxcar width: 0
XAxis mode: Wavelengths
Number of Pixels in Spectrum: 2048
>>>>>Begin Spectral Data<<<<<
223.165	-18.25
223.4	-18.25
223.635	-18.25
223.869	-21.25
224.104	1.75
224.338	-27.25
224.573	-17.25
224.808	-24.25
225.042	-11.25
225.277	1.75
225.511	6.75
225.746	4.75
225.98	-1.25
226.215	15.75
226.449	11.75
226.683	20.75
226.918	29.75
227.152	27.75
227.387	29.75
227.621	36.75
227.856	41.75
228.09	40.75
228.324	43.75
228.559	56.75
228.793	42.75
229.027	50.75
229.262	77.75
229.496	57.75
229.73	82.75
229.964	69.75
230.199	68.75
230.433	66.75
230.667	73.75
230.901	74.75
231.136	74.75
231.37	75.75
231.604	85.75
231.838	77.75
232.072	87.75
232.306	73.75
232.541	68.75
232.775	84.75
233.009	83.75
233.243	76.75
233.477	84.75
233.711	73.75
233.945	81.75
234.179	74.75
234.413	85.75
234.647	73.75
234.881	86.75
235.115	77.75
235.349	58.75
235.583	70.75
235.817	81.75
236.051	72.75
236.285	75.75
236.519	72.75
236.753	67.75
236.987	78.75
237.221	93.75
237.455	83.75
237.689	71.75
237.922	67.75
238.156	68.75
238.39	83.75
238.624	81.75
238.858	79.75
239.091	82.75
239.325	67.75
239.559	74.75
239.793	72.75
240.027	71.75
240.26	79.75
240.494	81.75
240.728	58.75
240.961	55.75
241.195	70.75
241.429	71.75
241.662	72.75
241.896	91.75
242.13	78.75
242.363	84.75
242.597	70.75
242.83	63.75
243.064	67.75
243.298	74.75
243.531	69.75
243.765	62.75
243.998	83.75
244.232	95.75
244.465	75.75
244.699	68.75
244.932	83.75
245.166	71.75
245.399	70.75
245.633	73.75
245.866	76.75
246.099	68.75
246.333	66.75
246.566	76.75
246.8	87.75
247.033	79.75
247.266	66.75
247.5	73.75
247.733	72.75
247.966	82.75
248.2	67.75
248.433	68.75
248.666	75.75
248.899	81.75
249.133	89.75
249.366	78.75
249.599	108.75
249.832	102.75
250.066	82.75
250.299	75.75
250.532	78.75
250.765	81.75
250.998	86.75
251.231	86.75
251.465	78.75
251.698	71.75
251.931	77.75
252.164	87.75
252.397	81.75
252.63	81.75
252.863	74.75
253.096	102.75
253.329	85.75
253.562	85.75
253.795	76.75
254.028	79.75
254.261	73.75
254.494	85.75
254.727	80.75
254.96	73.75
255.193	78.75
255.426	70.75
255.659	80.75
255.892	82.75
256.124	70.75
256.357	94.75
256.59	77.75
256.823	83.75
257.056	70.75
257.289	73.75
257.521	81.75
257.754	73.75
257.987	83.75
258.22	81.75
258.452	84.75
258.685	83.75
258.918	83.75
259.151	80.75
259.383	81.75
259.616	74.75
259.849	79.75
260.081	86.75
260.314	95.75
260.547	75.75
260.779	79.75
261.012	85.75
261.244	81.75
261.477	78.75
261.71	87.75
261.942	93.75
262.175	95.75
262.407	85.75
262.64	93.75
262.872	74.75
263.105	93.75
263.337	91.75
263.57	60.75
263.802	75.75
264.035	87.75
264.267	74.75
264.499	75.75
264.732	61.75
264.964	70.75
265.197	78.75
265.429	97.75
265.661	66.75
265.894	83.75
266.126	77.75
266.358	87.75
266.591	82.75
266.823	67.75
267.055	75.75
267.287	70.75
267.52	87.75
267.752	68.75
267.984	62.75
268.216	75.75
268.448	87.75
268.681	83.75
268.913	89.75
269.145	64.75
269.377	81.75
269.609	84.75
269.841	72.75
270.073	78.75
270.306	84.75
270.538	101.75
270.77	78.75
271.002	85.75
271.234	82.75
271.466	96.75
271.698	87.75
271.93	72.75
272.162	71.75
272.394	98.75
272.626	85.75
272.858	82.75
273.09	86.75
273.322	84.75
273.553	88.75
273.785	88.75
274.017	74.75
274.249	82.75
274.481	77.75
274.713	85.75
274.945	85.75
275.176	103.75
275.408	91.75
275.64	90.75
275.872	93.75
276.104	80.75
276.335	89.75
276.567	100.75
276.799	103.75
277.031	97.75
277.262	95.75
277.494	75.75
277.726	85.75
277.957	80.75
278.189	82.75
278.421	81.75
278.652	82.75
278.884	91.75
279.115	88.75
279.347	82.75
279.579	86.75
279.81	75.75
280.042	87.75
280.273	82.75
280.505	86.75
280.736	98.75
280.968	81.75
281.199	86.75
281.431	83.75
281.662	75.75
281.894	85.75
282.125	112.75
282.356	111.75
282.588	112.75
282.819	109.75
283.051	93.75
283.282	89.75
283.513	94.75
283.745	93.75
283.976	73.75
284.207	82.75
284.439	91.75
284.67	84.75
284.901	75.75
285.132	90.75
285.364	81.75
285.595	82.75
285.826	84.75
286.057	70.75
286.288	80.75
286.52	81.75
286.751	91.75
286.982	89.75
287.213	86.75
287.444	90.75
287.675	81.75
287.906	81.75
288.138	89.75
288.369	91.75
288.6	93.75
288.831	96.75
289.062	79.75
289.293	93.75
289.524	100.75
289.755	88.75
289.986	89.75
290.217	85.75
290.448	77.75
290.679	82.75
290.91	82.75
291.141	75.75
291.371	84.75
291.602	84.75
291.833	79.75
292.064	71.75
292.295	82.75
292.526	79.75
292.757	77.75
292.987	87.75
293.218	81.75
293.449	90.75
293.68	89.75
293.91	86.75
294.141	79.75
294.372	74.75
294.603	79.75
294.833	79.75
295.064	86.75
295.295	78.75
295.525	95.75
295.756	96.75
295.987	128.75
296.217	139.75
296.448	118.75
296.679	89.75
296.909	89.75
297.14	92.75
297.37	89.75
297.601	84.75
297.831	89.75
298.062	87.75
298.292	97.75
298.523	95.75
298.753	80.75
298.984	81.75
299.214	83.75
299.445	102.75
299.675	97.75
299.905	79.75
300.136	102.75
300.366	88.75
300.597	81.75
300.827	83.75
301.057	102.75
301.288	106.75
301.518	97.75
301.748	87.75
301.979	85.75
302.209	101.75
302.439	95.75
302.669	88.75
302.9	78.75
303.13	82.75
303.36	91.75
303.59	95.75
303.82	91.75
304.051	97.75
304.281	68.75
304.511	87.75
304.741	86.75
304.971	80.75
305.201	98.75
305.431	86.75
305.661	77.75
305.891	79.75
306.121	87.75
306.352	110.75
306.582	91.75
306.812	89.75
307.042	92.75
307.272	93.75
307.502	98.75
307.731	97.75
307.961	75.75
308.191	98.75
308.421	84.75
308.651	85.75
308.881	111.75
309.111	100.75
309.341	94.75
309.571	100.75
309.8	86.75
310.03	92.75
310.26	88.75
310.49	98.75
310.72	80.75
310.949	105.75
311.179	91.75
311.409	77.75
311.639	93.75
311.868	101.75
312.098	93.75
312.328	104.75
312.557	109.75
312.787	93.75
313.017	94.75
313.246	85.75
313.476	89.75
313.706	90.75
313.935	86.75
314.165	82.75
314.394	96.75
314.624	91.75
314.853	90.75
315.083	98.75
315.312	83.75
315.542	92.75
315.771	82.75
316.001	92.75
316.23	97.75
316.46	90.75
316.689	91.75
316.919	95.75
317.148	87.75
317.377	101.75
317.607	82.75
317.836	95.75
318.065	90.75
318.295	85.75
318.524	86.75
318.753	82.75
318.983	90.75
319.212	100.75
319.441	113.75
319.67	96.75
319.9	89.75
320.129	86.75
320.358	90.75
320.587	89.75
320.816	110.75
321.046	98.75
321.275	95.75
321.504	99.75
321.733	85.75
321.962	117.75
322.191	103.75
322.42	81.75
322.649	123.75
322.878	109.75
323.108	113.75
323.337	124.75
323.566	131.75
323.795	142.75
324.024	203.75
324.253	373.75
324.482	777.75
324.71	1621.75
324.939	2192.75
325.168	798.75
325.397	233.75
325.626	153.75
325.855	123.75
326.084	117.75
326.313	129.75
326.542	146.75
326.77	227.75
326.999	436.75
327.228	911.75
327.457	1704.75
327.686	1341.75
327.914	356.75
328.143	196.75
328.372	132.75
328.6	114.75
328.829	120.75
329.058	124.75
329.287	121.75
329.515	115.75
329.744	92.75
329.972	99.75
330.201	105.75
330.43	102.75
330.658	117.75
330.887	137.75
331.115	115.75
331.344	97.75
331.572	96.75
331.801	102.75
332.03	93.75
332.258	89.75
332.486	81.75
332.715	91.75
332.943	91.75
333.172	103.75
333.4	98.75
333.629	108.75
333.857	111.75
334.085	90.75
334.314	89.75
334.542	92.75
334.771	99.75
334.999	89.75
335.227	92.75
335.455	94.75
335.684	107.75
335.912	91.75
336.14	86.75
336.369	97.75
336.597	87.75
336.825	80.75
337.053	86.75
337.281	82.75
337.51	97.75
337.738	89.75
337.966	93.75
338.194	101.75
338.422	86.75
338.65	95.75
338.878	79.75
339.106	97.75
339.334	90.75
339.562	88.75
339.79	98.75
340.018	98.75
340.246	81.75
340.474	87.75
340.702	91.75
340.93	94.75
341.158	91.75
341.386	103.75
341.614	94.75
341.842	82.75
342.07	89.75
342.298	94.75
342.526	91.75
342.754	85.75
342.981	107.75
343.209	79.75
343.437	99.75
343.665	94.75
343.893	80.75
344.12	101.75
344.348	102.75
344.576	85.75
344.804	84.75
345.031	98.75
345.259	98.75
345.487	100.75
345.714	85.75
345.942	91.75
346.17	98.75
346.397	100.75
346.625	98.75
346.853	103.75
347.08	93.75
347.308	85.75
347.535	101.75
347.763	94.75
347.99	105.75
348.218	95.75
348.445	105.75
348.673	97.75
348.9	97.75
349.128	96.75
349.355	85.75
349.583	96.75
349.81	96.75
350.037	85.75
350.265	84.75
350.492	103.75
350.72	99.75
350.947	97.75
351.174	110.75
351.402	128.75
351.629	99.75
351.856	107.75
352.083	109.75
352.311	99.75
352.538	102.75
352.765	117.75
352.992	115.75
353.22	107.75
353.447	101.75
353.674	103.75
353.901	102.75
354.128	93.75
354.355	94.75
354.583	90.75
354.81	92.75
355.037	80.75
355.264	99.75
355.491	83.75
355.718	82.75
355.945	97.75
356.172	89.75
356.399	96.75
356.626	91.75
356.853	85.75
357.08	97.75
357.307	85.75
357.534	95.75
357.761	79.75
357.988	91.75
358.215	93.75
358.441	94.75
358.668	82.75
358.895	83.75
359.122	83.75
359.349	104.75
359.576	110.75
359.802	78.75
360.029	100.75
360.256	110.75
360.483	95.75
360.709	79.75
360.936	97.75
361.163	76.75
361.39	92.75
361.616	103.75
361.843	89.75
362.07	91.75
362.296	89.75
362.523	95.75
362.749	87.75
362.976	96.75
363.203	87.75
363.429	78.75
363.656	93.75
363.882	82.75
364.109	82.75
364.335	89.75
364.562	82.75
364.788	73.75
365.015	92.75
365.241	94.75
365.468	102.75
365.694	93.75
365.92	95.75
366.147	110.75
366.373	89.75
366.599	92.75
366.826	94.75
367.052	75.75
367.278	95.75
367.505	99.75
367.731	90.75
367.957	90.75
368.184	92.75
368.41	116.75
368.636	97.75
368.862	117.75
369.089	110.75
369.315	95.75
369.541	79.75
369.767	87.75
369.993	102.75
370.219	82.75
370.445	94.75
370.672	72.75
370.898	83.75
371.124	95.75
371.35	95.75
371.576	99.75
371.802	93.75
372.028	83.75
372.254	90.75
372.48	99.75
372.706	78.75
372.932	85.75
373.158	105.75
373.384	85.75
373.61	86.75
373.835	88.75
374.061	86.75
374.287	81.75
374.513	87.75
374.739	83.75
374.965	84.75
375.191	93.75
375.416	78.75
375.642	82.75
375.868	71.75
376.094	95.75
376.319	78.75
376.545	79.75
376.771	84.75
376.997	82.75
377.222	79.75
377.448	92.75
377.674	86.75
377.899	88.75
378.125	90.75
378.35	84.75
378.576	85.75
378.802	77.75
379.027	94.75
379.253	103.75
379.478	93.75
379.704	93.75
379.929	77.75
380.155	76.75
380.38	86.75
380.606	89.75
380.831	88.75
381.057	93.75
381.282	85.75
381.507	93.75
381.733	83.75
381.958	82.75
382.184	111.75
382.409	78.75
382.634	99.75
382.86	100.75
383.085	100.75
383.31	90.75
383.535	97.75
383.761	86.75
383.986	93.75
384.211	85.75
384.436	94.75
384.662	101.75
384.887	90.75
385.112	111.75
385.337	110.75
385.562	112.75
385.787	92.75
386.013	94.75
386.238	101.75
386.463	113.75
386.688	95.75
386.913	90.75
387.138	110.75
387.363	101.75
387.588	106.75
387.813	97.75
388.038	107.75
388.263	100.75
388.488	102.75
388.713	92.75
388.938	88.75
389.163	112.75
389.387	111.75
389.612	92.75
389.837	98.75
390.062	86.75
390.287	88.75
390.512	98.75
390.736	75.75
390.961	93.75
391.186	102.75
391.411	96.75
391.636	87.75
391.86	85.75
392.085	79.75
392.31	91.75
392.534	90.75
392.759	78.75
392.984	75.75
393.208	84.75
393.433	86.75
393.658	93.75
393.882	88.75
394.107	82.75
394.331	100.75
394.556	71.75
394.78	90.75
395.005	71.75
395.229	73.75
395.454	94.75
395.678	78.75
395.903	79.75
396.127	87.75
396.352	98.75
396.576	85.75
396.801	95.75
397.025	74.75
397.249	92.75
397.474	90.75
397.698	101.75
397.922	88.75
398.147	86.75
398.371	83.75
398.595	86.75
398.82	93.75
399.044	82.75
399.268	94.75
399.492	102.75
399.717	75.75
399.941	79.75
400.165	91.75
400.389	90.75
400.613	86.75
400.837	78.75
401.062	78.75
401.286	92.75
401.51	81.75
401.734	89.75
401.958	96.75
402.182	115.75
402.406	125.75
402.63	96.75
402.854	95.75
403.078	91.75
403.302	94.75
403.526	88.75
403.75	82.75
403.974	74.75
404.198	78.75
404.422	89.75
404.645	87.75
404.869	100.75
405.093	81.75
405.317	90.75
405.541	92.75
405.765	80.75
405.988	113.75
406.212	160.75
406.436	201.75
406.66	124.75
406.883	91.75
407.107	89.75
407.331	90.75
407.555	100.75
407.778	90.75
408.002	99.75
408.226	89.75
408.449	86.75
408.673	98.75
408.896	81.75
409.12	90.75
409.344	89.75
409.567	77.75
409.791	89.75
410.014	96.75
410.238	91.75
410.461	91.75
410.685	81.75
410.908	94.75
411.132	100.75
411.355	94.75
411.578	106.75
411.802	85.75
412.025	87.75
412.249	88.75
412.472	79.75
412.695	97.75
412.919	85.75
413.142	88.75
413.365	88.75
413.589	86.75
413.812	98.75
414.035	78.75
414.258	101.75
414.482	83.75
414.705	87.75
414.928	76.75
415.151	84.75
415.374	76.75
415.597	86.75
415.821	83.75
416.044	86.75
416.267	85.75
416.49	90.75
416.713	89.75
416.936	82.75
417.159	82.75
417.382	86.75
417.605	92.75
417.828	100.75
418.051	89.75
418.274	90.75
418.497	91.75
418.72	88.75
418.943	91.75
419.166	85.75
419.389	80.75
419.611	91.75
419.834	98.75
420.057	96.75
420.28	90.75
420.503	83.75
420.726	113.75
420.948	80.75
421.171	81.75
421.394	103.75
421.617	82.75
421.839	91.75
422.062	90.75
422.285	91.75
422.507	86.75
422.73	84.75
422.953	82.75
423.175	93.75
423.398	90.75
423.621	88.75
423.843	75.75
424.066	79.75
424.288	83.75
424.511	95.75
424.733	107.75
424.956	97.75
425.178	103.75
425.401	83.75
425.623	101.75
425.846	86.75
426.068	95.75
426.291	93.75
426.513	81.75
426.735	91.75
426.958	96.75
427.18	88.75
427.402	121.75
427.625	174.75
427.847	120.75
428.069	110.75
428.292	107.75
428.514	83.75
428.736	78.75
428.958	78.75
429.181	83.75
429.403	70.75
429.625	90.75
429.847	96.75
430.069	95.75
430.292	89.75
430.514	91.75
430.736	76.75
430.958	81.75
431.18	80.75
431.402	65.75
431.624	74.75
431.846	91.75
432.068	84.75
432.29	83.75
432.512	87.75
432.734	85.75
432.956	87.75
433.178	101.75
433.4	95.75
433.622	84.75
433.844	76.75
434.066	99.75
434.287	100.75
434.509	99.75
434.731	84.75
434.953	85.75
435.175	76.75
435.397	81.75
435.618	99.75
435.84	94.75
436.062	113.75
436.284	110.75
436.505	103.75
436.727	81.75
436.949	93.75
437.17	90.75
437.392	84.75
437.614	90.75
437.835	99.75
438.057	120.75
438.278	99.75
438.5	112.75
438.721	131.75
438.943	99.75
439.165	89.75
439.386	94.75
439.608	88.75
439.829	96.75
440.05	123.75
440.272	126.75
440.493	90.75
440.715	89.75
440.936	95.75
441.158	91.75
441.379	87.75
441.6	92.75
441.822	96.75
442.043	96.75
442.264	94.75
442.486	94.75
442.707	98.75
442.928	93.75
443.149	116.75
443.371	122.75
443.592	110.75
443.813	106.75
444.034	114.75
444.255	100.75
444.476	85.75
444.698	89.75
444.919	84.75
445.14	148.75
445.361	102.75
445.582	111.75
445.803	133.75
446.024	124.75
446.245	133.75
446.466	102.75
446.687	85.75
446.908	91.75
447.129	86.75
447.35	81.75
447.571	91.75
447.792	93.75
448.013	91.75
448.234	97.75
448.455	99.75
448.675	103.75
448.896	107.75
449.117	87.75
449.338	111.75
449.559	128.75
449.779	119.75
450	87.75
450.221	87.75
450.442	96.75
450.662	81.75
450.883	101.75
451.104	113.75
451.324	82.75
451.545	77.75
451.766	95.75
451.986	80.75
452.207	101.75
452.428	85.75
452.648	98.75
452.869	101.75
453.089	122.75
453.31	124.75
453.53	91.75
453.751	75.75
453.971	99.75
454.192	95.75
454.412	83.75
454.633	99.75
454.853	88.75
455.073	77.75
455.294	90.75
455.514	94.75
455.734	87.75
455.955	102.75
456.175	89.75
456.395	69.75
456.616	76.75
456.836	82.75
457.056	81.75
457.276	105.75
457.497	77.75
457.717	86.75
457.937	90.75
458.157	82.75
458.377	70.75
458.598	105.75
458.818	150.75
459.038	141.75
459.258	119.75
459.478	89.75
459.698	91.75
459.918	76.75
460.138	80.75
460.358	77.75
460.578	85.75
460.798	82.75
461.018	77.75
461.238	81.75
461.458	78.75
461.678	87.75
461.898	95.75
462.118	88.75
462.338	111.75
462.558	76.75
462.777	80.75
462.997	84.75
463.217	85.75
463.437	95.75
463.657	74.75
463.876	70.75
464.096	75.75
464.316	78.75
464.536	75.75
464.755	84.75
464.975	105.75
465.195	146.75
465.414	171.75
465.634	99.75
465.854	89.75
466.073	84.75
466.293	83.75
466.512	83.75
466.732	72.75
466.951	73.75
467.171	85.75
467.391	91.75
467.61	100.75
467.829	99.75
468.049	85.75
468.268	100.75
468.488	95.75
468.707	90.75
468.927	71.75
469.146	78.75
469.365	98.75
469.585	83.75
469.804	95.75
470.023	90.75
470.243	84.75
470.462	86.75
470.681	121.75
470.901	81.75
471.12	81.75
471.339	87.75
471.558	88.75
471.777	82.75
471.997	82.75
472.216	95.75
472.435	94.75
472.654	90.75
472.873	78.75
473.092	69.75
473.311	73.75
473.53	74.75
473.749	82.75
473.968	88.75
474.187	102.75
474.406	80.75
474.625	90.75
474.844	82.75
475.063	78.75
475.282	93.75
475.501	83.75
475.72	86.75
475.939	84.75
476.158	84.75
476.377	81.75
476.596	90.75
476.814	86.75
477.033	85.75
477.252	93.75
477.471	95.75
477.69	86.75
477.908	91.75
478.127	84.75
478.346	92.75
478.564	95.75
478.783	93.75
479.002	95.75
479.22	99.75
479.439	84.75
479.658	85.75
479.876	96.75
480.095	94.75
480.313	97.75
480.532	76.75
480.751	87.75
480.969	90.75
481.188	125.75
481.406	97.75
481.624	87.75
481.843	77.75
482.061	81.75
482.28	93.75
482.498	100.75
482.717	80.75
482.935	83.75
483.153	86.75
483.372	81.75
483.59	84.75
483.808	78.75
484.027	95.75
484.245	92.75
484.463	88.75
484.681	93.75
484.9	99.75
485.118	82.75
485.336	83.75
485.554	94.75
485.772	98.75
485.99	88.75
486.209	114.75
486.427	85.75
486.645	108.75
486.863	111.75
487.081	87.75
487.299	96.75
487.517	90.75
487.735	95.75
487.953	91.75
488.171	80.75
488.389	90.75
488.607	95.75
488.825	93.75
489.043	92.75
489.261	84.75
489.479	81.75
489.696	77.75
489.914	86.75
490.132	92.75
490.35	89.75
490.568	85.75
490.786	85.75
491.003	98.75
491.221	98.75
491.439	96.75
491.657	93.75
491.874	84.75
492.092	76.75
492.31	81.75
492.527	80.75
492.745	90.75
492.963	101.75
493.18	84.75
493.398	98.75
493.615	106.75
493.833	85.75
494.05	89.75
494.268	77.75
494.485	88.75
494.703	84.75
494.92	72.75
495.138	88.75
495.355	85.75
495.573	94.75
495.79	91.75
496.008	92.75
496.225	87.75
496.442	81.75
496.66	89.75
496.877	81.75
497.094	102.75
497.312	77.75
497.529	93.75
497.746	85.75
497.963	96.75
498.181	95.75
498.398	69.75
498.615	109.75
498.832	79.75
499.049	100.75
499.267	84.75
499.484	85.75
499.701	87.75
499.918	93.75
500.135	85.75
500.352	82.75
500.569	68.75
500.786	91.75
501.003	78.75
501.22	89.75
501.437	85.75
501.654	98.75
501.871	96.75
502.088	83.75
502.305	103.75
502.522	87.75
502.739	89.75
502.956	81.75
503.172	92.75
503.389	101.75
503.606	117.75
503.823	104.75
504.04	96.75
504.256	95.75
504.473	96.75
504.69	75.75
504.907	108.75
505.123	70.75
505.34	92.75
505.557	84.75
505.773	88.75
505.99	91.75
506.207	89.75
506.423	91.75
506.64	77.75
506.856	82.75
507.073	99.75
507.289	91.75
507.506	96.75
507.722	94.75
507.939	105.75
508.155	101.75
508.372	81.75
508.588	91.75
508.805	89.75
509.021	90.75
509.238	83.75
509.454	98.75
509.67	103.75
509.887	103.75
510.103	123.75
510.319	216.75
510.536	702.75
510.752	2300.75
510.968	642.75
511.184	152.75
511.401	97.75
511.617	94.75
511.833	96.75
512.049	85.75
512.265	87.75
512.481	92.75
512.698	94.75
512.914	95.75
513.13	87.75
513.346	86.75
513.562	82.75
513.778	100.75
513.994	97.75
514.21	90.75
514.426	108.75
514.642	114.75
514.858	101.75
515.074	138.75
515.29	409.75
515.506	1314.75
515.721	507.75
515.937	159.75
516.153	109.75
516.369	100.75
516.585	86.75
516.801	93.75
