Data from Uncirc_1990_H10_HRD10591_00048.txt Node
Date: Wed Jan 03 11:54:01 EST 2024
User: Yrep
Spectrometer: HR+D1059
Trigger mode: 1
Integration Time (sec): 1.000000E-1
Scans to average: 1
Electric dark correction enabled: true
Nonlinearity correction enabled: false
Boxcar width: 0
XAxis mode: Wavelengths
Number of Pixels in Spectrum: 2048
>>>>>Begin Spectral Data<<<<<
223.165	-29.44
223.4	-29.44
223.635	-29.44
223.869	-19.44
224.104	-26.44
224.338	-2.44
224.573	-15.44
224.808	-4.44
225.042	-11.44
225.277	-12.44
225.511	5.56
225.746	0.56
225.98	-2.44
226.215	17.56
226.449	15.56
226.683	20.56
226.918	34.56
227.152	29.56
227.387	33.56
227.621	35.56
227.856	26.56
228.09	50.56
228.324	52.56
228.559	57.56
228.793	55.56
229.027	64.56
229.262	71.56
229.496	68.56
229.73	92.56
229.964	84.56
230.199	73.56
230.433	86.56
230.667	89.56
230.901	82.56
231.136	82.56
231.37	81.56
231.604	88.56
231.838	81.56
232.072	92.56
232.306	90.56
232.541	78.56
232.775	67.56
233.009	92.56
233.243	95.56
233.477	81.56
233.711	93.56
233.945	82.56
234.179	79.56
234.413	79.56
234.647	78.56
234.881	69.56
235.115	89.56
235.349	87.56
235.583	89.56
235.817	83.56
236.051	67.56
236.285	63.56
236.519	89.56
236.753	71.56
236.987	89.56
237.221	89.56
237.455	98.56
237.689	71.56
237.922	81.56
238.156	90.56
238.39	72.56
238.624	89.56
238.858	90.56
239.091	82.56
239.325	70.56
239.559	90.56
239.793	76.56
240.027	86.56
240.26	83.56
240.494	84.56
240.728	80.56
240.961	71.56
241.195	71.56
241.429	79.56
241.662	87.56
241.896	65.56
242.13	70.56
242.363	77.56
242.597	80.56
242.83	90.56
243.064	85.56
243.298	92.56
243.531	88.56
243.765	78.56
243.998	65.56
244.232	100.56
244.465	69.56
244.699	88.56
244.932	64.56
245.166	65.56
245.399	86.56
245.633	92.56
245.866	81.56
246.099	92.56
246.333	86.56
246.566	85.56
246.8	79.56
247.033	86.56
247.266	73.56
247.5	84.56
247.733	66.56
247.966	80.56
248.2	72.56
248.433	81.56
248.666	90.56
248.899	84.56
249.133	88.56
249.366	85.56
249.599	96.56
249.832	93.56
250.066	79.56
250.299	78.56
250.532	83.56
250.765	91.56
250.998	68.56
251.231	76.56
251.465	88.56
251.698	78.56
251.931	79.56
252.164	88.56
252.397	87.56
252.63	94.56
252.863	66.56
253.096	99.56
253.329	79.56
253.562	82.56
253.795	84.56
254.028	76.56
254.261	74.56
254.494	70.56
254.727	87.56
254.96	82.56
255.193	92.56
255.426	87.56
255.659	81.56
255.892	95.56
256.124	80.56
256.357	79.56
256.59	66.56
256.823	84.56
257.056	76.56
257.289	87.56
257.521	76.56
257.754	89.56
257.987	94.56
258.22	82.56
258.452	84.56
258.685	92.56
258.918	76.56
259.151	83.56
259.383	98.56
259.616	79.56
259.849	98.56
260.081	84.56
260.314	78.56
260.547	99.56
260.779	97.56
261.012	72.56
261.244	85.56
261.477	94.56
261.71	95.56
261.942	93.56
262.175	105.56
262.407	86.56
262.64	85.56
262.872	85.56
263.105	82.56
263.337	103.56
263.57	80.56
263.802	85.56
264.035	97.56
264.267	80.56
264.499	78.56
264.732	85.56
264.964	92.56
265.197	80.56
265.429	74.56
265.661	93.56
265.894	86.56
266.126	98.56
266.358	77.56
266.591	70.56
266.823	68.56
267.055	83.56
267.287	76.56
267.52	74.56
267.752	88.56
267.984	92.56
268.216	97.56
268.448	102.56
268.681	74.56
268.913	76.56
269.145	84.56
269.377	76.56
269.609	83.56
269.841	95.56
270.073	89.56
270.306	97.56
270.538	91.56
270.77	73.56
271.002	84.56
271.234	76.56
271.466	92.56
271.698	78.56
271.93	86.56
272.162	86.56
272.394	86.56
272.626	91.56
272.858	80.56
273.09	86.56
273.322	99.56
273.553	97.56
273.785	81.56
274.017	89.56
274.249	100.56
274.481	92.56
274.713	82.56
274.945	91.56
275.176	72.56
275.408	82.56
275.64	88.56
275.872	85.56
276.104	93.56
276.335	86.56
276.567	103.56
276.799	101.56
277.031	93.56
277.262	89.56
277.494	94.56
277.726	93.56
277.957	85.56
278.189	98.56
278.421	90.56
278.652	94.56
278.884	84.56
279.115	89.56
279.347	88.56
279.579	79.56
279.81	96.56
280.042	95.56
280.273	89.56
280.505	89.56
280.736	102.56
280.968	88.56
281.199	80.56
281.431	78.56
281.662	74.56
281.894	89.56
282.125	101.56
282.356	112.56
282.588	132.56
282.819	105.56
283.051	84.56
283.282	80.56
283.513	92.56
283.745	80.56
283.976	85.56
284.207	86.56
284.439	88.56
284.67	87.56
284.901	91.56
285.132	88.56
285.364	87.56
285.595	79.56
285.826	88.56
286.057	89.56
286.288	81.56
286.52	88.56
286.751	89.56
286.982	98.56
287.213	101.56
287.444	88.56
287.675	88.56
287.906	104.56
288.138	92.56
288.369	98.56
288.6	102.56
288.831	93.56
289.062	88.56
289.293	75.56
289.524	83.56
289.755	86.56
289.986	88.56
290.217	93.56
290.448	93.56
290.679	73.56
290.91	96.56
291.141	102.56
291.371	88.56
291.602	88.56
291.833	85.56
292.064	98.56
292.295	85.56
292.526	87.56
292.757	100.56
292.987	86.56
293.218	100.56
293.449	71.56
293.68	90.56
293.91	83.56
294.141	97.56
294.372	96.56
294.603	96.56
294.833	92.56
295.064	93.56
295.295	93.56
295.525	95.56
295.756	88.56
295.987	102.56
296.217	126.56
296.448	110.56
296.679	96.56
296.909	81.56
297.14	88.56
297.37	90.56
297.601	95.56
297.831	99.56
298.062	100.56
298.292	84.56
298.523	111.56
298.753	84.56
298.984	90.56
299.214	100.56
299.445	92.56
299.675	91.56
299.905	101.56
300.136	83.56
300.366	97.56
300.597	88.56
300.827	91.56
301.057	99.56
301.288	92.56
301.518	94.56
301.748	86.56
301.979	102.56
302.209	89.56
302.439	82.56
302.669	81.56
302.9	90.56
303.13	87.56
303.36	84.56
303.59	85.56
303.82	106.56
304.051	71.56
304.281	92.56
304.511	106.56
304.741	92.56
304.971	91.56
305.201	92.56
305.431	88.56
305.661	96.56
305.891	105.56
306.121	112.56
306.352	100.56
306.582	110.56
306.812	95.56
307.042	95.56
307.272	104.56
307.502	93.56
307.731	112.56
307.961	90.56
308.191	91.56
308.421	89.56
308.651	90.56
308.881	86.56
309.111	95.56
309.341	83.56
309.571	95.56
309.8	87.56
310.03	101.56
310.26	101.56
310.49	85.56
310.72	98.56
310.949	94.56
311.179	101.56
311.409	101.56
311.639	86.56
311.868	93.56
312.098	98.56
312.328	93.56
312.557	100.56
312.787	92.56
313.017	86.56
313.246	79.56
313.476	96.56
313.706	87.56
313.935	96.56
314.165	100.56
314.394	93.56
314.624	92.56
314.853	96.56
315.083	95.56
315.312	98.56
315.542	102.56
315.771	98.56
316.001	98.56
316.23	90.56
316.46	94.56
316.689	89.56
316.919	91.56
317.148	93.56
317.377	104.56
317.607	94.56
317.836	82.56
318.065	92.56
318.295	73.56
318.524	96.56
318.753	97.56
318.983	85.56
319.212	102.56
319.441	105.56
319.67	102.56
319.9	99.56
320.129	105.56
320.358	101.56
320.587	91.56
320.816	97.56
321.046	91.56
321.275	105.56
321.504	84.56
321.733	90.56
321.962	108.56
322.191	110.56
322.42	113.56
322.649	112.56
322.878	113.56
323.108	111.56
323.337	128.56
323.566	119.56
323.795	136.56
324.024	193.56
324.253	350.56
324.482	772.56
324.71	1539.56
324.939	2078.56
325.168	756.56
325.397	227.56
325.626	150.56
325.855	119.56
326.084	130.56
326.313	124.56
326.542	146.56
326.77	209.56
326.999	426.56
327.228	851.56
327.457	1615.56
327.686	1268.56
327.914	358.56
328.143	186.56
328.372	136.56
328.6	126.56
328.829	135.56
329.058	136.56
329.287	105.56
329.515	111.56
329.744	94.56
329.972	96.56
330.201	111.56
330.43	114.56
330.658	131.56
330.887	127.56
331.115	127.56
331.344	106.56
331.572	108.56
331.801	94.56
332.03	109.56
332.258	95.56
332.486	93.56
332.715	100.56
332.943	89.56
333.172	99.56
333.4	77.56
333.629	93.56
333.857	107.56
334.085	101.56
334.314	89.56
334.542	106.56
334.771	106.56
334.999	108.56
335.227	100.56
335.455	94.56
335.684	104.56
335.912	92.56
336.14	106.56
336.369	93.56
336.597	105.56
336.825	108.56
337.053	104.56
337.281	91.56
337.51	86.56
337.738	88.56
337.966	89.56
338.194	106.56
338.422	98.56
338.65	87.56
338.878	110.56
339.106	92.56
339.334	97.56
339.562	98.56
339.79	99.56
340.018	84.56
340.246	93.56
340.474	77.56
340.702	78.56
340.93	99.56
341.158	102.56
341.386	92.56
341.614	88.56
341.842	103.56
342.07	89.56
342.298	78.56
342.526	104.56
342.754	84.56
342.981	100.56
343.209	109.56
343.437	101.56
343.665	90.56
343.893	90.56
344.12	92.56
344.348	100.56
344.576	85.56
344.804	92.56
345.031	101.56
345.259	95.56
345.487	96.56
345.714	101.56
345.942	96.56
346.17	83.56
346.397	93.56
346.625	92.56
346.853	104.56
347.08	100.56
347.308	102.56
347.535	101.56
347.763	95.56
347.99	108.56
348.218	117.56
348.445	84.56
348.673	98.56
348.9	97.56
349.128	86.56
349.355	99.56
349.583	100.56
349.81	101.56
350.037	84.56
350.265	94.56
350.492	85.56
350.72	103.56
350.947	114.56
351.174	112.56
351.402	118.56
351.629	98.56
351.856	103.56
352.083	94.56
352.311	116.56
352.538	104.56
352.765	105.56
352.992	106.56
353.22	114.56
353.447	106.56
353.674	100.56
353.901	112.56
354.128	98.56
354.355	89.56
354.583	97.56
354.81	115.56
355.037	103.56
355.264	86.56
355.491	86.56
355.718	99.56
355.945	101.56
356.172	99.56
356.399	108.56
356.626	98.56
356.853	96.56
357.08	100.56
357.307	85.56
357.534	91.56
357.761	87.56
357.988	99.56
358.215	96.56
358.441	94.56
358.668	101.56
358.895	90.56
359.122	93.56
359.349	84.56
359.576	83.56
359.802	101.56
360.029	109.56
360.256	117.56
360.483	98.56
360.709	95.56
360.936	103.56
361.163	94.56
361.39	95.56
361.616	101.56
361.843	90.56
362.07	89.56
362.296	107.56
362.523	85.56
362.749	82.56
362.976	88.56
363.203	93.56
363.429	90.56
363.656	85.56
363.882	86.56
364.109	90.56
364.335	93.56
364.562	100.56
364.788	99.56
365.015	92.56
365.241	97.56
365.468	105.56
365.694	97.56
365.92	88.56
366.147	99.56
366.373	81.56
366.599	89.56
366.826	86.56
367.052	96.56
367.278	96.56
367.505	96.56
367.731	93.56
367.957	92.56
368.184	90.56
368.41	90.56
368.636	106.56
368.862	118.56
369.089	109.56
369.315	95.56
369.541	94.56
369.767	97.56
369.993	94.56
370.219	96.56
370.445	98.56
370.672	94.56
370.898	92.56
371.124	92.56
371.35	87.56
371.576	82.56
371.802	102.56
372.028	88.56
372.254	95.56
372.48	92.56
372.706	85.56
372.932	92.56
373.158	106.56
373.384	75.56
373.61	97.56
373.835	93.56
374.061	94.56
374.287	101.56
374.513	99.56
374.739	77.56
374.965	95.56
375.191	98.56
375.416	87.56
375.642	95.56
375.868	92.56
376.094	95.56
376.319	93.56
376.545	84.56
376.771	95.56
376.997	85.56
377.222	99.56
377.448	74.56
377.674	75.56
377.899	88.56
378.125	78.56
378.35	97.56
378.576	101.56
378.802	87.56
379.027	96.56
379.253	92.56
379.478	102.56
379.704	97.56
379.929	99.56
380.155	89.56
380.38	89.56
380.606	101.56
380.831	97.56
381.057	104.56
381.282	84.56
381.507	95.56
381.733	98.56
381.958	97.56
382.184	105.56
382.409	93.56
382.634	90.56
382.86	83.56
383.085	96.56
383.31	87.56
383.535	80.56
383.761	105.56
383.986	104.56
384.211	97.56
384.436	106.56
384.662	105.56
384.887	105.56
385.112	101.56
385.337	92.56
385.562	108.56
385.787	113.56
386.013	104.56
386.238	102.56
386.463	96.56
386.688	110.56
386.913	110.56
387.138	80.56
387.363	90.56
387.588	98.56
387.813	102.56
388.038	93.56
388.263	94.56
388.488	101.56
388.713	89.56
388.938	102.56
389.163	98.56
389.387	93.56
389.612	95.56
389.837	93.56
390.062	79.56
390.287	110.56
390.512	92.56
390.736	95.56
390.961	82.56
391.186	85.56
391.411	105.56
391.636	99.56
391.86	75.56
392.085	84.56
392.31	98.56
392.534	88.56
392.759	80.56
392.984	80.56
393.208	92.56
393.433	98.56
393.658	91.56
393.882	96.56
394.107	94.56
394.331	86.56
394.556	96.56
394.78	93.56
395.005	105.56
395.229	91.56
395.454	76.56
395.678	92.56
395.903	88.56
396.127	86.56
396.352	97.56
396.576	105.56
396.801	70.56
397.025	88.56
397.249	89.56
397.474	99.56
397.698	96.56
397.922	86.56
398.147	78.56
398.371	108.56
398.595	90.56
398.82	81.56
399.044	93.56
399.268	83.56
399.492	106.56
399.717	102.56
399.941	93.56
400.165	99.56
400.389	90.56
400.613	100.56
400.837	92.56
401.062	86.56
401.286	96.56
401.51	89.56
401.734	84.56
401.958	104.56
402.182	119.56
402.406	165.56
402.63	116.56
402.854	88.56
403.078	99.56
403.302	85.56
403.526	87.56
403.75	93.56
403.974	83.56
404.198	78.56
404.422	84.56
404.645	95.56
404.869	84.56
405.093	79.56
405.317	106.56
405.541	109.56
405.765	90.56
405.988	103.56
406.212	138.56
406.436	210.56
406.66	133.56
406.883	103.56
407.107	109.56
407.331	100.56
407.555	102.56
407.778	93.56
408.002	88.56
408.226	86.56
408.449	95.56
408.673	81.56
408.896	98.56
409.12	97.56
409.344	86.56
409.567	93.56
409.791	104.56
410.014	111.56
410.238	76.56
410.461	93.56
410.685	88.56
410.908	98.56
411.132	98.56
411.355	96.56
411.578	79.56
411.802	89.56
412.025	80.56
412.249	85.56
412.472	96.56
412.695	92.56
412.919	88.56
413.142	94.56
413.365	100.56
413.589	82.56
413.812	90.56
414.035	103.56
414.258	89.56
414.482	96.56
414.705	89.56
414.928	91.56
415.151	92.56
415.374	88.56
415.597	89.56
415.821	90.56
416.044	90.56
416.267	83.56
416.49	81.56
416.713	71.56
416.936	88.56
417.159	91.56
417.382	87.56
417.605	104.56
417.828	99.56
418.051	90.56
418.274	86.56
418.497	98.56
418.72	88.56
418.943	85.56
419.166	70.56
419.389	98.56
419.611	94.56
419.834	89.56
420.057	84.56
420.28	97.56
420.503	95.56
420.726	100.56
420.948	103.56
421.171	101.56
421.394	103.56
421.617	98.56
421.839	97.56
422.062	101.56
422.285	103.56
422.507	81.56
422.73	96.56
422.953	86.56
423.175	105.56
423.398	92.56
423.621	99.56
423.843	97.56
424.066	97.56
424.288	91.56
424.511	97.56
424.733	113.56
424.956	105.56
425.178	84.56
425.401	96.56
425.623	106.56
425.846	87.56
426.068	94.56
426.291	96.56
426.513	95.56
426.735	81.56
426.958	87.56
427.18	106.56
427.402	131.56
427.625	150.56
427.847	119.56
428.069	120.56
428.292	93.56
428.514	91.56
428.736	102.56
428.958	94.56
429.181	92.56
429.403	89.56
429.625	89.56
429.847	88.56
430.069	99.56
430.292	90.56
430.514	73.56
430.736	89.56
430.958	93.56
431.18	86.56
431.402	92.56
431.624	88.56
431.846	86.56
432.068	100.56
432.29	94.56
432.512	86.56
432.734	81.56
432.956	85.56
433.178	93.56
433.4	99.56
433.622	105.56
433.844	95.56
434.066	102.56
434.287	92.56
434.509	73.56
434.731	89.56
434.953	83.56
435.175	98.56
435.397	91.56
435.618	94.56
435.84	100.56
436.062	112.56
436.284	119.56
436.505	105.56
436.727	99.56
436.949	87.56
437.17	86.56
437.392	95.56
437.614	87.56
437.835	90.56
438.057	114.56
438.278	109.56
438.5	107.56
438.721	112.56
438.943	109.56
439.165	94.56
439.386	94.56
439.608	85.56
439.829	84.56
440.05	111.56
440.272	113.56
440.493	88.56
440.715	88.56
440.936	80.56
441.158	93.56
441.379	88.56
441.6	104.56
441.822	106.56
442.043	86.56
442.264	106.56
442.486	84.56
442.707	102.56
442.928	117.56
443.149	126.56
443.371	125.56
443.592	104.56
443.813	114.56
444.034	92.56
444.255	86.56
444.476	84.56
444.698	92.56
444.919	104.56
445.14	135.56
445.361	141.56
445.582	104.56
445.803	136.56
446.024	120.56
446.245	125.56
446.466	102.56
446.687	88.56
446.908	98.56
447.129	93.56
447.35	87.56
447.571	85.56
447.792	99.56
448.013	113.56
448.234	105.56
448.455	88.56
448.675	108.56
448.896	104.56
449.117	96.56
449.338	101.56
449.559	128.56
449.779	137.56
450	96.56
450.221	88.56
450.442	83.56
450.662	90.56
450.883	101.56
451.104	121.56
451.324	103.56
451.545	102.56
451.766	88.56
451.986	86.56
452.207	84.56
452.428	100.56
452.648	86.56
452.869	107.56
453.089	110.56
453.31	118.56
453.53	98.56
453.751	108.56
453.971	95.56
454.192	97.56
454.412	89.56
454.633	96.56
454.853	85.56
455.073	92.56
455.294	93.56
455.514	102.56
455.734	77.56
455.955	82.56
456.175	94.56
456.395	84.56
456.616	95.56
456.836	80.56
457.056	85.56
457.276	84.56
457.497	80.56
457.717	89.56
457.937	87.56
458.157	98.56
458.377	88.56
458.598	100.56
458.818	130.56
459.038	138.56
459.258	111.56
459.478	91.56
459.698	87.56
459.918	91.56
460.138	80.56
460.358	82.56
460.578	96.56
460.798	96.56
461.018	83.56
461.238	89.56
461.458	69.56
461.678	94.56
461.898	101.56
462.118	80.56
462.338	81.56
462.558	84.56
462.777	86.56
462.997	85.56
463.217	94.56
463.437	80.56
463.657	77.56
463.876	85.56
464.096	88.56
464.316	84.56
464.536	95.56
464.755	90.56
464.975	101.56
465.195	153.56
465.414	145.56
465.634	96.56
465.854	79.56
466.073	84.56
466.293	82.56
466.512	84.56
466.732	105.56
466.951	83.56
467.171	92.56
467.391	89.56
467.61	103.56
467.829	96.56
468.049	92.56
468.268	85.56
468.488	86.56
468.707	87.56
468.927	85.56
469.146	88.56
469.365	82.56
469.585	84.56
469.804	89.56
470.023	112.56
470.243	84.56
470.462	101.56
470.681	103.56
470.901	84.56
471.12	99.56
471.339	76.56
471.558	91.56
471.777	94.56
471.997	81.56
472.216	89.56
472.435	110.56
472.654	92.56
472.873	81.56
473.092	73.56
473.311	78.56
473.53	92.56
473.749	98.56
473.968	95.56
474.187	109.56
474.406	97.56
474.625	89.56
474.844	86.56
475.063	92.56
475.282	77.56
475.501	94.56
475.72	71.56
475.939	86.56
476.158	87.56
476.377	93.56
476.596	90.56
476.814	107.56
477.033	89.56
477.252	88.56
477.471	84.56
477.69	88.56
477.908	92.56
478.127	78.56
478.346	87.56
478.564	77.56
478.783	78.56
479.002	94.56
479.22	96.56
479.439	104.56
479.658	97.56
479.876	102.56
480.095	96.56
480.313	92.56
480.532	98.56
480.751	85.56
480.969	97.56
481.188	114.56
481.406	89.56
481.624	84.56
481.843	104.56
482.061	91.56
482.28	83.56
482.498	90.56
482.717	94.56
482.935	73.56
483.153	97.56
483.372	86.56
483.59	85.56
483.808	93.56
484.027	92.56
484.245	81.56
484.463	96.56
484.681	85.56
484.9	96.56
485.118	100.56
485.336	93.56
485.554	89.56
485.772	111.56
485.99	113.56
486.209	119.56
486.427	101.56
486.645	97.56
486.863	113.56
487.081	89.56
487.299	107.56
487.517	90.56
487.735	100.56
487.953	86.56
488.171	105.56
488.389	100.56
488.607	103.56
488.825	92.56
489.043	82.56
489.261	88.56
489.479	90.56
489.696	95.56
489.914	104.56
490.132	101.56
490.35	80.56
490.568	86.56
490.786	94.56
491.003	90.56
491.221	88.56
491.439	93.56
491.657	102.56
491.874	82.56
492.092	89.56
492.31	83.56
492.527	85.56
492.745	87.56
492.963	93.56
493.18	90.56
493.398	93.56
493.615	95.56
493.833	98.56
494.05	89.56
494.268	100.56
494.485	99.56
494.703	91.56
494.92	92.56
495.138	98.56
495.355	95.56
495.573	89.56
495.79	88.56
496.008	102.56
496.225	96.56
496.442	93.56
496.66	95.56
496.877	89.56
497.094	95.56
497.312	85.56
497.529	92.56
497.746	90.56
497.963	78.56
498.181	95.56
498.398	104.56
498.615	112.56
498.832	108.56
499.049	96.56
499.267	102.56
499.484	111.56
499.701	94.56
499.918	90.56
500.135	99.56
500.352	98.56
500.569	94.56
500.786	93.56
501.003	88.56
501.22	84.56
501.437	95.56
501.654	85.56
501.871	97.56
502.088	89.56
502.305	86.56
502.522	100.56
502.739	93.56
502.956	95.56
503.172	92.56
503.389	78.56
503.606	92.56
503.823	87.56
504.04	98.56
504.256	87.56
504.473	90.56
504.69	88.56
504.907	93.56
505.123	89.56
505.34	78.56
505.557	98.56
505.773	87.56
505.99	73.56
506.207	95.56
506.423	80.56
506.64	102.56
506.856	91.56
507.073	100.56
507.289	92.56
507.506	88.56
507.722	107.56
507.939	115.56
508.155	98.56
508.372	106.56
508.588	96.56
508.805	116.56
509.021	117.56
509.238	102.56
509.454	104.56
509.67	96.56
509.887	102.56
510.103	131.56
510.319	194.56
510.536	661.56
510.752	2152.56
510.968	596.56
511.184	144.56
511.401	107.56
511.617	106.56
511.833	90.56
512.049	96.56
512.265	95.56
512.481	93.56
512.698	102.56
512.914	88.56
513.13	78.56
513.346	90.56
513.562	85.56
513.778	90.56
513.994	100.56
514.21	98.56
514.426	114.56
514.642	135.56
514.858	98.56
515.074	136.56
515.29	409.56
