Data from Uncirc_1990_H10_HRD10591_00054.txt Node
Date: Wed Jan 03 11:54:02 EST 2024
User: Yrep
Spectrometer: HR+D1059
Trigger mode: 1
Integration Time (sec): 1.000000E-1
Scans to average: 1
Electric dark correction enabled: true
Nonlinearity correction enabled: false
Boxcar width: 0
XAxis mode: Wavelengths
Number of Pixels in Spectrum: 2048
>>>>>Begin Spectral Data<<<<<
223.165	-17.94
223.4	-17.94
223.635	-17.94
223.869	-27.94
224.104	-14.94
224.338	-18.94
224.573	-21.94
224.808	-7.94
225.042	-7.94
225.277	-8.94
225.511	-2.94
225.746	9.06
225.98	-1.94
226.215	18.06
226.449	18.06
226.683	24.06
226.918	32.06
227.152	30.06
227.387	29.06
227.621	30.06
227.856	40.06
228.09	42.06
228.324	61.06
228.559	68.06
228.793	77.06
229.027	78.06
229.262	79.06
229.496	66.06
229.73	86.06
229.964	72.06
230.199	80.06
230.433	80.06
230.667	88.06
230.901	77.06
231.136	65.06
231.37	86.06
231.604	86.06
231.838	61.06
232.072	84.06
232.306	83.06
232.541	103.06
232.775	79.06
233.009	70.06
233.243	76.06
233.477	90.06
233.711	91.06
233.945	96.06
234.179	79.06
234.413	86.06
234.647	83.06
234.881	78.06
235.115	82.06
235.349	72.06
235.583	74.06
235.817	81.06
236.051	89.06
236.285	80.06
236.519	79.06
236.753	82.06
236.987	80.06
237.221	76.06
237.455	83.06
237.689	76.06
237.922	76.06
238.156	90.06
238.39	71.06
238.624	73.06
238.858	85.06
239.091	88.06
239.325	80.06
239.559	89.06
239.793	80.06
240.027	92.06
240.26	72.06
240.494	80.06
240.728	84.06
240.961	77.06
241.195	76.06
241.429	77.06
241.662	56.06
241.896	82.06
242.13	86.06
242.363	89.06
242.597	92.06
242.83	74.06
243.064	80.06
243.298	80.06
243.531	74.06
243.765	76.06
243.998	76.06
244.232	81.06
244.465	75.06
244.699	83.06
244.932	94.06
245.166	76.06
245.399	78.06
245.633	63.06
245.866	66.06
246.099	69.06
246.333	85.06
246.566	68.06
246.8	88.06
247.033	80.06
247.266	78.06
247.5	95.06
247.733	62.06
247.966	84.06
248.2	86.06
248.433	81.06
248.666	90.06
248.899	79.06
249.133	82.06
249.366	102.06
249.599	75.06
249.832	84.06
250.066	77.06
250.299	73.06
250.532	88.06
250.765	76.06
250.998	80.06
251.231	86.06
251.465	91.06
251.698	72.06
251.931	85.06
252.164	86.06
252.397	85.06
252.63	81.06
252.863	82.06
253.096	78.06
253.329	82.06
253.562	77.06
253.795	85.06
254.028	72.06
254.261	90.06
254.494	80.06
254.727	88.06
254.96	86.06
255.193	76.06
255.426	74.06
255.659	87.06
255.892	93.06
256.124	86.06
256.357	83.06
256.59	96.06
256.823	83.06
257.056	76.06
257.289	73.06
257.521	68.06
257.754	83.06
257.987	89.06
258.22	88.06
258.452	99.06
258.685	80.06
258.918	74.06
259.151	82.06
259.383	80.06
259.616	75.06
259.849	80.06
260.081	71.06
260.314	63.06
260.547	71.06
260.779	93.06
261.012	98.06
261.244	95.06
261.477	100.06
261.71	92.06
261.942	112.06
262.175	108.06
262.407	85.06
262.64	93.06
262.872	86.06
263.105	76.06
263.337	86.06
263.57	84.06
263.802	73.06
264.035	91.06
264.267	66.06
264.499	95.06
264.732	82.06
264.964	82.06
265.197	84.06
265.429	79.06
265.661	81.06
265.894	84.06
266.126	72.06
266.358	78.06
266.591	80.06
266.823	78.06
267.055	74.06
267.287	89.06
267.52	91.06
267.752	88.06
267.984	89.06
268.216	85.06
268.448	96.06
268.681	90.06
268.913	92.06
269.145	96.06
269.377	96.06
269.609	88.06
269.841	91.06
270.073	90.06
270.306	84.06
270.538	71.06
270.77	75.06
271.002	95.06
271.234	91.06
271.466	92.06
271.698	95.06
271.93	81.06
272.162	86.06
272.394	85.06
272.626	87.06
272.858	85.06
273.09	83.06
273.322	84.06
273.553	81.06
273.785	97.06
274.017	91.06
274.249	84.06
274.481	89.06
274.713	82.06
274.945	77.06
275.176	80.06
275.408	76.06
275.64	87.06
275.872	80.06
276.104	91.06
276.335	98.06
276.567	106.06
276.799	113.06
277.031	93.06
277.262	88.06
277.494	88.06
277.726	93.06
277.957	84.06
278.189	86.06
278.421	81.06
278.652	92.06
278.884	78.06
279.115	89.06
279.347	73.06
279.579	94.06
279.81	87.06
280.042	85.06
280.273	91.06
280.505	92.06
280.736	97.06
280.968	73.06
281.199	92.06
281.431	75.06
281.662	101.06
281.894	94.06
282.125	94.06
282.356	96.06
282.588	130.06
282.819	102.06
283.051	98.06
283.282	85.06
283.513	85.06
283.745	98.06
283.976	82.06
284.207	80.06
284.439	84.06
284.67	97.06
284.901	94.06
285.132	87.06
285.364	84.06
285.595	80.06
285.826	92.06
286.057	89.06
286.288	94.06
286.52	85.06
286.751	91.06
286.982	81.06
287.213	73.06
287.444	94.06
287.675	104.06
287.906	101.06
288.138	97.06
288.369	92.06
288.6	88.06
288.831	74.06
289.062	93.06
289.293	80.06
289.524	77.06
289.755	81.06
289.986	88.06
290.217	96.06
290.448	81.06
290.679	100.06
290.91	86.06
291.141	78.06
291.371	103.06
291.602	82.06
291.833	81.06
292.064	74.06
292.295	87.06
292.526	92.06
292.757	93.06
292.987	75.06
293.218	77.06
293.449	88.06
293.68	89.06
293.91	78.06
294.141	78.06
294.372	92.06
294.603	73.06
294.833	98.06
295.064	92.06
295.295	82.06
295.525	93.06
295.756	97.06
295.987	105.06
296.217	127.06
296.448	121.06
296.679	83.06
296.909	80.06
297.14	96.06
297.37	87.06
297.601	90.06
297.831	106.06
298.062	111.06
298.292	93.06
298.523	95.06
298.753	78.06
298.984	76.06
299.214	81.06
299.445	92.06
299.675	82.06
299.905	84.06
300.136	81.06
300.366	94.06
300.597	97.06
300.827	85.06
301.057	101.06
301.288	100.06
301.518	104.06
301.748	87.06
301.979	112.06
302.209	97.06
302.439	95.06
302.669	92.06
302.9	77.06
303.13	110.06
303.36	101.06
303.59	87.06
303.82	110.06
304.051	103.06
304.281	93.06
304.511	90.06
304.741	84.06
304.971	93.06
305.201	95.06
305.431	87.06
305.661	87.06
305.891	88.06
306.121	99.06
306.352	99.06
306.582	102.06
306.812	84.06
307.042	83.06
307.272	99.06
307.502	96.06
307.731	94.06
307.961	87.06
308.191	85.06
308.421	91.06
308.651	99.06
308.881	82.06
309.111	81.06
309.341	101.06
309.571	108.06
309.8	105.06
310.03	84.06
310.26	99.06
310.49	97.06
310.72	84.06
310.949	101.06
311.179	109.06
311.409	77.06
311.639	100.06
311.868	98.06
312.098	99.06
312.328	98.06
312.557	89.06
312.787	118.06
313.017	92.06
313.246	90.06
313.476	89.06
313.706	94.06
313.935	83.06
314.165	106.06
314.394	107.06
314.624	96.06
314.853	92.06
315.083	84.06
315.312	103.06
315.542	97.06
315.771	89.06
316.001	102.06
316.23	81.06
316.46	97.06
316.689	107.06
316.919	104.06
317.148	93.06
317.377	97.06
317.607	100.06
317.836	80.06
318.065	90.06
318.295	102.06
318.524	106.06
318.753	103.06
318.983	86.06
319.212	86.06
319.441	115.06
319.67	99.06
319.9	83.06
320.129	82.06
320.358	98.06
320.587	89.06
320.816	94.06
321.046	93.06
321.275	92.06
321.504	100.06
321.733	96.06
321.962	86.06
322.191	97.06
322.42	106.06
322.649	108.06
322.878	110.06
323.108	106.06
323.337	123.06
323.566	134.06
323.795	144.06
324.024	185.06
324.253	370.06
324.482	785.06
324.71	1615.06
324.939	2150.06
325.168	802.06
325.397	244.06
325.626	150.06
325.855	124.06
326.084	115.06
326.313	145.06
326.542	154.06
326.77	234.06
326.999	448.06
327.228	918.06
327.457	1678.06
327.686	1323.06
327.914	357.06
328.143	184.06
328.372	150.06
328.6	132.06
328.829	98.06
329.058	129.06
329.287	128.06
329.515	113.06
329.744	97.06
329.972	103.06
330.201	109.06
330.43	119.06
330.658	114.06
330.887	125.06
331.115	125.06
331.344	95.06
331.572	96.06
331.801	118.06
332.03	101.06
332.258	96.06
332.486	84.06
332.715	80.06
332.943	94.06
333.172	94.06
333.4	112.06
333.629	99.06
333.857	97.06
334.085	96.06
334.314	108.06
334.542	114.06
334.771	118.06
334.999	105.06
335.227	101.06
335.455	104.06
335.684	101.06
335.912	106.06
336.14	95.06
336.369	88.06
336.597	110.06
336.825	104.06
337.053	88.06
337.281	79.06
337.51	82.06
337.738	102.06
337.966	88.06
338.194	101.06
338.422	96.06
338.65	85.06
338.878	99.06
339.106	81.06
339.334	102.06
339.562	96.06
339.79	86.06
340.018	94.06
340.246	111.06
340.474	91.06
340.702	100.06
340.93	94.06
341.158	106.06
341.386	87.06
341.614	103.06
341.842	95.06
342.07	94.06
342.298	100.06
342.526	100.06
342.754	86.06
342.981	83.06
343.209	83.06
343.437	109.06
343.665	104.06
343.893	82.06
344.12	90.06
344.348	95.06
344.576	80.06
344.804	100.06
345.031	89.06
345.259	104.06
345.487	90.06
345.714	91.06
345.942	88.06
346.17	84.06
346.397	101.06
346.625	96.06
346.853	95.06
347.08	77.06
347.308	90.06
347.535	93.06
347.763	90.06
347.99	95.06
348.218	114.06
348.445	98.06
348.673	107.06
348.9	90.06
349.128	92.06
349.355	95.06
349.583	84.06
349.81	80.06
350.037	113.06
350.265	103.06
350.492	86.06
350.72	97.06
350.947	102.06
351.174	118.06
351.402	113.06
351.629	113.06
351.856	113.06
352.083	95.06
352.311	104.06
352.538	113.06
352.765	113.06
352.992	106.06
353.22	116.06
353.447	107.06
353.674	95.06
353.901	84.06
354.128	92.06
354.355	98.06
354.583	98.06
354.81	97.06
355.037	99.06
355.264	89.06
355.491	84.06
355.718	102.06
355.945	96.06
356.172	92.06
356.399	95.06
356.626	108.06
356.853	86.06
357.08	84.06
357.307	85.06
357.534	80.06
357.761	88.06
357.988	103.06
358.215	82.06
358.441	82.06
358.668	103.06
358.895	81.06
359.122	95.06
359.349	81.06
359.576	98.06
359.802	101.06
360.029	116.06
360.256	97.06
360.483	104.06
360.709	88.06
360.936	101.06
361.163	83.06
361.39	89.06
361.616	92.06
361.843	92.06
362.07	93.06
362.296	98.06
362.523	93.06
362.749	80.06
362.976	99.06
363.203	92.06
363.429	96.06
363.656	80.06
363.882	98.06
364.109	94.06
364.335	98.06
364.562	86.06
364.788	82.06
365.015	96.06
365.241	89.06
365.468	112.06
365.694	103.06
365.92	100.06
366.147	91.06
366.373	100.06
366.599	100.06
366.826	95.06
367.052	87.06
367.278	92.06
367.505	89.06
367.731	100.06
367.957	86.06
368.184	82.06
368.41	115.06
368.636	100.06
368.862	117.06
369.089	107.06
369.315	79.06
369.541	85.06
369.767	95.06
369.993	94.06
370.219	82.06
370.445	80.06
370.672	98.06
370.898	88.06
371.124	98.06
371.35	90.06
371.576	85.06
371.802	76.06
372.028	87.06
372.254	96.06
372.48	94.06
372.706	81.06
372.932	84.06
373.158	85.06
373.384	96.06
373.61	97.06
373.835	102.06
374.061	90.06
374.287	94.06
374.513	94.06
374.739	88.06
374.965	86.06
375.191	89.06
375.416	85.06
375.642	80.06
375.868	102.06
376.094	102.06
376.319	95.06
376.545	93.06
376.771	94.06
376.997	79.06
377.222	76.06
377.448	84.06
377.674	70.06
377.899	81.06
378.125	86.06
378.35	82.06
378.576	86.06
378.802	80.06
379.027	72.06
379.253	90.06
379.478	92.06
379.704	98.06
379.929	96.06
380.155	81.06
380.38	91.06
380.606	104.06
380.831	96.06
381.057	92.06
381.282	110.06
381.507	102.06
381.733	91.06
381.958	96.06
382.184	99.06
382.409	115.06
382.634	84.06
382.86	91.06
383.085	97.06
383.31	110.06
383.535	106.06
383.761	100.06
383.986	114.06
384.211	101.06
384.436	104.06
384.662	88.06
384.887	93.06
385.112	104.06
385.337	91.06
385.562	108.06
385.787	103.06
386.013	102.06
386.238	102.06
386.463	110.06
386.688	110.06
386.913	97.06
387.138	98.06
387.363	97.06
387.588	97.06
387.813	89.06
388.038	90.06
388.263	113.06
388.488	99.06
388.713	106.06
388.938	92.06
389.163	119.06
389.387	91.06
389.612	106.06
389.837	90.06
390.062	97.06
390.287	91.06
390.512	90.06
390.736	94.06
390.961	87.06
391.186	83.06
391.411	107.06
391.636	86.06
391.86	100.06
392.085	81.06
392.31	81.06
392.534	82.06
392.759	88.06
392.984	88.06
393.208	82.06
393.433	92.06
393.658	86.06
393.882	73.06
394.107	77.06
394.331	88.06
394.556	96.06
394.78	90.06
395.005	80.06
395.229	87.06
395.454	93.06
395.678	82.06
395.903	85.06
396.127	78.06
396.352	90.06
396.576	96.06
396.801	80.06
397.025	80.06
397.249	98.06
397.474	85.06
397.698	88.06
397.922	80.06
398.147	86.06
398.371	88.06
398.595	97.06
398.82	70.06
399.044	76.06
399.268	92.06
399.492	68.06
399.717	85.06
399.941	104.06
400.165	104.06
400.389	83.06
400.613	83.06
400.837	86.06
401.062	78.06
401.286	80.06
401.51	99.06
401.734	88.06
401.958	100.06
402.182	106.06
402.406	154.06
402.63	115.06
402.854	98.06
403.078	84.06
403.302	82.06
403.526	80.06
403.75	95.06
403.974	94.06
404.198	95.06
404.422	84.06
404.645	91.06
404.869	95.06
405.093	104.06
405.317	109.06
405.541	95.06
405.765	87.06
405.988	116.06
406.212	161.06
406.436	234.06
406.66	161.06
406.883	96.06
407.107	86.06
407.331	96.06
407.555	94.06
407.778	105.06
408.002	93.06
408.226	94.06
408.449	90.06
408.673	99.06
408.896	86.06
409.12	105.06
409.344	103.06
409.567	81.06
409.791	94.06
410.014	93.06
410.238	94.06
410.461	88.06
410.685	83.06
410.908	79.06
411.132	92.06
411.355	92.06
411.578	96.06
411.802	84.06
412.025	71.06
412.249	84.06
412.472	92.06
412.695	84.06
412.919	100.06
413.142	96.06
413.365	79.06
413.589	101.06
413.812	89.06
414.035	108.06
414.258	92.06
414.482	89.06
414.705	82.06
414.928	88.06
415.151	95.06
415.374	94.06
415.597	96.06
415.821	89.06
416.044	88.06
416.267	92.06
416.49	87.06
416.713	87.06
416.936	117.06
417.159	97.06
417.382	95.06
417.605	93.06
417.828	83.06
418.051	78.06
418.274	83.06
418.497	84.06
418.72	87.06
418.943	99.06
419.166	92.06
419.389	85.06
419.611	95.06
419.834	99.06
420.057	93.06
420.28	88.06
420.503	100.06
420.726	94.06
420.948	85.06
421.171	103.06
421.394	105.06
421.617	92.06
421.839	83.06
422.062	69.06
422.285	89.06
422.507	98.06
422.73	89.06
422.953	96.06
423.175	94.06
423.398	89.06
423.621	76.06
423.843	84.06
424.066	76.06
424.288	91.06
424.511	92.06
424.733	99.06
424.956	113.06
425.178	100.06
425.401	97.06
425.623	103.06
425.846	85.06
426.068	80.06
426.291	91.06
426.513	80.06
426.735	94.06
426.958	97.06
427.18	81.06
427.402	126.06
427.625	155.06
427.847	128.06
428.069	98.06
428.292	97.06
428.514	111.06
428.736	97.06
428.958	88.06
429.181	82.06
429.403	101.06
429.625	101.06
429.847	101.06
430.069	102.06
430.292	97.06
430.514	107.06
430.736	90.06
430.958	86.06
431.18	98.06
431.402	79.06
431.624	84.06
431.846	82.06
432.068	94.06
432.29	92.06
432.512	84.06
432.734	97.06
432.956	84.06
433.178	98.06
433.4	88.06
433.622	100.06
433.844	87.06
434.066	88.06
434.287	77.06
434.509	86.06
434.731	103.06
434.953	91.06
435.175	97.06
435.397	86.06
435.618	88.06
435.84	104.06
436.062	116.06
436.284	126.06
436.505	95.06
436.727	112.06
436.949	93.06
437.17	86.06
437.392	86.06
437.614	93.06
437.835	104.06
438.057	109.06
438.278	97.06
438.5	104.06
438.721	132.06
438.943	89.06
439.165	88.06
439.386	76.06
439.608	84.06
439.829	108.06
440.05	112.06
440.272	146.06
440.493	96.06
440.715	88.06
440.936	80.06
441.158	100.06
441.379	73.06
441.6	87.06
441.822	100.06
442.043	97.06
442.264	99.06
442.486	113.06
442.707	94.06
442.928	106.06
443.149	136.06
443.371	126.06
443.592	111.06
443.813	122.06
444.034	104.06
444.255	89.06
444.476	82.06
444.698	97.06
444.919	80.06
445.14	122.06
445.361	118.06
445.582	111.06
445.803	142.06
446.024	132.06
446.245	126.06
446.466	101.06
446.687	82.06
446.908	87.06
447.129	96.06
447.35	93.06
447.571	83.06
447.792	89.06
448.013	96.06
448.234	102.06
448.455	105.06
448.675	117.06
448.896	118.06
449.117	100.06
449.338	109.06
449.559	135.06
449.779	135.06
450	100.06
450.221	93.06
450.442	89.06
450.662	77.06
450.883	108.06
451.104	86.06
451.324	89.06
451.545	100.06
451.766	68.06
451.986	106.06
452.207	83.06
452.428	92.06
452.648	97.06
452.869	85.06
453.089	123.06
453.31	111.06
453.53	101.06
453.751	89.06
453.971	115.06
454.192	104.06
454.412	89.06
454.633	76.06
454.853	79.06
455.073	89.06
455.294	90.06
455.514	96.06
455.734	85.06
455.955	85.06
456.175	85.06
456.395	79.06
456.616	96.06
456.836	89.06
457.056	90.06
457.276	69.06
457.497	96.06
457.717	76.06
457.937	95.06
458.157	89.06
458.377	98.06
458.598	111.06
458.818	145.06
459.038	149.06
459.258	117.06
459.478	88.06
459.698	94.06
459.918	94.06
460.138	95.06
460.358	81.06
460.578	85.06
460.798	78.06
461.018	82.06
461.238	91.06
461.458	79.06
461.678	83.06
461.898	82.06
462.118	86.06
462.338	82.06
462.558	98.06
462.777	97.06
462.997	83.06
463.217	82.06
463.437	89.06
463.657	103.06
463.876	89.06
464.096	80.06
464.316	82.06
464.536	97.06
464.755	86.06
464.975	100.06
465.195	149.06
465.414	168.06
465.634	117.06
465.854	81.06
466.073	99.06
466.293	89.06
466.512	84.06
466.732	101.06
466.951	80.06
467.171	92.06
467.391	91.06
467.61	105.06
467.829	101.06
468.049	92.06
468.268	95.06
468.488	74.06
468.707	84.06
468.927	95.06
469.146	84.06
469.365	97.06
469.585	99.06
469.804	94.06
470.023	96.06
470.243	88.06
470.462	102.06
470.681	116.06
470.901	75.06
471.12	71.06
471.339	90.06
471.558	85.06
471.777	94.06
471.997	87.06
472.216	84.06
472.435	100.06
472.654	98.06
472.873	93.06
473.092	86.06
473.311	97.06
473.53	94.06
473.749	95.06
473.968	99.06
474.187	104.06
474.406	88.06
474.625	87.06
474.844	78.06
475.063	84.06
475.282	82.06
475.501	85.06
475.72	88.06
475.939	74.06
476.158	84.06
476.377	89.06
476.596	96.06
476.814	90.06
477.033	99.06
477.252	98.06
477.471	88.06
477.69	100.06
477.908	96.06
478.127	85.06
478.346	86.06
478.564	95.06
478.783	101.06
479.002	74.06
479.22	98.06
479.439	104.06
479.658	100.06
479.876	96.06
480.095	90.06
480.313	92.06
480.532	92.06
480.751	104.06
480.969	92.06
481.188	116.06
481.406	101.06
481.624	86.06
481.843	90.06
482.061	82.06
482.28	85.06
482.498	90.06
482.717	87.06
482.935	101.06
483.153	95.06
483.372	94.06
483.59	92.06
483.808	86.06
484.027	107.06
484.245	96.06
484.463	91.06
484.681	100.06
484.9	100.06
485.118	88.06
485.336	102.06
485.554	97.06
485.772	95.06
485.99	101.06
486.209	80.06
486.427	101.06
486.645	116.06
486.863	100.06
487.081	111.06
487.299	85.06
487.517	97.06
487.735	98.06
487.953	105.06
488.171	94.06
488.389	85.06
488.607	102.06
488.825	90.06
489.043	98.06
489.261	99.06
489.479	92.06
489.696	101.06
489.914	103.06
490.132	69.06
490.35	95.06
490.568	80.06
490.786	101.06
491.003	102.06
491.221	90.06
491.439	97.06
491.657	83.06
491.874	96.06
492.092	94.06
492.31	101.06
492.527	95.06
492.745	105.06
492.963	84.06
493.18	88.06
493.398	108.06
493.615	86.06
493.833	92.06
494.05	87.06
494.268	101.06
494.485	92.06
494.703	97.06
494.92	93.06
495.138	88.06
495.355	83.06
495.573	94.06
495.79	99.06
496.008	100.06
496.225	101.06
496.442	91.06
496.66	106.06
496.877	103.06
497.094	117.06
497.312	97.06
497.529	96.06
497.746	104.06
497.963	109.06
498.181	104.06
498.398	113.06
498.615	113.06
498.832	101.06
499.049	94.06
499.267	95.06
499.484	97.06
499.701	89.06
499.918	96.06
500.135	91.06
500.352	95.06
500.569	102.06
500.786	101.06
501.003	96.06
501.22	86.06
501.437	88.06
501.654	77.06
501.871	117.06
502.088	100.06
502.305	80.06
502.522	92.06
502.739	94.06
502.956	76.06
503.172	96.06
503.389	104.06
503.606	91.06
503.823	104.06
504.04	98.06
504.256	90.06
504.473	88.06
504.69	88.06
504.907	87.06
505.123	79.06
505.34	85.06
505.557	93.06
505.773	71.06
505.99	90.06
506.207	96.06
506.423	90.06
506.64	104.06
506.856	99.06
507.073	89.06
507.289	112.06
507.506	99.06
507.722	106.06
507.939	102.06
508.155	102.06
508.372	100.06
508.588	89.06
508.805	106.06
509.021	106.06
509.238	111.06
509.454	107.06
509.67	102.06
509.887	99.06
510.103	131.06
510.319	215.06
510.536	711.06
510.752	2351.06
510.968	617.06
511.184	160.06
511.401	106.06
511.617	104.06
511.833	93.06
512.049	89.06
512.265	98.06
512.481	95.06
512.698	92.06
512.914	87.06
513.13	89.06
513.346	90.06
513.562	97.06
513.778	98.06
513.994	96.06
514.21	102.06
514.426	99.06
514.642	131.06
514.858	133.06
515.074	162.06
515.29	442.06
