Data from Uncirc_1990_H10_HRD10591_00083.txt Node
Date: Wed Jan 03 11:54:08 EST 2024
User: Yrep
Spectrometer: HR+D1059
Trigger mode: 1
Integration Time (sec): 1.000000E-1
Scans to average: 1
Electric dark correction enabled: true
Nonlinearity correction enabled: false
Boxcar width: 0
XAxis mode: Wavelengths
Number of Pixels in Spectrum: 2048
>>>>>Begin Spectral Data<<<<<
223.165	-10.88
223.4	-10.88
223.635	-10.88
223.869	-23.88
224.104	-26.88
224.338	-18.88
224.573	-24.88
224.808	5.12
225.042	5.12
225.277	-6.88
225.511	5.12
225.746	-8.88
225.98	-9.88
226.215	19.12
226.449	15.12
226.683	21.12
226.918	17.12
227.152	43.12
227.387	29.12
227.621	36.12
227.856	46.12
228.09	36.12
228.324	47.12
228.559	59.12
228.793	54.12
229.027	53.12
229.262	60.12
229.496	74.12
229.73	75.12
229.964	75.12
230.199	79.12
230.433	81.12
230.667	71.12
230.901	77.12
231.136	65.12
231.37	68.12
231.604	91.12
231.838	67.12
232.072	82.12
232.306	85.12
232.541	76.12
232.775	87.12
233.009	87.12
233.243	84.12
233.477	77.12
233.711	81.12
233.945	73.12
234.179	82.12
234.413	68.12
234.647	77.12
234.881	77.12
235.115	70.12
235.349	80.12
235.583	78.12
235.817	82.12
236.051	83.12
236.285	64.12
236.519	79.12
236.753	71.12
236.987	66.12
237.221	78.12
237.455	80.12
237.689	66.12
237.922	76.12
238.156	84.12
238.39	66.12
238.624	70.12
238.858	85.12
239.091	79.12
239.325	87.12
239.559	90.12
239.793	94.12
240.027	70.12
240.26	74.12
240.494	76.12
240.728	68.12
240.961	79.12
241.195	75.12
241.429	76.12
241.662	74.12
241.896	74.12
242.13	67.12
242.363	75.12
242.597	69.12
242.83	91.12
243.064	91.12
243.298	78.12
243.531	80.12
243.765	67.12
243.998	86.12
244.232	70.12
244.465	91.12
244.699	90.12
244.932	81.12
245.166	83.12
245.399	81.12
245.633	74.12
245.866	74.12
246.099	69.12
246.333	82.12
246.566	85.12
246.8	90.12
247.033	69.12
247.266	71.12
247.5	75.12
247.733	77.12
247.966	75.12
248.2	76.12
248.433	73.12
248.666	85.12
248.899	80.12
249.133	84.12
249.366	103.12
249.599	97.12
249.832	84.12
250.066	84.12
250.299	70.12
250.532	79.12
250.765	90.12
250.998	82.12
251.231	75.12
251.465	82.12
251.698	77.12
251.931	75.12
252.164	79.12
252.397	66.12
252.63	75.12
252.863	75.12
253.096	83.12
253.329	76.12
253.562	83.12
253.795	77.12
254.028	81.12
254.261	71.12
254.494	72.12
254.727	77.12
254.96	79.12
255.193	90.12
255.426	75.12
255.659	81.12
255.892	80.12
256.124	66.12
256.357	76.12
256.59	76.12
256.823	87.12
257.056	71.12
257.289	83.12
257.521	87.12
257.754	89.12
257.987	70.12
258.22	78.12
258.452	81.12
258.685	75.12
258.918	77.12
259.151	70.12
259.383	90.12
259.616	97.12
259.849	77.12
260.081	66.12
260.314	79.12
260.547	70.12
260.779	82.12
261.012	91.12
261.244	98.12
261.477	89.12
261.71	82.12
261.942	119.12
262.175	111.12
262.407	92.12
262.64	95.12
262.872	77.12
263.105	79.12
263.337	66.12
263.57	82.12
263.802	76.12
264.035	81.12
264.267	84.12
264.499	73.12
264.732	74.12
264.964	86.12
265.197	84.12
265.429	93.12
265.661	85.12
265.894	84.12
266.126	76.12
266.358	81.12
266.591	83.12
266.823	79.12
267.055	78.12
267.287	84.12
267.52	77.12
267.752	80.12
267.984	77.12
268.216	78.12
268.448	103.12
268.681	78.12
268.913	93.12
269.145	87.12
269.377	81.12
269.609	84.12
269.841	83.12
270.073	69.12
270.306	81.12
270.538	75.12
270.77	81.12
271.002	75.12
271.234	85.12
271.466	89.12
271.698	96.12
271.93	80.12
272.162	95.12
272.394	99.12
272.626	79.12
272.858	90.12
273.09	77.12
273.322	88.12
273.553	86.12
273.785	85.12
274.017	75.12
274.249	76.12
274.481	87.12
274.713	73.12
274.945	86.12
275.176	88.12
275.408	101.12
275.64	80.12
275.872	88.12
276.104	90.12
276.335	90.12
276.567	100.12
276.799	102.12
277.031	86.12
277.262	98.12
277.494	77.12
277.726	95.12
277.957	74.12
278.189	82.12
278.421	81.12
278.652	80.12
278.884	90.12
279.115	81.12
279.347	78.12
279.579	86.12
279.81	75.12
280.042	93.12
280.273	91.12
280.505	70.12
280.736	83.12
280.968	83.12
281.199	83.12
281.431	71.12
281.662	79.12
281.894	90.12
282.125	92.12
282.356	114.12
282.588	129.12
282.819	106.12
283.051	100.12
283.282	89.12
283.513	101.12
283.745	79.12
283.976	83.12
284.207	88.12
284.439	78.12
284.67	89.12
284.901	77.12
285.132	76.12
285.364	77.12
285.595	87.12
285.826	79.12
286.057	92.12
286.288	81.12
286.52	64.12
286.751	88.12
286.982	83.12
287.213	83.12
287.444	76.12
287.675	77.12
287.906	81.12
288.138	90.12
288.369	102.12
288.6	81.12
288.831	89.12
289.062	88.12
289.293	94.12
289.524	82.12
289.755	84.12
289.986	71.12
290.217	93.12
290.448	89.12
290.679	77.12
290.91	86.12
291.141	85.12
291.371	83.12
291.602	91.12
291.833	91.12
292.064	97.12
292.295	94.12
292.526	96.12
292.757	85.12
292.987	86.12
293.218	83.12
293.449	76.12
293.68	87.12
293.91	82.12
294.141	69.12
294.372	73.12
294.603	101.12
294.833	93.12
295.064	91.12
295.295	100.12
295.525	90.12
295.756	98.12
295.987	119.12
296.217	140.12
296.448	114.12
296.679	93.12
296.909	91.12
297.14	85.12
297.37	84.12
297.601	97.12
297.831	81.12
298.062	76.12
298.292	91.12
298.523	110.12
298.753	81.12
298.984	75.12
299.214	91.12
299.445	101.12
299.675	95.12
299.905	99.12
300.136	83.12
300.366	82.12
300.597	81.12
300.827	82.12
301.057	104.12
301.288	111.12
301.518	98.12
301.748	95.12
301.979	105.12
302.209	92.12
302.439	78.12
302.669	83.12
302.9	88.12
303.13	85.12
303.36	89.12
303.59	90.12
303.82	92.12
304.051	84.12
304.281	96.12
304.511	101.12
304.741	90.12
304.971	105.12
305.201	98.12
305.431	96.12
305.661	103.12
305.891	75.12
306.121	79.12
306.352	94.12
306.582	99.12
306.812	105.12
307.042	87.12
307.272	96.12
307.502	90.12
307.731	87.12
307.961	95.12
308.191	90.12
308.421	100.12
308.651	91.12
308.881	95.12
309.111	94.12
309.341	87.12
309.571	100.12
309.8	90.12
310.03	91.12
310.26	91.12
310.49	98.12
310.72	97.12
310.949	92.12
311.179	107.12
311.409	90.12
311.639	85.12
311.868	78.12
312.098	107.12
312.328	84.12
312.557	106.12
312.787	95.12
313.017	97.12
313.246	89.12
313.476	93.12
313.706	91.12
313.935	95.12
314.165	82.12
314.394	100.12
314.624	87.12
314.853	86.12
315.083	85.12
315.312	96.12
315.542	104.12
315.771	75.12
316.001	99.12
316.23	91.12
316.46	93.12
316.689	87.12
316.919	87.12
317.148	75.12
317.377	92.12
317.607	100.12
317.836	96.12
318.065	79.12
318.295	84.12
318.524	88.12
318.753	87.12
318.983	100.12
319.212	102.12
319.441	100.12
319.67	114.12
319.9	80.12
320.129	92.12
320.358	85.12
320.587	100.12
320.816	111.12
321.046	104.12
321.275	93.12
321.504	102.12
321.733	92.12
321.962	91.12
322.191	89.12
322.42	102.12
322.649	92.12
322.878	98.12
323.108	99.12
323.337	116.12
323.566	127.12
323.795	165.12
324.024	195.12
324.253	389.12
324.482	849.12
324.71	1753.12
324.939	2333.12
325.168	828.12
325.397	255.12
325.626	161.12
325.855	130.12
326.084	130.12
326.313	138.12
326.542	160.12
326.77	232.12
326.999	450.12
327.228	990.12
327.457	1823.12
327.686	1444.12
327.914	389.12
328.143	183.12
328.372	149.12
328.6	112.12
328.829	111.12
329.058	136.12
329.287	119.12
329.515	115.12
329.744	101.12
329.972	109.12
330.201	113.12
330.43	120.12
330.658	124.12
330.887	135.12
331.115	126.12
331.344	95.12
331.572	105.12
331.801	110.12
332.03	101.12
332.258	95.12
332.486	95.12
332.715	84.12
332.943	93.12
333.172	89.12
333.4	86.12
333.629	93.12
333.857	119.12
334.085	116.12
334.314	111.12
334.542	115.12
334.771	120.12
334.999	98.12
335.227	81.12
335.455	86.12
335.684	100.12
335.912	99.12
336.14	103.12
336.369	96.12
336.597	107.12
336.825	88.12
337.053	89.12
337.281	89.12
337.51	83.12
337.738	90.12
337.966	89.12
338.194	111.12
338.422	102.12
338.65	93.12
338.878	98.12
339.106	89.12
339.334	111.12
339.562	86.12
339.79	96.12
340.018	102.12
340.246	81.12
340.474	100.12
340.702	81.12
340.93	85.12
341.158	80.12
341.386	80.12
341.614	99.12
341.842	95.12
342.07	83.12
342.298	78.12
342.526	91.12
342.754	100.12
342.981	86.12
343.209	93.12
343.437	110.12
343.665	90.12
343.893	91.12
344.12	79.12
344.348	96.12
344.576	94.12
344.804	100.12
345.031	93.12
345.259	98.12
345.487	83.12
345.714	100.12
345.942	105.12
346.17	99.12
346.397	88.12
346.625	85.12
346.853	85.12
347.08	97.12
347.308	105.12
347.535	90.12
347.763	94.12
347.99	91.12
348.218	93.12
348.445	102.12
348.673	92.12
348.9	101.12
349.128	94.12
349.355	102.12
349.583	97.12
349.81	89.12
350.037	105.12
350.265	85.12
350.492	82.12
350.72	108.12
350.947	96.12
351.174	106.12
351.402	113.12
351.629	115.12
351.856	103.12
352.083	98.12
352.311	116.12
352.538	115.12
352.765	99.12
352.992	100.12
353.22	96.12
353.447	99.12
353.674	96.12
353.901	93.12
354.128	112.12
354.355	91.12
354.583	100.12
354.81	94.12
355.037	98.12
355.264	76.12
355.491	100.12
355.718	90.12
355.945	94.12
356.172	90.12
356.399	92.12
356.626	84.12
356.853	93.12
357.08	79.12
357.307	99.12
357.534	99.12
357.761	97.12
357.988	101.12
358.215	86.12
358.441	96.12
358.668	94.12
358.895	91.12
359.122	98.12
359.349	99.12
359.576	100.12
359.802	98.12
360.029	113.12
360.256	103.12
360.483	98.12
360.709	99.12
360.936	79.12
361.163	92.12
361.39	97.12
361.616	80.12
361.843	93.12
362.07	82.12
362.296	101.12
362.523	87.12
362.749	96.12
362.976	81.12
363.203	90.12
363.429	73.12
363.656	81.12
363.882	97.12
364.109	108.12
364.335	89.12
364.562	96.12
364.788	86.12
365.015	111.12
365.241	104.12
365.468	99.12
365.694	98.12
365.92	95.12
366.147	102.12
366.373	93.12
366.599	78.12
366.826	98.12
367.052	91.12
367.278	85.12
367.505	93.12
367.731	91.12
367.957	99.12
368.184	95.12
368.41	82.12
368.636	115.12
368.862	129.12
369.089	116.12
369.315	83.12
369.541	93.12
369.767	90.12
369.993	78.12
370.219	102.12
370.445	84.12
370.672	83.12
370.898	84.12
371.124	100.12
371.35	87.12
371.576	96.12
371.802	99.12
372.028	90.12
372.254	84.12
372.48	82.12
372.706	93.12
372.932	91.12
373.158	95.12
373.384	81.12
373.61	92.12
373.835	96.12
374.061	90.12
374.287	95.12
374.513	112.12
374.739	89.12
374.965	86.12
375.191	93.12
375.416	94.12
375.642	99.12
375.868	101.12
376.094	86.12
376.319	93.12
376.545	82.12
376.771	95.12
376.997	75.12
377.222	90.12
377.448	90.12
377.674	82.12
377.899	93.12
378.125	89.12
378.35	96.12
378.576	76.12
378.802	89.12
379.027	92.12
379.253	91.12
379.478	92.12
379.704	77.12
379.929	77.12
380.155	83.12
380.38	84.12
380.606	83.12
380.831	103.12
381.057	89.12
381.282	93.12
381.507	96.12
381.733	92.12
381.958	89.12
382.184	95.12
382.409	101.12
382.634	100.12
382.86	105.12
383.085	100.12
383.31	94.12
383.535	97.12
383.761	91.12
383.986	95.12
384.211	104.12
384.436	89.12
384.662	85.12
384.887	89.12
385.112	99.12
385.337	109.12
385.562	100.12
385.787	91.12
386.013	103.12
386.238	111.12
386.463	106.12
386.688	120.12
386.913	100.12
387.138	91.12
387.363	101.12
387.588	109.12
387.813	106.12
388.038	102.12
388.263	94.12
388.488	103.12
388.713	100.12
388.938	107.12
389.163	85.12
389.387	92.12
389.612	103.12
389.837	82.12
390.062	88.12
390.287	79.12
390.512	95.12
390.736	93.12
390.961	84.12
391.186	93.12
391.411	90.12
391.636	100.12
391.86	84.12
392.085	81.12
392.31	86.12
392.534	88.12
392.759	89.12
392.984	100.12
393.208	84.12
393.433	89.12
393.658	95.12
393.882	90.12
394.107	84.12
394.331	85.12
394.556	82.12
394.78	85.12
395.005	80.12
395.229	80.12
395.454	90.12
395.678	105.12
395.903	94.12
396.127	99.12
396.352	80.12
396.576	75.12
396.801	87.12
397.025	94.12
397.249	102.12
397.474	79.12
397.698	84.12
397.922	94.12
398.147	89.12
398.371	76.12
398.595	95.12
398.82	80.12
399.044	80.12
399.268	76.12
399.492	88.12
399.717	94.12
399.941	102.12
400.165	93.12
400.389	82.12
400.613	95.12
400.837	82.12
401.062	86.12
401.286	95.12
401.51	84.12
401.734	86.12
401.958	109.12
402.182	120.12
402.406	144.12
402.63	119.12
402.854	79.12
403.078	83.12
403.302	77.12
403.526	92.12
403.75	106.12
403.974	80.12
404.198	78.12
404.422	98.12
404.645	80.12
404.869	83.12
405.093	92.12
405.317	103.12
405.541	81.12
405.765	115.12
405.988	122.12
406.212	173.12
406.436	220.12
406.66	137.12
406.883	108.12
407.107	82.12
407.331	97.12
407.555	113.12
407.778	94.12
408.002	89.12
408.226	74.12
408.449	93.12
408.673	89.12
408.896	93.12
409.12	95.12
409.344	101.12
409.567	105.12
409.791	77.12
410.014	78.12
410.238	92.12
410.461	85.12
410.685	90.12
410.908	102.12
411.132	92.12
411.355	99.12
411.578	97.12
411.802	89.12
412.025	84.12
412.249	99.12
412.472	92.12
412.695	91.12
412.919	90.12
413.142	79.12
413.365	75.12
413.589	93.12
413.812	100.12
414.035	86.12
414.258	84.12
414.482	86.12
414.705	80.12
414.928	84.12
415.151	89.12
415.374	96.12
415.597	93.12
415.821	85.12
416.044	92.12
416.267	77.12
416.49	91.12
416.713	88.12
416.936	80.12
417.159	85.12
417.382	98.12
417.605	84.12
417.828	98.12
418.051	83.12
418.274	87.12
418.497	88.12
418.72	83.12
418.943	86.12
419.166	90.12
419.389	95.12
419.611	89.12
419.834	92.12
420.057	82.12
420.28	69.12
420.503	90.12
420.726	83.12
420.948	85.12
421.171	94.12
421.394	91.12
421.617	89.12
421.839	90.12
422.062	99.12
422.285	85.12
422.507	96.12
422.73	102.12
422.953	89.12
423.175	82.12
423.398	77.12
423.621	89.12
423.843	93.12
424.066	87.12
424.288	77.12
424.511	97.12
424.733	107.12
424.956	115.12
425.178	97.12
425.401	109.12
425.623	90.12
425.846	100.12
426.068	93.12
426.291	93.12
426.513	83.12
426.735	89.12
426.958	99.12
427.18	114.12
427.402	130.12
427.625	159.12
427.847	125.12
428.069	108.12
428.292	98.12
428.514	83.12
428.736	85.12
428.958	97.12
429.181	91.12
429.403	93.12
429.625	89.12
429.847	94.12
430.069	101.12
430.292	99.12
430.514	85.12
430.736	94.12
430.958	89.12
431.18	89.12
431.402	99.12
431.624	94.12
431.846	77.12
432.068	85.12
432.29	73.12
432.512	80.12
432.734	86.12
432.956	92.12
433.178	89.12
433.4	94.12
433.622	89.12
433.844	84.12
434.066	83.12
434.287	97.12
434.509	85.12
434.731	102.12
434.953	82.12
435.175	80.12
435.397	93.12
435.618	89.12
435.84	84.12
436.062	115.12
436.284	114.12
436.505	106.12
436.727	100.12
436.949	90.12
437.17	91.12
437.392	79.12
437.614	92.12
437.835	94.12
438.057	110.12
438.278	111.12
438.5	102.12
438.721	127.12
438.943	97.12
439.165	81.12
439.386	92.12
439.608	97.12
439.829	108.12
440.05	104.12
440.272	146.12
440.493	100.12
440.715	100.12
440.936	99.12
441.158	86.12
441.379	83.12
441.6	88.12
441.822	85.12
442.043	98.12
442.264	106.12
442.486	92.12
442.707	97.12
442.928	98.12
443.149	121.12
443.371	118.12
443.592	111.12
443.813	127.12
444.034	99.12
444.255	103.12
444.476	83.12
444.698	99.12
444.919	79.12
445.14	108.12
445.361	111.12
445.582	109.12
445.803	126.12
446.024	128.12
446.245	128.12
446.466	98.12
446.687	76.12
446.908	87.12
447.129	90.12
447.35	81.12
447.571	83.12
447.792	102.12
448.013	103.12
448.234	116.12
448.455	98.12
448.675	101.12
448.896	122.12
449.117	95.12
449.338	92.12
449.559	130.12
449.779	124.12
450	96.12
450.221	87.12
450.442	83.12
450.662	97.12
450.883	115.12
451.104	95.12
451.324	91.12
451.545	99.12
451.766	92.12
451.986	91.12
452.207	92.12
452.428	93.12
452.648	89.12
452.869	100.12
453.089	110.12
453.31	102.12
453.53	88.12
453.751	89.12
453.971	90.12
454.192	109.12
454.412	105.12
454.633	105.12
454.853	115.12
455.073	79.12
455.294	79.12
455.514	98.12
455.734	86.12
455.955	87.12
456.175	77.12
456.395	91.12
456.616	87.12
456.836	87.12
457.056	83.12
457.276	71.12
457.497	105.12
457.717	89.12
457.937	80.12
458.157	98.12
458.377	94.12
458.598	108.12
458.818	144.12
459.038	149.12
459.258	90.12
459.478	89.12
459.698	95.12
459.918	82.12
460.138	73.12
460.358	87.12
460.578	71.12
460.798	92.12
461.018	101.12
461.238	78.12
461.458	89.12
461.678	82.12
461.898	86.12
462.118	90.12
462.338	77.12
462.558	80.12
462.777	82.12
462.997	85.12
463.217	80.12
463.437	93.12
463.657	86.12
463.876	71.12
464.096	82.12
464.316	93.12
464.536	87.12
464.755	94.12
464.975	107.12
465.195	159.12
465.414	148.12
465.634	97.12
465.854	86.12
466.073	95.12
466.293	98.12
466.512	93.12
466.732	77.12
466.951	94.12
467.171	84.12
467.391	86.12
467.61	101.12
467.829	96.12
468.049	101.12
468.268	101.12
468.488	97.12
468.707	89.12
468.927	84.12
469.146	72.12
469.365	79.12
469.585	90.12
469.804	105.12
470.023	85.12
470.243	95.12
470.462	71.12
470.681	107.12
470.901	93.12
471.12	84.12
471.339	98.12
471.558	94.12
471.777	83.12
471.997	97.12
472.216	114.12
472.435	126.12
472.654	87.12
472.873	68.12
473.092	71.12
473.311	84.12
473.53	94.12
473.749	87.12
473.968	104.12
474.187	103.12
474.406	98.12
474.625	90.12
474.844	79.12
475.063	86.12
475.282	82.12
475.501	74.12
475.72	91.12
475.939	73.12
476.158	100.12
476.377	81.12
476.596	78.12
476.814	99.12
477.033	77.12
477.252	80.12
477.471	105.12
477.69	92.12
477.908	89.12
478.127	102.12
478.346	100.12
478.564	97.12
478.783	84.12
479.002	88.12
479.22	90.12
479.439	97.12
479.658	107.12
479.876	87.12
480.095	80.12
480.313	99.12
480.532	88.12
480.751	83.12
480.969	98.12
481.188	146.12
481.406	121.12
481.624	102.12
481.843	94.12
482.061	85.12
482.28	87.12
482.498	75.12
482.717	97.12
482.935	102.12
483.153	91.12
483.372	84.12
483.59	98.12
483.808	96.12
484.027	87.12
484.245	90.12
484.463	115.12
484.681	83.12
484.9	79.12
485.118	85.12
485.336	107.12
485.554	89.12
485.772	91.12
485.99	77.12
486.209	107.12
486.427	94.12
486.645	114.12
486.863	106.12
487.081	107.12
487.299	86.12
487.517	86.12
487.735	87.12
487.953	80.12
488.171	109.12
488.389	95.12
488.607	98.12
488.825	95.12
489.043	95.12
489.261	106.12
489.479	97.12
489.696	70.12
489.914	68.12
490.132	94.12
490.35	102.12
490.568	94.12
490.786	106.12
491.003	97.12
491.221	92.12
491.439	105.12
491.657	85.12
491.874	90.12
492.092	98.12
492.31	94.12
492.527	94.12
492.745	75.12
492.963	93.12
493.18	84.12
493.398	92.12
493.615	96.12
493.833	82.12
494.05	91.12
494.268	88.12
494.485	81.12
494.703	94.12
494.92	96.12
495.138	77.12
495.355	86.12
495.573	102.12
495.79	90.12
496.008	96.12
496.225	85.12
496.442	94.12
496.66	84.12
496.877	94.12
497.094	85.12
497.312	87.12
497.529	82.12
497.746	90.12
497.963	87.12
498.181	93.12
498.398	108.12
498.615	114.12
498.832	91.12
499.049	91.12
499.267	90.12
499.484	96.12
499.701	78.12
499.918	91.12
500.135	82.12
500.352	90.12
500.569	99.12
500.786	102.12
501.003	99.12
501.22	86.12
501.437	84.12
501.654	92.12
501.871	95.12
502.088	102.12
502.305	96.12
502.522	78.12
502.739	90.12
502.956	91.12
503.172	81.12
503.389	102.12
503.606	104.12
503.823	101.12
504.04	84.12
504.256	98.12
504.473	94.12
504.69	89.12
504.907	101.12
505.123	94.12
505.34	97.12
505.557	114.12
505.773	93.12
505.99	85.12
506.207	98.12
506.423	100.12
506.64	95.12
506.856	89.12
507.073	61.12
507.289	82.12
507.506	89.12
507.722	101.12
507.939	103.12
508.155	82.12
508.372	104.12
508.588	93.12
508.805	90.12
509.021	85.12
509.238	101.12
509.454	96.12
509.67	95.12
509.887	119.12
510.103	141.12
510.319	212.12
510.536	764.12
510.752	2419.12
510.968	663.12
511.184	153.12
511.401	103.12
511.617	98.12
511.833	108.12
512.049	102.12
512.265	87.12
512.481	83.12
512.698	97.12
512.914	93.12
513.13	78.12
513.346	73.12
513.562	102.12
513.778	97.12
513.994	98.12
514.21	106.12
514.426	117.12
514.642	132.12
514.858	116.12
515.074	158.12
515.29	461.12
515.506	1451.12
515.721	511.12
