Data from Uncirc_1990_H10_HRD10591_00023.txt Node
Date: Wed Jan 03 11:53:56 EST 2024
User: Yrep
Spectrometer: HR+D1059
Trigger mode: 1
Integration Time (sec): 1.000000E-1
Scans to average: 1
Electric dark correction enabled: true
Nonlinearity correction enabled: false
Boxcar width: 0
XAxis mode: Wavelengths
Number of Pixels in Spectrum: 2048
>>>>>Begin Spectral Data<<<<<
223.165	-12.69
223.4	-12.69
223.635	-12.69
223.869	-24.69
224.104	-27.69
224.338	-18.69
224.573	-30.69
224.808	-7.69
225.042	4.31
225.277	-9.69
225.511	6.31
225.746	-3.69
225.98	14.31
226.215	13.31
226.449	22.31
226.683	16.31
226.918	29.31
227.152	29.31
227.387	44.31
227.621	38.31
227.856	45.31
228.09	52.31
228.324	49.31
228.559	62.31
228.793	59.31
229.027	68.31
229.262	61.31
229.496	67.31
229.73	75.31
229.964	83.31
230.199	82.31
230.433	76.31
230.667	71.31
230.901	90.31
231.136	68.31
231.37	82.31
231.604	65.31
231.838	83.31
232.072	88.31
232.306	88.31
232.541	90.31
232.775	95.31
233.009	86.31
233.243	95.31
233.477	86.31
233.711	82.31
233.945	94.31
234.179	91.31
234.413	88.31
234.647	73.31
234.881	91.31
235.115	74.31
235.349	79.31
235.583	89.31
235.817	73.31
236.051	76.31
236.285	88.31
236.519	83.31
236.753	87.31
236.987	84.31
237.221	91.31
237.455	80.31
237.689	71.31
237.922	76.31
238.156	79.31
238.39	87.31
238.624	82.31
238.858	73.31
239.091	76.31
239.325	87.31
239.559	87.31
239.793	85.31
240.027	67.31
240.26	76.31
240.494	72.31
240.728	66.31
240.961	72.31
241.195	80.31
241.429	91.31
241.662	83.31
241.896	70.31
242.13	81.31
242.363	72.31
242.597	93.31
242.83	67.31
243.064	82.31
243.298	83.31
243.531	86.31
243.765	73.31
243.998	92.31
244.232	99.31
244.465	79.31
244.699	90.31
244.932	89.31
245.166	78.31
245.399	81.31
245.633	84.31
245.866	89.31
246.099	87.31
246.333	101.31
246.566	82.31
246.8	91.31
247.033	72.31
247.266	93.31
247.5	97.31
247.733	81.31
247.966	73.31
248.2	87.31
248.433	66.31
248.666	86.31
248.899	87.31
249.133	76.31
249.366	97.31
249.599	91.31
249.832	91.31
250.066	88.31
250.299	93.31
250.532	84.31
250.765	75.31
250.998	101.31
251.231	87.31
251.465	90.31
251.698	82.31
251.931	80.31
252.164	81.31
252.397	90.31
252.63	70.31
252.863	80.31
253.096	89.31
253.329	92.31
253.562	72.31
253.795	85.31
254.028	93.31
254.261	71.31
254.494	88.31
254.727	81.31
254.96	84.31
255.193	95.31
255.426	89.31
255.659	79.31
255.892	85.31
256.124	80.31
256.357	74.31
256.59	92.31
256.823	87.31
257.056	75.31
257.289	70.31
257.521	86.31
257.754	80.31
257.987	86.31
258.22	88.31
258.452	72.31
258.685	76.31
258.918	85.31
259.151	72.31
259.383	72.31
259.616	84.31
259.849	87.31
260.081	87.31
260.314	83.31
260.547	79.31
260.779	91.31
261.012	93.31
261.244	83.31
261.477	100.31
261.71	86.31
261.942	101.31
262.175	107.31
262.407	104.31
262.64	81.31
262.872	77.31
263.105	95.31
263.337	85.31
263.57	92.31
263.802	92.31
264.035	92.31
264.267	103.31
264.499	87.31
264.732	87.31
264.964	83.31
265.197	91.31
265.429	94.31
265.661	90.31
265.894	85.31
266.126	91.31
266.358	88.31
266.591	84.31
266.823	72.31
267.055	71.31
267.287	92.31
267.52	89.31
267.752	81.31
267.984	83.31
268.216	101.31
268.448	71.31
268.681	85.31
268.913	88.31
269.145	81.31
269.377	84.31
269.609	88.31
269.841	93.31
270.073	77.31
270.306	79.31
270.538	79.31
270.77	92.31
271.002	97.31
271.234	88.31
271.466	79.31
271.698	95.31
271.93	95.31
272.162	87.31
272.394	82.31
272.626	86.31
272.858	95.31
273.09	81.31
273.322	74.31
273.553	88.31
273.785	95.31
274.017	78.31
274.249	89.31
274.481	83.31
274.713	74.31
274.945	93.31
275.176	83.31
275.408	91.31
275.64	78.31
275.872	112.31
276.104	82.31
276.335	93.31
276.567	96.31
276.799	98.31
277.031	110.31
277.262	109.31
277.494	95.31
277.726	91.31
277.957	81.31
278.189	79.31
278.421	95.31
278.652	93.31
278.884	103.31
279.115	84.31
279.347	86.31
279.579	84.31
279.81	82.31
280.042	96.31
280.273	82.31
280.505	89.31
280.736	96.31
280.968	70.31
281.199	94.31
281.431	98.31
281.662	96.31
281.894	106.31
282.125	105.31
282.356	115.31
282.588	124.31
282.819	109.31
283.051	88.31
283.282	95.31
283.513	90.31
283.745	95.31
283.976	87.31
284.207	95.31
284.439	85.31
284.67	79.31
284.901	96.31
285.132	91.31
285.364	96.31
285.595	96.31
285.826	88.31
286.057	96.31
286.288	94.31
286.52	87.31
286.751	93.31
286.982	92.31
287.213	98.31
287.444	88.31
287.675	85.31
287.906	103.31
288.138	95.31
288.369	98.31
288.6	98.31
288.831	87.31
289.062	81.31
289.293	97.31
289.524	85.31
289.755	89.31
289.986	89.31
290.217	100.31
290.448	92.31
290.679	92.31
290.91	80.31
291.141	99.31
291.371	87.31
291.602	82.31
291.833	89.31
292.064	93.31
292.295	83.31
292.526	102.31
292.757	91.31
292.987	98.31
293.218	80.31
293.449	93.31
293.68	100.31
293.91	90.31
294.141	89.31
294.372	84.31
294.603	109.31
294.833	104.31
295.064	87.31
295.295	101.31
295.525	90.31
295.756	105.31
295.987	116.31
296.217	137.31
296.448	112.31
296.679	102.31
296.909	88.31
297.14	99.31
297.37	106.31
297.601	93.31
297.831	78.31
298.062	104.31
298.292	93.31
298.523	103.31
298.753	101.31
298.984	109.31
299.214	88.31
299.445	91.31
299.675	110.31
299.905	113.31
300.136	100.31
300.366	100.31
300.597	101.31
300.827	99.31
301.057	110.31
301.288	107.31
301.518	108.31
301.748	84.31
301.979	97.31
302.209	92.31
302.439	83.31
302.669	86.31
302.9	90.31
303.13	100.31
303.36	94.31
303.59	92.31
303.82	116.31
304.051	86.31
304.281	88.31
304.511	98.31
304.741	89.31
304.971	85.31
305.201	98.31
305.431	95.31
305.661	91.31
305.891	97.31
306.121	103.31
306.352	95.31
306.582	106.31
306.812	88.31
307.042	98.31
307.272	86.31
307.502	98.31
307.731	96.31
307.961	102.31
308.191	97.31
308.421	85.31
308.651	90.31
308.881	95.31
309.111	107.31
309.341	104.31
309.571	103.31
309.8	100.31
310.03	93.31
310.26	103.31
310.49	103.31
310.72	83.31
310.949	87.31
311.179	94.31
311.409	103.31
311.639	93.31
311.868	108.31
312.098	98.31
312.328	106.31
312.557	119.31
312.787	101.31
313.017	88.31
313.246	96.31
313.476	97.31
313.706	97.31
313.935	117.31
314.165	109.31
314.394	99.31
314.624	92.31
314.853	85.31
315.083	95.31
315.312	90.31
315.542	92.31
315.771	85.31
316.001	90.31
316.23	83.31
316.46	100.31
316.689	105.31
316.919	96.31
317.148	111.31
317.377	95.31
317.607	104.31
317.836	95.31
318.065	83.31
318.295	96.31
318.524	107.31
318.753	91.31
318.983	109.31
319.212	103.31
319.441	93.31
319.67	112.31
319.9	98.31
320.129	95.31
320.358	101.31
320.587	99.31
320.816	97.31
321.046	101.31
321.275	110.31
321.504	102.31
321.733	90.31
321.962	101.31
322.191	101.31
322.42	113.31
322.649	111.31
322.878	103.31
323.108	119.31
323.337	108.31
323.566	130.31
323.795	138.31
324.024	188.31
324.253	340.31
324.482	731.31
324.71	1429.31
324.939	1932.31
325.168	712.31
325.397	239.31
325.626	143.31
325.855	150.31
326.084	136.31
326.313	134.31
326.542	143.31
326.77	213.31
326.999	393.31
327.228	812.31
327.457	1511.31
327.686	1178.31
327.914	345.31
328.143	188.31
328.372	123.31
328.6	116.31
328.829	129.31
329.058	130.31
329.287	117.31
329.515	109.31
329.744	96.31
329.972	117.31
330.201	105.31
330.43	108.31
330.658	116.31
330.887	126.31
331.115	129.31
331.344	95.31
331.572	105.31
331.801	101.31
332.03	115.31
332.258	89.31
332.486	85.31
332.715	99.31
332.943	98.31
333.172	97.31
333.4	99.31
333.629	100.31
333.857	101.31
334.085	117.31
334.314	95.31
334.542	102.31
334.771	96.31
334.999	92.31
335.227	89.31
335.455	87.31
335.684	102.31
335.912	112.31
336.14	101.31
336.369	103.31
336.597	97.31
336.825	103.31
337.053	103.31
337.281	100.31
337.51	84.31
337.738	108.31
337.966	110.31
338.194	101.31
338.422	84.31
338.65	90.31
338.878	100.31
339.106	85.31
339.334	92.31
339.562	98.31
339.79	98.31
340.018	93.31
340.246	96.31
340.474	93.31
340.702	104.31
340.93	90.31
341.158	96.31
341.386	94.31
341.614	89.31
341.842	90.31
342.07	99.31
342.298	87.31
342.526	103.31
342.754	91.31
342.981	90.31
343.209	96.31
343.437	98.31
343.665	104.31
343.893	104.31
344.12	100.31
344.348	101.31
344.576	93.31
344.804	103.31
345.031	109.31
345.259	101.31
345.487	85.31
345.714	107.31
345.942	88.31
346.17	85.31
346.397	105.31
346.625	106.31
346.853	101.31
347.08	101.31
347.308	92.31
347.535	88.31
347.763	107.31
347.99	105.31
348.218	116.31
348.445	116.31
348.673	119.31
348.9	97.31
349.128	101.31
349.355	87.31
349.583	103.31
349.81	108.31
350.037	93.31
350.265	93.31
350.492	89.31
350.72	79.31
350.947	96.31
351.174	107.31
351.402	101.31
351.629	110.31
351.856	108.31
352.083	106.31
352.311	105.31
352.538	108.31
352.765	107.31
352.992	109.31
353.22	104.31
353.447	99.31
353.674	116.31
353.901	114.31
354.128	104.31
354.355	102.31
354.583	112.31
354.81	96.31
355.037	98.31
355.264	92.31
355.491	102.31
355.718	92.31
355.945	90.31
356.172	95.31
356.399	107.31
356.626	92.31
356.853	96.31
357.08	108.31
357.307	98.31
357.534	96.31
357.761	103.31
357.988	109.31
358.215	77.31
358.441	105.31
358.668	106.31
358.895	95.31
359.122	103.31
359.349	89.31
359.576	68.31
359.802	85.31
360.029	101.31
360.256	114.31
360.483	101.31
360.709	86.31
360.936	102.31
361.163	106.31
361.39	96.31
361.616	94.31
361.843	106.31
362.07	106.31
362.296	85.31
362.523	101.31
362.749	93.31
362.976	100.31
363.203	92.31
363.429	98.31
363.656	95.31
363.882	108.31
364.109	97.31
364.335	88.31
364.562	90.31
364.788	95.31
365.015	104.31
365.241	92.31
365.468	97.31
365.694	105.31
365.92	90.31
366.147	84.31
366.373	107.31
366.599	95.31
366.826	91.31
367.052	89.31
367.278	88.31
367.505	111.31
367.731	85.31
367.957	101.31
368.184	95.31
368.41	104.31
368.636	101.31
368.862	123.31
369.089	104.31
369.315	93.31
369.541	92.31
369.767	93.31
369.993	98.31
370.219	82.31
370.445	92.31
370.672	89.31
370.898	82.31
371.124	100.31
371.35	104.31
371.576	95.31
371.802	107.31
372.028	100.31
372.254	80.31
372.48	94.31
372.706	95.31
372.932	99.31
373.158	109.31
373.384	90.31
373.61	108.31
373.835	112.31
374.061	100.31
374.287	89.31
374.513	102.31
374.739	82.31
374.965	96.31
375.191	111.31
375.416	100.31
375.642	97.31
375.868	90.31
376.094	91.31
376.319	100.31
376.545	83.31
376.771	95.31
376.997	71.31
377.222	108.31
377.448	108.31
377.674	100.31
377.899	97.31
378.125	96.31
378.35	99.31
378.576	105.31
378.802	103.31
379.027	106.31
379.253	109.31
379.478	105.31
379.704	104.31
379.929	76.31
380.155	117.31
380.38	103.31
380.606	90.31
380.831	103.31
381.057	100.31
381.282	103.31
381.507	85.31
381.733	99.31
381.958	99.31
382.184	104.31
382.409	109.31
382.634	116.31
382.86	103.31
383.085	98.31
383.31	109.31
383.535	105.31
383.761	90.31
383.986	106.31
384.211	108.31
384.436	108.31
384.662	100.31
384.887	108.31
385.112	116.31
385.337	112.31
385.562	101.31
385.787	103.31
386.013	100.31
386.238	121.31
386.463	113.31
386.688	106.31
386.913	111.31
387.138	109.31
387.363	98.31
387.588	109.31
387.813	96.31
388.038	103.31
388.263	120.31
388.488	115.31
388.713	83.31
388.938	102.31
389.163	97.31
389.387	97.31
389.612	88.31
389.837	106.31
390.062	108.31
390.287	102.31
390.512	99.31
390.736	104.31
390.961	103.31
391.186	88.31
391.411	95.31
391.636	104.31
391.86	101.31
392.085	85.31
392.31	95.31
392.534	84.31
392.759	87.31
392.984	89.31
393.208	96.31
393.433	102.31
393.658	109.31
393.882	96.31
394.107	83.31
394.331	91.31
394.556	82.31
394.78	100.31
395.005	92.31
395.229	90.31
395.454	87.31
395.678	101.31
395.903	95.31
396.127	103.31
396.352	85.31
396.576	93.31
396.801	88.31
397.025	80.31
397.249	109.31
397.474	111.31
397.698	78.31
397.922	91.31
398.147	88.31
398.371	96.31
398.595	83.31
398.82	87.31
399.044	97.31
399.268	91.31
399.492	97.31
399.717	93.31
399.941	98.31
400.165	89.31
400.389	99.31
400.613	92.31
400.837	101.31
401.062	86.31
401.286	85.31
401.51	85.31
401.734	90.31
401.958	97.31
402.182	116.31
402.406	144.31
402.63	119.31
402.854	99.31
403.078	83.31
403.302	87.31
403.526	91.31
403.75	89.31
403.974	92.31
404.198	104.31
404.422	95.31
404.645	108.31
404.869	92.31
405.093	96.31
405.317	100.31
405.541	103.31
405.765	104.31
405.988	103.31
406.212	165.31
406.436	201.31
406.66	155.31
406.883	107.31
407.107	95.31
407.331	85.31
407.555	95.31
407.778	102.31
408.002	96.31
408.226	95.31
408.449	109.31
408.673	92.31
408.896	83.31
409.12	94.31
409.344	100.31
409.567	90.31
409.791	99.31
410.014	101.31
410.238	96.31
410.461	104.31
410.685	110.31
410.908	119.31
411.132	114.31
411.355	94.31
411.578	94.31
411.802	99.31
412.025	92.31
412.249	90.31
412.472	104.31
412.695	110.31
412.919	101.31
413.142	89.31
413.365	103.31
413.589	100.31
413.812	90.31
414.035	102.31
414.258	98.31
414.482	100.31
414.705	98.31
414.928	112.31
415.151	102.31
415.374	82.31
415.597	102.31
415.821	95.31
416.044	90.31
416.267	117.31
416.49	89.31
416.713	91.31
416.936	85.31
417.159	87.31
417.382	90.31
417.605	86.31
417.828	106.31
418.051	109.31
418.274	106.31
418.497	99.31
418.72	95.31
418.943	89.31
419.166	91.31
419.389	102.31
419.611	96.31
419.834	93.31
420.057	97.31
420.28	84.31
420.503	98.31
420.726	94.31
420.948	80.31
421.171	103.31
421.394	99.31
421.617	90.31
421.839	81.31
422.062	100.31
422.285	91.31
422.507	87.31
422.73	97.31
422.953	92.31
423.175	105.31
423.398	88.31
423.621	99.31
423.843	105.31
424.066	92.31
424.288	99.31
424.511	97.31
424.733	97.31
424.956	104.31
425.178	100.31
425.401	103.31
425.623	106.31
425.846	90.31
426.068	89.31
426.291	95.31
426.513	83.31
426.735	95.31
426.958	105.31
427.18	106.31
427.402	136.31
427.625	155.31
427.847	118.31
428.069	101.31
428.292	101.31
428.514	90.31
428.736	89.31
428.958	85.31
429.181	96.31
429.403	80.31
429.625	92.31
429.847	104.31
430.069	84.31
430.292	89.31
430.514	93.31
430.736	87.31
430.958	98.31
431.18	92.31
431.402	95.31
431.624	96.31
431.846	81.31
432.068	89.31
432.29	100.31
432.512	99.31
432.734	90.31
432.956	89.31
433.178	101.31
433.4	106.31
433.622	98.31
433.844	97.31
434.066	92.31
434.287	86.31
434.509	89.31
434.731	96.31
434.953	90.31
435.175	96.31
435.397	95.31
435.618	106.31
435.84	115.31
436.062	113.31
436.284	109.31
436.505	102.31
436.727	97.31
436.949	90.31
437.17	102.31
437.392	99.31
437.614	99.31
437.835	110.31
438.057	135.31
438.278	118.31
438.5	124.31
438.721	128.31
438.943	98.31
439.165	90.31
439.386	88.31
439.608	101.31
439.829	100.31
440.05	122.31
440.272	133.31
440.493	115.31
440.715	88.31
440.936	72.31
441.158	95.31
441.379	87.31
441.6	92.31
441.822	101.31
442.043	97.31
442.264	111.31
442.486	111.31
442.707	88.31
442.928	111.31
443.149	125.31
443.371	135.31
443.592	116.31
443.813	109.31
444.034	112.31
444.255	99.31
444.476	91.31
444.698	75.31
444.919	96.31
445.14	133.31
445.361	106.31
445.582	124.31
445.803	137.31
446.024	131.31
446.245	124.31
446.466	101.31
446.687	93.31
446.908	94.31
447.129	106.31
447.35	87.31
447.571	92.31
447.792	90.31
448.013	104.31
448.234	122.31
448.455	116.31
448.675	122.31
448.896	104.31
449.117	109.31
449.338	98.31
449.559	113.31
449.779	121.31
450	103.31
450.221	94.31
450.442	94.31
450.662	97.31
450.883	112.31
451.104	108.31
451.324	97.31
451.545	77.31
451.766	89.31
451.986	87.31
452.207	97.31
452.428	97.31
452.648	99.31
452.869	106.31
453.089	95.31
453.31	117.31
453.53	95.31
453.751	89.31
453.971	105.31
454.192	111.31
454.412	87.31
454.633	81.31
454.853	95.31
455.073	100.31
455.294	98.31
455.514	100.31
455.734	92.31
455.955	95.31
456.175	92.31
456.395	100.31
456.616	95.31
456.836	98.31
457.056	88.31
457.276	79.31
457.497	80.31
457.717	97.31
457.937	110.31
458.157	107.31
458.377	111.31
458.598	108.31
458.818	140.31
459.038	152.31
459.258	112.31
459.478	89.31
459.698	89.31
459.918	85.31
460.138	88.31
460.358	81.31
460.578	92.31
460.798	107.31
461.018	85.31
461.238	93.31
461.458	95.31
461.678	92.31
461.898	113.31
462.118	101.31
462.338	89.31
462.558	90.31
462.777	99.31
462.997	91.31
463.217	100.31
463.437	86.31
463.657	75.31
463.876	99.31
464.096	94.31
464.316	111.31
464.536	98.31
464.755	99.31
464.975	91.31
465.195	121.31
465.414	158.31
465.634	85.31
465.854	101.31
466.073	77.31
466.293	89.31
466.512	88.31
466.732	99.31
466.951	110.31
467.171	91.31
467.391	116.31
467.61	95.31
467.829	92.31
468.049	88.31
468.268	83.31
468.488	99.31
468.707	95.31
468.927	68.31
469.146	89.31
469.365	70.31
469.585	90.31
469.804	97.31
470.023	95.31
470.243	111.31
470.462	98.31
470.681	101.31
470.901	104.31
471.12	83.31
471.339	83.31
471.558	84.31
471.777	94.31
471.997	90.31
472.216	93.31
472.435	97.31
472.654	86.31
472.873	99.31
473.092	90.31
473.311	95.31
473.53	104.31
473.749	100.31
473.968	107.31
474.187	87.31
474.406	87.31
474.625	86.31
474.844	85.31
475.063	95.31
475.282	83.31
475.501	94.31
475.72	93.31
475.939	97.31
476.158	96.31
476.377	99.31
476.596	86.31
476.814	84.31
477.033	99.31
477.252	105.31
477.471	97.31
477.69	101.31
477.908	88.31
478.127	92.31
478.346	87.31
478.564	104.31
478.783	98.31
479.002	96.31
479.22	105.31
479.439	120.31
479.658	105.31
479.876	114.31
480.095	92.31
480.313	90.31
480.532	93.31
480.751	106.31
480.969	83.31
481.188	106.31
481.406	103.31
481.624	109.31
481.843	98.31
482.061	89.31
482.28	85.31
482.498	92.31
482.717	95.31
482.935	92.31
483.153	99.31
483.372	93.31
483.59	102.31
483.808	83.31
484.027	93.31
484.245	91.31
484.463	97.31
484.681	95.31
484.9	89.31
485.118	97.31
485.336	99.31
485.554	114.31
485.772	84.31
485.99	96.31
486.209	115.31
486.427	113.31
486.645	111.31
486.863	115.31
487.081	120.31
487.299	120.31
487.517	106.31
487.735	99.31
487.953	92.31
488.171	109.31
488.389	104.31
488.607	103.31
488.825	89.31
489.043	104.31
489.261	81.31
489.479	95.31
489.696	103.31
489.914	101.31
490.132	82.31
490.35	96.31
490.568	90.31
490.786	85.31
491.003	90.31
491.221	111.31
491.439	89.31
491.657	99.31
491.874	80.31
492.092	95.31
492.31	96.31
492.527	102.31
492.745	90.31
492.963	88.31
493.18	106.31
493.398	101.31
493.615	95.31
493.833	91.31
494.05	95.31
494.268	93.31
494.485	98.31
494.703	97.31
494.92	107.31
495.138	91.31
495.355	91.31
495.573	95.31
495.79	92.31
496.008	90.31
496.225	102.31
496.442	96.31
496.66	95.31
496.877	84.31
497.094	89.31
497.312	94.31
497.529	98.31
497.746	85.31
497.963	97.31
498.181	97.31
498.398	106.31
498.615	95.31
498.832	101.31
499.049	114.31
499.267	99.31
499.484	85.31
499.701	91.31
499.918	81.31
500.135	80.31
500.352	96.31
500.569	104.31
500.786	93.31
501.003	84.31
501.22	98.31
501.437	95.31
501.654	97.31
501.871	106.31
502.088	95.31
502.305	91.31
502.522	96.31
502.739	97.31
502.956	94.31
503.172	108.31
503.389	94.31
503.606	100.31
503.823	108.31
504.04	100.31
504.256	95.31
504.473	82.31
504.69	84.31
504.907	105.31
505.123	92.31
505.34	95.31
505.557	84.31
505.773	93.31
505.99	98.31
506.207	95.31
506.423	109.31
506.64	100.31
506.856	85.31
507.073	76.31
507.289	96.31
507.506	93.31
507.722	106.31
507.939	92.31
508.155	113.31
508.372	98.31
508.588	105.31
508.805	100.31
509.021	87.31
509.238	101.31
509.454	89.31
509.67	89.31
509.887	118.31
510.103	139.31
510.319	215.31
510.536	679.31
510.752	2071.31
510.968	597.31
511.184	148.31
511.401	109.31
511.617	100.31
511.833	97.31
512.049	102.31
512.265	83.31
512.481	110.31
512.698	88.31
512.914	105.31
513.13	103.31
513.346	105.31
513.562	101.31
