Data from Uncirc_1990_H10_HRD10591_00051.txt Node
Date: Wed Jan 03 11:54:01 EST 2024
User: Yrep
Spectrometer: HR+D1059
Trigger mode: 1
Integration Time (sec): 1.000000E-1
Scans to average: 1
Electric dark correction enabled: true
Nonlinearity correction enabled: false
Boxcar width: 0
XAxis mode: Wavelengths
Number of Pixels in Spectrum: 2048
>>>>>Begin Spectral Data<<<<<
223.165	-3.44
223.4	-3.44
223.635	-3.44
223.869	-19.44
224.104	-16.44
224.338	-12.44
224.573	-23.44
224.808	-10.44
225.042	-10.44
225.277	-17.44
225.511	2.56
225.746	4.56
225.98	14.56
226.215	24.56
226.449	9.56
226.683	9.56
226.918	14.56
227.152	33.56
227.387	35.56
227.621	47.56
227.856	46.56
228.09	45.56
228.324	44.56
228.559	46.56
228.793	61.56
229.027	65.56
229.262	63.56
229.496	63.56
229.73	61.56
229.964	80.56
230.199	86.56
230.433	79.56
230.667	78.56
230.901	67.56
231.136	70.56
231.37	75.56
231.604	68.56
231.838	50.56
232.072	87.56
232.306	91.56
232.541	62.56
232.775	68.56
233.009	73.56
233.243	63.56
233.477	77.56
233.711	83.56
233.945	85.56
234.179	81.56
234.413	79.56
234.647	66.56
234.881	71.56
235.115	83.56
235.349	81.56
235.583	77.56
235.817	87.56
236.051	82.56
236.285	68.56
236.519	77.56
236.753	81.56
236.987	78.56
237.221	83.56
237.455	82.56
237.689	55.56
237.922	75.56
238.156	65.56
238.39	90.56
238.624	71.56
238.858	69.56
239.091	61.56
239.325	79.56
239.559	70.56
239.793	78.56
240.027	74.56
240.26	68.56
240.494	82.56
240.728	81.56
240.961	80.56
241.195	69.56
241.429	65.56
241.662	74.56
241.896	77.56
242.13	63.56
242.363	74.56
242.597	69.56
242.83	83.56
243.064	64.56
243.298	77.56
243.531	81.56
243.765	81.56
243.998	79.56
244.232	79.56
244.465	79.56
244.699	90.56
244.932	76.56
245.166	79.56
245.399	83.56
245.633	77.56
245.866	82.56
246.099	65.56
246.333	62.56
246.566	79.56
246.8	84.56
247.033	69.56
247.266	86.56
247.5	79.56
247.733	77.56
247.966	91.56
248.2	62.56
248.433	80.56
248.666	68.56
248.899	77.56
249.133	97.56
249.366	91.56
249.599	81.56
249.832	70.56
250.066	75.56
250.299	75.56
250.532	71.56
250.765	67.56
250.998	80.56
251.231	73.56
251.465	83.56
251.698	75.56
251.931	79.56
252.164	87.56
252.397	73.56
252.63	82.56
252.863	93.56
253.096	73.56
253.329	78.56
253.562	83.56
253.795	74.56
254.028	79.56
254.261	81.56
254.494	70.56
254.727	79.56
254.96	85.56
255.193	77.56
255.426	88.56
255.659	85.56
255.892	78.56
256.124	89.56
256.357	80.56
256.59	91.56
256.823	79.56
257.056	86.56
257.289	78.56
257.521	86.56
257.754	87.56
257.987	82.56
258.22	77.56
258.452	79.56
258.685	81.56
258.918	90.56
259.151	80.56
259.383	89.56
259.616	81.56
259.849	82.56
260.081	81.56
260.314	80.56
260.547	81.56
260.779	86.56
261.012	75.56
261.244	91.56
261.477	94.56
261.71	92.56
261.942	94.56
262.175	105.56
262.407	77.56
262.64	85.56
262.872	73.56
263.105	69.56
263.337	95.56
263.57	76.56
263.802	83.56
264.035	83.56
264.267	83.56
264.499	68.56
264.732	84.56
264.964	86.56
265.197	73.56
265.429	79.56
265.661	69.56
265.894	77.56
266.126	73.56
266.358	83.56
266.591	68.56
266.823	80.56
267.055	76.56
267.287	89.56
267.52	89.56
267.752	79.56
267.984	78.56
268.216	90.56
268.448	71.56
268.681	78.56
268.913	69.56
269.145	81.56
269.377	102.56
269.609	69.56
269.841	84.56
270.073	73.56
270.306	92.56
270.538	85.56
270.77	84.56
271.002	81.56
271.234	92.56
271.466	87.56
271.698	65.56
271.93	84.56
272.162	81.56
272.394	91.56
272.626	93.56
272.858	93.56
273.09	85.56
273.322	96.56
273.553	82.56
273.785	79.56
274.017	82.56
274.249	81.56
274.481	85.56
274.713	90.56
274.945	91.56
275.176	80.56
275.408	79.56
275.64	73.56
275.872	95.56
276.104	76.56
276.335	85.56
276.567	86.56
276.799	100.56
277.031	92.56
277.262	80.56
277.494	73.56
277.726	82.56
277.957	86.56
278.189	91.56
278.421	74.56
278.652	87.56
278.884	77.56
279.115	84.56
279.347	80.56
279.579	89.56
279.81	93.56
280.042	78.56
280.273	82.56
280.505	75.56
280.736	78.56
280.968	65.56
281.199	69.56
281.431	84.56
281.662	83.56
281.894	94.56
282.125	82.56
282.356	109.56
282.588	112.56
282.819	98.56
283.051	91.56
283.282	77.56
283.513	85.56
283.745	98.56
283.976	86.56
284.207	93.56
284.439	90.56
284.67	102.56
284.901	88.56
285.132	105.56
285.364	81.56
285.595	94.56
285.826	75.56
286.057	83.56
286.288	75.56
286.52	86.56
286.751	89.56
286.982	97.56
287.213	81.56
287.444	95.56
287.675	89.56
287.906	93.56
288.138	79.56
288.369	80.56
288.6	86.56
288.831	79.56
289.062	87.56
289.293	69.56
289.524	88.56
289.755	99.56
289.986	76.56
290.217	77.56
290.448	97.56
290.679	83.56
290.91	98.56
291.141	82.56
291.371	92.56
291.602	77.56
291.833	82.56
292.064	93.56
292.295	92.56
292.526	97.56
292.757	71.56
292.987	88.56
293.218	89.56
293.449	81.56
293.68	83.56
293.91	105.56
294.141	100.56
294.372	84.56
294.603	86.56
294.833	74.56
295.064	94.56
295.295	73.56
295.525	93.56
295.756	90.56
295.987	102.56
296.217	110.56
296.448	127.56
296.679	85.56
296.909	89.56
297.14	67.56
297.37	85.56
297.601	75.56
297.831	89.56
298.062	102.56
298.292	86.56
298.523	105.56
298.753	90.56
298.984	77.56
299.214	69.56
299.445	84.56
299.675	85.56
299.905	83.56
300.136	76.56
300.366	91.56
300.597	87.56
300.827	85.56
301.057	91.56
301.288	84.56
301.518	86.56
301.748	92.56
301.979	109.56
302.209	71.56
302.439	73.56
302.669	89.56
302.9	76.56
303.13	83.56
303.36	94.56
303.59	94.56
303.82	105.56
304.051	92.56
304.281	77.56
304.511	93.56
304.741	90.56
304.971	81.56
305.201	85.56
305.431	85.56
305.661	94.56
305.891	79.56
306.121	88.56
306.352	92.56
306.582	104.56
306.812	84.56
307.042	104.56
307.272	94.56
307.502	81.56
307.731	82.56
307.961	78.56
308.191	91.56
308.421	93.56
308.651	95.56
308.881	89.56
309.111	89.56
309.341	93.56
309.571	88.56
309.8	81.56
310.03	91.56
310.26	78.56
310.49	89.56
310.72	87.56
310.949	93.56
311.179	89.56
311.409	100.56
311.639	96.56
311.868	92.56
312.098	96.56
312.328	94.56
312.557	111.56
312.787	118.56
313.017	97.56
313.246	102.56
313.476	89.56
313.706	79.56
313.935	95.56
314.165	87.56
314.394	98.56
314.624	107.56
314.853	89.56
315.083	99.56
315.312	100.56
315.542	93.56
315.771	77.56
316.001	95.56
316.23	94.56
316.46	81.56
316.689	87.56
316.919	91.56
317.148	79.56
317.377	98.56
317.607	94.56
317.836	87.56
318.065	71.56
318.295	82.56
318.524	83.56
318.753	95.56
318.983	91.56
319.212	92.56
319.441	99.56
319.67	116.56
319.9	91.56
320.129	85.56
320.358	98.56
320.587	92.56
320.816	101.56
321.046	98.56
321.275	92.56
321.504	73.56
321.733	79.56
321.962	81.56
322.191	106.56
322.42	107.56
322.649	90.56
322.878	96.56
323.108	115.56
323.337	96.56
323.566	120.56
323.795	128.56
324.024	177.56
324.253	338.56
324.482	754.56
324.71	1474.56
324.939	1960.56
325.168	729.56
325.397	224.56
325.626	146.56
325.855	99.56
326.084	127.56
326.313	125.56
326.542	140.56
326.77	216.56
326.999	403.56
327.228	821.56
327.457	1491.56
327.686	1225.56
327.914	350.56
328.143	173.56
328.372	130.56
328.6	122.56
328.829	122.56
329.058	130.56
329.287	121.56
329.515	99.56
329.744	89.56
329.972	92.56
330.201	110.56
330.43	103.56
330.658	111.56
330.887	123.56
331.115	107.56
331.344	91.56
331.572	93.56
331.801	88.56
332.03	90.56
332.258	111.56
332.486	70.56
332.715	84.56
332.943	99.56
333.172	97.56
333.4	95.56
333.629	91.56
333.857	106.56
334.085	95.56
334.314	102.56
334.542	108.56
334.771	97.56
334.999	89.56
335.227	100.56
335.455	98.56
335.684	90.56
335.912	102.56
336.14	91.56
336.369	100.56
336.597	97.56
336.825	79.56
337.053	74.56
337.281	91.56
337.51	94.56
337.738	94.56
337.966	70.56
338.194	95.56
338.422	92.56
338.65	98.56
338.878	94.56
339.106	95.56
339.334	73.56
339.562	86.56
339.79	76.56
340.018	87.56
340.246	87.56
340.474	96.56
340.702	73.56
340.93	94.56
341.158	96.56
341.386	91.56
341.614	73.56
341.842	87.56
342.07	91.56
342.298	98.56
342.526	85.56
342.754	85.56
342.981	85.56
343.209	107.56
343.437	86.56
343.665	87.56
343.893	93.56
344.12	103.56
344.348	101.56
344.576	95.56
344.804	82.56
345.031	91.56
345.259	103.56
345.487	99.56
345.714	86.56
345.942	80.56
346.17	73.56
346.397	83.56
346.625	92.56
346.853	89.56
347.08	87.56
347.308	107.56
347.535	88.56
347.763	99.56
347.99	93.56
348.218	102.56
348.445	95.56
348.673	89.56
348.9	97.56
349.128	96.56
349.355	82.56
349.583	80.56
349.81	86.56
350.037	87.56
350.265	80.56
350.492	106.56
350.72	90.56
350.947	95.56
351.174	114.56
351.402	115.56
351.629	93.56
351.856	87.56
352.083	105.56
352.311	104.56
352.538	102.56
352.765	118.56
352.992	103.56
353.22	108.56
353.447	96.56
353.674	86.56
353.901	89.56
354.128	104.56
354.355	86.56
354.583	91.56
354.81	106.56
355.037	86.56
355.264	96.56
355.491	91.56
355.718	101.56
355.945	75.56
356.172	97.56
356.399	84.56
356.626	86.56
356.853	91.56
357.08	93.56
357.307	83.56
357.534	89.56
357.761	95.56
357.988	88.56
358.215	97.56
358.441	90.56
358.668	92.56
358.895	93.56
359.122	95.56
359.349	82.56
359.576	90.56
359.802	108.56
360.029	97.56
360.256	101.56
360.483	87.56
360.709	84.56
360.936	98.56
361.163	93.56
361.39	93.56
361.616	93.56
361.843	76.56
362.07	99.56
362.296	102.56
362.523	87.56
362.749	89.56
362.976	90.56
363.203	84.56
363.429	73.56
363.656	94.56
363.882	91.56
364.109	93.56
364.335	92.56
364.562	94.56
364.788	93.56
365.015	93.56
365.241	81.56
365.468	97.56
365.694	101.56
365.92	87.56
366.147	85.56
366.373	77.56
366.599	83.56
366.826	80.56
367.052	106.56
367.278	87.56
367.505	88.56
367.731	77.56
367.957	91.56
368.184	93.56
368.41	92.56
368.636	102.56
368.862	121.56
369.089	93.56
369.315	85.56
369.541	92.56
369.767	92.56
369.993	93.56
370.219	70.56
370.445	83.56
370.672	92.56
370.898	73.56
371.124	85.56
371.35	92.56
371.576	85.56
371.802	95.56
372.028	85.56
372.254	92.56
372.48	91.56
372.706	87.56
372.932	90.56
373.158	76.56
373.384	95.56
373.61	91.56
373.835	81.56
374.061	90.56
374.287	91.56
374.513	79.56
374.739	74.56
374.965	91.56
375.191	79.56
375.416	75.56
375.642	82.56
375.868	102.56
376.094	91.56
376.319	78.56
376.545	93.56
376.771	91.56
376.997	93.56
377.222	90.56
377.448	92.56
377.674	82.56
377.899	82.56
378.125	89.56
378.35	109.56
378.576	87.56
378.802	87.56
379.027	95.56
379.253	95.56
379.478	93.56
379.704	82.56
379.929	90.56
380.155	105.56
380.38	90.56
380.606	93.56
380.831	96.56
381.057	98.56
381.282	93.56
381.507	81.56
381.733	83.56
381.958	86.56
382.184	92.56
382.409	90.56
382.634	100.56
382.86	109.56
383.085	97.56
383.31	82.56
383.535	85.56
383.761	112.56
383.986	97.56
384.211	92.56
384.436	100.56
384.662	110.56
384.887	99.56
385.112	85.56
385.337	91.56
385.562	108.56
385.787	85.56
386.013	90.56
386.238	109.56
386.463	99.56
386.688	110.56
386.913	100.56
387.138	94.56
387.363	110.56
387.588	100.56
387.813	99.56
388.038	102.56
388.263	106.56
388.488	101.56
388.713	92.56
388.938	91.56
389.163	97.56
389.387	89.56
389.612	91.56
389.837	98.56
390.062	89.56
390.287	96.56
390.512	83.56
390.736	91.56
390.961	80.56
391.186	91.56
391.411	112.56
391.636	97.56
391.86	81.56
392.085	86.56
392.31	88.56
392.534	91.56
392.759	91.56
392.984	68.56
393.208	75.56
393.433	86.56
393.658	87.56
393.882	79.56
394.107	89.56
394.331	90.56
394.556	90.56
394.78	82.56
395.005	80.56
395.229	79.56
395.454	91.56
395.678	78.56
395.903	77.56
396.127	85.56
396.352	95.56
396.576	95.56
396.801	83.56
397.025	75.56
397.249	89.56
397.474	95.56
397.698	93.56
397.922	72.56
398.147	97.56
398.371	97.56
398.595	77.56
398.82	93.56
399.044	82.56
399.268	95.56
399.492	95.56
399.717	86.56
399.941	89.56
400.165	75.56
400.389	90.56
400.613	86.56
400.837	93.56
401.062	88.56
401.286	83.56
401.51	79.56
401.734	81.56
401.958	103.56
402.182	116.56
402.406	133.56
402.63	107.56
402.854	105.56
403.078	93.56
403.302	96.56
403.526	95.56
403.75	95.56
403.974	90.56
404.198	97.56
404.422	91.56
404.645	65.56
404.869	85.56
405.093	107.56
405.317	82.56
405.541	103.56
405.765	83.56
405.988	107.56
406.212	134.56
406.436	175.56
406.66	128.56
406.883	105.56
407.107	83.56
407.331	85.56
407.555	97.56
407.778	85.56
408.002	87.56
408.226	91.56
408.449	92.56
408.673	77.56
408.896	90.56
409.12	88.56
409.344	97.56
409.567	75.56
409.791	83.56
410.014	106.56
410.238	94.56
410.461	86.56
410.685	84.56
410.908	85.56
411.132	96.56
411.355	80.56
411.578	85.56
411.802	82.56
412.025	87.56
412.249	81.56
412.472	91.56
412.695	91.56
412.919	93.56
413.142	90.56
413.365	82.56
413.589	97.56
413.812	85.56
414.035	93.56
414.258	95.56
414.482	98.56
414.705	86.56
414.928	81.56
415.151	94.56
415.374	94.56
415.597	87.56
415.821	97.56
416.044	87.56
416.267	92.56
416.49	90.56
416.713	89.56
416.936	85.56
417.159	100.56
417.382	79.56
417.605	81.56
417.828	87.56
418.051	83.56
418.274	103.56
418.497	90.56
418.72	69.56
418.943	84.56
419.166	85.56
419.389	89.56
419.611	84.56
419.834	92.56
420.057	100.56
420.28	76.56
420.503	94.56
420.726	78.56
420.948	80.56
421.171	91.56
421.394	81.56
421.617	88.56
421.839	80.56
422.062	88.56
422.285	92.56
422.507	92.56
422.73	96.56
422.953	81.56
423.175	90.56
423.398	85.56
423.621	99.56
423.843	76.56
424.066	92.56
424.288	84.56
424.511	79.56
424.733	102.56
424.956	100.56
425.178	86.56
425.401	99.56
425.623	111.56
425.846	100.56
426.068	94.56
426.291	94.56
426.513	75.56
426.735	73.56
426.958	86.56
427.18	97.56
427.402	117.56
427.625	127.56
427.847	116.56
428.069	107.56
428.292	79.56
428.514	97.56
428.736	85.56
428.958	69.56
429.181	90.56
429.403	79.56
429.625	89.56
429.847	94.56
430.069	91.56
430.292	94.56
430.514	81.56
430.736	92.56
430.958	85.56
431.18	90.56
431.402	81.56
431.624	90.56
431.846	81.56
432.068	98.56
432.29	81.56
432.512	89.56
432.734	82.56
432.956	86.56
433.178	97.56
433.4	95.56
433.622	96.56
433.844	82.56
434.066	92.56
434.287	90.56
434.509	84.56
434.731	78.56
434.953	90.56
435.175	81.56
435.397	85.56
435.618	89.56
435.84	90.56
436.062	129.56
436.284	97.56
436.505	100.56
436.727	110.56
436.949	97.56
437.17	81.56
437.392	93.56
437.614	94.56
437.835	80.56
438.057	106.56
438.278	114.56
438.5	102.56
438.721	113.56
438.943	102.56
439.165	80.56
439.386	87.56
439.608	77.56
439.829	100.56
440.05	131.56
440.272	125.56
440.493	84.56
440.715	81.56
440.936	78.56
441.158	89.56
441.379	83.56
441.6	91.56
441.822	84.56
442.043	95.56
442.264	81.56
442.486	81.56
442.707	91.56
442.928	92.56
443.149	118.56
443.371	108.56
443.592	89.56
443.813	108.56
444.034	100.56
444.255	86.56
444.476	81.56
444.698	85.56
444.919	93.56
445.14	133.56
445.361	122.56
445.582	104.56
445.803	129.56
446.024	108.56
446.245	130.56
446.466	117.56
446.687	80.56
446.908	99.56
447.129	81.56
447.35	77.56
447.571	77.56
447.792	91.56
448.013	91.56
448.234	100.56
448.455	95.56
448.675	123.56
448.896	115.56
449.117	98.56
449.338	104.56
449.559	114.56
449.779	117.56
450	94.56
450.221	83.56
450.442	85.56
450.662	93.56
450.883	91.56
451.104	94.56
451.324	82.56
451.545	89.56
451.766	102.56
451.986	91.56
452.207	84.56
452.428	88.56
452.648	77.56
452.869	104.56
453.089	108.56
453.31	114.56
453.53	70.56
453.751	76.56
453.971	81.56
454.192	97.56
454.412	102.56
454.633	86.56
454.853	85.56
455.073	86.56
455.294	79.56
455.514	86.56
455.734	70.56
455.955	87.56
456.175	86.56
456.395	95.56
456.616	79.56
456.836	82.56
457.056	83.56
457.276	70.56
457.497	69.56
457.717	94.56
457.937	73.56
458.157	100.56
458.377	83.56
458.598	103.56
458.818	125.56
459.038	131.56
459.258	96.56
459.478	84.56
459.698	95.56
459.918	89.56
460.138	79.56
460.358	80.56
460.578	82.56
460.798	80.56
461.018	89.56
461.238	74.56
461.458	73.56
461.678	89.56
461.898	84.56
462.118	95.56
462.338	84.56
462.558	91.56
462.777	88.56
462.997	85.56
463.217	88.56
463.437	68.56
463.657	87.56
463.876	77.56
464.096	85.56
464.316	94.56
464.536	85.56
464.755	92.56
464.975	103.56
465.195	129.56
465.414	126.56
465.634	91.56
465.854	73.56
466.073	86.56
466.293	95.56
466.512	103.56
466.732	95.56
466.951	96.56
467.171	98.56
467.391	106.56
467.61	104.56
467.829	98.56
468.049	86.56
468.268	87.56
468.488	81.56
468.707	78.56
468.927	89.56
469.146	89.56
469.365	70.56
469.585	83.56
469.804	76.56
470.023	90.56
470.243	105.56
470.462	93.56
470.681	98.56
470.901	83.56
471.12	80.56
471.339	97.56
471.558	91.56
471.777	85.56
471.997	106.56
472.216	92.56
472.435	88.56
472.654	87.56
472.873	85.56
473.092	78.56
473.311	96.56
473.53	95.56
473.749	88.56
473.968	97.56
474.187	93.56
474.406	95.56
474.625	102.56
474.844	106.56
475.063	74.56
475.282	86.56
475.501	92.56
475.72	78.56
475.939	78.56
476.158	78.56
476.377	81.56
476.596	85.56
476.814	95.56
477.033	86.56
477.252	80.56
477.471	89.56
477.69	94.56
477.908	92.56
478.127	91.56
478.346	78.56
478.564	86.56
478.783	91.56
479.002	93.56
479.22	103.56
479.439	84.56
479.658	94.56
479.876	101.56
480.095	88.56
480.313	84.56
480.532	89.56
480.751	79.56
480.969	81.56
481.188	128.56
481.406	113.56
481.624	101.56
481.843	83.56
482.061	102.56
482.28	92.56
482.498	83.56
482.717	75.56
482.935	93.56
483.153	92.56
483.372	69.56
483.59	83.56
483.808	81.56
484.027	90.56
484.245	100.56
484.463	81.56
484.681	92.56
484.9	85.56
485.118	94.56
485.336	108.56
485.554	86.56
485.772	101.56
485.99	101.56
486.209	110.56
486.427	93.56
486.645	95.56
486.863	118.56
487.081	106.56
487.299	104.56
487.517	83.56
487.735	90.56
487.953	88.56
488.171	90.56
488.389	90.56
488.607	98.56
488.825	106.56
489.043	93.56
489.261	94.56
489.479	85.56
489.696	91.56
489.914	93.56
490.132	83.56
490.35	94.56
490.568	85.56
490.786	91.56
491.003	94.56
491.221	92.56
491.439	94.56
491.657	94.56
491.874	89.56
492.092	102.56
492.31	88.56
492.527	86.56
492.745	67.56
492.963	92.56
493.18	83.56
493.398	102.56
493.615	101.56
493.833	85.56
494.05	84.56
494.268	82.56
494.485	91.56
494.703	99.56
494.92	95.56
495.138	86.56
495.355	83.56
495.573	77.56
495.79	86.56
496.008	95.56
496.225	77.56
496.442	82.56
496.66	92.56
496.877	78.56
497.094	82.56
497.312	92.56
497.529	84.56
497.746	76.56
497.963	80.56
498.181	82.56
498.398	96.56
498.615	112.56
498.832	107.56
499.049	75.56
499.267	91.56
499.484	97.56
499.701	94.56
499.918	99.56
500.135	85.56
500.352	83.56
500.569	95.56
500.786	97.56
501.003	87.56
501.22	85.56
501.437	84.56
501.654	81.56
501.871	93.56
502.088	95.56
502.305	90.56
502.522	88.56
502.739	93.56
502.956	79.56
503.172	92.56
503.389	86.56
503.606	100.56
503.823	96.56
504.04	101.56
504.256	90.56
504.473	100.56
504.69	89.56
504.907	85.56
505.123	88.56
505.34	87.56
505.557	97.56
505.773	81.56
505.99	100.56
506.207	86.56
506.423	77.56
506.64	88.56
506.856	87.56
507.073	89.56
507.289	88.56
507.506	104.56
507.722	95.56
507.939	106.56
508.155	78.56
508.372	85.56
508.588	78.56
508.805	93.56
509.021	99.56
509.238	106.56
509.454	94.56
509.67	95.56
509.887	114.56
510.103	129.56
510.319	207.56
510.536	646.56
510.752	2041.56
510.968	564.56
511.184	153.56
511.401	103.56
511.617	85.56
511.833	91.56
512.049	90.56
512.265	99.56
512.481	100.56
512.698	82.56
512.914	83.56
513.13	75.56
513.346	96.56
513.562	87.56
513.778	80.56
513.994	103.56
514.21	92.56
514.426	99.56
514.642	128.56
514.858	110.56
515.074	137.56
515.29	357.56
515.506	1138.56
515.721	430.56
515.937	147.56
516.153	116.56
516.369	85.56
516.585	95.56
516.801	85.56
