Data from Uncirc_1990_H10_HRD10591_00072.txt Node
Date: Wed Jan 03 11:54:06 EST 2024
User: Yrep
Spectrometer: HR+D1059
Trigger mode: 1
Integration Time (sec): 1.000000E-1
Scans to average: 1
Electric dark correction enabled: true
Nonlinearity correction enabled: false
Boxcar width: 0
XAxis mode: Wavelengths
Number of Pixels in Spectrum: 2048
>>>>>Begin Spectral Data<<<<<
223.165	-16.56
223.4	-16.56
223.635	-16.56
223.869	-23.56
224.104	-27.56
224.338	-8.56
224.573	-33.56
224.808	-3.56
225.042	-11.56
225.277	0.44
225.511	-3.56
225.746	7.44
225.98	11.44
226.215	7.44
226.449	11.44
226.683	25.44
226.918	26.44
227.152	38.44
227.387	35.44
227.621	45.44
227.856	47.44
228.09	45.44
228.324	53.44
228.559	50.44
228.793	54.44
229.027	70.44
229.262	73.44
229.496	71.44
229.73	94.44
229.964	66.44
230.199	63.44
230.433	81.44
230.667	84.44
230.901	74.44
231.136	79.44
231.37	72.44
231.604	65.44
231.838	73.44
232.072	79.44
232.306	82.44
232.541	69.44
232.775	91.44
233.009	83.44
233.243	64.44
233.477	78.44
233.711	73.44
233.945	79.44
234.179	71.44
234.413	85.44
234.647	61.44
234.881	71.44
235.115	78.44
235.349	67.44
235.583	64.44
235.817	73.44
236.051	77.44
236.285	61.44
236.519	82.44
236.753	71.44
236.987	67.44
237.221	86.44
237.455	85.44
237.689	83.44
237.922	101.44
238.156	64.44
238.39	69.44
238.624	90.44
238.858	69.44
239.091	68.44
239.325	79.44
239.559	87.44
239.793	82.44
240.027	83.44
240.26	78.44
240.494	73.44
240.728	82.44
240.961	81.44
241.195	78.44
241.429	85.44
241.662	81.44
241.896	78.44
242.13	80.44
242.363	96.44
242.597	84.44
242.83	73.44
243.064	69.44
243.298	77.44
243.531	85.44
243.765	75.44
243.998	82.44
244.232	70.44
244.465	78.44
244.699	91.44
244.932	84.44
245.166	81.44
245.399	79.44
245.633	70.44
245.866	71.44
246.099	88.44
246.333	83.44
246.566	75.44
246.8	71.44
247.033	78.44
247.266	65.44
247.5	82.44
247.733	57.44
247.966	75.44
248.2	83.44
248.433	74.44
248.666	81.44
248.899	84.44
249.133	83.44
249.366	92.44
249.599	92.44
249.832	84.44
250.066	80.44
250.299	81.44
250.532	86.44
250.765	71.44
250.998	78.44
251.231	81.44
251.465	71.44
251.698	70.44
251.931	69.44
252.164	83.44
252.397	83.44
252.63	69.44
252.863	79.44
253.096	58.44
253.329	82.44
253.562	84.44
253.795	91.44
254.028	81.44
254.261	76.44
254.494	84.44
254.727	81.44
254.96	83.44
255.193	67.44
255.426	79.44
255.659	57.44
255.892	75.44
256.124	65.44
256.357	70.44
256.59	86.44
256.823	79.44
257.056	70.44
257.289	77.44
257.521	93.44
257.754	87.44
257.987	66.44
258.22	82.44
258.452	71.44
258.685	79.44
258.918	89.44
259.151	73.44
259.383	84.44
259.616	94.44
259.849	85.44
260.081	86.44
260.314	77.44
260.547	87.44
260.779	85.44
261.012	81.44
261.244	75.44
261.477	90.44
261.71	97.44
261.942	124.44
262.175	117.44
262.407	86.44
262.64	87.44
262.872	101.44
263.105	88.44
263.337	93.44
263.57	82.44
263.802	80.44
264.035	66.44
264.267	84.44
264.499	85.44
264.732	79.44
264.964	90.44
265.197	89.44
265.429	83.44
265.661	83.44
265.894	76.44
266.126	71.44
266.358	92.44
266.591	84.44
266.823	77.44
267.055	83.44
267.287	86.44
267.52	75.44
267.752	78.44
267.984	85.44
268.216	83.44
268.448	75.44
268.681	78.44
268.913	96.44
269.145	76.44
269.377	78.44
269.609	89.44
269.841	90.44
270.073	81.44
270.306	87.44
270.538	73.44
270.77	81.44
271.002	67.44
271.234	82.44
271.466	94.44
271.698	71.44
271.93	88.44
272.162	81.44
272.394	88.44
272.626	75.44
272.858	93.44
273.09	89.44
273.322	90.44
273.553	82.44
273.785	75.44
274.017	77.44
274.249	85.44
274.481	80.44
274.713	94.44
274.945	92.44
275.176	87.44
275.408	74.44
275.64	96.44
275.872	80.44
276.104	77.44
276.335	84.44
276.567	97.44
276.799	99.44
277.031	103.44
277.262	87.44
277.494	82.44
277.726	97.44
277.957	85.44
278.189	73.44
278.421	93.44
278.652	90.44
278.884	93.44
279.115	83.44
279.347	84.44
279.579	73.44
279.81	94.44
280.042	102.44
280.273	95.44
280.505	82.44
280.736	85.44
280.968	79.44
281.199	76.44
281.431	91.44
281.662	92.44
281.894	77.44
282.125	111.44
282.356	108.44
282.588	137.44
282.819	109.44
283.051	87.44
283.282	85.44
283.513	92.44
283.745	93.44
283.976	74.44
284.207	85.44
284.439	100.44
284.67	98.44
284.901	74.44
285.132	89.44
285.364	83.44
285.595	101.44
285.826	107.44
286.057	100.44
286.288	71.44
286.52	96.44
286.751	67.44
286.982	86.44
287.213	84.44
287.444	81.44
287.675	94.44
287.906	107.44
288.138	91.44
288.369	89.44
288.6	81.44
288.831	91.44
289.062	76.44
289.293	89.44
289.524	92.44
289.755	85.44
289.986	98.44
290.217	89.44
290.448	85.44
290.679	101.44
290.91	75.44
291.141	75.44
291.371	94.44
291.602	85.44
291.833	87.44
292.064	90.44
292.295	81.44
292.526	89.44
292.757	81.44
292.987	93.44
293.218	93.44
293.449	83.44
293.68	81.44
293.91	79.44
294.141	83.44
294.372	87.44
294.603	86.44
294.833	80.44
295.064	81.44
295.295	80.44
295.525	96.44
295.756	113.44
295.987	100.44
296.217	143.44
296.448	123.44
296.679	98.44
296.909	103.44
297.14	92.44
297.37	87.44
297.601	93.44
297.831	88.44
298.062	97.44
298.292	81.44
298.523	87.44
298.753	94.44
298.984	93.44
299.214	101.44
299.445	90.44
299.675	96.44
299.905	94.44
300.136	91.44
300.366	82.44
300.597	80.44
300.827	76.44
301.057	88.44
301.288	108.44
301.518	102.44
301.748	108.44
301.979	98.44
302.209	81.44
302.439	87.44
302.669	90.44
302.9	95.44
303.13	98.44
303.36	91.44
303.59	107.44
303.82	106.44
304.051	99.44
304.281	86.44
304.511	93.44
304.741	83.44
304.971	73.44
305.201	87.44
305.431	81.44
305.661	75.44
305.891	82.44
306.121	93.44
306.352	88.44
306.582	106.44
306.812	101.44
307.042	96.44
307.272	87.44
307.502	100.44
307.731	93.44
307.961	98.44
308.191	89.44
308.421	85.44
308.651	95.44
308.881	81.44
309.111	94.44
309.341	96.44
309.571	81.44
309.8	88.44
310.03	111.44
310.26	102.44
310.49	84.44
310.72	105.44
310.949	100.44
311.179	98.44
311.409	94.44
311.639	95.44
311.868	100.44
312.098	94.44
312.328	91.44
312.557	99.44
312.787	100.44
313.017	108.44
313.246	108.44
313.476	79.44
313.706	89.44
313.935	97.44
314.165	111.44
314.394	91.44
314.624	88.44
314.853	102.44
315.083	78.44
315.312	89.44
315.542	82.44
315.771	85.44
316.001	91.44
316.23	98.44
316.46	82.44
316.689	85.44
316.919	80.44
317.148	89.44
317.377	94.44
317.607	93.44
317.836	102.44
318.065	87.44
318.295	91.44
318.524	93.44
318.753	79.44
318.983	84.44
319.212	88.44
319.441	98.44
319.67	110.44
319.9	90.44
320.129	77.44
320.358	88.44
320.587	93.44
320.816	97.44
321.046	106.44
321.275	110.44
321.504	93.44
321.733	96.44
321.962	96.44
322.191	99.44
322.42	100.44
322.649	113.44
322.878	113.44
323.108	114.44
323.337	118.44
323.566	124.44
323.795	140.44
324.024	210.44
324.253	414.44
324.482	870.44
324.71	1845.44
324.939	2444.44
325.168	894.44
325.397	257.44
325.626	149.44
325.855	112.44
326.084	135.44
326.313	136.44
326.542	151.44
326.77	246.44
326.999	455.44
327.228	999.44
327.457	1927.44
327.686	1545.44
327.914	392.44
328.143	199.44
328.372	140.44
328.6	131.44
328.829	111.44
329.058	128.44
329.287	130.44
329.515	111.44
329.744	99.44
329.972	91.44
330.201	110.44
330.43	122.44
330.658	117.44
330.887	146.44
331.115	123.44
331.344	101.44
331.572	91.44
331.801	99.44
332.03	94.44
332.258	95.44
332.486	96.44
332.715	79.44
332.943	82.44
333.172	97.44
333.4	88.44
333.629	105.44
333.857	114.44
334.085	106.44
334.314	101.44
334.542	121.44
334.771	117.44
334.999	111.44
335.227	85.44
335.455	86.44
335.684	102.44
335.912	100.44
336.14	101.44
336.369	105.44
336.597	93.44
336.825	94.44
337.053	82.44
337.281	85.44
337.51	95.44
337.738	99.44
337.966	97.44
338.194	108.44
338.422	99.44
338.65	83.44
338.878	99.44
339.106	89.44
339.334	84.44
339.562	91.44
339.79	84.44
340.018	94.44
340.246	79.44
340.474	100.44
340.702	99.44
340.93	101.44
341.158	85.44
341.386	84.44
341.614	98.44
341.842	103.44
342.07	88.44
342.298	92.44
342.526	93.44
342.754	94.44
342.981	93.44
343.209	89.44
343.437	90.44
343.665	81.44
343.893	77.44
344.12	81.44
344.348	73.44
344.576	79.44
344.804	98.44
345.031	89.44
345.259	97.44
345.487	79.44
345.714	103.44
345.942	85.44
346.17	86.44
346.397	86.44
346.625	88.44
346.853	86.44
347.08	93.44
347.308	107.44
347.535	97.44
347.763	89.44
347.99	82.44
348.218	113.44
348.445	102.44
348.673	110.44
348.9	90.44
349.128	95.44
349.355	98.44
349.583	86.44
349.81	108.44
350.037	85.44
350.265	95.44
350.492	103.44
350.72	97.44
350.947	92.44
351.174	106.44
351.402	101.44
351.629	95.44
351.856	93.44
352.083	93.44
352.311	94.44
352.538	96.44
352.765	101.44
352.992	101.44
353.22	117.44
353.447	103.44
353.674	90.44
353.901	108.44
354.128	100.44
354.355	75.44
354.583	110.44
354.81	108.44
355.037	93.44
355.264	99.44
355.491	94.44
355.718	99.44
355.945	93.44
356.172	100.44
356.399	79.44
356.626	95.44
356.853	86.44
357.08	87.44
357.307	85.44
357.534	111.44
357.761	90.44
357.988	101.44
358.215	100.44
358.441	91.44
358.668	83.44
358.895	98.44
359.122	74.44
359.349	73.44
359.576	84.44
359.802	98.44
360.029	113.44
360.256	125.44
360.483	85.44
360.709	89.44
360.936	97.44
361.163	91.44
361.39	96.44
361.616	97.44
361.843	89.44
362.07	93.44
362.296	100.44
362.523	94.44
362.749	91.44
362.976	95.44
363.203	87.44
363.429	85.44
363.656	105.44
363.882	93.44
364.109	90.44
364.335	91.44
364.562	77.44
364.788	99.44
365.015	97.44
365.241	99.44
365.468	117.44
365.694	126.44
365.92	97.44
366.147	91.44
366.373	78.44
366.599	101.44
366.826	97.44
367.052	94.44
367.278	95.44
367.505	75.44
367.731	98.44
367.957	98.44
368.184	83.44
368.41	107.44
368.636	107.44
368.862	117.44
369.089	102.44
369.315	81.44
369.541	89.44
369.767	91.44
369.993	96.44
370.219	94.44
370.445	89.44
370.672	77.44
370.898	99.44
371.124	81.44
371.35	86.44
371.576	67.44
371.802	91.44
372.028	80.44
372.254	85.44
372.48	92.44
372.706	99.44
372.932	101.44
373.158	97.44
373.384	106.44
373.61	92.44
373.835	102.44
374.061	93.44
374.287	97.44
374.513	80.44
374.739	86.44
374.965	98.44
375.191	89.44
375.416	86.44
375.642	89.44
375.868	93.44
376.094	78.44
376.319	81.44
376.545	88.44
376.771	85.44
376.997	94.44
377.222	86.44
377.448	77.44
377.674	98.44
377.899	90.44
378.125	89.44
378.35	88.44
378.576	85.44
378.802	84.44
379.027	88.44
379.253	97.44
379.478	82.44
379.704	99.44
379.929	93.44
380.155	89.44
380.38	99.44
380.606	91.44
380.831	101.44
381.057	99.44
381.282	91.44
381.507	92.44
381.733	93.44
381.958	94.44
382.184	97.44
382.409	87.44
382.634	89.44
382.86	107.44
383.085	100.44
383.31	96.44
383.535	91.44
383.761	88.44
383.986	83.44
384.211	97.44
384.436	88.44
384.662	94.44
384.887	94.44
385.112	96.44
385.337	90.44
385.562	96.44
385.787	95.44
386.013	112.44
386.238	117.44
386.463	96.44
386.688	97.44
386.913	95.44
387.138	94.44
387.363	90.44
387.588	99.44
387.813	83.44
388.038	93.44
388.263	107.44
388.488	101.44
388.713	102.44
388.938	93.44
389.163	103.44
389.387	97.44
389.612	90.44
389.837	101.44
390.062	111.44
390.287	97.44
390.512	89.44
390.736	83.44
390.961	101.44
391.186	89.44
391.411	93.44
391.636	74.44
391.86	85.44
392.085	86.44
392.31	80.44
392.534	85.44
392.759	114.44
392.984	83.44
393.208	85.44
393.433	95.44
393.658	84.44
393.882	78.44
394.107	92.44
394.331	94.44
394.556	87.44
394.78	83.44
395.005	100.44
395.229	83.44
395.454	77.44
395.678	78.44
395.903	98.44
396.127	91.44
396.352	90.44
396.576	81.44
396.801	84.44
397.025	83.44
397.249	77.44
397.474	85.44
397.698	81.44
397.922	85.44
398.147	92.44
398.371	84.44
398.595	73.44
398.82	86.44
399.044	92.44
399.268	97.44
399.492	83.44
399.717	81.44
399.941	91.44
400.165	90.44
400.389	86.44
400.613	84.44
400.837	82.44
401.062	91.44
401.286	101.44
401.51	95.44
401.734	82.44
401.958	93.44
402.182	126.44
402.406	155.44
402.63	116.44
402.854	85.44
403.078	87.44
403.302	81.44
403.526	90.44
403.75	85.44
403.974	86.44
404.198	84.44
404.422	85.44
404.645	90.44
404.869	86.44
405.093	86.44
405.317	95.44
405.541	104.44
405.765	91.44
405.988	121.44
406.212	168.44
406.436	222.44
406.66	151.44
406.883	98.44
407.107	85.44
407.331	97.44
407.555	110.44
407.778	105.44
408.002	88.44
408.226	86.44
408.449	93.44
408.673	89.44
408.896	85.44
409.12	103.44
409.344	83.44
409.567	87.44
409.791	99.44
410.014	70.44
410.238	80.44
410.461	85.44
410.685	91.44
410.908	102.44
411.132	98.44
411.355	96.44
411.578	89.44
411.802	77.44
412.025	78.44
412.249	98.44
412.472	87.44
412.695	102.44
412.919	94.44
413.142	98.44
413.365	78.44
413.589	81.44
413.812	90.44
414.035	86.44
414.258	95.44
414.482	89.44
414.705	89.44
414.928	77.44
415.151	83.44
415.374	87.44
415.597	94.44
415.821	77.44
416.044	71.44
416.267	78.44
416.49	77.44
416.713	94.44
416.936	90.44
417.159	77.44
417.382	66.44
417.605	81.44
417.828	95.44
418.051	85.44
418.274	94.44
418.497	90.44
418.72	87.44
418.943	93.44
419.166	92.44
419.389	91.44
419.611	100.44
419.834	97.44
420.057	92.44
420.28	82.44
420.503	86.44
420.726	92.44
420.948	91.44
421.171	89.44
421.394	71.44
421.617	96.44
421.839	93.44
422.062	78.44
422.285	84.44
422.507	95.44
422.73	92.44
422.953	81.44
423.175	94.44
423.398	89.44
423.621	86.44
423.843	91.44
424.066	89.44
424.288	83.44
424.511	91.44
424.733	110.44
424.956	117.44
425.178	111.44
425.401	113.44
425.623	92.44
425.846	98.44
426.068	89.44
426.291	107.44
426.513	90.44
426.735	75.44
426.958	82.44
427.18	105.44
427.402	143.44
427.625	177.44
427.847	105.44
428.069	109.44
428.292	95.44
428.514	76.44
428.736	96.44
428.958	80.44
429.181	90.44
429.403	85.44
429.625	85.44
429.847	103.44
430.069	103.44
430.292	83.44
430.514	95.44
430.736	93.44
430.958	89.44
431.18	89.44
431.402	93.44
431.624	88.44
431.846	74.44
432.068	90.44
432.29	77.44
432.512	92.44
432.734	90.44
432.956	77.44
433.178	93.44
433.4	81.44
433.622	87.44
433.844	88.44
434.066	94.44
434.287	90.44
434.509	76.44
434.731	83.44
434.953	89.44
435.175	83.44
435.397	91.44
435.618	85.44
435.84	98.44
436.062	115.44
436.284	106.44
436.505	109.44
436.727	83.44
436.949	101.44
437.17	96.44
437.392	91.44
437.614	93.44
437.835	108.44
438.057	122.44
438.278	103.44
438.5	110.44
438.721	138.44
438.943	100.44
439.165	91.44
439.386	91.44
439.608	86.44
439.829	85.44
440.05	107.44
440.272	150.44
440.493	93.44
440.715	81.44
440.936	75.44
441.158	83.44
441.379	115.44
441.6	91.44
441.822	103.44
442.043	99.44
442.264	99.44
442.486	114.44
442.707	99.44
442.928	97.44
443.149	121.44
443.371	128.44
443.592	108.44
443.813	116.44
444.034	99.44
444.255	93.44
444.476	87.44
444.698	94.44
444.919	83.44
445.14	129.44
445.361	132.44
445.582	116.44
445.803	139.44
446.024	132.44
446.245	123.44
446.466	114.44
446.687	90.44
446.908	96.44
447.129	84.44
447.35	74.44
447.571	82.44
447.792	93.44
448.013	107.44
448.234	101.44
448.455	102.44
448.675	106.44
448.896	129.44
449.117	112.44
449.338	109.44
449.559	144.44
449.779	127.44
450	80.44
450.221	73.44
450.442	79.44
450.662	92.44
450.883	103.44
451.104	96.44
451.324	94.44
451.545	84.44
451.766	78.44
451.986	84.44
452.207	81.44
452.428	93.44
452.648	96.44
452.869	109.44
453.089	110.44
453.31	108.44
453.53	93.44
453.751	114.44
453.971	98.44
454.192	115.44
454.412	87.44
454.633	93.44
454.853	93.44
455.073	87.44
455.294	82.44
455.514	93.44
455.734	79.44
455.955	85.44
456.175	99.44
456.395	84.44
456.616	85.44
456.836	87.44
457.056	94.44
457.276	89.44
457.497	82.44
457.717	79.44
457.937	97.44
458.157	70.44
458.377	86.44
458.598	101.44
458.818	135.44
459.038	161.44
459.258	114.44
459.478	82.44
459.698	91.44
459.918	90.44
460.138	89.44
460.358	85.44
460.578	95.44
460.798	84.44
461.018	94.44
461.238	85.44
461.458	91.44
461.678	70.44
461.898	86.44
462.118	77.44
462.338	81.44
462.558	82.44
462.777	92.44
462.997	79.44
463.217	65.44
463.437	93.44
463.657	76.44
463.876	83.44
464.096	90.44
464.316	85.44
464.536	74.44
464.755	82.44
464.975	92.44
465.195	161.44
465.414	153.44
465.634	97.44
465.854	87.44
466.073	81.44
466.293	83.44
466.512	86.44
466.732	95.44
466.951	82.44
467.171	96.44
467.391	92.44
467.61	105.44
467.829	84.44
468.049	101.44
468.268	81.44
468.488	90.44
468.707	82.44
468.927	81.44
469.146	85.44
469.365	78.44
469.585	79.44
469.804	94.44
470.023	98.44
470.243	89.44
470.462	94.44
470.681	101.44
470.901	91.44
471.12	92.44
471.339	92.44
471.558	86.44
471.777	75.44
471.997	92.44
472.216	101.44
472.435	106.44
472.654	87.44
472.873	88.44
473.092	87.44
473.311	94.44
473.53	79.44
473.749	82.44
473.968	98.44
474.187	99.44
474.406	86.44
474.625	84.44
474.844	88.44
475.063	85.44
475.282	91.44
475.501	99.44
475.72	78.44
475.939	76.44
476.158	89.44
476.377	91.44
476.596	84.44
476.814	89.44
477.033	88.44
477.252	99.44
477.471	74.44
477.69	88.44
477.908	85.44
478.127	72.44
478.346	77.44
478.564	101.44
478.783	94.44
479.002	89.44
479.22	83.44
479.439	92.44
479.658	95.44
479.876	94.44
480.095	96.44
480.313	89.44
480.532	86.44
480.751	86.44
480.969	105.44
481.188	160.44
481.406	121.44
481.624	81.44
481.843	88.44
482.061	98.44
482.28	70.44
482.498	82.44
482.717	67.44
482.935	75.44
483.153	95.44
483.372	77.44
483.59	79.44
483.808	79.44
484.027	79.44
484.245	80.44
484.463	69.44
484.681	93.44
484.9	97.44
485.118	98.44
485.336	90.44
485.554	96.44
485.772	82.44
485.99	91.44
486.209	93.44
486.427	102.44
486.645	105.44
486.863	105.44
487.081	104.44
487.299	95.44
487.517	96.44
487.735	95.44
487.953	81.44
488.171	100.44
488.389	96.44
488.607	96.44
488.825	93.44
489.043	86.44
489.261	91.44
489.479	92.44
489.696	102.44
489.914	92.44
490.132	86.44
490.35	93.44
490.568	80.44
490.786	79.44
491.003	82.44
491.221	97.44
491.439	86.44
491.657	83.44
491.874	92.44
492.092	81.44
492.31	95.44
492.527	90.44
492.745	95.44
492.963	84.44
493.18	84.44
493.398	94.44
493.615	84.44
493.833	101.44
494.05	80.44
494.268	88.44
494.485	86.44
494.703	95.44
494.92	96.44
495.138	83.44
495.355	87.44
495.573	85.44
495.79	73.44
496.008	89.44
496.225	101.44
496.442	93.44
496.66	94.44
496.877	93.44
497.094	93.44
497.312	80.44
497.529	91.44
497.746	90.44
497.963	103.44
498.181	94.44
498.398	100.44
498.615	103.44
498.832	102.44
499.049	98.44
499.267	93.44
499.484	87.44
499.701	91.44
499.918	89.44
500.135	86.44
500.352	80.44
500.569	90.44
500.786	95.44
501.003	90.44
501.22	84.44
501.437	89.44
501.654	110.44
501.871	107.44
502.088	104.44
502.305	98.44
502.522	79.44
502.739	91.44
502.956	94.44
503.172	90.44
503.389	85.44
503.606	102.44
503.823	108.44
504.04	84.44
504.256	85.44
504.473	81.44
504.69	83.44
504.907	109.44
505.123	100.44
505.34	90.44
505.557	93.44
505.773	98.44
505.99	83.44
506.207	94.44
506.423	89.44
506.64	86.44
506.856	80.44
507.073	87.44
507.289	79.44
507.506	94.44
507.722	103.44
507.939	99.44
508.155	105.44
508.372	99.44
508.588	89.44
508.805	85.44
509.021	92.44
509.238	98.44
509.454	93.44
509.67	109.44
509.887	102.44
510.103	129.44
510.319	213.44
510.536	729.44
510.752	2398.44
510.968	668.44
511.184	148.44
511.401	99.44
511.617	95.44
511.833	101.44
512.049	89.44
512.265	84.44
512.481	84.44
512.698	92.44
512.914	86.44
513.13	85.44
513.346	90.44
513.562	96.44
513.778	98.44
513.994	89.44
514.21	91.44
514.426	119.44
514.642	133.44
514.858	142.44
515.074	147.44
515.29	431.44
515.506	1473.44
515.721	542.44
515.937	140.44
516.153	113.44
