Data from Uncirc_1990_H10_HRD10591_00068.txt Node
Date: Wed Jan 03 11:54:05 EST 2024
User: Yrep
Spectrometer: HR+D1059
Trigger mode: 1
Integration Time (sec): 1.000000E-1
Scans to average: 1
Electric dark correction enabled: true
Nonlinearity correction enabled: false
Boxcar width: 0
XAxis mode: Wavelengths
Number of Pixels in Spectrum: 2048
>>>>>Begin Spectral Data<<<<<
223.165	-24.31
223.4	-24.31
223.635	-24.31
223.869	-10.31
224.104	-17.31
224.338	-16.31
224.573	-13.31
224.808	-15.31
225.042	-12.31
225.277	-15.31
225.511	-14.31
225.746	9.69
225.98	18.69
226.215	14.69
226.449	19.69
226.683	30.69
226.918	25.69
227.152	19.69
227.387	34.69
227.621	47.69
227.856	37.69
228.09	38.69
228.324	39.69
228.559	57.69
228.793	59.69
229.027	69.69
229.262	75.69
229.496	74.69
229.73	82.69
229.964	88.69
230.199	70.69
230.433	82.69
230.667	77.69
230.901	83.69
231.136	79.69
231.37	83.69
231.604	59.69
231.838	81.69
232.072	78.69
232.306	89.69
232.541	89.69
232.775	85.69
233.009	85.69
233.243	84.69
233.477	84.69
233.711	77.69
233.945	80.69
234.179	77.69
234.413	81.69
234.647	85.69
234.881	77.69
235.115	88.69
235.349	85.69
235.583	67.69
235.817	56.69
236.051	72.69
236.285	82.69
236.519	75.69
236.753	77.69
236.987	83.69
237.221	91.69
237.455	89.69
237.689	94.69
237.922	67.69
238.156	70.69
238.39	73.69
238.624	68.69
238.858	75.69
239.091	82.69
239.325	81.69
239.559	80.69
239.793	80.69
240.027	75.69
240.26	68.69
240.494	68.69
240.728	77.69
240.961	69.69
241.195	90.69
241.429	73.69
241.662	79.69
241.896	84.69
242.13	67.69
242.363	84.69
242.597	73.69
242.83	79.69
243.064	68.69
243.298	79.69
243.531	81.69
243.765	85.69
243.998	89.69
244.232	68.69
244.465	83.69
244.699	91.69
244.932	77.69
245.166	73.69
245.399	74.69
245.633	76.69
245.866	94.69
246.099	81.69
246.333	79.69
246.566	91.69
246.8	83.69
247.033	82.69
247.266	85.69
247.5	82.69
247.733	92.69
247.966	67.69
248.2	66.69
248.433	84.69
248.666	79.69
248.899	74.69
249.133	75.69
249.366	87.69
249.599	101.69
249.832	81.69
250.066	89.69
250.299	96.69
250.532	76.69
250.765	81.69
250.998	81.69
251.231	80.69
251.465	70.69
251.698	84.69
251.931	68.69
252.164	82.69
252.397	80.69
252.63	93.69
252.863	85.69
253.096	100.69
253.329	67.69
253.562	76.69
253.795	80.69
254.028	81.69
254.261	90.69
254.494	86.69
254.727	76.69
254.96	70.69
255.193	94.69
255.426	94.69
255.659	79.69
255.892	80.69
256.124	100.69
256.357	72.69
256.59	65.69
256.823	73.69
257.056	87.69
257.289	77.69
257.521	79.69
257.754	89.69
257.987	84.69
258.22	92.69
258.452	76.69
258.685	77.69
258.918	85.69
259.151	84.69
259.383	96.69
259.616	86.69
259.849	83.69
260.081	91.69
260.314	70.69
260.547	83.69
260.779	81.69
261.012	94.69
261.244	69.69
261.477	80.69
261.71	84.69
261.942	94.69
262.175	113.69
262.407	85.69
262.64	73.69
262.872	81.69
263.105	85.69
263.337	91.69
263.57	96.69
263.802	96.69
264.035	95.69
264.267	93.69
264.499	81.69
264.732	83.69
264.964	75.69
265.197	89.69
265.429	79.69
265.661	86.69
265.894	89.69
266.126	92.69
266.358	97.69
266.591	79.69
266.823	80.69
267.055	96.69
267.287	81.69
267.52	80.69
267.752	90.69
267.984	81.69
268.216	81.69
268.448	113.69
268.681	94.69
268.913	88.69
269.145	83.69
269.377	87.69
269.609	86.69
269.841	73.69
270.073	92.69
270.306	66.69
270.538	87.69
270.77	89.69
271.002	79.69
271.234	77.69
271.466	105.69
271.698	93.69
271.93	88.69
272.162	83.69
272.394	91.69
272.626	71.69
272.858	70.69
273.09	75.69
273.322	87.69
273.553	97.69
273.785	85.69
274.017	85.69
274.249	90.69
274.481	88.69
274.713	83.69
274.945	80.69
275.176	78.69
275.408	90.69
275.64	85.69
275.872	81.69
276.104	90.69
276.335	90.69
276.567	98.69
276.799	103.69
277.031	93.69
277.262	92.69
277.494	92.69
277.726	88.69
277.957	104.69
278.189	68.69
278.421	103.69
278.652	89.69
278.884	90.69
279.115	85.69
279.347	89.69
279.579	84.69
279.81	86.69
280.042	84.69
280.273	83.69
280.505	93.69
280.736	84.69
280.968	81.69
281.199	91.69
281.431	76.69
281.662	75.69
281.894	84.69
282.125	96.69
282.356	123.69
282.588	147.69
282.819	96.69
283.051	92.69
283.282	78.69
283.513	99.69
283.745	101.69
283.976	95.69
284.207	81.69
284.439	86.69
284.67	79.69
284.901	98.69
285.132	94.69
285.364	89.69
285.595	89.69
285.826	78.69
286.057	86.69
286.288	88.69
286.52	90.69
286.751	85.69
286.982	76.69
287.213	80.69
287.444	73.69
287.675	85.69
287.906	85.69
288.138	80.69
288.369	97.69
288.6	87.69
288.831	100.69
289.062	79.69
289.293	81.69
289.524	83.69
289.755	79.69
289.986	96.69
290.217	92.69
290.448	97.69
290.679	83.69
290.91	91.69
291.141	85.69
291.371	71.69
291.602	81.69
291.833	96.69
292.064	98.69
292.295	85.69
292.526	94.69
292.757	87.69
292.987	84.69
293.218	100.69
293.449	103.69
293.68	87.69
293.91	80.69
294.141	84.69
294.372	103.69
294.603	73.69
294.833	77.69
295.064	85.69
295.295	97.69
295.525	94.69
295.756	94.69
295.987	119.69
296.217	139.69
296.448	109.69
296.679	97.69
296.909	100.69
297.14	98.69
297.37	77.69
297.601	96.69
297.831	90.69
298.062	100.69
298.292	81.69
298.523	81.69
298.753	79.69
298.984	85.69
299.214	76.69
299.445	83.69
299.675	79.69
299.905	107.69
300.136	89.69
300.366	87.69
300.597	100.69
300.827	79.69
301.057	97.69
301.288	105.69
301.518	91.69
301.748	106.69
301.979	105.69
302.209	70.69
302.439	93.69
302.669	91.69
302.9	91.69
303.13	98.69
303.36	78.69
303.59	97.69
303.82	107.69
304.051	101.69
304.281	95.69
304.511	87.69
304.741	93.69
304.971	92.69
305.201	98.69
305.431	100.69
305.661	84.69
305.891	93.69
306.121	101.69
306.352	96.69
306.582	116.69
306.812	97.69
307.042	89.69
307.272	88.69
307.502	90.69
307.731	99.69
307.961	94.69
308.191	114.69
308.421	103.69
308.651	83.69
308.881	102.69
309.111	90.69
309.341	103.69
309.571	102.69
309.8	96.69
310.03	98.69
310.26	88.69
310.49	88.69
310.72	87.69
310.949	99.69
311.179	95.69
311.409	91.69
311.639	92.69
311.868	102.69
312.098	96.69
312.328	95.69
312.557	89.69
312.787	92.69
313.017	85.69
313.246	87.69
313.476	93.69
313.706	95.69
313.935	96.69
314.165	96.69
314.394	103.69
314.624	80.69
314.853	92.69
315.083	110.69
315.312	100.69
315.542	102.69
315.771	101.69
316.001	91.69
316.23	88.69
316.46	92.69
316.689	86.69
316.919	94.69
317.148	101.69
317.377	89.69
317.607	102.69
317.836	90.69
318.065	85.69
318.295	104.69
318.524	103.69
318.753	99.69
318.983	81.69
319.212	98.69
319.441	121.69
319.67	97.69
319.9	89.69
320.129	97.69
320.358	83.69
320.587	95.69
320.816	109.69
321.046	93.69
321.275	96.69
321.504	81.69
321.733	94.69
321.962	97.69
322.191	105.69
322.42	119.69
322.649	105.69
322.878	105.69
323.108	102.69
323.337	116.69
323.566	139.69
323.795	143.69
324.024	187.69
324.253	374.69
324.482	773.69
324.71	1525.69
324.939	2057.69
325.168	754.69
325.397	223.69
325.626	156.69
325.855	128.69
326.084	125.69
326.313	130.69
326.542	156.69
326.77	231.69
326.999	420.69
327.228	878.69
327.457	1598.69
327.686	1261.69
327.914	352.69
328.143	181.69
328.372	148.69
328.6	108.69
328.829	111.69
329.058	114.69
329.287	118.69
329.515	117.69
329.744	101.69
329.972	93.69
330.201	107.69
330.43	110.69
330.658	109.69
330.887	129.69
331.115	103.69
331.344	83.69
331.572	111.69
331.801	101.69
332.03	91.69
332.258	91.69
332.486	103.69
332.715	90.69
332.943	96.69
333.172	98.69
333.4	96.69
333.629	107.69
333.857	105.69
334.085	103.69
334.314	99.69
334.542	116.69
334.771	112.69
334.999	87.69
335.227	95.69
335.455	97.69
335.684	89.69
335.912	83.69
336.14	81.69
336.369	102.69
336.597	109.69
336.825	95.69
337.053	103.69
337.281	96.69
337.51	93.69
337.738	91.69
337.966	93.69
338.194	96.69
338.422	93.69
338.65	89.69
338.878	94.69
339.106	87.69
339.334	84.69
339.562	89.69
339.79	73.69
340.018	85.69
340.246	90.69
340.474	99.69
340.702	92.69
340.93	93.69
341.158	86.69
341.386	97.69
341.614	93.69
341.842	102.69
342.07	93.69
342.298	105.69
342.526	97.69
342.754	87.69
342.981	85.69
343.209	101.69
343.437	105.69
343.665	101.69
343.893	85.69
344.12	99.69
344.348	84.69
344.576	89.69
344.804	83.69
345.031	97.69
345.259	105.69
345.487	90.69
345.714	75.69
345.942	91.69
346.17	88.69
346.397	95.69
346.625	89.69
346.853	93.69
347.08	94.69
347.308	91.69
347.535	103.69
347.763	101.69
347.99	99.69
348.218	108.69
348.445	109.69
348.673	94.69
348.9	97.69
349.128	92.69
349.355	85.69
349.583	105.69
349.81	105.69
350.037	91.69
350.265	87.69
350.492	91.69
350.72	99.69
350.947	105.69
351.174	99.69
351.402	107.69
351.629	101.69
351.856	102.69
352.083	103.69
352.311	101.69
352.538	114.69
352.765	110.69
352.992	109.69
353.22	105.69
353.447	92.69
353.674	100.69
353.901	107.69
354.128	97.69
354.355	100.69
354.583	118.69
354.81	109.69
355.037	93.69
355.264	95.69
355.491	93.69
355.718	113.69
355.945	89.69
356.172	90.69
356.399	84.69
356.626	102.69
356.853	97.69
357.08	86.69
357.307	93.69
357.534	78.69
357.761	93.69
357.988	97.69
358.215	102.69
358.441	99.69
358.668	100.69
358.895	89.69
359.122	86.69
359.349	80.69
359.576	84.69
359.802	105.69
360.029	99.69
360.256	106.69
360.483	84.69
360.709	101.69
360.936	87.69
361.163	105.69
361.39	93.69
361.616	91.69
361.843	88.69
362.07	106.69
362.296	101.69
362.523	102.69
362.749	91.69
362.976	90.69
363.203	75.69
363.429	80.69
363.656	99.69
363.882	97.69
364.109	90.69
364.335	85.69
364.562	95.69
364.788	91.69
365.015	91.69
365.241	102.69
365.468	102.69
365.694	93.69
365.92	99.69
366.147	92.69
366.373	82.69
366.599	92.69
366.826	94.69
367.052	93.69
367.278	88.69
367.505	80.69
367.731	93.69
367.957	84.69
368.184	84.69
368.41	102.69
368.636	97.69
368.862	120.69
369.089	108.69
369.315	91.69
369.541	105.69
369.767	94.69
369.993	90.69
370.219	81.69
370.445	91.69
370.672	103.69
370.898	94.69
371.124	97.69
371.35	83.69
371.576	87.69
371.802	77.69
372.028	83.69
372.254	82.69
372.48	93.69
372.706	81.69
372.932	97.69
373.158	91.69
373.384	96.69
373.61	81.69
373.835	80.69
374.061	81.69
374.287	100.69
374.513	99.69
374.739	86.69
374.965	88.69
375.191	95.69
375.416	76.69
375.642	89.69
375.868	88.69
376.094	110.69
376.319	84.69
376.545	98.69
376.771	89.69
376.997	79.69
377.222	92.69
377.448	104.69
377.674	89.69
377.899	72.69
378.125	91.69
378.35	83.69
378.576	103.69
378.802	96.69
379.027	85.69
379.253	78.69
379.478	98.69
379.704	89.69
379.929	96.69
380.155	90.69
380.38	113.69
380.606	113.69
380.831	95.69
381.057	91.69
381.282	85.69
381.507	85.69
381.733	96.69
381.958	99.69
382.184	105.69
382.409	97.69
382.634	97.69
382.86	86.69
383.085	101.69
383.31	97.69
383.535	100.69
383.761	105.69
383.986	100.69
384.211	108.69
384.436	94.69
384.662	99.69
384.887	105.69
385.112	96.69
385.337	90.69
385.562	97.69
385.787	88.69
386.013	109.69
386.238	90.69
386.463	107.69
386.688	97.69
386.913	114.69
387.138	102.69
387.363	96.69
387.588	100.69
387.813	96.69
388.038	95.69
388.263	100.69
388.488	96.69
388.713	105.69
388.938	99.69
389.163	93.69
389.387	97.69
389.612	103.69
389.837	102.69
390.062	112.69
390.287	86.69
390.512	91.69
390.736	83.69
390.961	91.69
391.186	86.69
391.411	87.69
391.636	85.69
391.86	101.69
392.085	101.69
392.31	89.69
392.534	90.69
392.759	95.69
392.984	88.69
393.208	99.69
393.433	86.69
393.658	95.69
393.882	73.69
394.107	96.69
394.331	97.69
394.556	105.69
394.78	102.69
395.005	89.69
395.229	87.69
395.454	87.69
395.678	81.69
395.903	85.69
396.127	92.69
396.352	96.69
396.576	97.69
396.801	98.69
397.025	97.69
397.249	97.69
397.474	100.69
397.698	71.69
397.922	94.69
398.147	95.69
398.371	84.69
398.595	87.69
398.82	83.69
399.044	88.69
399.268	79.69
399.492	100.69
399.717	93.69
399.941	96.69
400.165	87.69
400.389	89.69
400.613	88.69
400.837	86.69
401.062	103.69
401.286	94.69
401.51	99.69
401.734	99.69
401.958	97.69
402.182	111.69
402.406	162.69
402.63	100.69
402.854	72.69
403.078	92.69
403.302	90.69
403.526	96.69
403.75	83.69
403.974	87.69
404.198	78.69
404.422	103.69
404.645	80.69
404.869	88.69
405.093	96.69
405.317	103.69
405.541	108.69
405.765	85.69
405.988	122.69
406.212	171.69
406.436	210.69
406.66	125.69
406.883	106.69
407.107	90.69
407.331	91.69
407.555	94.69
407.778	86.69
408.002	100.69
408.226	83.69
408.449	93.69
408.673	80.69
408.896	99.69
409.12	93.69
409.344	87.69
409.567	96.69
409.791	99.69
410.014	104.69
410.238	112.69
410.461	83.69
410.685	99.69
410.908	100.69
411.132	91.69
411.355	87.69
411.578	88.69
411.802	88.69
412.025	100.69
412.249	93.69
412.472	83.69
412.695	102.69
412.919	102.69
413.142	83.69
413.365	85.69
413.589	88.69
413.812	93.69
414.035	86.69
414.258	84.69
414.482	102.69
414.705	91.69
414.928	94.69
415.151	104.69
415.374	94.69
415.597	84.69
415.821	94.69
416.044	95.69
416.267	93.69
416.49	80.69
416.713	84.69
416.936	96.69
417.159	87.69
417.382	79.69
417.605	79.69
417.828	93.69
418.051	91.69
418.274	106.69
418.497	77.69
418.72	88.69
418.943	98.69
419.166	85.69
419.389	92.69
419.611	83.69
419.834	87.69
420.057	93.69
420.28	91.69
420.503	79.69
420.726	101.69
420.948	86.69
421.171	90.69
421.394	101.69
421.617	92.69
421.839	93.69
422.062	83.69
422.285	100.69
422.507	102.69
422.73	107.69
422.953	83.69
423.175	95.69
423.398	82.69
423.621	94.69
423.843	79.69
424.066	87.69
424.288	82.69
424.511	95.69
424.733	86.69
424.956	96.69
425.178	95.69
425.401	76.69
425.623	102.69
425.846	94.69
426.068	97.69
426.291	91.69
426.513	81.69
426.735	103.69
426.958	109.69
427.18	103.69
427.402	129.69
427.625	154.69
427.847	127.69
428.069	95.69
428.292	99.69
428.514	90.69
428.736	83.69
428.958	86.69
429.181	83.69
429.403	75.69
429.625	98.69
429.847	88.69
430.069	107.69
430.292	99.69
430.514	92.69
430.736	95.69
430.958	71.69
431.18	82.69
431.402	80.69
431.624	85.69
431.846	85.69
432.068	100.69
432.29	82.69
432.512	88.69
432.734	70.69
432.956	88.69
433.178	110.69
433.4	102.69
433.622	103.69
433.844	84.69
434.066	95.69
434.287	93.69
434.509	85.69
434.731	83.69
434.953	83.69
435.175	95.69
435.397	100.69
435.618	106.69
435.84	94.69
436.062	125.69
436.284	100.69
436.505	97.69
436.727	95.69
436.949	95.69
437.17	87.69
437.392	82.69
437.614	97.69
437.835	101.69
438.057	113.69
438.278	109.69
438.5	104.69
438.721	112.69
438.943	102.69
439.165	83.69
439.386	94.69
439.608	89.69
439.829	97.69
440.05	111.69
440.272	140.69
440.493	98.69
440.715	79.69
440.936	80.69
441.158	89.69
441.379	95.69
441.6	106.69
441.822	88.69
442.043	88.69
442.264	102.69
442.486	105.69
442.707	94.69
442.928	107.69
443.149	132.69
443.371	115.69
443.592	102.69
443.813	110.69
444.034	97.69
444.255	102.69
444.476	85.69
444.698	83.69
444.919	73.69
445.14	135.69
445.361	129.69
445.582	100.69
445.803	131.69
446.024	140.69
446.245	131.69
446.466	113.69
446.687	94.69
446.908	83.69
447.129	86.69
447.35	92.69
447.571	103.69
447.792	90.69
448.013	97.69
448.234	97.69
448.455	100.69
448.675	105.69
448.896	122.69
449.117	111.69
449.338	83.69
449.559	126.69
449.779	136.69
450	96.69
450.221	93.69
450.442	88.69
450.662	94.69
450.883	111.69
451.104	102.69
451.324	108.69
451.545	80.69
451.766	83.69
451.986	97.69
452.207	85.69
452.428	92.69
452.648	101.69
452.869	101.69
453.089	121.69
453.31	108.69
453.53	87.69
453.751	91.69
453.971	98.69
454.192	120.69
454.412	107.69
454.633	83.69
454.853	102.69
455.073	88.69
455.294	99.69
455.514	94.69
455.734	94.69
455.955	84.69
456.175	104.69
456.395	101.69
456.616	91.69
456.836	73.69
457.056	87.69
457.276	78.69
457.497	86.69
457.717	67.69
457.937	75.69
458.157	101.69
458.377	91.69
458.598	107.69
458.818	139.69
459.038	150.69
459.258	97.69
459.478	96.69
459.698	89.69
459.918	84.69
460.138	87.69
460.358	81.69
460.578	77.69
460.798	79.69
461.018	94.69
461.238	92.69
461.458	95.69
461.678	91.69
461.898	92.69
462.118	92.69
462.338	97.69
462.558	96.69
462.777	92.69
462.997	88.69
463.217	93.69
463.437	89.69
463.657	70.69
463.876	89.69
464.096	88.69
464.316	81.69
464.536	83.69
464.755	86.69
464.975	110.69
465.195	132.69
465.414	132.69
465.634	86.69
465.854	94.69
466.073	86.69
466.293	87.69
466.512	87.69
466.732	86.69
466.951	86.69
467.171	103.69
467.391	90.69
467.61	101.69
467.829	97.69
468.049	97.69
468.268	88.69
468.488	87.69
468.707	86.69
468.927	75.69
469.146	77.69
469.365	82.69
469.585	101.69
469.804	87.69
470.023	85.69
470.243	72.69
470.462	105.69
470.681	111.69
470.901	90.69
471.12	83.69
471.339	80.69
471.558	77.69
471.777	89.69
471.997	93.69
472.216	109.69
472.435	102.69
472.654	91.69
472.873	90.69
473.092	70.69
473.311	89.69
473.53	87.69
473.749	80.69
473.968	105.69
474.187	105.69
474.406	87.69
474.625	84.69
474.844	89.69
475.063	79.69
475.282	94.69
475.501	93.69
475.72	87.69
475.939	101.69
476.158	86.69
476.377	82.69
476.596	75.69
476.814	73.69
477.033	88.69
477.252	87.69
477.471	87.69
477.69	95.69
477.908	102.69
478.127	88.69
478.346	97.69
478.564	84.69
478.783	91.69
479.002	84.69
479.22	101.69
479.439	94.69
479.658	91.69
479.876	108.69
480.095	92.69
480.313	95.69
480.532	83.69
480.751	85.69
480.969	112.69
481.188	141.69
481.406	128.69
481.624	102.69
481.843	102.69
482.061	84.69
482.28	72.69
482.498	78.69
482.717	90.69
482.935	84.69
483.153	95.69
483.372	81.69
483.59	84.69
483.808	89.69
484.027	91.69
484.245	92.69
484.463	96.69
484.681	83.69
484.9	99.69
485.118	98.69
485.336	91.69
485.554	100.69
485.772	99.69
485.99	103.69
486.209	102.69
486.427	114.69
486.645	103.69
486.863	103.69
487.081	91.69
487.299	104.69
487.517	103.69
487.735	99.69
487.953	91.69
488.171	104.69
488.389	115.69
488.607	83.69
488.825	85.69
489.043	90.69
489.261	77.69
489.479	71.69
489.696	91.69
489.914	97.69
490.132	90.69
490.35	88.69
490.568	75.69
490.786	88.69
491.003	101.69
491.221	89.69
491.439	84.69
491.657	90.69
491.874	99.69
492.092	85.69
492.31	94.69
492.527	87.69
492.745	87.69
492.963	94.69
493.18	89.69
493.398	77.69
493.615	103.69
493.833	108.69
494.05	88.69
494.268	87.69
494.485	96.69
494.703	95.69
494.92	100.69
495.138	111.69
495.355	85.69
495.573	89.69
495.79	99.69
496.008	88.69
496.225	93.69
496.442	97.69
496.66	76.69
496.877	76.69
497.094	78.69
497.312	89.69
497.529	87.69
497.746	84.69
497.963	95.69
498.181	96.69
498.398	95.69
498.615	110.69
498.832	107.69
499.049	99.69
499.267	97.69
499.484	85.69
499.701	103.69
499.918	93.69
500.135	85.69
500.352	87.69
500.569	92.69
500.786	103.69
501.003	100.69
501.22	77.69
501.437	95.69
501.654	99.69
501.871	92.69
502.088	93.69
502.305	97.69
502.522	107.69
502.739	88.69
502.956	93.69
503.172	96.69
503.389	94.69
503.606	85.69
503.823	96.69
504.04	88.69
504.256	102.69
504.473	101.69
504.69	85.69
504.907	103.69
505.123	93.69
505.34	79.69
505.557	111.69
505.773	79.69
505.99	96.69
506.207	104.69
506.423	91.69
506.64	97.69
506.856	84.69
507.073	87.69
507.289	100.69
507.506	107.69
507.722	108.69
507.939	124.69
508.155	97.69
508.372	108.69
508.588	101.69
508.805	96.69
509.021	110.69
509.238	95.69
509.454	88.69
509.67	101.69
509.887	101.69
510.103	133.69
510.319	193.69
510.536	674.69
510.752	2193.69
510.968	610.69
511.184	136.69
511.401	107.69
511.617	100.69
511.833	91.69
512.049	108.69
512.265	98.69
512.481	95.69
512.698	81.69
512.914	115.69
513.13	93.69
513.346	96.69
513.562	92.69
513.778	108.69
513.994	85.69
514.21	110.69
514.426	117.69
514.642	139.69
514.858	112.69
515.074	160.69
515.29	404.69
