Data from Uncirc_1990_H10_HRD10591_00095.txt Node
Date: Wed Jan 03 11:54:10 EST 2024
User: Yrep
Spectrometer: HR+D1059
Trigger mode: 1
Integration Time (sec): 1.000000E-1
Scans to average: 1
Electric dark correction enabled: true
Nonlinearity correction enabled: false
Boxcar width: 0
XAxis mode: Wavelengths
Number of Pixels in Spectrum: 2048
>>>>>Begin Spectral Data<<<<<
223.165	-17.81
223.4	-17.81
223.635	-17.81
223.869	-15.81
224.104	-6.81
224.338	-8.81
224.573	-5.81
224.808	-11.81
225.042	-1.81
225.277	-31.81
225.511	11.19
225.746	2.19
225.98	7.19
226.215	10.19
226.449	4.19
226.683	18.19
226.918	18.19
227.152	29.19
227.387	41.19
227.621	50.19
227.856	32.19
228.09	45.19
228.324	59.19
228.559	57.19
228.793	59.19
229.027	63.19
229.262	77.19
229.496	74.19
229.73	77.19
229.964	91.19
230.199	68.19
230.433	81.19
230.667	74.19
230.901	68.19
231.136	78.19
231.37	86.19
231.604	83.19
231.838	87.19
232.072	78.19
232.306	88.19
232.541	95.19
232.775	77.19
233.009	87.19
233.243	87.19
233.477	61.19
233.711	77.19
233.945	93.19
234.179	81.19
234.413	81.19
234.647	96.19
234.881	97.19
235.115	71.19
235.349	79.19
235.583	76.19
235.817	80.19
236.051	72.19
236.285	75.19
236.519	76.19
236.753	67.19
236.987	86.19
237.221	90.19
237.455	94.19
237.689	62.19
237.922	84.19
238.156	75.19
238.39	72.19
238.624	79.19
238.858	68.19
239.091	71.19
239.325	81.19
239.559	78.19
239.793	78.19
240.027	74.19
240.26	79.19
240.494	69.19
240.728	63.19
240.961	59.19
241.195	74.19
241.429	66.19
241.662	86.19
241.896	72.19
242.13	79.19
242.363	78.19
242.597	81.19
242.83	64.19
243.064	60.19
243.298	68.19
243.531	74.19
243.765	69.19
243.998	67.19
244.232	75.19
244.465	97.19
244.699	83.19
244.932	86.19
245.166	69.19
245.399	78.19
245.633	78.19
245.866	72.19
246.099	89.19
246.333	72.19
246.566	81.19
246.8	77.19
247.033	85.19
247.266	84.19
247.5	65.19
247.733	70.19
247.966	71.19
248.2	82.19
248.433	68.19
248.666	80.19
248.899	81.19
249.133	95.19
249.366	108.19
249.599	102.19
249.832	66.19
250.066	86.19
250.299	80.19
250.532	82.19
250.765	77.19
250.998	85.19
251.231	79.19
251.465	97.19
251.698	78.19
251.931	78.19
252.164	80.19
252.397	81.19
252.63	78.19
252.863	93.19
253.096	70.19
253.329	94.19
253.562	66.19
253.795	78.19
254.028	82.19
254.261	76.19
254.494	89.19
254.727	93.19
254.96	84.19
255.193	76.19
255.426	83.19
255.659	99.19
255.892	75.19
256.124	77.19
256.357	88.19
256.59	78.19
256.823	70.19
257.056	85.19
257.289	75.19
257.521	81.19
257.754	90.19
257.987	82.19
258.22	90.19
258.452	95.19
258.685	85.19
258.918	62.19
259.151	81.19
259.383	81.19
259.616	86.19
259.849	90.19
260.081	82.19
260.314	80.19
260.547	79.19
260.779	77.19
261.012	91.19
261.244	86.19
261.477	81.19
261.71	92.19
261.942	96.19
262.175	111.19
262.407	87.19
262.64	68.19
262.872	85.19
263.105	86.19
263.337	85.19
263.57	76.19
263.802	84.19
264.035	76.19
264.267	78.19
264.499	80.19
264.732	78.19
264.964	90.19
265.197	85.19
265.429	84.19
265.661	75.19
265.894	78.19
266.126	79.19
266.358	71.19
266.591	88.19
266.823	74.19
267.055	85.19
267.287	90.19
267.52	91.19
267.752	81.19
267.984	88.19
268.216	78.19
268.448	83.19
268.681	87.19
268.913	81.19
269.145	81.19
269.377	83.19
269.609	79.19
269.841	96.19
270.073	78.19
270.306	84.19
270.538	67.19
270.77	81.19
271.002	83.19
271.234	84.19
271.466	106.19
271.698	83.19
271.93	75.19
272.162	77.19
272.394	80.19
272.626	77.19
272.858	84.19
273.09	80.19
273.322	76.19
273.553	83.19
273.785	87.19
274.017	93.19
274.249	98.19
274.481	91.19
274.713	91.19
274.945	87.19
275.176	90.19
275.408	78.19
275.64	84.19
275.872	90.19
276.104	96.19
276.335	77.19
276.567	98.19
276.799	112.19
277.031	97.19
277.262	84.19
277.494	93.19
277.726	85.19
277.957	96.19
278.189	78.19
278.421	79.19
278.652	85.19
278.884	94.19
279.115	93.19
279.347	97.19
279.579	85.19
279.81	96.19
280.042	88.19
280.273	89.19
280.505	90.19
280.736	77.19
280.968	96.19
281.199	88.19
281.431	76.19
281.662	85.19
281.894	88.19
282.125	99.19
282.356	107.19
282.588	146.19
282.819	108.19
283.051	79.19
283.282	92.19
283.513	85.19
283.745	90.19
283.976	88.19
284.207	78.19
284.439	84.19
284.67	85.19
284.901	82.19
285.132	80.19
285.364	92.19
285.595	89.19
285.826	93.19
286.057	81.19
286.288	80.19
286.52	86.19
286.751	95.19
286.982	74.19
287.213	80.19
287.444	100.19
287.675	91.19
287.906	75.19
288.138	104.19
288.369	95.19
288.6	100.19
288.831	106.19
289.062	96.19
289.293	83.19
289.524	90.19
289.755	80.19
289.986	76.19
290.217	83.19
290.448	90.19
290.679	102.19
290.91	82.19
291.141	69.19
291.371	88.19
291.602	95.19
291.833	95.19
292.064	92.19
292.295	85.19
292.526	84.19
292.757	85.19
292.987	77.19
293.218	97.19
293.449	94.19
293.68	92.19
293.91	86.19
294.141	90.19
294.372	83.19
294.603	90.19
294.833	92.19
295.064	78.19
295.295	95.19
295.525	96.19
295.756	89.19
295.987	108.19
296.217	134.19
296.448	130.19
296.679	86.19
296.909	84.19
297.14	92.19
297.37	87.19
297.601	83.19
297.831	87.19
298.062	93.19
298.292	92.19
298.523	86.19
298.753	84.19
298.984	86.19
299.214	93.19
299.445	104.19
299.675	90.19
299.905	84.19
300.136	83.19
300.366	85.19
300.597	81.19
300.827	99.19
301.057	80.19
301.288	95.19
301.518	90.19
301.748	78.19
301.979	98.19
302.209	97.19
302.439	82.19
302.669	92.19
302.9	77.19
303.13	99.19
303.36	86.19
303.59	102.19
303.82	109.19
304.051	79.19
304.281	89.19
304.511	89.19
304.741	88.19
304.971	94.19
305.201	96.19
305.431	100.19
305.661	92.19
305.891	102.19
306.121	86.19
306.352	93.19
306.582	104.19
306.812	102.19
307.042	101.19
307.272	89.19
307.502	90.19
307.731	102.19
307.961	76.19
308.191	89.19
308.421	84.19
308.651	88.19
308.881	85.19
309.111	99.19
309.341	92.19
309.571	111.19
309.8	100.19
310.03	94.19
310.26	95.19
310.49	93.19
310.72	90.19
310.949	110.19
311.179	107.19
311.409	91.19
311.639	85.19
311.868	99.19
312.098	102.19
312.328	99.19
312.557	91.19
312.787	98.19
313.017	99.19
313.246	87.19
313.476	101.19
313.706	106.19
313.935	104.19
314.165	94.19
314.394	100.19
314.624	100.19
314.853	99.19
315.083	77.19
315.312	108.19
315.542	90.19
315.771	86.19
316.001	94.19
316.23	91.19
316.46	90.19
316.689	85.19
316.919	99.19
317.148	88.19
317.377	110.19
317.607	100.19
317.836	109.19
318.065	108.19
318.295	93.19
318.524	94.19
318.753	99.19
318.983	98.19
319.212	101.19
319.441	105.19
319.67	95.19
319.9	90.19
320.129	103.19
320.358	104.19
320.587	94.19
320.816	90.19
321.046	96.19
321.275	90.19
321.504	94.19
321.733	80.19
321.962	99.19
322.191	99.19
322.42	98.19
322.649	118.19
322.878	104.19
323.108	106.19
323.337	111.19
323.566	130.19
323.795	154.19
324.024	190.19
324.253	408.19
324.482	872.19
324.71	1824.19
324.939	2437.19
325.168	894.19
325.397	270.19
325.626	149.19
325.855	132.19
326.084	133.19
326.313	132.19
326.542	143.19
326.77	232.19
326.999	470.19
327.228	979.19
327.457	1878.19
327.686	1492.19
327.914	395.19
328.143	196.19
328.372	167.19
328.6	120.19
328.829	118.19
329.058	127.19
329.287	128.19
329.515	99.19
329.744	111.19
329.972	108.19
330.201	124.19
330.43	131.19
330.658	114.19
330.887	133.19
331.115	121.19
331.344	101.19
331.572	112.19
331.801	101.19
332.03	122.19
332.258	99.19
332.486	99.19
332.715	100.19
332.943	99.19
333.172	94.19
333.4	103.19
333.629	103.19
333.857	112.19
334.085	116.19
334.314	115.19
334.542	121.19
334.771	132.19
334.999	100.19
335.227	98.19
335.455	92.19
335.684	97.19
335.912	104.19
336.14	98.19
336.369	107.19
336.597	99.19
336.825	110.19
337.053	83.19
337.281	92.19
337.51	84.19
337.738	90.19
337.966	101.19
338.194	104.19
338.422	105.19
338.65	91.19
338.878	97.19
339.106	92.19
339.334	91.19
339.562	84.19
339.79	97.19
340.018	70.19
340.246	83.19
340.474	74.19
340.702	106.19
340.93	91.19
341.158	92.19
341.386	95.19
341.614	102.19
341.842	76.19
342.07	82.19
342.298	92.19
342.526	86.19
342.754	87.19
342.981	86.19
343.209	100.19
343.437	99.19
343.665	99.19
343.893	96.19
344.12	87.19
344.348	90.19
344.576	96.19
344.804	86.19
345.031	102.19
345.259	101.19
345.487	97.19
345.714	92.19
345.942	78.19
346.17	96.19
346.397	97.19
346.625	80.19
346.853	84.19
347.08	95.19
347.308	85.19
347.535	95.19
347.763	95.19
347.99	91.19
348.218	93.19
348.445	120.19
348.673	102.19
348.9	94.19
349.128	112.19
349.355	86.19
349.583	95.19
349.81	99.19
350.037	102.19
350.265	103.19
350.492	88.19
350.72	98.19
350.947	98.19
351.174	108.19
351.402	106.19
351.629	105.19
351.856	86.19
352.083	101.19
352.311	97.19
352.538	110.19
352.765	102.19
352.992	94.19
353.22	103.19
353.447	117.19
353.674	96.19
353.901	91.19
354.128	84.19
354.355	95.19
354.583	107.19
354.81	104.19
355.037	86.19
355.264	90.19
355.491	100.19
355.718	91.19
355.945	93.19
356.172	97.19
356.399	98.19
356.626	96.19
356.853	77.19
357.08	76.19
357.307	97.19
357.534	98.19
357.761	100.19
357.988	93.19
358.215	104.19
358.441	87.19
358.668	78.19
358.895	95.19
359.122	79.19
359.349	83.19
359.576	80.19
359.802	95.19
360.029	112.19
360.256	100.19
360.483	99.19
360.709	85.19
360.936	99.19
361.163	90.19
361.39	96.19
361.616	95.19
361.843	67.19
362.07	96.19
362.296	99.19
362.523	86.19
362.749	91.19
362.976	106.19
363.203	92.19
363.429	92.19
363.656	85.19
363.882	88.19
364.109	98.19
364.335	103.19
364.562	103.19
364.788	94.19
365.015	106.19
365.241	106.19
365.468	88.19
365.694	95.19
365.92	95.19
366.147	87.19
366.373	80.19
366.599	89.19
366.826	70.19
367.052	92.19
367.278	82.19
367.505	88.19
367.731	77.19
367.957	77.19
368.184	95.19
368.41	101.19
368.636	100.19
368.862	122.19
369.089	103.19
369.315	85.19
369.541	96.19
369.767	93.19
369.993	95.19
370.219	99.19
370.445	100.19
370.672	81.19
370.898	100.19
371.124	92.19
371.35	83.19
371.576	90.19
371.802	99.19
372.028	78.19
372.254	92.19
372.48	104.19
372.706	82.19
372.932	72.19
373.158	75.19
373.384	96.19
373.61	92.19
373.835	95.19
374.061	82.19
374.287	99.19
374.513	90.19
374.739	75.19
374.965	98.19
375.191	74.19
375.416	98.19
375.642	92.19
375.868	91.19
376.094	103.19
376.319	90.19
376.545	81.19
376.771	90.19
376.997	91.19
377.222	89.19
377.448	88.19
377.674	94.19
377.899	97.19
378.125	85.19
378.35	85.19
378.576	85.19
378.802	85.19
379.027	88.19
379.253	87.19
379.478	87.19
379.704	96.19
379.929	100.19
380.155	99.19
380.38	93.19
380.606	93.19
380.831	85.19
381.057	81.19
381.282	97.19
381.507	86.19
381.733	98.19
381.958	84.19
382.184	90.19
382.409	101.19
382.634	95.19
382.86	85.19
383.085	102.19
383.31	85.19
383.535	105.19
383.761	95.19
383.986	102.19
384.211	92.19
384.436	110.19
384.662	88.19
384.887	108.19
385.112	101.19
385.337	94.19
385.562	95.19
385.787	91.19
386.013	110.19
386.238	109.19
386.463	95.19
386.688	104.19
386.913	93.19
387.138	108.19
387.363	100.19
387.588	96.19
387.813	103.19
388.038	101.19
388.263	94.19
388.488	109.19
388.713	83.19
388.938	85.19
389.163	110.19
389.387	105.19
389.612	92.19
389.837	113.19
390.062	110.19
390.287	94.19
390.512	81.19
390.736	76.19
390.961	94.19
391.186	78.19
391.411	92.19
391.636	94.19
391.86	92.19
392.085	93.19
392.31	77.19
392.534	86.19
392.759	90.19
392.984	91.19
393.208	78.19
393.433	93.19
393.658	90.19
393.882	91.19
394.107	87.19
394.331	82.19
394.556	80.19
394.78	90.19
395.005	74.19
395.229	90.19
395.454	99.19
395.678	68.19
395.903	86.19
396.127	87.19
396.352	87.19
396.576	91.19
396.801	79.19
397.025	85.19
397.249	90.19
397.474	82.19
397.698	88.19
397.922	104.19
398.147	94.19
398.371	68.19
398.595	78.19
398.82	80.19
399.044	80.19
399.268	98.19
399.492	104.19
399.717	96.19
399.941	103.19
400.165	87.19
400.389	80.19
400.613	78.19
400.837	86.19
401.062	92.19
401.286	87.19
401.51	89.19
401.734	96.19
401.958	106.19
402.182	125.19
402.406	151.19
402.63	118.19
402.854	83.19
403.078	71.19
403.302	79.19
403.526	87.19
403.75	92.19
403.974	96.19
404.198	71.19
404.422	90.19
404.645	93.19
404.869	91.19
405.093	85.19
405.317	95.19
405.541	113.19
405.765	95.19
405.988	106.19
406.212	152.19
406.436	225.19
406.66	156.19
406.883	108.19
407.107	89.19
407.331	107.19
407.555	99.19
407.778	76.19
408.002	97.19
408.226	86.19
408.449	88.19
408.673	93.19
408.896	94.19
409.12	93.19
409.344	85.19
409.567	83.19
409.791	88.19
410.014	101.19
410.238	92.19
410.461	80.19
410.685	91.19
410.908	89.19
411.132	101.19
411.355	98.19
411.578	101.19
411.802	81.19
412.025	92.19
412.249	101.19
412.472	115.19
412.695	107.19
412.919	83.19
413.142	82.19
413.365	93.19
413.589	96.19
413.812	98.19
414.035	94.19
414.258	90.19
414.482	88.19
414.705	82.19
414.928	104.19
415.151	94.19
415.374	102.19
415.597	92.19
415.821	92.19
416.044	82.19
416.267	82.19
416.49	85.19
416.713	84.19
416.936	83.19
417.159	80.19
417.382	88.19
417.605	93.19
417.828	99.19
418.051	104.19
418.274	94.19
418.497	89.19
418.72	95.19
418.943	94.19
419.166	85.19
419.389	100.19
419.611	85.19
419.834	78.19
420.057	82.19
420.28	91.19
420.503	96.19
420.726	92.19
420.948	93.19
421.171	90.19
421.394	89.19
421.617	98.19
421.839	91.19
422.062	88.19
422.285	103.19
422.507	91.19
422.73	95.19
422.953	94.19
423.175	88.19
423.398	87.19
423.621	99.19
423.843	86.19
424.066	70.19
424.288	86.19
424.511	91.19
424.733	93.19
424.956	107.19
425.178	96.19
425.401	108.19
425.623	99.19
425.846	85.19
426.068	90.19
426.291	93.19
426.513	86.19
426.735	100.19
426.958	90.19
427.18	109.19
427.402	149.19
427.625	159.19
427.847	135.19
428.069	115.19
428.292	92.19
428.514	94.19
428.736	82.19
428.958	93.19
429.181	90.19
429.403	85.19
429.625	83.19
429.847	86.19
430.069	87.19
430.292	85.19
430.514	85.19
430.736	80.19
430.958	95.19
431.18	78.19
431.402	100.19
431.624	81.19
431.846	84.19
432.068	90.19
432.29	92.19
432.512	83.19
432.734	74.19
432.956	79.19
433.178	95.19
433.4	96.19
433.622	95.19
433.844	75.19
434.066	88.19
434.287	85.19
434.509	95.19
434.731	91.19
434.953	73.19
435.175	91.19
435.397	82.19
435.618	91.19
435.84	106.19
436.062	126.19
436.284	118.19
436.505	108.19
436.727	97.19
436.949	91.19
437.17	73.19
437.392	82.19
437.614	91.19
437.835	107.19
438.057	124.19
438.278	122.19
438.5	101.19
438.721	138.19
438.943	88.19
439.165	95.19
439.386	94.19
439.608	89.19
439.829	107.19
440.05	101.19
440.272	154.19
440.493	114.19
440.715	90.19
440.936	83.19
441.158	88.19
441.379	90.19
441.6	82.19
441.822	100.19
442.043	88.19
442.264	105.19
442.486	104.19
442.707	102.19
442.928	87.19
443.149	124.19
443.371	122.19
443.592	112.19
443.813	98.19
444.034	113.19
444.255	91.19
444.476	95.19
444.698	80.19
444.919	77.19
445.14	125.19
445.361	124.19
445.582	117.19
445.803	143.19
446.024	145.19
446.245	122.19
446.466	102.19
446.687	98.19
446.908	78.19
447.129	77.19
447.35	89.19
447.571	74.19
447.792	92.19
448.013	90.19
448.234	110.19
448.455	101.19
448.675	128.19
448.896	120.19
449.117	98.19
449.338	99.19
449.559	139.19
449.779	130.19
450	94.19
450.221	70.19
450.442	91.19
450.662	91.19
450.883	109.19
451.104	103.19
451.324	106.19
451.545	86.19
451.766	80.19
451.986	95.19
452.207	67.19
452.428	95.19
452.648	98.19
452.869	103.19
453.089	105.19
453.31	118.19
453.53	87.19
453.751	90.19
453.971	98.19
454.192	97.19
454.412	95.19
454.633	95.19
454.853	91.19
455.073	103.19
455.294	89.19
455.514	103.19
455.734	94.19
455.955	78.19
456.175	97.19
456.395	84.19
456.616	93.19
456.836	78.19
457.056	69.19
457.276	58.19
457.497	90.19
457.717	79.19
457.937	94.19
458.157	75.19
458.377	105.19
458.598	98.19
458.818	145.19
459.038	142.19
459.258	111.19
459.478	80.19
459.698	84.19
459.918	90.19
460.138	95.19
460.358	83.19
460.578	88.19
460.798	80.19
461.018	81.19
461.238	79.19
461.458	87.19
461.678	86.19
461.898	90.19
462.118	77.19
462.338	77.19
462.558	86.19
462.777	92.19
462.997	82.19
463.217	86.19
463.437	93.19
463.657	82.19
463.876	85.19
464.096	94.19
464.316	82.19
464.536	96.19
464.755	95.19
464.975	103.19
465.195	165.19
465.414	154.19
465.634	101.19
465.854	97.19
466.073	98.19
466.293	88.19
466.512	81.19
466.732	82.19
466.951	97.19
467.171	82.19
467.391	92.19
467.61	107.19
467.829	88.19
468.049	89.19
468.268	84.19
468.488	80.19
468.707	90.19
468.927	80.19
469.146	98.19
469.365	80.19
469.585	98.19
469.804	93.19
470.023	86.19
470.243	93.19
470.462	101.19
470.681	95.19
470.901	99.19
471.12	75.19
471.339	77.19
471.558	94.19
471.777	87.19
471.997	104.19
472.216	124.19
472.435	124.19
472.654	93.19
472.873	107.19
473.092	99.19
473.311	80.19
473.53	85.19
473.749	81.19
473.968	105.19
474.187	110.19
474.406	99.19
474.625	76.19
474.844	82.19
475.063	76.19
475.282	83.19
475.501	94.19
475.72	82.19
475.939	83.19
476.158	74.19
476.377	86.19
476.596	87.19
476.814	91.19
477.033	87.19
477.252	88.19
477.471	85.19
477.69	99.19
477.908	99.19
478.127	99.19
478.346	100.19
478.564	86.19
478.783	116.19
479.002	95.19
479.22	86.19
479.439	113.19
479.658	117.19
479.876	95.19
480.095	79.19
480.313	87.19
480.532	87.19
480.751	86.19
480.969	111.19
481.188	192.19
481.406	158.19
481.624	101.19
481.843	93.19
482.061	90.19
482.28	86.19
482.498	90.19
482.717	74.19
482.935	79.19
483.153	94.19
483.372	97.19
483.59	92.19
483.808	89.19
484.027	84.19
484.245	89.19
484.463	100.19
484.681	94.19
484.9	102.19
485.118	85.19
485.336	99.19
485.554	102.19
485.772	109.19
485.99	110.19
486.209	95.19
486.427	110.19
486.645	112.19
486.863	109.19
487.081	89.19
487.299	100.19
487.517	94.19
487.735	94.19
487.953	90.19
488.171	112.19
488.389	93.19
488.607	90.19
488.825	91.19
489.043	93.19
489.261	95.19
489.479	97.19
489.696	97.19
489.914	95.19
490.132	87.19
490.35	96.19
490.568	98.19
490.786	87.19
491.003	91.19
491.221	85.19
491.439	90.19
491.657	80.19
491.874	88.19
492.092	104.19
492.31	110.19
492.527	89.19
492.745	92.19
492.963	78.19
493.18	81.19
493.398	99.19
493.615	84.19
493.833	87.19
494.05	91.19
494.268	84.19
494.485	74.19
494.703	100.19
494.92	91.19
495.138	80.19
495.355	91.19
495.573	107.19
495.79	95.19
496.008	88.19
496.225	95.19
496.442	85.19
496.66	89.19
496.877	88.19
497.094	93.19
497.312	93.19
497.529	93.19
497.746	81.19
497.963	81.19
498.181	80.19
498.398	91.19
498.615	113.19
498.832	102.19
499.049	87.19
499.267	86.19
499.484	91.19
499.701	84.19
499.918	93.19
500.135	86.19
500.352	96.19
500.569	82.19
500.786	87.19
501.003	91.19
501.22	96.19
501.437	97.19
501.654	92.19
501.871	106.19
502.088	104.19
502.305	102.19
502.522	90.19
502.739	96.19
502.956	73.19
503.172	94.19
503.389	97.19
503.606	96.19
503.823	97.19
504.04	109.19
504.256	94.19
504.473	98.19
504.69	83.19
504.907	88.19
505.123	88.19
505.34	90.19
505.557	77.19
505.773	75.19
505.99	92.19
506.207	87.19
506.423	85.19
506.64	82.19
506.856	77.19
507.073	93.19
507.289	95.19
507.506	91.19
507.722	105.19
507.939	118.19
508.155	95.19
508.372	94.19
508.588	94.19
508.805	85.19
509.021	100.19
509.238	86.19
509.454	87.19
509.67	96.19
509.887	110.19
510.103	130.19
510.319	224.19
510.536	778.19
510.752	2493.19
510.968	657.19
511.184	159.19
511.401	123.19
511.617	96.19
511.833	108.19
512.049	97.19
512.265	86.19
512.481	86.19
512.698	91.19
512.914	90.19
513.13	82.19
513.346	98.19
513.562	106.19
513.778	94.19
513.994	99.19
514.21	114.19
514.426	111.19
514.642	127.19
514.858	142.19
515.074	161.19
515.29	459.19
515.506	1506.19
515.721	536.19
