Data from Uncirc_1990_H10_HRD10591_00006.txt Node
Date: Wed Jan 03 11:53:52 EST 2024
User: Yrep
Spectrometer: HR+D1059
Trigger mode: 1
Integration Time (sec): 1.000000E-1
Scans to average: 1
Electric dark correction enabled: true
Nonlinearity correction enabled: false
Boxcar width: 0
XAxis mode: Wavelengths
Number of Pixels in Spectrum: 2048
>>>>>Begin Spectral Data<<<<<
223.165	-13.31
223.4	-13.31
223.635	-13.31
223.869	-10.31
224.104	-27.31
224.338	-4.31
224.573	-19.31
224.808	-11.31
225.042	-7.31
225.277	-2.31
225.511	-2.31
225.746	8.69
225.98	10.69
226.215	2.69
226.449	7.69
226.683	22.69
226.918	12.69
227.152	32.69
227.387	26.69
227.621	46.69
227.856	53.69
228.09	50.69
228.324	46.69
228.559	59.69
228.793	56.69
229.027	70.69
229.262	71.69
229.496	69.69
229.73	74.69
229.964	80.69
230.199	74.69
230.433	60.69
230.667	74.69
230.901	79.69
231.136	79.69
231.37	62.69
231.604	82.69
231.838	87.69
232.072	65.69
232.306	74.69
232.541	71.69
232.775	92.69
233.009	86.69
233.243	80.69
233.477	73.69
233.711	79.69
233.945	76.69
234.179	88.69
234.413	85.69
234.647	78.69
234.881	74.69
235.115	75.69
235.349	74.69
235.583	72.69
235.817	83.69
236.051	93.69
236.285	88.69
236.519	90.69
236.753	78.69
236.987	84.69
237.221	81.69
237.455	98.69
237.689	76.69
237.922	66.69
238.156	67.69
238.39	73.69
238.624	70.69
238.858	70.69
239.091	72.69
239.325	79.69
239.559	58.69
239.793	79.69
240.027	67.69
240.26	81.69
240.494	84.69
240.728	83.69
240.961	67.69
241.195	84.69
241.429	64.69
241.662	78.69
241.896	63.69
242.13	60.69
242.363	71.69
242.597	68.69
242.83	66.69
243.064	71.69
243.298	82.69
243.531	74.69
243.765	78.69
243.998	68.69
244.232	96.69
244.465	70.69
244.699	93.69
244.932	77.69
245.166	84.69
245.399	78.69
245.633	72.69
245.866	79.69
246.099	72.69
246.333	79.69
246.566	73.69
246.8	84.69
247.033	84.69
247.266	82.69
247.5	89.69
247.733	79.69
247.966	80.69
248.2	88.69
248.433	79.69
248.666	89.69
248.899	70.69
249.133	80.69
249.366	79.69
249.599	96.69
249.832	78.69
250.066	76.69
250.299	72.69
250.532	88.69
250.765	65.69
250.998	67.69
251.231	95.69
251.465	84.69
251.698	96.69
251.931	72.69
252.164	93.69
252.397	95.69
252.63	90.69
252.863	74.69
253.096	71.69
253.329	85.69
253.562	81.69
253.795	75.69
254.028	76.69
254.261	75.69
254.494	86.69
254.727	80.69
254.96	89.69
255.193	87.69
255.426	86.69
255.659	78.69
255.892	85.69
256.124	67.69
256.357	75.69
256.59	91.69
256.823	95.69
257.056	71.69
257.289	86.69
257.521	68.69
257.754	69.69
257.987	82.69
258.22	84.69
258.452	87.69
258.685	85.69
258.918	79.69
259.151	92.69
259.383	74.69
259.616	90.69
259.849	86.69
260.081	75.69
260.314	82.69
260.547	85.69
260.779	81.69
261.012	68.69
261.244	91.69
261.477	91.69
261.71	100.69
261.942	97.69
262.175	93.69
262.407	70.69
262.64	82.69
262.872	78.69
263.105	79.69
263.337	94.69
263.57	77.69
263.802	93.69
264.035	82.69
264.267	80.69
264.499	92.69
264.732	88.69
264.964	86.69
265.197	86.69
265.429	99.69
265.661	68.69
265.894	88.69
266.126	77.69
266.358	79.69
266.591	85.69
266.823	68.69
267.055	90.69
267.287	94.69
267.52	83.69
267.752	86.69
267.984	80.69
268.216	75.69
268.448	78.69
268.681	91.69
268.913	90.69
269.145	84.69
269.377	88.69
269.609	79.69
269.841	90.69
270.073	81.69
270.306	80.69
270.538	79.69
270.77	88.69
271.002	75.69
271.234	67.69
271.466	76.69
271.698	76.69
271.93	88.69
272.162	74.69
272.394	86.69
272.626	91.69
272.858	96.69
273.09	86.69
273.322	76.69
273.553	91.69
273.785	79.69
274.017	75.69
274.249	79.69
274.481	66.69
274.713	87.69
274.945	90.69
275.176	83.69
275.408	82.69
275.64	88.69
275.872	71.69
276.104	90.69
276.335	89.69
276.567	82.69
276.799	98.69
277.031	93.69
277.262	93.69
277.494	93.69
277.726	87.69
277.957	77.69
278.189	72.69
278.421	75.69
278.652	68.69
278.884	97.69
279.115	84.69
279.347	71.69
279.579	92.69
279.81	74.69
280.042	93.69
280.273	88.69
280.505	76.69
280.736	84.69
280.968	79.69
281.199	75.69
281.431	87.69
281.662	95.69
281.894	90.69
282.125	97.69
282.356	93.69
282.588	129.69
282.819	101.69
283.051	82.69
283.282	88.69
283.513	93.69
283.745	97.69
283.976	92.69
284.207	86.69
284.439	87.69
284.67	90.69
284.901	93.69
285.132	98.69
285.364	83.69
285.595	75.69
285.826	83.69
286.057	93.69
286.288	92.69
286.52	100.69
286.751	92.69
286.982	85.69
287.213	97.69
287.444	85.69
287.675	91.69
287.906	93.69
288.138	86.69
288.369	86.69
288.6	85.69
288.831	93.69
289.062	92.69
289.293	86.69
289.524	96.69
289.755	82.69
289.986	81.69
290.217	83.69
290.448	83.69
290.679	80.69
290.91	87.69
291.141	90.69
291.371	93.69
291.602	86.69
291.833	85.69
292.064	86.69
292.295	72.69
292.526	87.69
292.757	79.69
292.987	88.69
293.218	82.69
293.449	100.69
293.68	93.69
293.91	79.69
294.141	100.69
294.372	88.69
294.603	79.69
294.833	84.69
295.064	82.69
295.295	83.69
295.525	99.69
295.756	90.69
295.987	103.69
296.217	105.69
296.448	120.69
296.679	90.69
296.909	82.69
297.14	91.69
297.37	90.69
297.601	97.69
297.831	93.69
298.062	95.69
298.292	80.69
298.523	101.69
298.753	83.69
298.984	93.69
299.214	88.69
299.445	93.69
299.675	92.69
299.905	97.69
300.136	88.69
300.366	97.69
300.597	84.69
300.827	97.69
301.057	100.69
301.288	104.69
301.518	102.69
301.748	76.69
301.979	100.69
302.209	91.69
302.439	91.69
302.669	99.69
302.9	100.69
303.13	74.69
303.36	75.69
303.59	86.69
303.82	97.69
304.051	102.69
304.281	98.69
304.511	85.69
304.741	82.69
304.971	88.69
305.201	91.69
305.431	84.69
305.661	78.69
305.891	107.69
306.121	79.69
306.352	84.69
306.582	96.69
306.812	91.69
307.042	95.69
307.272	96.69
307.502	96.69
307.731	94.69
307.961	95.69
308.191	88.69
308.421	85.69
308.651	80.69
308.881	85.69
309.111	85.69
309.341	99.69
309.571	99.69
309.8	85.69
310.03	93.69
310.26	87.69
310.49	95.69
310.72	92.69
310.949	92.69
311.179	88.69
311.409	87.69
311.639	97.69
311.868	96.69
312.098	96.69
312.328	100.69
312.557	99.69
312.787	93.69
313.017	107.69
313.246	83.69
313.476	87.69
313.706	98.69
313.935	102.69
314.165	101.69
314.394	102.69
314.624	102.69
314.853	94.69
315.083	78.69
315.312	101.69
315.542	80.69
315.771	87.69
316.001	88.69
316.23	102.69
316.46	83.69
316.689	88.69
316.919	90.69
317.148	93.69
317.377	93.69
317.607	94.69
317.836	87.69
318.065	94.69
318.295	93.69
318.524	83.69
318.753	96.69
318.983	90.69
319.212	92.69
319.441	101.69
319.67	93.69
319.9	97.69
320.129	98.69
320.358	110.69
320.587	99.69
320.816	93.69
321.046	109.69
321.275	109.69
321.504	97.69
321.733	100.69
321.962	98.69
322.191	97.69
322.42	98.69
322.649	101.69
322.878	123.69
323.108	130.69
323.337	116.69
323.566	135.69
323.795	127.69
324.024	164.69
324.253	348.69
324.482	699.69
324.71	1471.69
324.939	1922.69
325.168	718.69
325.397	222.69
325.626	151.69
325.855	121.69
326.084	124.69
326.313	130.69
326.542	141.69
326.77	204.69
326.999	414.69
327.228	828.69
327.457	1517.69
327.686	1202.69
327.914	358.69
328.143	174.69
328.372	132.69
328.6	119.69
328.829	108.69
329.058	107.69
329.287	111.69
329.515	95.69
329.744	104.69
329.972	97.69
330.201	88.69
330.43	108.69
330.658	123.69
330.887	117.69
331.115	114.69
331.344	102.69
331.572	98.69
331.801	105.69
332.03	108.69
332.258	101.69
332.486	78.69
332.715	95.69
332.943	84.69
333.172	94.69
333.4	98.69
333.629	107.69
333.857	103.69
334.085	106.69
334.314	91.69
334.542	95.69
334.771	107.69
334.999	104.69
335.227	94.69
335.455	88.69
335.684	105.69
335.912	109.69
336.14	106.69
336.369	93.69
336.597	92.69
336.825	101.69
337.053	82.69
337.281	94.69
337.51	90.69
337.738	83.69
337.966	83.69
338.194	92.69
338.422	95.69
338.65	89.69
338.878	96.69
339.106	94.69
339.334	103.69
339.562	94.69
339.79	94.69
340.018	94.69
340.246	93.69
340.474	86.69
340.702	110.69
340.93	91.69
341.158	89.69
341.386	89.69
341.614	98.69
341.842	110.69
342.07	90.69
342.298	110.69
342.526	98.69
342.754	80.69
342.981	76.69
343.209	86.69
343.437	98.69
343.665	87.69
343.893	86.69
344.12	93.69
344.348	87.69
344.576	91.69
344.804	80.69
345.031	100.69
345.259	97.69
345.487	87.69
345.714	91.69
345.942	102.69
346.17	95.69
346.397	89.69
346.625	81.69
346.853	105.69
347.08	104.69
347.308	104.69
347.535	95.69
347.763	108.69
347.99	105.69
348.218	109.69
348.445	91.69
348.673	90.69
348.9	89.69
349.128	95.69
349.355	95.69
349.583	95.69
349.81	83.69
350.037	91.69
350.265	106.69
350.492	91.69
350.72	94.69
350.947	109.69
351.174	106.69
351.402	104.69
351.629	113.69
351.856	94.69
352.083	95.69
352.311	105.69
352.538	111.69
352.765	94.69
352.992	110.69
353.22	117.69
353.447	106.69
353.674	92.69
353.901	98.69
354.128	91.69
354.355	84.69
354.583	100.69
354.81	98.69
355.037	101.69
355.264	94.69
355.491	82.69
355.718	87.69
355.945	97.69
356.172	99.69
356.399	83.69
356.626	88.69
356.853	92.69
357.08	73.69
357.307	82.69
357.534	94.69
357.761	104.69
357.988	96.69
358.215	104.69
358.441	96.69
358.668	94.69
358.895	91.69
359.122	98.69
359.349	98.69
359.576	83.69
359.802	89.69
360.029	99.69
360.256	110.69
360.483	90.69
360.709	87.69
360.936	86.69
361.163	87.69
361.39	95.69
361.616	102.69
361.843	93.69
362.07	92.69
362.296	91.69
362.523	89.69
362.749	91.69
362.976	90.69
363.203	89.69
363.429	94.69
363.656	87.69
363.882	103.69
364.109	92.69
364.335	114.69
364.562	84.69
364.788	92.69
365.015	88.69
365.241	84.69
365.468	97.69
365.694	115.69
365.92	98.69
366.147	91.69
366.373	86.69
366.599	82.69
366.826	88.69
367.052	87.69
367.278	88.69
367.505	95.69
367.731	69.69
367.957	84.69
368.184	79.69
368.41	99.69
368.636	95.69
368.862	115.69
369.089	101.69
369.315	104.69
369.541	89.69
369.767	92.69
369.993	81.69
370.219	93.69
370.445	79.69
370.672	88.69
370.898	88.69
371.124	81.69
371.35	87.69
371.576	92.69
371.802	99.69
372.028	92.69
372.254	91.69
372.48	90.69
372.706	91.69
372.932	98.69
373.158	83.69
373.384	72.69
373.61	96.69
373.835	100.69
374.061	98.69
374.287	89.69
374.513	92.69
374.739	97.69
374.965	88.69
375.191	79.69
375.416	88.69
375.642	79.69
375.868	91.69
376.094	90.69
376.319	91.69
376.545	96.69
376.771	88.69
376.997	90.69
377.222	91.69
377.448	88.69
377.674	88.69
377.899	90.69
378.125	93.69
378.35	87.69
378.576	84.69
378.802	91.69
379.027	86.69
379.253	90.69
379.478	100.69
379.704	81.69
379.929	102.69
380.155	106.69
380.38	96.69
380.606	91.69
380.831	99.69
381.057	80.69
381.282	97.69
381.507	100.69
381.733	107.69
381.958	96.69
382.184	103.69
382.409	89.69
382.634	106.69
382.86	109.69
383.085	96.69
383.31	94.69
383.535	103.69
383.761	99.69
383.986	101.69
384.211	104.69
384.436	96.69
384.662	92.69
384.887	104.69
385.112	90.69
385.337	106.69
385.562	102.69
385.787	111.69
386.013	102.69
386.238	108.69
386.463	109.69
386.688	131.69
386.913	118.69
387.138	121.69
387.363	100.69
387.588	100.69
387.813	101.69
388.038	98.69
388.263	118.69
388.488	113.69
388.713	80.69
388.938	106.69
389.163	96.69
389.387	98.69
389.612	110.69
389.837	93.69
390.062	87.69
390.287	92.69
390.512	90.69
390.736	86.69
390.961	90.69
391.186	104.69
391.411	86.69
391.636	93.69
391.86	98.69
392.085	88.69
392.31	89.69
392.534	85.69
392.759	97.69
392.984	90.69
393.208	79.69
393.433	116.69
393.658	98.69
393.882	88.69
394.107	76.69
394.331	70.69
394.556	78.69
394.78	83.69
395.005	77.69
395.229	92.69
395.454	85.69
395.678	76.69
395.903	86.69
396.127	88.69
396.352	88.69
396.576	87.69
396.801	105.69
397.025	90.69
397.249	89.69
397.474	89.69
397.698	102.69
397.922	83.69
398.147	98.69
398.371	87.69
398.595	80.69
398.82	83.69
399.044	90.69
399.268	84.69
399.492	80.69
399.717	95.69
399.941	93.69
400.165	92.69
400.389	82.69
400.613	91.69
400.837	84.69
401.062	86.69
401.286	80.69
401.51	97.69
401.734	90.69
401.958	95.69
402.182	125.69
402.406	134.69
402.63	101.69
402.854	84.69
403.078	89.69
403.302	76.69
403.526	92.69
403.75	89.69
403.974	90.69
404.198	87.69
404.422	93.69
404.645	95.69
404.869	93.69
405.093	94.69
405.317	87.69
405.541	87.69
405.765	99.69
405.988	102.69
406.212	152.69
406.436	188.69
406.66	126.69
406.883	96.69
407.107	103.69
407.331	85.69
407.555	88.69
407.778	95.69
408.002	91.69
408.226	102.69
408.449	81.69
408.673	92.69
408.896	95.69
409.12	93.69
409.344	86.69
409.567	70.69
409.791	100.69
410.014	99.69
410.238	98.69
410.461	94.69
410.685	96.69
410.908	99.69
411.132	100.69
411.355	90.69
411.578	95.69
411.802	88.69
412.025	85.69
412.249	84.69
412.472	99.69
412.695	83.69
412.919	88.69
413.142	79.69
413.365	94.69
413.589	108.69
413.812	104.69
414.035	102.69
414.258	84.69
414.482	90.69
414.705	94.69
414.928	88.69
415.151	88.69
415.374	101.69
415.597	84.69
415.821	82.69
416.044	75.69
416.267	82.69
416.49	72.69
416.713	101.69
416.936	95.69
417.159	103.69
417.382	77.69
417.605	104.69
417.828	94.69
418.051	88.69
418.274	86.69
418.497	87.69
418.72	87.69
418.943	84.69
419.166	103.69
419.389	108.69
419.611	89.69
419.834	99.69
420.057	72.69
420.28	82.69
420.503	99.69
420.726	83.69
420.948	83.69
421.171	86.69
421.394	82.69
421.617	91.69
421.839	90.69
422.062	85.69
422.285	78.69
422.507	100.69
422.73	107.69
422.953	97.69
423.175	92.69
423.398	96.69
423.621	81.69
423.843	94.69
424.066	90.69
424.288	92.69
424.511	92.69
424.733	92.69
424.956	92.69
425.178	88.69
425.401	89.69
425.623	81.69
425.846	90.69
426.068	90.69
426.291	94.69
426.513	79.69
426.735	80.69
426.958	96.69
427.18	109.69
427.402	122.69
427.625	138.69
427.847	115.69
428.069	109.69
428.292	108.69
428.514	99.69
428.736	82.69
428.958	95.69
429.181	87.69
429.403	86.69
429.625	88.69
429.847	87.69
430.069	98.69
430.292	85.69
430.514	112.69
430.736	94.69
430.958	84.69
431.18	75.69
431.402	91.69
431.624	71.69
431.846	78.69
432.068	63.69
432.29	83.69
432.512	82.69
432.734	107.69
432.956	91.69
433.178	97.69
433.4	92.69
433.622	89.69
433.844	101.69
434.066	98.69
434.287	98.69
434.509	101.69
434.731	88.69
434.953	85.69
435.175	79.69
435.397	103.69
435.618	75.69
435.84	97.69
436.062	111.69
436.284	100.69
436.505	96.69
436.727	102.69
436.949	96.69
437.17	83.69
437.392	92.69
437.614	78.69
437.835	89.69
438.057	103.69
438.278	104.69
438.5	98.69
438.721	107.69
438.943	99.69
439.165	71.69
439.386	85.69
439.608	109.69
439.829	93.69
440.05	104.69
440.272	121.69
440.493	88.69
440.715	83.69
440.936	91.69
441.158	78.69
441.379	88.69
441.6	101.69
441.822	102.69
442.043	92.69
442.264	93.69
442.486	107.69
442.707	94.69
442.928	91.69
443.149	117.69
443.371	117.69
443.592	101.69
443.813	103.69
444.034	96.69
444.255	90.69
444.476	86.69
444.698	100.69
444.919	94.69
445.14	135.69
445.361	110.69
445.582	117.69
445.803	126.69
446.024	117.69
446.245	117.69
446.466	109.69
446.687	90.69
446.908	94.69
447.129	85.69
447.35	86.69
447.571	89.69
447.792	104.69
448.013	93.69
448.234	106.69
448.455	79.69
448.675	108.69
448.896	125.69
449.117	109.69
449.338	94.69
449.559	120.69
449.779	135.69
450	100.69
450.221	88.69
450.442	84.69
450.662	94.69
450.883	95.69
451.104	107.69
451.324	84.69
451.545	89.69
451.766	87.69
451.986	90.69
452.207	85.69
452.428	86.69
452.648	111.69
452.869	103.69
453.089	110.69
453.31	113.69
453.53	90.69
453.751	79.69
453.971	87.69
454.192	93.69
454.412	85.69
454.633	79.69
454.853	68.69
455.073	94.69
455.294	99.69
455.514	103.69
455.734	90.69
455.955	100.69
456.175	88.69
456.395	68.69
456.616	84.69
456.836	82.69
457.056	83.69
457.276	81.69
457.497	92.69
457.717	91.69
457.937	80.69
458.157	81.69
458.377	94.69
458.598	95.69
458.818	138.69
459.038	142.69
459.258	114.69
459.478	78.69
459.698	88.69
459.918	77.69
460.138	96.69
460.358	78.69
460.578	83.69
460.798	95.69
461.018	84.69
461.238	87.69
461.458	86.69
461.678	86.69
461.898	90.69
462.118	86.69
462.338	80.69
462.558	84.69
462.777	74.69
462.997	87.69
463.217	83.69
463.437	93.69
463.657	104.69
463.876	79.69
464.096	96.69
464.316	94.69
464.536	85.69
464.755	90.69
464.975	96.69
465.195	128.69
465.414	121.69
465.634	93.69
465.854	101.69
466.073	96.69
466.293	84.69
466.512	83.69
466.732	106.69
466.951	75.69
467.171	86.69
467.391	93.69
467.61	82.69
467.829	90.69
468.049	95.69
468.268	89.69
468.488	94.69
468.707	92.69
468.927	85.69
469.146	81.69
469.365	103.69
469.585	92.69
469.804	91.69
470.023	100.69
470.243	94.69
470.462	95.69
470.681	98.69
470.901	112.69
471.12	85.69
471.339	90.69
471.558	90.69
471.777	84.69
471.997	86.69
472.216	86.69
472.435	80.69
472.654	87.69
472.873	98.69
473.092	72.69
473.311	95.69
473.53	88.69
473.749	99.69
473.968	96.69
474.187	95.69
474.406	93.69
474.625	85.69
474.844	83.69
475.063	85.69
475.282	82.69
475.501	96.69
475.72	89.69
475.939	108.69
476.158	86.69
476.377	86.69
476.596	90.69
476.814	89.69
477.033	94.69
477.252	99.69
477.471	80.69
477.69	93.69
477.908	78.69
478.127	103.69
478.346	72.69
478.564	86.69
478.783	103.69
479.002	97.69
479.22	82.69
479.439	84.69
479.658	76.69
479.876	79.69
480.095	90.69
480.313	88.69
480.532	93.69
480.751	82.69
480.969	82.69
481.188	89.69
481.406	98.69
481.624	91.69
481.843	84.69
482.061	96.69
482.28	90.69
482.498	79.69
482.717	97.69
482.935	88.69
483.153	94.69
483.372	107.69
483.59	88.69
483.808	86.69
484.027	92.69
484.245	97.69
484.463	94.69
484.681	100.69
484.9	101.69
485.118	90.69
485.336	90.69
485.554	102.69
485.772	83.69
485.99	98.69
486.209	92.69
486.427	103.69
486.645	104.69
486.863	112.69
487.081	91.69
487.299	93.69
487.517	100.69
487.735	94.69
487.953	91.69
488.171	87.69
488.389	93.69
488.607	113.69
488.825	90.69
489.043	84.69
489.261	80.69
489.479	95.69
489.696	78.69
489.914	95.69
490.132	91.69
490.35	95.69
490.568	91.69
490.786	88.69
491.003	87.69
491.221	88.69
491.439	102.69
491.657	97.69
491.874	90.69
492.092	101.69
492.31	87.69
492.527	87.69
492.745	86.69
492.963	87.69
493.18	77.69
493.398	83.69
493.615	98.69
493.833	90.69
494.05	77.69
494.268	100.69
494.485	103.69
494.703	93.69
494.92	89.69
495.138	78.69
495.355	88.69
495.573	88.69
495.79	89.69
496.008	104.69
496.225	98.69
496.442	97.69
496.66	87.69
496.877	102.69
497.094	87.69
497.312	96.69
497.529	87.69
497.746	103.69
497.963	89.69
498.181	87.69
498.398	96.69
498.615	116.69
498.832	97.69
499.049	92.69
499.267	102.69
499.484	77.69
499.701	78.69
499.918	91.69
500.135	95.69
500.352	82.69
500.569	92.69
500.786	84.69
501.003	77.69
501.22	90.69
501.437	84.69
501.654	100.69
501.871	113.69
502.088	96.69
502.305	100.69
502.522	100.69
502.739	102.69
502.956	78.69
503.172	87.69
503.389	93.69
503.606	95.69
503.823	93.69
504.04	77.69
504.256	97.69
504.473	83.69
504.69	97.69
504.907	87.69
505.123	99.69
505.34	91.69
505.557	92.69
505.773	84.69
505.99	93.69
506.207	95.69
506.423	78.69
506.64	92.69
506.856	85.69
507.073	95.69
507.289	95.69
507.506	84.69
507.722	99.69
507.939	109.69
508.155	100.69
508.372	91.69
508.588	99.69
508.805	94.69
509.021	104.69
509.238	85.69
509.454	108.69
509.67	107.69
509.887	104.69
510.103	120.69
510.319	198.69
510.536	629.69
510.752	1911.69
510.968	564.69
511.184	154.69
511.401	108.69
511.617	98.69
511.833	71.69
512.049	94.69
512.265	93.69
512.481	92.69
512.698	95.69
512.914	80.69
513.13	102.69
513.346	90.69
513.562	98.69
513.778	91.69
513.994	95.69
514.21	94.69
514.426	130.69
514.642	114.69
514.858	115.69
515.074	154.69
515.29	352.69
515.506	1128.69
515.721	432.69
515.937	135.69
516.153	97.69
