Data from Uncirc_1990_H10_HRD10591_00059.txt Node
Date: Wed Jan 03 11:54:03 EST 2024
User: Yrep
Spectrometer: HR+D1059
Trigger mode: 1
Integration Time (sec): 1.000000E-1
Scans to average: 1
Electric dark correction enabled: true
Nonlinearity correction enabled: false
Boxcar width: 0
XAxis mode: Wavelengths
Number of Pixels in Spectrum: 2048
>>>>>Begin Spectral Data<<<<<
223.165	-6.69
223.4	-6.69
223.635	-6.69
223.869	-21.69
224.104	-20.69
224.338	-2.69
224.573	-13.69
224.808	-15.69
225.042	-21.69
225.277	0.31
225.511	-10.69
225.746	-3.69
225.98	12.31
226.215	4.31
226.449	1.31
226.683	19.31
226.918	42.31
227.152	37.31
227.387	29.31
227.621	27.31
227.856	46.31
228.09	40.31
228.324	59.31
228.559	59.31
228.793	63.31
229.027	59.31
229.262	86.31
229.496	77.31
229.73	84.31
229.964	69.31
230.199	65.31
230.433	63.31
230.667	77.31
230.901	78.31
231.136	82.31
231.37	78.31
231.604	78.31
231.838	82.31
232.072	62.31
232.306	82.31
232.541	78.31
232.775	80.31
233.009	75.31
233.243	83.31
233.477	94.31
233.711	79.31
233.945	77.31
234.179	70.31
234.413	90.31
234.647	87.31
234.881	92.31
235.115	87.31
235.349	92.31
235.583	83.31
235.817	82.31
236.051	86.31
236.285	74.31
236.519	84.31
236.753	75.31
236.987	95.31
237.221	78.31
237.455	76.31
237.689	79.31
237.922	70.31
238.156	84.31
238.39	66.31
238.624	82.31
238.858	95.31
239.091	68.31
239.325	58.31
239.559	85.31
239.793	87.31
240.027	86.31
240.26	87.31
240.494	87.31
240.728	69.31
240.961	68.31
241.195	72.31
241.429	85.31
241.662	75.31
241.896	92.31
242.13	65.31
242.363	82.31
242.597	76.31
242.83	74.31
243.064	84.31
243.298	87.31
243.531	72.31
243.765	75.31
243.998	76.31
244.232	84.31
244.465	87.31
244.699	78.31
244.932	89.31
245.166	68.31
245.399	78.31
245.633	70.31
245.866	73.31
246.099	77.31
246.333	83.31
246.566	63.31
246.8	78.31
247.033	81.31
247.266	78.31
247.5	84.31
247.733	69.31
247.966	81.31
248.2	78.31
248.433	83.31
248.666	76.31
248.899	90.31
249.133	89.31
249.366	98.31
249.599	95.31
249.832	78.31
250.066	79.31
250.299	68.31
250.532	76.31
250.765	87.31
250.998	80.31
251.231	87.31
251.465	79.31
251.698	84.31
251.931	77.31
252.164	74.31
252.397	85.31
252.63	83.31
252.863	82.31
253.096	99.31
253.329	75.31
253.562	68.31
253.795	84.31
254.028	86.31
254.261	85.31
254.494	89.31
254.727	99.31
254.96	74.31
255.193	89.31
255.426	78.31
255.659	79.31
255.892	91.31
256.124	84.31
256.357	70.31
256.59	87.31
256.823	87.31
257.056	63.31
257.289	78.31
257.521	84.31
257.754	78.31
257.987	75.31
258.22	78.31
258.452	86.31
258.685	82.31
258.918	86.31
259.151	72.31
259.383	88.31
259.616	79.31
259.849	84.31
260.081	83.31
260.314	77.31
260.547	82.31
260.779	81.31
261.012	70.31
261.244	90.31
261.477	77.31
261.71	95.31
261.942	93.31
262.175	104.31
262.407	82.31
262.64	79.31
262.872	82.31
263.105	91.31
263.337	91.31
263.57	60.31
263.802	82.31
264.035	92.31
264.267	78.31
264.499	76.31
264.732	81.31
264.964	69.31
265.197	86.31
265.429	82.31
265.661	99.31
265.894	82.31
266.126	71.31
266.358	82.31
266.591	69.31
266.823	80.31
267.055	89.31
267.287	92.31
267.52	71.31
267.752	70.31
267.984	83.31
268.216	91.31
268.448	77.31
268.681	74.31
268.913	88.31
269.145	78.31
269.377	82.31
269.609	70.31
269.841	80.31
270.073	85.31
270.306	83.31
270.538	69.31
270.77	94.31
271.002	86.31
271.234	84.31
271.466	75.31
271.698	82.31
271.93	92.31
272.162	99.31
272.394	85.31
272.626	82.31
272.858	88.31
273.09	70.31
273.322	77.31
273.553	85.31
273.785	103.31
274.017	70.31
274.249	83.31
274.481	83.31
274.713	81.31
274.945	83.31
275.176	82.31
275.408	91.31
275.64	79.31
275.872	90.31
276.104	80.31
276.335	83.31
276.567	95.31
276.799	98.31
277.031	95.31
277.262	90.31
277.494	85.31
277.726	81.31
277.957	93.31
278.189	83.31
278.421	95.31
278.652	67.31
278.884	86.31
279.115	77.31
279.347	80.31
279.579	84.31
279.81	102.31
280.042	79.31
280.273	99.31
280.505	99.31
280.736	86.31
280.968	87.31
281.199	80.31
281.431	87.31
281.662	76.31
281.894	94.31
282.125	100.31
282.356	109.31
282.588	118.31
282.819	113.31
283.051	100.31
283.282	87.31
283.513	112.31
283.745	94.31
283.976	96.31
284.207	89.31
284.439	65.31
284.67	83.31
284.901	88.31
285.132	91.31
285.364	76.31
285.595	88.31
285.826	85.31
286.057	82.31
286.288	97.31
286.52	88.31
286.751	74.31
286.982	76.31
287.213	82.31
287.444	80.31
287.675	87.31
287.906	85.31
288.138	88.31
288.369	91.31
288.6	78.31
288.831	88.31
289.062	94.31
289.293	87.31
289.524	92.31
289.755	95.31
289.986	92.31
290.217	68.31
290.448	85.31
290.679	85.31
290.91	88.31
291.141	90.31
291.371	90.31
291.602	72.31
291.833	90.31
292.064	84.31
292.295	86.31
292.526	92.31
292.757	101.31
292.987	87.31
293.218	97.31
293.449	82.31
293.68	90.31
293.91	85.31
294.141	82.31
294.372	78.31
294.603	86.31
294.833	95.31
295.064	83.31
295.295	84.31
295.525	111.31
295.756	97.31
295.987	111.31
296.217	122.31
296.448	110.31
296.679	76.31
296.909	92.31
297.14	76.31
297.37	91.31
297.601	85.31
297.831	90.31
298.062	80.31
298.292	100.31
298.523	82.31
298.753	86.31
298.984	94.31
299.214	85.31
299.445	94.31
299.675	85.31
299.905	91.31
300.136	77.31
300.366	88.31
300.597	83.31
300.827	95.31
301.057	98.31
301.288	101.31
301.518	101.31
301.748	84.31
301.979	106.31
302.209	83.31
302.439	84.31
302.669	90.31
302.9	86.31
303.13	86.31
303.36	94.31
303.59	100.31
303.82	93.31
304.051	90.31
304.281	95.31
304.511	91.31
304.741	85.31
304.971	95.31
305.201	82.31
305.431	78.31
305.661	83.31
305.891	99.31
306.121	95.31
306.352	86.31
306.582	104.31
306.812	85.31
307.042	86.31
307.272	103.31
307.502	105.31
307.731	106.31
307.961	95.31
308.191	93.31
308.421	78.31
308.651	95.31
308.881	110.31
309.111	82.31
309.341	92.31
309.571	98.31
309.8	107.31
310.03	99.31
310.26	92.31
310.49	83.31
310.72	96.31
310.949	89.31
311.179	98.31
311.409	83.31
311.639	98.31
311.868	85.31
312.098	97.31
312.328	94.31
312.557	79.31
312.787	95.31
313.017	82.31
313.246	80.31
313.476	95.31
313.706	96.31
313.935	91.31
314.165	95.31
314.394	95.31
314.624	87.31
314.853	111.31
315.083	104.31
315.312	90.31
315.542	93.31
315.771	92.31
316.001	93.31
316.23	90.31
316.46	86.31
316.689	93.31
316.919	81.31
317.148	91.31
317.377	92.31
317.607	103.31
317.836	92.31
318.065	87.31
318.295	89.31
318.524	87.31
318.753	94.31
318.983	94.31
319.212	113.31
319.441	111.31
319.67	106.31
319.9	98.31
320.129	90.31
320.358	87.31
320.587	104.31
320.816	93.31
321.046	96.31
321.275	103.31
321.504	79.31
321.733	93.31
321.962	90.31
322.191	87.31
322.42	101.31
322.649	94.31
322.878	108.31
323.108	112.31
323.337	122.31
323.566	122.31
323.795	140.31
324.024	197.31
324.253	353.31
324.482	719.31
324.71	1457.31
324.939	1927.31
325.168	691.31
325.397	212.31
325.626	152.31
325.855	132.31
326.084	124.31
326.313	122.31
326.542	140.31
326.77	215.31
326.999	390.31
327.228	802.31
327.457	1489.31
327.686	1220.31
327.914	338.31
328.143	174.31
328.372	138.31
328.6	124.31
328.829	109.31
329.058	115.31
329.287	115.31
329.515	114.31
329.744	100.31
329.972	89.31
330.201	106.31
330.43	114.31
330.658	107.31
330.887	133.31
331.115	125.31
331.344	97.31
331.572	98.31
331.801	96.31
332.03	86.31
332.258	86.31
332.486	93.31
332.715	85.31
332.943	94.31
333.172	106.31
333.4	100.31
333.629	90.31
333.857	111.31
334.085	98.31
334.314	99.31
334.542	102.31
334.771	114.31
334.999	91.31
335.227	97.31
335.455	70.31
335.684	103.31
335.912	98.31
336.14	86.31
336.369	108.31
336.597	101.31
336.825	105.31
337.053	102.31
337.281	84.31
337.51	83.31
337.738	87.31
337.966	94.31
338.194	93.31
338.422	96.31
338.65	91.31
338.878	82.31
339.106	96.31
339.334	91.31
339.562	85.31
339.79	95.31
340.018	92.31
340.246	82.31
340.474	85.31
340.702	97.31
340.93	81.31
341.158	87.31
341.386	102.31
341.614	80.31
341.842	109.31
342.07	95.31
342.298	71.31
342.526	87.31
342.754	97.31
342.981	101.31
343.209	90.31
343.437	100.31
343.665	82.31
343.893	90.31
344.12	93.31
344.348	86.31
344.576	84.31
344.804	87.31
345.031	97.31
345.259	90.31
345.487	82.31
345.714	76.31
345.942	90.31
346.17	103.31
346.397	97.31
346.625	95.31
346.853	95.31
347.08	100.31
347.308	102.31
347.535	98.31
347.763	100.31
347.99	93.31
348.218	90.31
348.445	91.31
348.673	88.31
348.9	89.31
349.128	101.31
349.355	99.31
349.583	93.31
349.81	90.31
350.037	102.31
350.265	78.31
350.492	87.31
350.72	107.31
350.947	102.31
351.174	96.31
351.402	109.31
351.629	106.31
351.856	96.31
352.083	85.31
352.311	91.31
352.538	110.31
352.765	98.31
352.992	98.31
353.22	105.31
353.447	101.31
353.674	81.31
353.901	106.31
354.128	103.31
354.355	94.31
354.583	90.31
354.81	106.31
355.037	83.31
355.264	87.31
355.491	90.31
355.718	80.31
355.945	82.31
356.172	108.31
356.399	102.31
356.626	96.31
356.853	98.31
357.08	88.31
357.307	78.31
357.534	98.31
357.761	88.31
357.988	93.31
358.215	92.31
358.441	89.31
358.668	96.31
358.895	84.31
359.122	93.31
359.349	99.31
359.576	90.31
359.802	109.31
360.029	104.31
360.256	96.31
360.483	92.31
360.709	85.31
360.936	87.31
361.163	82.31
361.39	97.31
361.616	100.31
361.843	114.31
362.07	85.31
362.296	92.31
362.523	105.31
362.749	90.31
362.976	85.31
363.203	95.31
363.429	88.31
363.656	87.31
363.882	96.31
364.109	91.31
364.335	86.31
364.562	106.31
364.788	101.31
365.015	99.31
365.241	93.31
365.468	109.31
365.694	95.31
365.92	104.31
366.147	95.31
366.373	90.31
366.599	92.31
366.826	90.31
367.052	80.31
367.278	76.31
367.505	99.31
367.731	100.31
367.957	97.31
368.184	77.31
368.41	82.31
368.636	112.31
368.862	119.31
369.089	86.31
369.315	89.31
369.541	88.31
369.767	101.31
369.993	93.31
370.219	93.31
370.445	89.31
370.672	83.31
370.898	87.31
371.124	95.31
371.35	76.31
371.576	94.31
371.802	76.31
372.028	84.31
372.254	106.31
372.48	90.31
372.706	85.31
372.932	66.31
373.158	86.31
373.384	98.31
373.61	94.31
373.835	94.31
374.061	87.31
374.287	86.31
374.513	86.31
374.739	92.31
374.965	95.31
375.191	91.31
375.416	77.31
375.642	88.31
375.868	85.31
376.094	86.31
376.319	82.31
376.545	97.31
376.771	84.31
376.997	82.31
377.222	93.31
377.448	82.31
377.674	81.31
377.899	94.31
378.125	100.31
378.35	82.31
378.576	87.31
378.802	80.31
379.027	83.31
379.253	91.31
379.478	93.31
379.704	83.31
379.929	88.31
380.155	100.31
380.38	99.31
380.606	88.31
380.831	99.31
381.057	95.31
381.282	97.31
381.507	93.31
381.733	88.31
381.958	76.31
382.184	95.31
382.409	85.31
382.634	94.31
382.86	103.31
383.085	88.31
383.31	94.31
383.535	88.31
383.761	95.31
383.986	84.31
384.211	86.31
384.436	107.31
384.662	95.31
384.887	101.31
385.112	102.31
385.337	103.31
385.562	88.31
385.787	90.31
386.013	113.31
386.238	104.31
386.463	107.31
386.688	108.31
386.913	100.31
387.138	104.31
387.363	97.31
387.588	102.31
387.813	98.31
388.038	114.31
388.263	109.31
388.488	101.31
388.713	98.31
388.938	99.31
389.163	101.31
389.387	100.31
389.612	100.31
389.837	107.31
390.062	83.31
390.287	105.31
390.512	90.31
390.736	79.31
390.961	94.31
391.186	97.31
391.411	86.31
391.636	86.31
391.86	76.31
392.085	80.31
392.31	99.31
392.534	78.31
392.759	68.31
392.984	96.31
393.208	94.31
393.433	92.31
393.658	103.31
393.882	85.31
394.107	83.31
394.331	96.31
394.556	83.31
394.78	85.31
395.005	79.31
395.229	85.31
395.454	96.31
395.678	88.31
395.903	85.31
396.127	81.31
396.352	90.31
396.576	86.31
396.801	82.31
397.025	98.31
397.249	70.31
397.474	69.31
397.698	78.31
397.922	86.31
398.147	93.31
398.371	82.31
398.595	68.31
398.82	87.31
399.044	85.31
399.268	100.31
399.492	87.31
399.717	76.31
399.941	78.31
400.165	81.31
400.389	97.31
400.613	108.31
400.837	86.31
401.062	92.31
401.286	102.31
401.51	95.31
401.734	87.31
401.958	103.31
402.182	116.31
402.406	149.31
402.63	99.31
402.854	84.31
403.078	97.31
403.302	84.31
403.526	85.31
403.75	91.31
403.974	85.31
404.198	91.31
404.422	84.31
404.645	84.31
404.869	87.31
405.093	88.31
405.317	89.31
405.541	103.31
405.765	92.31
405.988	109.31
406.212	154.31
406.436	219.31
406.66	134.31
406.883	107.31
407.107	96.31
407.331	92.31
407.555	95.31
407.778	96.31
408.002	91.31
408.226	100.31
408.449	83.31
408.673	88.31
408.896	93.31
409.12	86.31
409.344	96.31
409.567	98.31
409.791	67.31
410.014	85.31
410.238	84.31
410.461	90.31
410.685	92.31
410.908	93.31
411.132	101.31
411.355	105.31
411.578	88.31
411.802	86.31
412.025	69.31
412.249	91.31
412.472	102.31
412.695	95.31
412.919	84.31
413.142	100.31
413.365	93.31
413.589	87.31
413.812	87.31
414.035	91.31
414.258	88.31
414.482	85.31
414.705	90.31
414.928	110.31
415.151	96.31
415.374	101.31
415.597	79.31
415.821	86.31
416.044	82.31
416.267	95.31
416.49	96.31
416.713	86.31
416.936	83.31
417.159	95.31
417.382	104.31
417.605	83.31
417.828	88.31
418.051	97.31
418.274	96.31
418.497	82.31
418.72	90.31
418.943	86.31
419.166	89.31
419.389	83.31
419.611	94.31
419.834	66.31
420.057	86.31
420.28	86.31
420.503	85.31
420.726	84.31
420.948	87.31
421.171	92.31
421.394	88.31
421.617	95.31
421.839	86.31
422.062	77.31
422.285	95.31
422.507	99.31
422.73	96.31
422.953	82.31
423.175	85.31
423.398	90.31
423.621	79.31
423.843	80.31
424.066	74.31
424.288	82.31
424.511	90.31
424.733	102.31
424.956	103.31
425.178	83.31
425.401	84.31
425.623	104.31
425.846	79.31
426.068	92.31
426.291	88.31
426.513	86.31
426.735	84.31
426.958	110.31
427.18	100.31
427.402	128.31
427.625	134.31
427.847	112.31
428.069	97.31
428.292	94.31
428.514	90.31
428.736	91.31
428.958	90.31
429.181	74.31
429.403	79.31
429.625	86.31
429.847	91.31
430.069	98.31
430.292	90.31
430.514	75.31
430.736	78.31
430.958	83.31
431.18	69.31
431.402	82.31
431.624	94.31
431.846	92.31
432.068	90.31
432.29	67.31
432.512	92.31
432.734	88.31
432.956	97.31
433.178	93.31
433.4	99.31
433.622	97.31
433.844	82.31
434.066	80.31
434.287	99.31
434.509	80.31
434.731	90.31
434.953	94.31
435.175	88.31
435.397	94.31
435.618	66.31
435.84	110.31
436.062	104.31
436.284	103.31
436.505	107.31
436.727	105.31
436.949	92.31
437.17	89.31
437.392	77.31
437.614	85.31
437.835	99.31
438.057	114.31
438.278	117.31
438.5	101.31
438.721	114.31
438.943	108.31
439.165	95.31
439.386	106.31
439.608	84.31
439.829	100.31
440.05	108.31
440.272	118.31
440.493	97.31
440.715	87.31
440.936	90.31
441.158	93.31
441.379	79.31
441.6	98.31
441.822	90.31
442.043	80.31
442.264	90.31
442.486	96.31
442.707	93.31
442.928	101.31
443.149	118.31
443.371	116.31
443.592	107.31
443.813	108.31
444.034	104.31
444.255	91.31
444.476	88.31
444.698	99.31
444.919	95.31
445.14	127.31
445.361	118.31
445.582	102.31
445.803	109.31
446.024	122.31
446.245	122.31
446.466	121.31
446.687	80.31
446.908	90.31
447.129	94.31
447.35	90.31
447.571	113.31
447.792	95.31
448.013	92.31
448.234	84.31
448.455	96.31
448.675	112.31
448.896	113.31
449.117	104.31
449.338	101.31
449.559	125.31
449.779	118.31
450	91.31
450.221	90.31
450.442	107.31
450.662	95.31
450.883	94.31
451.104	88.31
451.324	80.31
451.545	99.31
451.766	88.31
451.986	91.31
452.207	84.31
452.428	93.31
452.648	109.31
452.869	97.31
453.089	116.31
453.31	114.31
453.53	93.31
453.751	90.31
453.971	111.31
454.192	114.31
454.412	122.31
454.633	86.31
454.853	81.31
455.073	76.31
455.294	90.31
455.514	90.31
455.734	95.31
455.955	80.31
456.175	92.31
456.395	90.31
456.616	79.31
456.836	78.31
457.056	99.31
457.276	90.31
457.497	89.31
457.717	94.31
457.937	72.31
458.157	76.31
458.377	92.31
458.598	97.31
458.818	135.31
459.038	149.31
459.258	118.31
459.478	90.31
459.698	74.31
459.918	91.31
460.138	86.31
460.358	85.31
460.578	83.31
460.798	91.31
461.018	77.31
461.238	77.31
461.458	80.31
461.678	84.31
461.898	83.31
462.118	86.31
462.338	74.31
462.558	85.31
462.777	89.31
462.997	88.31
463.217	99.31
463.437	86.31
463.657	80.31
463.876	86.31
464.096	95.31
464.316	102.31
464.536	97.31
464.755	104.31
464.975	100.31
465.195	160.31
465.414	123.31
465.634	107.31
465.854	86.31
466.073	92.31
466.293	87.31
466.512	91.31
466.732	88.31
466.951	99.31
467.171	92.31
467.391	94.31
467.61	87.31
467.829	97.31
468.049	96.31
468.268	90.31
468.488	100.31
468.707	95.31
468.927	87.31
469.146	77.31
469.365	83.31
469.585	90.31
469.804	92.31
470.023	80.31
470.243	90.31
470.462	80.31
470.681	102.31
470.901	94.31
471.12	82.31
471.339	96.31
471.558	82.31
471.777	91.31
471.997	87.31
472.216	84.31
472.435	90.31
472.654	97.31
472.873	84.31
473.092	71.31
473.311	101.31
473.53	77.31
473.749	86.31
473.968	107.31
474.187	81.31
474.406	87.31
474.625	89.31
474.844	97.31
475.063	86.31
475.282	84.31
475.501	82.31
475.72	88.31
475.939	86.31
476.158	93.31
476.377	92.31
476.596	90.31
476.814	85.31
477.033	86.31
477.252	90.31
477.471	78.31
477.69	83.31
477.908	96.31
478.127	80.31
478.346	100.31
478.564	101.31
478.783	96.31
479.002	87.31
479.22	102.31
479.439	88.31
479.658	96.31
479.876	82.31
480.095	92.31
480.313	102.31
480.532	102.31
480.751	98.31
480.969	101.31
481.188	139.31
481.406	114.31
481.624	107.31
481.843	88.31
482.061	66.31
482.28	77.31
482.498	90.31
482.717	80.31
482.935	81.31
483.153	87.31
483.372	99.31
483.59	67.31
483.808	95.31
484.027	88.31
484.245	108.31
484.463	85.31
484.681	85.31
484.9	87.31
485.118	104.31
485.336	97.31
485.554	107.31
485.772	97.31
485.99	114.31
486.209	102.31
486.427	113.31
486.645	99.31
486.863	111.31
487.081	103.31
487.299	86.31
487.517	79.31
487.735	81.31
487.953	117.31
488.171	106.31
488.389	87.31
488.607	92.31
488.825	85.31
489.043	88.31
489.261	99.31
489.479	95.31
489.696	93.31
489.914	84.31
490.132	82.31
490.35	89.31
490.568	96.31
490.786	98.31
491.003	103.31
491.221	101.31
491.439	96.31
491.657	104.31
491.874	103.31
492.092	99.31
492.31	79.31
492.527	98.31
492.745	82.31
492.963	90.31
493.18	89.31
493.398	104.31
493.615	91.31
493.833	91.31
494.05	90.31
494.268	78.31
494.485	83.31
494.703	85.31
494.92	91.31
495.138	107.31
495.355	98.31
495.573	102.31
495.79	89.31
496.008	93.31
496.225	91.31
496.442	87.31
496.66	95.31
496.877	76.31
497.094	102.31
497.312	88.31
497.529	92.31
497.746	98.31
497.963	82.31
498.181	92.31
498.398	94.31
498.615	111.31
498.832	99.31
499.049	92.31
499.267	99.31
499.484	92.31
499.701	93.31
499.918	94.31
500.135	95.31
500.352	89.31
500.569	87.31
500.786	94.31
501.003	98.31
501.22	95.31
501.437	93.31
501.654	84.31
501.871	111.31
502.088	105.31
502.305	92.31
502.522	84.31
502.739	91.31
502.956	100.31
503.172	85.31
503.389	84.31
503.606	96.31
503.823	102.31
504.04	80.31
504.256	94.31
504.473	84.31
504.69	85.31
504.907	93.31
505.123	103.31
505.34	84.31
505.557	91.31
505.773	84.31
505.99	96.31
506.207	96.31
506.423	91.31
506.64	78.31
506.856	93.31
507.073	79.31
507.289	103.31
507.506	88.31
507.722	106.31
507.939	103.31
508.155	91.31
508.372	88.31
508.588	94.31
508.805	96.31
509.021	93.31
509.238	94.31
509.454	110.31
509.67	104.31
509.887	102.31
510.103	131.31
510.319	199.31
510.536	679.31
510.752	2107.31
510.968	570.31
511.184	152.31
511.401	115.31
511.617	103.31
511.833	87.31
512.049	85.31
512.265	106.31
512.481	101.31
512.698	82.31
512.914	76.31
513.13	99.31
513.346	103.31
513.562	112.31
513.778	86.31
513.994	94.31
514.21	102.31
514.426	113.31
514.642	126.31
514.858	103.31
515.074	145.31
515.29	385.31
515.506	1232.31
515.721	447.31
515.937	145.31
516.153	100.31
