Data from Uncirc_1990_H10_HRD10591_00007.txt Node
Date: Wed Jan 03 11:53:53 EST 2024
User: Yrep
Spectrometer: HR+D1059
Trigger mode: 1
Integration Time (sec): 1.000000E-1
Scans to average: 1
Electric dark correction enabled: true
Nonlinearity correction enabled: false
Boxcar width: 0
XAxis mode: Wavelengths
Number of Pixels in Spectrum: 2048
>>>>>Begin Spectral Data<<<<<
223.165	-16.81
223.4	-16.81
223.635	-16.81
223.869	0.19
224.104	-32.81
224.338	-5.81
224.573	-12.81
224.808	-0.81
225.042	2.19
225.277	-11.81
225.511	-6.81
225.746	4.19
225.98	-2.81
226.215	19.19
226.449	7.19
226.683	9.19
226.918	22.19
227.152	26.19
227.387	35.19
227.621	41.19
227.856	44.19
228.09	47.19
228.324	48.19
228.559	41.19
228.793	68.19
229.027	53.19
229.262	58.19
229.496	63.19
229.73	74.19
229.964	61.19
230.199	67.19
230.433	73.19
230.667	82.19
230.901	83.19
231.136	79.19
231.37	71.19
231.604	69.19
231.838	74.19
232.072	82.19
232.306	90.19
232.541	71.19
232.775	82.19
233.009	99.19
233.243	67.19
233.477	79.19
233.711	96.19
233.945	74.19
234.179	78.19
234.413	81.19
234.647	76.19
234.881	96.19
235.115	86.19
235.349	71.19
235.583	82.19
235.817	76.19
236.051	63.19
236.285	78.19
236.519	81.19
236.753	77.19
236.987	73.19
237.221	73.19
237.455	79.19
237.689	79.19
237.922	80.19
238.156	93.19
238.39	74.19
238.624	77.19
238.858	72.19
239.091	65.19
239.325	94.19
239.559	72.19
239.793	89.19
240.027	65.19
240.26	84.19
240.494	68.19
240.728	65.19
240.961	77.19
241.195	79.19
241.429	73.19
241.662	72.19
241.896	68.19
242.13	62.19
242.363	72.19
242.597	66.19
242.83	66.19
243.064	77.19
243.298	69.19
243.531	65.19
243.765	72.19
243.998	76.19
244.232	83.19
244.465	69.19
244.699	71.19
244.932	82.19
245.166	82.19
245.399	84.19
245.633	83.19
245.866	58.19
246.099	71.19
246.333	77.19
246.566	67.19
246.8	63.19
247.033	74.19
247.266	81.19
247.5	71.19
247.733	66.19
247.966	75.19
248.2	82.19
248.433	65.19
248.666	65.19
248.899	79.19
249.133	94.19
249.366	83.19
249.599	94.19
249.832	73.19
250.066	69.19
250.299	84.19
250.532	73.19
250.765	77.19
250.998	69.19
251.231	62.19
251.465	66.19
251.698	81.19
251.931	84.19
252.164	82.19
252.397	81.19
252.63	71.19
252.863	72.19
253.096	84.19
253.329	78.19
253.562	81.19
253.795	98.19
254.028	76.19
254.261	79.19
254.494	79.19
254.727	80.19
254.96	80.19
255.193	63.19
255.426	64.19
255.659	72.19
255.892	90.19
256.124	85.19
256.357	91.19
256.59	90.19
256.823	69.19
257.056	65.19
257.289	71.19
257.521	71.19
257.754	72.19
257.987	76.19
258.22	91.19
258.452	79.19
258.685	79.19
258.918	73.19
259.151	77.19
259.383	87.19
259.616	73.19
259.849	81.19
260.081	78.19
260.314	72.19
260.547	81.19
260.779	81.19
261.012	84.19
261.244	71.19
261.477	81.19
261.71	87.19
261.942	96.19
262.175	109.19
262.407	89.19
262.64	94.19
262.872	79.19
263.105	94.19
263.337	68.19
263.57	86.19
263.802	80.19
264.035	59.19
264.267	86.19
264.499	79.19
264.732	79.19
264.964	63.19
265.197	76.19
265.429	77.19
265.661	78.19
265.894	72.19
266.126	79.19
266.358	83.19
266.591	73.19
266.823	79.19
267.055	79.19
267.287	68.19
267.52	81.19
267.752	75.19
267.984	66.19
268.216	75.19
268.448	89.19
268.681	93.19
268.913	97.19
269.145	90.19
269.377	92.19
269.609	65.19
269.841	93.19
270.073	82.19
270.306	85.19
270.538	71.19
270.77	84.19
271.002	70.19
271.234	76.19
271.466	78.19
271.698	85.19
271.93	76.19
272.162	81.19
272.394	91.19
272.626	81.19
272.858	84.19
273.09	87.19
273.322	84.19
273.553	77.19
273.785	89.19
274.017	91.19
274.249	96.19
274.481	71.19
274.713	79.19
274.945	93.19
275.176	78.19
275.408	87.19
275.64	65.19
275.872	78.19
276.104	96.19
276.335	93.19
276.567	97.19
276.799	105.19
277.031	95.19
277.262	71.19
277.494	79.19
277.726	78.19
277.957	77.19
278.189	76.19
278.421	85.19
278.652	85.19
278.884	76.19
279.115	76.19
279.347	72.19
279.579	80.19
279.81	89.19
280.042	81.19
280.273	91.19
280.505	85.19
280.736	77.19
280.968	81.19
281.199	78.19
281.431	90.19
281.662	76.19
281.894	78.19
282.125	94.19
282.356	100.19
282.588	109.19
282.819	103.19
283.051	75.19
283.282	75.19
283.513	76.19
283.745	93.19
283.976	78.19
284.207	88.19
284.439	89.19
284.67	86.19
284.901	85.19
285.132	87.19
285.364	80.19
285.595	91.19
285.826	75.19
286.057	84.19
286.288	75.19
286.52	71.19
286.751	83.19
286.982	89.19
287.213	67.19
287.444	76.19
287.675	74.19
287.906	82.19
288.138	81.19
288.369	88.19
288.6	101.19
288.831	83.19
289.062	78.19
289.293	82.19
289.524	82.19
289.755	87.19
289.986	83.19
290.217	84.19
290.448	85.19
290.679	82.19
290.91	72.19
291.141	92.19
291.371	88.19
291.602	97.19
291.833	89.19
292.064	85.19
292.295	80.19
292.526	86.19
292.757	90.19
292.987	84.19
293.218	98.19
293.449	71.19
293.68	79.19
293.91	89.19
294.141	91.19
294.372	87.19
294.603	96.19
294.833	85.19
295.064	84.19
295.295	82.19
295.525	89.19
295.756	83.19
295.987	107.19
296.217	124.19
296.448	114.19
296.679	94.19
296.909	99.19
297.14	91.19
297.37	81.19
297.601	75.19
297.831	83.19
298.062	96.19
298.292	87.19
298.523	95.19
298.753	93.19
298.984	89.19
299.214	83.19
299.445	91.19
299.675	77.19
299.905	79.19
300.136	94.19
300.366	81.19
300.597	82.19
300.827	88.19
301.057	83.19
301.288	97.19
301.518	90.19
301.748	62.19
301.979	89.19
302.209	85.19
302.439	88.19
302.669	89.19
302.9	90.19
303.13	83.19
303.36	90.19
303.59	91.19
303.82	91.19
304.051	96.19
304.281	81.19
304.511	90.19
304.741	93.19
304.971	84.19
305.201	102.19
305.431	95.19
305.661	82.19
305.891	87.19
306.121	110.19
306.352	97.19
306.582	100.19
306.812	89.19
307.042	100.19
307.272	92.19
307.502	87.19
307.731	96.19
307.961	96.19
308.191	80.19
308.421	90.19
308.651	85.19
308.881	82.19
309.111	87.19
309.341	91.19
309.571	90.19
309.8	89.19
310.03	111.19
310.26	87.19
310.49	87.19
310.72	100.19
310.949	91.19
311.179	97.19
311.409	99.19
311.639	89.19
311.868	96.19
312.098	90.19
312.328	84.19
312.557	93.19
312.787	106.19
313.017	95.19
313.246	87.19
313.476	88.19
313.706	95.19
313.935	93.19
314.165	88.19
314.394	92.19
314.624	91.19
314.853	89.19
315.083	80.19
315.312	83.19
315.542	85.19
315.771	81.19
316.001	85.19
316.23	86.19
316.46	71.19
316.689	94.19
316.919	88.19
317.148	89.19
317.377	91.19
317.607	98.19
317.836	93.19
318.065	85.19
318.295	81.19
318.524	84.19
318.753	82.19
318.983	98.19
319.212	91.19
319.441	96.19
319.67	89.19
319.9	84.19
320.129	93.19
320.358	100.19
320.587	94.19
320.816	104.19
321.046	81.19
321.275	97.19
321.504	96.19
321.733	90.19
321.962	102.19
322.191	97.19
322.42	101.19
322.649	95.19
322.878	94.19
323.108	120.19
323.337	113.19
323.566	113.19
323.795	137.19
324.024	177.19
324.253	350.19
324.482	727.19
324.71	1509.19
324.939	1981.19
325.168	730.19
325.397	223.19
325.626	135.19
325.855	118.19
326.084	122.19
326.313	127.19
326.542	143.19
326.77	224.19
326.999	427.19
327.228	843.19
327.457	1549.19
327.686	1238.19
327.914	329.19
328.143	181.19
328.372	129.19
328.6	121.19
328.829	120.19
329.058	118.19
329.287	108.19
329.515	108.19
329.744	110.19
329.972	95.19
330.201	99.19
330.43	95.19
330.658	111.19
330.887	127.19
331.115	96.19
331.344	94.19
331.572	99.19
331.801	102.19
332.03	93.19
332.258	95.19
332.486	80.19
332.715	100.19
332.943	104.19
333.172	93.19
333.4	83.19
333.629	109.19
333.857	108.19
334.085	77.19
334.314	96.19
334.542	101.19
334.771	103.19
334.999	86.19
335.227	92.19
335.455	100.19
335.684	85.19
335.912	96.19
336.14	84.19
336.369	94.19
336.597	95.19
336.825	96.19
337.053	93.19
337.281	99.19
337.51	91.19
337.738	91.19
337.966	87.19
338.194	77.19
338.422	97.19
338.65	91.19
338.878	80.19
339.106	98.19
339.334	80.19
339.562	89.19
339.79	91.19
340.018	66.19
340.246	89.19
340.474	100.19
340.702	96.19
340.93	79.19
341.158	85.19
341.386	91.19
341.614	93.19
341.842	91.19
342.07	98.19
342.298	79.19
342.526	79.19
342.754	88.19
342.981	79.19
343.209	95.19
343.437	109.19
343.665	82.19
343.893	69.19
344.12	68.19
344.348	97.19
344.576	85.19
344.804	103.19
345.031	91.19
345.259	100.19
345.487	87.19
345.714	87.19
345.942	82.19
346.17	88.19
346.397	97.19
346.625	84.19
346.853	97.19
347.08	81.19
347.308	79.19
347.535	94.19
347.763	85.19
347.99	102.19
348.218	93.19
348.445	98.19
348.673	103.19
348.9	93.19
349.128	101.19
349.355	95.19
349.583	93.19
349.81	84.19
350.037	101.19
350.265	104.19
350.492	93.19
350.72	80.19
350.947	85.19
351.174	105.19
351.402	82.19
351.629	93.19
351.856	93.19
352.083	80.19
352.311	99.19
352.538	105.19
352.765	104.19
352.992	101.19
353.22	112.19
353.447	89.19
353.674	98.19
353.901	94.19
354.128	97.19
354.355	106.19
354.583	105.19
354.81	86.19
355.037	89.19
355.264	89.19
355.491	91.19
355.718	79.19
355.945	87.19
356.172	87.19
356.399	89.19
356.626	98.19
356.853	91.19
357.08	96.19
357.307	86.19
357.534	87.19
357.761	93.19
357.988	95.19
358.215	100.19
358.441	101.19
358.668	85.19
358.895	89.19
359.122	87.19
359.349	97.19
359.576	90.19
359.802	97.19
360.029	101.19
360.256	96.19
360.483	92.19
360.709	82.19
360.936	80.19
361.163	99.19
361.39	91.19
361.616	84.19
361.843	75.19
362.07	93.19
362.296	77.19
362.523	88.19
362.749	79.19
362.976	75.19
363.203	88.19
363.429	90.19
363.656	89.19
363.882	83.19
364.109	83.19
364.335	101.19
364.562	90.19
364.788	87.19
365.015	111.19
365.241	101.19
365.468	107.19
365.694	112.19
365.92	103.19
366.147	99.19
366.373	90.19
366.599	86.19
366.826	99.19
367.052	93.19
367.278	82.19
367.505	91.19
367.731	94.19
367.957	83.19
368.184	82.19
368.41	92.19
368.636	107.19
368.862	108.19
369.089	106.19
369.315	84.19
369.541	105.19
369.767	83.19
369.993	80.19
370.219	90.19
370.445	90.19
370.672	83.19
370.898	83.19
371.124	73.19
371.35	88.19
371.576	86.19
371.802	87.19
372.028	75.19
372.254	84.19
372.48	84.19
372.706	93.19
372.932	83.19
373.158	89.19
373.384	92.19
373.61	85.19
373.835	89.19
374.061	77.19
374.287	100.19
374.513	77.19
374.739	90.19
374.965	92.19
375.191	92.19
375.416	82.19
375.642	96.19
375.868	86.19
376.094	90.19
376.319	73.19
376.545	76.19
376.771	76.19
376.997	96.19
377.222	95.19
377.448	104.19
377.674	85.19
377.899	83.19
378.125	79.19
378.35	96.19
378.576	100.19
378.802	109.19
379.027	87.19
379.253	85.19
379.478	98.19
379.704	90.19
379.929	98.19
380.155	75.19
380.38	100.19
380.606	100.19
380.831	80.19
381.057	99.19
381.282	79.19
381.507	105.19
381.733	100.19
381.958	95.19
382.184	90.19
382.409	101.19
382.634	94.19
382.86	92.19
383.085	100.19
383.31	96.19
383.535	92.19
383.761	99.19
383.986	110.19
384.211	98.19
384.436	95.19
384.662	91.19
384.887	102.19
385.112	96.19
385.337	97.19
385.562	101.19
385.787	108.19
386.013	108.19
386.238	118.19
386.463	96.19
386.688	107.19
386.913	108.19
387.138	109.19
387.363	101.19
387.588	84.19
387.813	85.19
388.038	113.19
388.263	117.19
388.488	106.19
388.713	106.19
388.938	97.19
389.163	87.19
389.387	82.19
389.612	75.19
389.837	78.19
390.062	99.19
390.287	75.19
390.512	83.19
390.736	88.19
390.961	87.19
391.186	82.19
391.411	106.19
391.636	108.19
391.86	83.19
392.085	79.19
392.31	75.19
392.534	83.19
392.759	87.19
392.984	90.19
393.208	86.19
393.433	85.19
393.658	91.19
393.882	71.19
394.107	80.19
394.331	80.19
394.556	71.19
394.78	80.19
395.005	83.19
395.229	71.19
395.454	69.19
395.678	89.19
395.903	76.19
396.127	78.19
396.352	82.19
396.576	93.19
396.801	95.19
397.025	97.19
397.249	92.19
397.474	91.19
397.698	89.19
397.922	82.19
398.147	88.19
398.371	81.19
398.595	83.19
398.82	95.19
399.044	92.19
399.268	86.19
399.492	85.19
399.717	84.19
399.941	89.19
400.165	87.19
400.389	106.19
400.613	95.19
400.837	84.19
401.062	84.19
401.286	87.19
401.51	63.19
401.734	79.19
401.958	90.19
402.182	117.19
402.406	135.19
402.63	92.19
402.854	86.19
403.078	88.19
403.302	87.19
403.526	77.19
403.75	80.19
403.974	74.19
404.198	78.19
404.422	85.19
404.645	92.19
404.869	75.19
405.093	90.19
405.317	87.19
405.541	84.19
405.765	89.19
405.988	107.19
406.212	151.19
406.436	190.19
406.66	134.19
406.883	88.19
407.107	69.19
407.331	101.19
407.555	88.19
407.778	90.19
408.002	87.19
408.226	91.19
408.449	77.19
408.673	84.19
408.896	78.19
409.12	82.19
409.344	97.19
409.567	79.19
409.791	93.19
410.014	91.19
410.238	82.19
410.461	80.19
410.685	90.19
410.908	104.19
411.132	103.19
411.355	97.19
411.578	84.19
411.802	93.19
412.025	81.19
412.249	83.19
412.472	93.19
412.695	80.19
412.919	89.19
413.142	88.19
413.365	95.19
413.589	90.19
413.812	80.19
414.035	95.19
414.258	97.19
414.482	89.19
414.705	94.19
414.928	81.19
415.151	84.19
415.374	88.19
415.597	98.19
415.821	82.19
416.044	94.19
416.267	79.19
416.49	91.19
416.713	99.19
416.936	88.19
417.159	81.19
417.382	97.19
417.605	104.19
417.828	91.19
418.051	102.19
418.274	80.19
418.497	78.19
418.72	91.19
418.943	89.19
419.166	75.19
419.389	82.19
419.611	96.19
419.834	85.19
420.057	97.19
420.28	91.19
420.503	91.19
420.726	79.19
420.948	87.19
421.171	94.19
421.394	84.19
421.617	78.19
421.839	75.19
422.062	91.19
422.285	92.19
422.507	98.19
422.73	85.19
422.953	91.19
423.175	77.19
423.398	84.19
423.621	85.19
423.843	84.19
424.066	83.19
424.288	87.19
424.511	72.19
424.733	91.19
424.956	96.19
425.178	87.19
425.401	91.19
425.623	96.19
425.846	86.19
426.068	83.19
426.291	84.19
426.513	78.19
426.735	82.19
426.958	89.19
427.18	92.19
427.402	118.19
427.625	151.19
427.847	115.19
428.069	95.19
428.292	93.19
428.514	91.19
428.736	88.19
428.958	71.19
429.181	67.19
429.403	80.19
429.625	87.19
429.847	89.19
430.069	90.19
430.292	99.19
430.514	84.19
430.736	73.19
430.958	87.19
431.18	76.19
431.402	89.19
431.624	84.19
431.846	97.19
432.068	92.19
432.29	89.19
432.512	91.19
432.734	96.19
432.956	92.19
433.178	104.19
433.4	100.19
433.622	101.19
433.844	77.19
434.066	87.19
434.287	83.19
434.509	91.19
434.731	86.19
434.953	83.19
435.175	83.19
435.397	91.19
435.618	105.19
435.84	100.19
436.062	119.19
436.284	108.19
436.505	92.19
436.727	92.19
436.949	77.19
437.17	87.19
437.392	99.19
437.614	76.19
437.835	90.19
438.057	114.19
438.278	100.19
438.5	103.19
438.721	102.19
438.943	95.19
439.165	96.19
439.386	88.19
439.608	79.19
439.829	92.19
440.05	102.19
440.272	135.19
440.493	106.19
440.715	96.19
440.936	97.19
441.158	83.19
441.379	88.19
441.6	83.19
441.822	82.19
442.043	90.19
442.264	91.19
442.486	91.19
442.707	92.19
442.928	97.19
443.149	125.19
443.371	122.19
443.592	90.19
443.813	100.19
444.034	97.19
444.255	83.19
444.476	91.19
444.698	94.19
444.919	95.19
445.14	112.19
445.361	122.19
445.582	98.19
445.803	119.19
446.024	132.19
446.245	118.19
446.466	97.19
446.687	87.19
446.908	99.19
447.129	90.19
447.35	88.19
447.571	95.19
447.792	80.19
448.013	72.19
448.234	100.19
448.455	92.19
448.675	106.19
448.896	101.19
449.117	89.19
449.338	101.19
449.559	115.19
449.779	117.19
450	91.19
450.221	92.19
450.442	77.19
450.662	89.19
450.883	80.19
451.104	98.19
451.324	79.19
451.545	71.19
451.766	84.19
451.986	99.19
452.207	84.19
452.428	104.19
452.648	79.19
452.869	112.19
453.089	91.19
453.31	105.19
453.53	90.19
453.751	75.19
453.971	76.19
454.192	107.19
454.412	84.19
454.633	82.19
454.853	96.19
455.073	67.19
455.294	84.19
455.514	87.19
455.734	94.19
455.955	89.19
456.175	88.19
456.395	90.19
456.616	78.19
456.836	94.19
457.056	76.19
457.276	84.19
457.497	87.19
457.717	76.19
457.937	87.19
458.157	91.19
458.377	84.19
458.598	98.19
458.818	121.19
459.038	147.19
459.258	118.19
459.478	78.19
459.698	98.19
459.918	76.19
460.138	75.19
460.358	83.19
460.578	90.19
460.798	82.19
461.018	83.19
461.238	99.19
461.458	87.19
461.678	87.19
461.898	87.19
462.118	93.19
462.338	83.19
462.558	81.19
462.777	90.19
462.997	83.19
463.217	84.19
463.437	71.19
463.657	80.19
463.876	71.19
464.096	78.19
464.316	92.19
464.536	91.19
464.755	85.19
464.975	99.19
465.195	125.19
465.414	123.19
465.634	90.19
465.854	82.19
466.073	88.19
466.293	95.19
466.512	91.19
466.732	86.19
466.951	82.19
467.171	90.19
467.391	96.19
467.61	92.19
467.829	87.19
468.049	88.19
468.268	91.19
468.488	80.19
468.707	82.19
468.927	78.19
469.146	77.19
469.365	99.19
469.585	94.19
469.804	89.19
470.023	93.19
470.243	95.19
470.462	98.19
470.681	94.19
470.901	72.19
471.12	97.19
471.339	71.19
471.558	75.19
471.777	83.19
471.997	90.19
472.216	73.19
472.435	91.19
472.654	74.19
472.873	76.19
473.092	85.19
473.311	83.19
473.53	77.19
473.749	69.19
473.968	75.19
474.187	87.19
474.406	88.19
474.625	72.19
474.844	81.19
475.063	88.19
475.282	80.19
475.501	85.19
475.72	90.19
475.939	88.19
476.158	87.19
476.377	79.19
476.596	75.19
476.814	96.19
477.033	87.19
477.252	62.19
477.471	88.19
477.69	79.19
477.908	95.19
478.127	93.19
478.346	85.19
478.564	83.19
478.783	83.19
479.002	74.19
479.22	86.19
479.439	78.19
479.658	103.19
479.876	88.19
480.095	91.19
480.313	90.19
480.532	92.19
480.751	94.19
480.969	83.19
481.188	92.19
481.406	101.19
481.624	85.19
481.843	95.19
482.061	79.19
482.28	82.19
482.498	74.19
482.717	85.19
482.935	93.19
483.153	86.19
483.372	73.19
483.59	90.19
483.808	98.19
484.027	87.19
484.245	86.19
484.463	77.19
484.681	99.19
484.9	88.19
485.118	103.19
485.336	83.19
485.554	90.19
485.772	105.19
485.99	98.19
486.209	101.19
486.427	96.19
486.645	106.19
486.863	93.19
487.081	97.19
487.299	92.19
487.517	86.19
487.735	91.19
487.953	89.19
488.171	97.19
488.389	92.19
488.607	96.19
488.825	77.19
489.043	88.19
489.261	98.19
489.479	89.19
489.696	90.19
489.914	89.19
490.132	97.19
490.35	93.19
490.568	82.19
490.786	85.19
491.003	96.19
491.221	91.19
491.439	91.19
491.657	87.19
491.874	90.19
492.092	98.19
492.31	84.19
492.527	84.19
492.745	89.19
492.963	81.19
493.18	88.19
493.398	89.19
493.615	90.19
493.833	98.19
494.05	90.19
494.268	82.19
494.485	93.19
494.703	83.19
494.92	83.19
495.138	83.19
495.355	91.19
495.573	85.19
495.79	79.19
496.008	93.19
496.225	80.19
496.442	83.19
496.66	92.19
496.877	81.19
497.094	96.19
497.312	73.19
497.529	84.19
497.746	96.19
497.963	110.19
498.181	86.19
498.398	97.19
498.615	102.19
498.832	97.19
499.049	79.19
499.267	89.19
499.484	76.19
499.701	91.19
499.918	80.19
500.135	92.19
500.352	95.19
500.569	81.19
500.786	71.19
501.003	93.19
501.22	99.19
501.437	97.19
501.654	76.19
501.871	91.19
502.088	79.19
502.305	85.19
502.522	89.19
502.739	91.19
502.956	97.19
503.172	90.19
503.389	76.19
503.606	94.19
503.823	95.19
504.04	86.19
504.256	81.19
504.473	105.19
504.69	81.19
504.907	92.19
505.123	107.19
505.34	86.19
505.557	82.19
505.773	93.19
505.99	82.19
506.207	76.19
506.423	84.19
506.64	84.19
506.856	89.19
507.073	81.19
507.289	93.19
507.506	101.19
507.722	91.19
507.939	105.19
508.155	99.19
508.372	92.19
508.588	91.19
508.805	95.19
509.021	87.19
509.238	95.19
509.454	83.19
509.67	87.19
509.887	94.19
510.103	120.19
510.319	172.19
510.536	626.19
510.752	1920.19
510.968	547.19
511.184	141.19
511.401	99.19
511.617	86.19
511.833	95.19
512.049	89.19
512.265	85.19
512.481	100.19
512.698	101.19
512.914	84.19
513.13	94.19
513.346	94.19
513.562	87.19
513.778	98.19
513.994	89.19
514.21	94.19
514.426	100.19
514.642	124.19
514.858	112.19
515.074	126.19
515.29	342.19
515.506	1117.19
515.721	420.19
515.937	130.19
516.153	111.19
516.369	86.19
516.585	93.19
516.801	81.19
517.016	90.19
517.232	97.19
517.448	85.19
