Data from Uncirc_1990_H10_HRD10591_00063.txt Node
Date: Wed Jan 03 11:54:04 EST 2024
User: Yrep
Spectrometer: HR+D1059
Trigger mode: 1
Integration Time (sec): 1.000000E-1
Scans to average: 1
Electric dark correction enabled: true
Nonlinearity correction enabled: false
Boxcar width: 0
XAxis mode: Wavelengths
Number of Pixels in Spectrum: 2048
>>>>>Begin Spectral Data<<<<<
223.165	-10.19
223.4	-10.19
223.635	-10.19
223.869	-13.19
224.104	-26.19
224.338	-30.19
224.573	-2.19
224.808	-20.19
225.042	-5.19
225.277	-2.19
225.511	-2.19
225.746	8.81
225.98	5.81
226.215	-8.19
226.449	10.81
226.683	33.81
226.918	36.81
227.152	23.81
227.387	28.81
227.621	45.81
227.856	38.81
228.09	46.81
228.324	53.81
228.559	44.81
228.793	79.81
229.027	67.81
229.262	66.81
229.496	83.81
229.73	71.81
229.964	85.81
230.199	76.81
230.433	74.81
230.667	78.81
230.901	62.81
231.136	65.81
231.37	92.81
231.604	81.81
231.838	76.81
232.072	71.81
232.306	76.81
232.541	78.81
232.775	84.81
233.009	93.81
233.243	78.81
233.477	66.81
233.711	84.81
233.945	77.81
234.179	88.81
234.413	82.81
234.647	87.81
234.881	75.81
235.115	67.81
235.349	92.81
235.583	87.81
235.817	70.81
236.051	80.81
236.285	69.81
236.519	91.81
236.753	76.81
236.987	88.81
237.221	98.81
237.455	83.81
237.689	67.81
237.922	76.81
238.156	82.81
238.39	64.81
238.624	70.81
238.858	65.81
239.091	73.81
239.325	76.81
239.559	85.81
239.793	86.81
240.027	78.81
240.26	87.81
240.494	65.81
240.728	75.81
240.961	72.81
241.195	80.81
241.429	69.81
241.662	72.81
241.896	69.81
242.13	83.81
242.363	84.81
242.597	74.81
242.83	79.81
243.064	80.81
243.298	68.81
243.531	70.81
243.765	81.81
243.998	83.81
244.232	84.81
244.465	71.81
244.699	82.81
244.932	78.81
245.166	80.81
245.399	95.81
245.633	83.81
245.866	90.81
246.099	91.81
246.333	83.81
246.566	75.81
246.8	70.81
247.033	76.81
247.266	78.81
247.5	76.81
247.733	73.81
247.966	83.81
248.2	72.81
248.433	65.81
248.666	69.81
248.899	70.81
249.133	81.81
249.366	81.81
249.599	88.81
249.832	95.81
250.066	91.81
250.299	87.81
250.532	90.81
250.765	79.81
250.998	69.81
251.231	76.81
251.465	84.81
251.698	91.81
251.931	95.81
252.164	79.81
252.397	75.81
252.63	93.81
252.863	97.81
253.096	72.81
253.329	76.81
253.562	88.81
253.795	71.81
254.028	78.81
254.261	90.81
254.494	87.81
254.727	94.81
254.96	95.81
255.193	83.81
255.426	88.81
255.659	68.81
255.892	71.81
256.124	78.81
256.357	74.81
256.59	81.81
256.823	86.81
257.056	77.81
257.289	80.81
257.521	80.81
257.754	80.81
257.987	85.81
258.22	83.81
258.452	80.81
258.685	83.81
258.918	81.81
259.151	74.81
259.383	75.81
259.616	92.81
259.849	94.81
260.081	88.81
260.314	77.81
260.547	92.81
260.779	79.81
261.012	88.81
261.244	83.81
261.477	83.81
261.71	100.81
261.942	111.81
262.175	113.81
262.407	96.81
262.64	86.81
262.872	68.81
263.105	69.81
263.337	88.81
263.57	91.81
263.802	98.81
264.035	87.81
264.267	83.81
264.499	81.81
264.732	67.81
264.964	87.81
265.197	84.81
265.429	87.81
265.661	81.81
265.894	83.81
266.126	100.81
266.358	75.81
266.591	71.81
266.823	86.81
267.055	82.81
267.287	81.81
267.52	78.81
267.752	78.81
267.984	85.81
268.216	81.81
268.448	95.81
268.681	82.81
268.913	78.81
269.145	89.81
269.377	94.81
269.609	91.81
269.841	94.81
270.073	85.81
270.306	84.81
270.538	88.81
270.77	90.81
271.002	97.81
271.234	91.81
271.466	92.81
271.698	92.81
271.93	72.81
272.162	76.81
272.394	80.81
272.626	95.81
272.858	87.81
273.09	81.81
273.322	83.81
273.553	82.81
273.785	87.81
274.017	89.81
274.249	90.81
274.481	83.81
274.713	66.81
274.945	92.81
275.176	88.81
275.408	83.81
275.64	81.81
275.872	100.81
276.104	87.81
276.335	87.81
276.567	102.81
276.799	91.81
277.031	94.81
277.262	86.81
277.494	90.81
277.726	73.81
277.957	85.81
278.189	84.81
278.421	88.81
278.652	87.81
278.884	80.81
279.115	89.81
279.347	86.81
279.579	90.81
279.81	83.81
280.042	78.81
280.273	90.81
280.505	88.81
280.736	87.81
280.968	79.81
281.199	92.81
281.431	83.81
281.662	80.81
281.894	90.81
282.125	84.81
282.356	122.81
282.588	139.81
282.819	111.81
283.051	99.81
283.282	95.81
283.513	101.81
283.745	83.81
283.976	74.81
284.207	80.81
284.439	68.81
284.67	76.81
284.901	72.81
285.132	87.81
285.364	80.81
285.595	87.81
285.826	88.81
286.057	96.81
286.288	80.81
286.52	96.81
286.751	88.81
286.982	78.81
287.213	88.81
287.444	84.81
287.675	88.81
287.906	85.81
288.138	88.81
288.369	90.81
288.6	82.81
288.831	95.81
289.062	99.81
289.293	73.81
289.524	89.81
289.755	88.81
289.986	76.81
290.217	91.81
290.448	86.81
290.679	88.81
290.91	97.81
291.141	89.81
291.371	83.81
291.602	85.81
291.833	79.81
292.064	88.81
292.295	83.81
292.526	89.81
292.757	83.81
292.987	86.81
293.218	82.81
293.449	93.81
293.68	92.81
293.91	93.81
294.141	79.81
294.372	87.81
294.603	105.81
294.833	83.81
295.064	92.81
295.295	98.81
295.525	85.81
295.756	91.81
295.987	116.81
296.217	122.81
296.448	116.81
296.679	98.81
296.909	86.81
297.14	85.81
297.37	89.81
297.601	72.81
297.831	86.81
298.062	100.81
298.292	91.81
298.523	90.81
298.753	81.81
298.984	90.81
299.214	98.81
299.445	84.81
299.675	88.81
299.905	103.81
300.136	96.81
300.366	78.81
300.597	87.81
300.827	88.81
301.057	90.81
301.288	98.81
301.518	91.81
301.748	89.81
301.979	92.81
302.209	87.81
302.439	95.81
302.669	92.81
302.9	92.81
303.13	85.81
303.36	94.81
303.59	95.81
303.82	114.81
304.051	84.81
304.281	98.81
304.511	99.81
304.741	98.81
304.971	98.81
305.201	102.81
305.431	85.81
305.661	78.81
305.891	78.81
306.121	90.81
306.352	115.81
306.582	90.81
306.812	89.81
307.042	91.81
307.272	96.81
307.502	94.81
307.731	91.81
307.961	84.81
308.191	101.81
308.421	108.81
308.651	94.81
308.881	85.81
309.111	102.81
309.341	96.81
309.571	98.81
309.8	94.81
310.03	103.81
310.26	85.81
310.49	101.81
310.72	92.81
310.949	89.81
311.179	99.81
311.409	94.81
311.639	100.81
311.868	90.81
312.098	78.81
312.328	91.81
312.557	113.81
312.787	115.81
313.017	86.81
313.246	102.81
313.476	97.81
313.706	99.81
313.935	95.81
314.165	97.81
314.394	75.81
314.624	91.81
314.853	96.81
315.083	85.81
315.312	108.81
315.542	96.81
315.771	86.81
316.001	87.81
316.23	77.81
316.46	90.81
316.689	89.81
316.919	87.81
317.148	88.81
317.377	97.81
317.607	96.81
317.836	82.81
318.065	85.81
318.295	82.81
318.524	98.81
318.753	106.81
318.983	100.81
319.212	107.81
319.441	106.81
319.67	108.81
319.9	86.81
320.129	99.81
320.358	97.81
320.587	90.81
320.816	97.81
321.046	92.81
321.275	108.81
321.504	78.81
321.733	97.81
321.962	96.81
322.191	93.81
322.42	100.81
322.649	105.81
322.878	120.81
323.108	101.81
323.337	119.81
323.566	142.81
323.795	154.81
324.024	183.81
324.253	355.81
324.482	768.81
324.71	1564.81
324.939	2062.81
325.168	778.81
325.397	227.81
325.626	140.81
325.855	123.81
326.084	124.81
326.313	124.81
326.542	141.81
326.77	227.81
326.999	423.81
327.228	888.81
327.457	1592.81
327.686	1306.81
327.914	355.81
328.143	171.81
328.372	129.81
328.6	115.81
328.829	110.81
329.058	127.81
329.287	124.81
329.515	104.81
329.744	107.81
329.972	117.81
330.201	104.81
330.43	111.81
330.658	112.81
330.887	143.81
331.115	108.81
331.344	103.81
331.572	93.81
331.801	93.81
332.03	89.81
332.258	95.81
332.486	90.81
332.715	96.81
332.943	88.81
333.172	92.81
333.4	97.81
333.629	97.81
333.857	115.81
334.085	104.81
334.314	101.81
334.542	101.81
334.771	110.81
334.999	90.81
335.227	103.81
335.455	98.81
335.684	100.81
335.912	86.81
336.14	96.81
336.369	102.81
336.597	98.81
336.825	96.81
337.053	98.81
337.281	93.81
337.51	79.81
337.738	91.81
337.966	85.81
338.194	104.81
338.422	87.81
338.65	96.81
338.878	92.81
339.106	98.81
339.334	85.81
339.562	103.81
339.79	100.81
340.018	92.81
340.246	101.81
340.474	103.81
340.702	98.81
340.93	91.81
341.158	90.81
341.386	98.81
341.614	88.81
341.842	90.81
342.07	82.81
342.298	82.81
342.526	98.81
342.754	99.81
342.981	86.81
343.209	93.81
343.437	98.81
343.665	88.81
343.893	86.81
344.12	93.81
344.348	94.81
344.576	81.81
344.804	103.81
345.031	108.81
345.259	103.81
345.487	83.81
345.714	96.81
345.942	100.81
346.17	78.81
346.397	95.81
346.625	93.81
346.853	83.81
347.08	92.81
347.308	89.81
347.535	96.81
347.763	98.81
347.99	103.81
348.218	100.81
348.445	101.81
348.673	109.81
348.9	99.81
349.128	104.81
349.355	83.81
349.583	82.81
349.81	81.81
350.037	101.81
350.265	81.81
350.492	80.81
350.72	69.81
350.947	94.81
351.174	98.81
351.402	107.81
351.629	107.81
351.856	106.81
352.083	92.81
352.311	104.81
352.538	117.81
352.765	97.81
352.992	112.81
353.22	100.81
353.447	97.81
353.674	91.81
353.901	108.81
354.128	80.81
354.355	91.81
354.583	96.81
354.81	91.81
355.037	93.81
355.264	96.81
355.491	104.81
355.718	88.81
355.945	84.81
356.172	91.81
356.399	104.81
356.626	71.81
356.853	86.81
357.08	94.81
357.307	91.81
357.534	89.81
357.761	97.81
357.988	90.81
358.215	97.81
358.441	85.81
358.668	106.81
358.895	89.81
359.122	86.81
359.349	103.81
359.576	92.81
359.802	92.81
360.029	107.81
360.256	108.81
360.483	102.81
360.709	87.81
360.936	101.81
361.163	100.81
361.39	98.81
361.616	105.81
361.843	92.81
362.07	102.81
362.296	89.81
362.523	102.81
362.749	95.81
362.976	95.81
363.203	97.81
363.429	92.81
363.656	102.81
363.882	76.81
364.109	92.81
364.335	92.81
364.562	95.81
364.788	92.81
365.015	94.81
365.241	95.81
365.468	95.81
365.694	87.81
365.92	100.81
366.147	81.81
366.373	80.81
366.599	90.81
366.826	98.81
367.052	110.81
367.278	87.81
367.505	91.81
367.731	88.81
367.957	86.81
368.184	102.81
368.41	90.81
368.636	103.81
368.862	102.81
369.089	89.81
369.315	92.81
369.541	90.81
369.767	84.81
369.993	84.81
370.219	103.81
370.445	88.81
370.672	88.81
370.898	83.81
371.124	91.81
371.35	87.81
371.576	88.81
371.802	69.81
372.028	80.81
372.254	89.81
372.48	91.81
372.706	84.81
372.932	92.81
373.158	91.81
373.384	82.81
373.61	99.81
373.835	78.81
374.061	92.81
374.287	94.81
374.513	81.81
374.739	82.81
374.965	88.81
375.191	77.81
375.416	89.81
375.642	86.81
375.868	84.81
376.094	92.81
376.319	87.81
376.545	80.81
376.771	82.81
376.997	97.81
377.222	87.81
377.448	95.81
377.674	89.81
377.899	78.81
378.125	90.81
378.35	89.81
378.576	102.81
378.802	94.81
379.027	94.81
379.253	82.81
379.478	99.81
379.704	88.81
379.929	76.81
380.155	83.81
380.38	94.81
380.606	89.81
380.831	83.81
381.057	98.81
381.282	96.81
381.507	96.81
381.733	94.81
381.958	103.81
382.184	102.81
382.409	97.81
382.634	105.81
382.86	88.81
383.085	85.81
383.31	90.81
383.535	94.81
383.761	104.81
383.986	94.81
384.211	86.81
384.436	100.81
384.662	88.81
384.887	97.81
385.112	99.81
385.337	108.81
385.562	78.81
385.787	114.81
386.013	107.81
386.238	103.81
386.463	103.81
386.688	102.81
386.913	85.81
387.138	103.81
387.363	107.81
387.588	99.81
387.813	106.81
388.038	93.81
388.263	100.81
388.488	91.81
388.713	97.81
388.938	86.81
389.163	95.81
389.387	102.81
389.612	100.81
389.837	82.81
390.062	97.81
390.287	90.81
390.512	92.81
390.736	96.81
390.961	89.81
391.186	95.81
391.411	90.81
391.636	86.81
391.86	94.81
392.085	87.81
392.31	79.81
392.534	91.81
392.759	93.81
392.984	70.81
393.208	85.81
393.433	93.81
393.658	80.81
393.882	79.81
394.107	68.81
394.331	83.81
394.556	86.81
394.78	95.81
395.005	89.81
395.229	84.81
395.454	90.81
395.678	81.81
395.903	100.81
396.127	95.81
396.352	90.81
396.576	78.81
396.801	85.81
397.025	85.81
397.249	75.81
397.474	88.81
397.698	95.81
397.922	96.81
398.147	97.81
398.371	78.81
398.595	81.81
398.82	81.81
399.044	87.81
399.268	71.81
399.492	95.81
399.717	94.81
399.941	91.81
400.165	96.81
400.389	98.81
400.613	91.81
400.837	86.81
401.062	85.81
401.286	88.81
401.51	85.81
401.734	108.81
401.958	98.81
402.182	142.81
402.406	146.81
402.63	119.81
402.854	99.81
403.078	94.81
403.302	64.81
403.526	83.81
403.75	95.81
403.974	89.81
404.198	86.81
404.422	97.81
404.645	91.81
404.869	75.81
405.093	79.81
405.317	71.81
405.541	99.81
405.765	83.81
405.988	103.81
406.212	151.81
406.436	232.81
406.66	142.81
406.883	93.81
407.107	103.81
407.331	82.81
407.555	104.81
407.778	100.81
408.002	92.81
408.226	95.81
408.449	94.81
408.673	89.81
408.896	89.81
409.12	110.81
409.344	99.81
409.567	85.81
409.791	96.81
410.014	88.81
410.238	96.81
410.461	104.81
410.685	92.81
410.908	99.81
411.132	104.81
411.355	99.81
411.578	86.81
411.802	86.81
412.025	91.81
412.249	95.81
412.472	99.81
412.695	86.81
412.919	78.81
413.142	94.81
413.365	87.81
413.589	75.81
413.812	92.81
414.035	86.81
414.258	87.81
414.482	87.81
414.705	92.81
414.928	111.81
415.151	98.81
415.374	87.81
415.597	78.81
415.821	99.81
416.044	83.81
416.267	73.81
416.49	85.81
416.713	102.81
416.936	83.81
417.159	81.81
417.382	95.81
417.605	90.81
417.828	79.81
418.051	81.81
418.274	90.81
418.497	84.81
418.72	87.81
418.943	88.81
419.166	83.81
419.389	85.81
419.611	84.81
419.834	82.81
420.057	89.81
420.28	82.81
420.503	89.81
420.726	77.81
420.948	81.81
421.171	91.81
421.394	82.81
421.617	86.81
421.839	69.81
422.062	86.81
422.285	95.81
422.507	88.81
422.73	99.81
422.953	90.81
423.175	91.81
423.398	74.81
423.621	84.81
423.843	98.81
424.066	80.81
424.288	97.81
424.511	84.81
424.733	101.81
424.956	101.81
425.178	94.81
425.401	98.81
425.623	94.81
425.846	82.81
426.068	78.81
426.291	91.81
426.513	67.81
426.735	84.81
426.958	90.81
427.18	99.81
427.402	123.81
427.625	157.81
427.847	131.81
428.069	87.81
428.292	91.81
428.514	78.81
428.736	81.81
428.958	74.81
429.181	80.81
429.403	77.81
429.625	93.81
429.847	98.81
430.069	106.81
430.292	100.81
430.514	85.81
430.736	90.81
430.958	85.81
431.18	86.81
431.402	83.81
431.624	70.81
431.846	86.81
432.068	98.81
432.29	75.81
432.512	80.81
432.734	77.81
432.956	92.81
433.178	91.81
433.4	82.81
433.622	80.81
433.844	92.81
434.066	89.81
434.287	87.81
434.509	72.81
434.731	87.81
434.953	88.81
435.175	78.81
435.397	95.81
435.618	93.81
435.84	100.81
436.062	125.81
436.284	124.81
436.505	92.81
436.727	105.81
436.949	105.81
437.17	76.81
437.392	84.81
437.614	84.81
437.835	102.81
438.057	104.81
438.278	98.81
438.5	94.81
438.721	118.81
438.943	90.81
439.165	97.81
439.386	78.81
439.608	90.81
439.829	93.81
440.05	107.81
440.272	119.81
440.493	99.81
440.715	83.81
440.936	84.81
441.158	93.81
441.379	92.81
441.6	87.81
441.822	88.81
442.043	93.81
442.264	96.81
442.486	78.81
442.707	93.81
442.928	92.81
443.149	129.81
443.371	121.81
443.592	108.81
443.813	110.81
444.034	89.81
444.255	84.81
444.476	77.81
444.698	74.81
444.919	88.81
445.14	118.81
445.361	113.81
445.582	97.81
445.803	127.81
446.024	117.81
446.245	126.81
446.466	93.81
446.687	78.81
446.908	78.81
447.129	95.81
447.35	87.81
447.571	86.81
447.792	95.81
448.013	85.81
448.234	97.81
448.455	92.81
448.675	117.81
448.896	131.81
449.117	86.81
449.338	80.81
449.559	123.81
449.779	116.81
450	90.81
450.221	91.81
450.442	98.81
450.662	94.81
450.883	107.81
451.104	96.81
451.324	89.81
451.545	83.81
451.766	78.81
451.986	86.81
452.207	87.81
452.428	80.81
452.648	93.81
452.869	108.81
453.089	105.81
453.31	108.81
453.53	97.81
453.751	95.81
453.971	107.81
454.192	89.81
454.412	89.81
454.633	92.81
454.853	87.81
455.073	74.81
455.294	94.81
455.514	97.81
455.734	95.81
455.955	79.81
456.175	68.81
456.395	86.81
456.616	82.81
456.836	79.81
457.056	80.81
457.276	91.81
457.497	98.81
457.717	95.81
457.937	80.81
458.157	78.81
458.377	91.81
458.598	91.81
458.818	135.81
459.038	150.81
459.258	118.81
459.478	83.81
459.698	76.81
459.918	78.81
460.138	90.81
460.358	77.81
460.578	88.81
460.798	90.81
461.018	98.81
461.238	82.81
461.458	82.81
461.678	94.81
461.898	74.81
462.118	86.81
462.338	86.81
462.558	87.81
462.777	79.81
462.997	75.81
463.217	86.81
463.437	66.81
463.657	92.81
463.876	107.81
464.096	91.81
464.316	83.81
464.536	79.81
464.755	107.81
464.975	116.81
465.195	148.81
465.414	143.81
465.634	90.81
465.854	82.81
466.073	90.81
466.293	82.81
466.512	88.81
466.732	74.81
466.951	84.81
467.171	92.81
467.391	95.81
467.61	118.81
467.829	86.81
468.049	92.81
468.268	93.81
468.488	82.81
468.707	79.81
468.927	71.81
469.146	87.81
469.365	87.81
469.585	80.81
469.804	96.81
470.023	88.81
470.243	99.81
470.462	93.81
470.681	98.81
470.901	111.81
471.12	92.81
471.339	89.81
471.558	102.81
471.777	88.81
471.997	104.81
472.216	105.81
472.435	115.81
472.654	99.81
472.873	83.81
473.092	90.81
473.311	70.81
473.53	78.81
473.749	79.81
473.968	95.81
474.187	92.81
474.406	102.81
474.625	84.81
474.844	100.81
475.063	83.81
475.282	89.81
475.501	97.81
475.72	101.81
475.939	78.81
476.158	95.81
476.377	93.81
476.596	102.81
476.814	94.81
477.033	92.81
477.252	93.81
477.471	102.81
477.69	79.81
477.908	86.81
478.127	90.81
478.346	105.81
478.564	104.81
478.783	93.81
479.002	86.81
479.22	99.81
479.439	92.81
479.658	101.81
479.876	82.81
480.095	100.81
480.313	98.81
480.532	80.81
480.751	85.81
480.969	98.81
481.188	125.81
481.406	130.81
481.624	95.81
481.843	101.81
482.061	85.81
482.28	83.81
482.498	75.81
482.717	93.81
482.935	85.81
483.153	82.81
483.372	87.81
483.59	90.81
483.808	78.81
484.027	78.81
484.245	97.81
484.463	94.81
484.681	84.81
484.9	94.81
485.118	90.81
485.336	100.81
485.554	94.81
485.772	95.81
485.99	95.81
486.209	113.81
486.427	103.81
486.645	103.81
486.863	94.81
487.081	100.81
487.299	104.81
487.517	110.81
487.735	98.81
487.953	104.81
488.171	105.81
488.389	101.81
488.607	88.81
488.825	76.81
489.043	90.81
489.261	96.81
489.479	82.81
489.696	77.81
489.914	82.81
490.132	99.81
490.35	96.81
490.568	87.81
490.786	91.81
491.003	97.81
491.221	95.81
491.439	72.81
491.657	92.81
491.874	99.81
492.092	98.81
492.31	91.81
492.527	91.81
492.745	77.81
492.963	99.81
493.18	86.81
493.398	106.81
493.615	101.81
493.833	104.81
494.05	88.81
494.268	99.81
494.485	71.81
494.703	97.81
494.92	96.81
495.138	96.81
495.355	103.81
495.573	82.81
495.79	85.81
496.008	98.81
496.225	101.81
496.442	84.81
496.66	107.81
496.877	88.81
497.094	95.81
497.312	94.81
497.529	98.81
497.746	88.81
497.963	102.81
498.181	98.81
498.398	76.81
498.615	111.81
498.832	94.81
499.049	87.81
499.267	91.81
499.484	95.81
499.701	95.81
499.918	87.81
500.135	97.81
500.352	102.81
500.569	104.81
500.786	93.81
501.003	104.81
501.22	104.81
501.437	104.81
501.654	99.81
501.871	101.81
502.088	96.81
502.305	90.81
502.522	86.81
502.739	91.81
502.956	93.81
503.172	99.81
503.389	102.81
503.606	94.81
503.823	83.81
504.04	97.81
504.256	96.81
504.473	74.81
504.69	92.81
504.907	86.81
505.123	92.81
505.34	88.81
505.557	81.81
505.773	91.81
505.99	93.81
506.207	88.81
506.423	97.81
506.64	107.81
506.856	95.81
507.073	101.81
507.289	92.81
507.506	97.81
507.722	92.81
507.939	94.81
508.155	72.81
508.372	90.81
508.588	93.81
508.805	100.81
509.021	105.81
509.238	103.81
509.454	100.81
509.67	88.81
509.887	98.81
510.103	131.81
510.319	208.81
510.536	725.81
510.752	2181.81
510.968	606.81
511.184	154.81
511.401	109.81
511.617	102.81
511.833	106.81
512.049	99.81
512.265	88.81
512.481	97.81
512.698	94.81
512.914	95.81
513.13	88.81
513.346	88.81
513.562	102.81
513.778	91.81
513.994	93.81
514.21	99.81
514.426	115.81
514.642	112.81
514.858	108.81
515.074	149.81
515.29	420.81
515.506	1334.81
515.721	478.81
515.937	130.81
516.153	114.81
