Data from Uncirc_1990_H10_HRD10591_00098.txt Node
Date: Wed Jan 03 11:54:11 EST 2024
User: Yrep
Spectrometer: HR+D1059
Trigger mode: 1
Integration Time (sec): 1.000000E-1
Scans to average: 1
Electric dark correction enabled: true
Nonlinearity correction enabled: false
Boxcar width: 0
XAxis mode: Wavelengths
Number of Pixels in Spectrum: 2048
>>>>>Begin Spectral Data<<<<<
223.165	-15.06
223.4	-15.06
223.635	-15.06
223.869	-21.06
224.104	-36.06
224.338	-23.06
224.573	-9.06
224.808	-14.06
225.042	-13.06
225.277	-1.06
225.511	2.94
225.746	7.94
225.98	8.94
226.215	16.94
226.449	11.94
226.683	22.94
226.918	24.94
227.152	35.94
227.387	41.94
227.621	34.94
227.856	44.94
228.09	47.94
228.324	61.94
228.559	56.94
228.793	53.94
229.027	79.94
229.262	83.94
229.496	70.94
229.73	71.94
229.964	88.94
230.199	68.94
230.433	85.94
230.667	80.94
230.901	80.94
231.136	87.94
231.37	81.94
231.604	75.94
231.838	86.94
232.072	84.94
232.306	66.94
232.541	72.94
232.775	104.94
233.009	73.94
233.243	85.94
233.477	97.94
233.711	89.94
233.945	80.94
234.179	79.94
234.413	84.94
234.647	72.94
234.881	82.94
235.115	80.94
235.349	76.94
235.583	71.94
235.817	69.94
236.051	64.94
236.285	79.94
236.519	79.94
236.753	86.94
236.987	76.94
237.221	89.94
237.455	89.94
237.689	76.94
237.922	87.94
238.156	77.94
238.39	88.94
238.624	67.94
238.858	77.94
239.091	72.94
239.325	81.94
239.559	67.94
239.793	79.94
240.027	56.94
240.26	70.94
240.494	85.94
240.728	81.94
240.961	81.94
241.195	80.94
241.429	85.94
241.662	75.94
241.896	71.94
242.13	70.94
242.363	72.94
242.597	84.94
242.83	78.94
243.064	69.94
243.298	85.94
243.531	77.94
243.765	76.94
243.998	78.94
244.232	79.94
244.465	88.94
244.699	84.94
244.932	76.94
245.166	69.94
245.399	54.94
245.633	73.94
245.866	91.94
246.099	93.94
246.333	83.94
246.566	79.94
246.8	86.94
247.033	72.94
247.266	79.94
247.5	93.94
247.733	89.94
247.966	85.94
248.2	86.94
248.433	89.94
248.666	73.94
248.899	81.94
249.133	89.94
249.366	93.94
249.599	108.94
249.832	79.94
250.066	83.94
250.299	80.94
250.532	83.94
250.765	80.94
250.998	78.94
251.231	82.94
251.465	70.94
251.698	87.94
251.931	66.94
252.164	94.94
252.397	76.94
252.63	98.94
252.863	71.94
253.096	80.94
253.329	81.94
253.562	85.94
253.795	101.94
254.028	85.94
254.261	76.94
254.494	85.94
254.727	93.94
254.96	87.94
255.193	83.94
255.426	90.94
255.659	81.94
255.892	93.94
256.124	86.94
256.357	79.94
256.59	73.94
256.823	70.94
257.056	83.94
257.289	94.94
257.521	88.94
257.754	83.94
257.987	92.94
258.22	71.94
258.452	84.94
258.685	79.94
258.918	87.94
259.151	83.94
259.383	100.94
259.616	76.94
259.849	91.94
260.081	86.94
260.314	93.94
260.547	91.94
260.779	84.94
261.012	87.94
261.244	86.94
261.477	93.94
261.71	104.94
261.942	117.94
262.175	128.94
262.407	85.94
262.64	87.94
262.872	86.94
263.105	78.94
263.337	84.94
263.57	98.94
263.802	95.94
264.035	96.94
264.267	78.94
264.499	85.94
264.732	100.94
264.964	80.94
265.197	96.94
265.429	81.94
265.661	88.94
265.894	88.94
266.126	83.94
266.358	83.94
266.591	89.94
266.823	92.94
267.055	76.94
267.287	77.94
267.52	79.94
267.752	90.94
267.984	87.94
268.216	78.94
268.448	89.94
268.681	94.94
268.913	81.94
269.145	83.94
269.377	92.94
269.609	82.94
269.841	86.94
270.073	81.94
270.306	86.94
270.538	79.94
270.77	77.94
271.002	87.94
271.234	88.94
271.466	89.94
271.698	88.94
271.93	91.94
272.162	91.94
272.394	85.94
272.626	98.94
272.858	88.94
273.09	78.94
273.322	79.94
273.553	80.94
273.785	84.94
274.017	71.94
274.249	79.94
274.481	80.94
274.713	93.94
274.945	81.94
275.176	90.94
275.408	78.94
275.64	83.94
275.872	80.94
276.104	88.94
276.335	80.94
276.567	84.94
276.799	102.94
277.031	103.94
277.262	88.94
277.494	76.94
277.726	76.94
277.957	93.94
278.189	103.94
278.421	80.94
278.652	83.94
278.884	78.94
279.115	87.94
279.347	83.94
279.579	78.94
279.81	77.94
280.042	81.94
280.273	82.94
280.505	92.94
280.736	103.94
280.968	81.94
281.199	80.94
281.431	87.94
281.662	103.94
281.894	84.94
282.125	100.94
282.356	98.94
282.588	127.94
282.819	106.94
283.051	78.94
283.282	101.94
283.513	84.94
283.745	97.94
283.976	95.94
284.207	85.94
284.439	105.94
284.67	86.94
284.901	87.94
285.132	88.94
285.364	110.94
285.595	102.94
285.826	99.94
286.057	98.94
286.288	86.94
286.52	100.94
286.751	92.94
286.982	78.94
287.213	93.94
287.444	91.94
287.675	88.94
287.906	97.94
288.138	95.94
288.369	84.94
288.6	85.94
288.831	91.94
289.062	88.94
289.293	81.94
289.524	85.94
289.755	92.94
289.986	79.94
290.217	87.94
290.448	83.94
290.679	81.94
290.91	88.94
291.141	83.94
291.371	89.94
291.602	86.94
291.833	95.94
292.064	93.94
292.295	81.94
292.526	98.94
292.757	90.94
292.987	81.94
293.218	91.94
293.449	84.94
293.68	86.94
293.91	102.94
294.141	99.94
294.372	98.94
294.603	84.94
294.833	92.94
295.064	81.94
295.295	88.94
295.525	94.94
295.756	109.94
295.987	114.94
296.217	148.94
296.448	135.94
296.679	93.94
296.909	80.94
297.14	99.94
297.37	88.94
297.601	83.94
297.831	94.94
298.062	102.94
298.292	87.94
298.523	98.94
298.753	85.94
298.984	98.94
299.214	94.94
299.445	91.94
299.675	87.94
299.905	99.94
300.136	92.94
300.366	91.94
300.597	95.94
300.827	102.94
301.057	107.94
301.288	101.94
301.518	86.94
301.748	105.94
301.979	115.94
302.209	88.94
302.439	85.94
302.669	94.94
302.9	83.94
303.13	93.94
303.36	90.94
303.59	87.94
303.82	102.94
304.051	81.94
304.281	91.94
304.511	78.94
304.741	84.94
304.971	96.94
305.201	103.94
305.431	91.94
305.661	88.94
305.891	101.94
306.121	96.94
306.352	108.94
306.582	93.94
306.812	100.94
307.042	76.94
307.272	88.94
307.502	97.94
307.731	100.94
307.961	93.94
308.191	94.94
308.421	95.94
308.651	93.94
308.881	95.94
309.111	99.94
309.341	87.94
309.571	105.94
309.8	110.94
310.03	104.94
310.26	103.94
310.49	115.94
310.72	99.94
310.949	109.94
311.179	100.94
311.409	92.94
311.639	92.94
311.868	104.94
312.098	93.94
312.328	87.94
312.557	108.94
312.787	103.94
313.017	99.94
313.246	100.94
313.476	98.94
313.706	110.94
313.935	107.94
314.165	88.94
314.394	84.94
314.624	105.94
314.853	105.94
315.083	95.94
315.312	88.94
315.542	77.94
315.771	97.94
316.001	91.94
316.23	83.94
316.46	96.94
316.689	100.94
316.919	101.94
317.148	96.94
317.377	97.94
317.607	88.94
317.836	85.94
318.065	97.94
318.295	87.94
318.524	92.94
318.753	104.94
318.983	97.94
319.212	103.94
319.441	102.94
319.67	111.94
319.9	98.94
320.129	96.94
320.358	109.94
320.587	103.94
320.816	103.94
321.046	95.94
321.275	105.94
321.504	93.94
321.733	91.94
321.962	101.94
322.191	102.94
322.42	102.94
322.649	106.94
322.878	118.94
323.108	114.94
323.337	132.94
323.566	132.94
323.795	145.94
324.024	193.94
324.253	383.94
324.482	782.94
324.71	1602.94
324.939	2090.94
325.168	771.94
325.397	235.94
325.626	153.94
325.855	133.94
326.084	122.94
326.313	127.94
326.542	153.94
326.77	219.94
326.999	440.94
327.228	894.94
327.457	1584.94
327.686	1292.94
327.914	354.94
328.143	191.94
328.372	160.94
328.6	134.94
328.829	126.94
329.058	144.94
329.287	128.94
329.515	116.94
329.744	101.94
329.972	96.94
330.201	115.94
330.43	120.94
330.658	113.94
330.887	120.94
331.115	117.94
331.344	99.94
331.572	98.94
331.801	108.94
332.03	95.94
332.258	85.94
332.486	99.94
332.715	100.94
332.943	92.94
333.172	89.94
333.4	101.94
333.629	91.94
333.857	110.94
334.085	121.94
334.314	117.94
334.542	115.94
334.771	115.94
334.999	95.94
335.227	114.94
335.455	93.94
335.684	100.94
335.912	94.94
336.14	93.94
336.369	79.94
336.597	102.94
336.825	105.94
337.053	95.94
337.281	97.94
337.51	89.94
337.738	96.94
337.966	100.94
338.194	95.94
338.422	91.94
338.65	85.94
338.878	93.94
339.106	92.94
339.334	87.94
339.562	101.94
339.79	91.94
340.018	92.94
340.246	92.94
340.474	100.94
340.702	96.94
340.93	99.94
341.158	87.94
341.386	82.94
341.614	99.94
341.842	101.94
342.07	79.94
342.298	85.94
342.526	91.94
342.754	86.94
342.981	99.94
343.209	92.94
343.437	98.94
343.665	100.94
343.893	105.94
344.12	101.94
344.348	89.94
344.576	115.94
344.804	88.94
345.031	101.94
345.259	103.94
345.487	111.94
345.714	83.94
345.942	97.94
346.17	94.94
346.397	91.94
346.625	88.94
346.853	95.94
347.08	99.94
347.308	101.94
347.535	91.94
347.763	101.94
347.99	93.94
348.218	93.94
348.445	95.94
348.673	103.94
348.9	110.94
349.128	98.94
349.355	99.94
349.583	94.94
349.81	102.94
350.037	90.94
350.265	96.94
350.492	93.94
350.72	86.94
350.947	99.94
351.174	111.94
351.402	95.94
351.629	112.94
351.856	111.94
352.083	114.94
352.311	101.94
352.538	108.94
352.765	112.94
352.992	119.94
353.22	121.94
353.447	94.94
353.674	99.94
353.901	101.94
354.128	101.94
354.355	96.94
354.583	98.94
354.81	93.94
355.037	94.94
355.264	97.94
355.491	102.94
355.718	77.94
355.945	77.94
356.172	86.94
356.399	79.94
356.626	93.94
356.853	91.94
357.08	100.94
357.307	76.94
357.534	97.94
357.761	92.94
357.988	90.94
358.215	104.94
358.441	97.94
358.668	79.94
358.895	90.94
359.122	100.94
359.349	81.94
359.576	98.94
359.802	100.94
360.029	104.94
360.256	114.94
360.483	98.94
360.709	88.94
360.936	106.94
361.163	105.94
361.39	87.94
361.616	85.94
361.843	85.94
362.07	98.94
362.296	96.94
362.523	90.94
362.749	81.94
362.976	90.94
363.203	92.94
363.429	86.94
363.656	92.94
363.882	89.94
364.109	78.94
364.335	86.94
364.562	91.94
364.788	87.94
365.015	102.94
365.241	102.94
365.468	103.94
365.694	102.94
365.92	102.94
366.147	105.94
366.373	93.94
366.599	91.94
366.826	82.94
367.052	87.94
367.278	83.94
367.505	87.94
367.731	96.94
367.957	88.94
368.184	85.94
368.41	100.94
368.636	105.94
368.862	94.94
369.089	98.94
369.315	85.94
369.541	83.94
369.767	95.94
369.993	88.94
370.219	88.94
370.445	87.94
370.672	92.94
370.898	96.94
371.124	80.94
371.35	102.94
371.576	93.94
371.802	86.94
372.028	78.94
372.254	97.94
372.48	100.94
372.706	92.94
372.932	92.94
373.158	93.94
373.384	89.94
373.61	87.94
373.835	82.94
374.061	97.94
374.287	95.94
374.513	91.94
374.739	85.94
374.965	85.94
375.191	84.94
375.416	87.94
375.642	83.94
375.868	79.94
376.094	92.94
376.319	85.94
376.545	89.94
376.771	95.94
376.997	92.94
377.222	98.94
377.448	100.94
377.674	69.94
377.899	102.94
378.125	99.94
378.35	92.94
378.576	107.94
378.802	91.94
379.027	87.94
379.253	92.94
379.478	91.94
379.704	95.94
379.929	110.94
380.155	100.94
380.38	88.94
380.606	81.94
380.831	91.94
381.057	93.94
381.282	83.94
381.507	87.94
381.733	94.94
381.958	90.94
382.184	104.94
382.409	88.94
382.634	100.94
382.86	112.94
383.085	99.94
383.31	86.94
383.535	99.94
383.761	91.94
383.986	102.94
384.211	94.94
384.436	103.94
384.662	92.94
384.887	99.94
385.112	89.94
385.337	97.94
385.562	91.94
385.787	106.94
386.013	101.94
386.238	105.94
386.463	104.94
386.688	82.94
386.913	117.94
387.138	92.94
387.363	101.94
387.588	99.94
387.813	92.94
388.038	93.94
388.263	105.94
388.488	103.94
388.713	98.94
388.938	98.94
389.163	91.94
389.387	88.94
389.612	96.94
389.837	93.94
390.062	92.94
390.287	92.94
390.512	89.94
390.736	94.94
390.961	97.94
391.186	87.94
391.411	85.94
391.636	99.94
391.86	92.94
392.085	92.94
392.31	84.94
392.534	84.94
392.759	91.94
392.984	72.94
393.208	77.94
393.433	83.94
393.658	89.94
393.882	91.94
394.107	89.94
394.331	89.94
394.556	83.94
394.78	83.94
395.005	79.94
395.229	87.94
395.454	103.94
395.678	102.94
395.903	92.94
396.127	79.94
396.352	93.94
396.576	102.94
396.801	93.94
397.025	92.94
397.249	91.94
397.474	91.94
397.698	90.94
397.922	84.94
398.147	83.94
398.371	87.94
398.595	91.94
398.82	83.94
399.044	98.94
399.268	78.94
399.492	97.94
399.717	77.94
399.941	76.94
400.165	92.94
400.389	98.94
400.613	95.94
400.837	89.94
401.062	92.94
401.286	71.94
401.51	95.94
401.734	61.94
401.958	104.94
402.182	117.94
402.406	146.94
402.63	117.94
402.854	91.94
403.078	87.94
403.302	93.94
403.526	102.94
403.75	85.94
403.974	103.94
404.198	97.94
404.422	101.94
404.645	87.94
404.869	79.94
405.093	78.94
405.317	106.94
405.541	81.94
405.765	81.94
405.988	119.94
406.212	145.94
406.436	200.94
406.66	139.94
406.883	105.94
407.107	96.94
407.331	93.94
407.555	94.94
407.778	90.94
408.002	79.94
408.226	100.94
408.449	83.94
408.673	99.94
408.896	102.94
409.12	92.94
409.344	87.94
409.567	93.94
409.791	94.94
410.014	87.94
410.238	96.94
410.461	75.94
410.685	101.94
410.908	91.94
411.132	92.94
411.355	101.94
411.578	84.94
411.802	93.94
412.025	93.94
412.249	96.94
412.472	96.94
412.695	87.94
412.919	96.94
413.142	86.94
413.365	100.94
413.589	97.94
413.812	86.94
414.035	78.94
414.258	88.94
414.482	93.94
414.705	94.94
414.928	95.94
415.151	89.94
415.374	94.94
415.597	98.94
415.821	94.94
416.044	88.94
416.267	83.94
416.49	85.94
416.713	88.94
416.936	88.94
417.159	85.94
417.382	91.94
417.605	86.94
417.828	87.94
418.051	99.94
418.274	88.94
418.497	89.94
418.72	87.94
418.943	77.94
419.166	88.94
419.389	91.94
419.611	96.94
419.834	93.94
420.057	88.94
420.28	89.94
420.503	94.94
420.726	81.94
420.948	96.94
421.171	97.94
421.394	90.94
421.617	88.94
421.839	105.94
422.062	91.94
422.285	103.94
422.507	111.94
422.73	104.94
422.953	81.94
423.175	85.94
423.398	87.94
423.621	85.94
423.843	84.94
424.066	84.94
424.288	70.94
424.511	77.94
424.733	102.94
424.956	92.94
425.178	89.94
425.401	96.94
425.623	96.94
425.846	96.94
426.068	78.94
426.291	99.94
426.513	105.94
426.735	97.94
426.958	86.94
427.18	110.94
427.402	135.94
427.625	147.94
427.847	134.94
428.069	102.94
428.292	100.94
428.514	87.94
428.736	94.94
428.958	83.94
429.181	84.94
429.403	76.94
429.625	80.94
429.847	105.94
430.069	96.94
430.292	95.94
430.514	95.94
430.736	78.94
430.958	105.94
431.18	87.94
431.402	85.94
431.624	97.94
431.846	87.94
432.068	93.94
432.29	79.94
432.512	100.94
432.734	91.94
432.956	102.94
433.178	113.94
433.4	101.94
433.622	95.94
433.844	95.94
434.066	102.94
434.287	87.94
434.509	85.94
434.731	97.94
434.953	85.94
435.175	87.94
435.397	108.94
435.618	91.94
435.84	95.94
436.062	121.94
436.284	120.94
436.505	99.94
436.727	109.94
436.949	91.94
437.17	95.94
437.392	99.94
437.614	80.94
437.835	95.94
438.057	101.94
438.278	102.94
438.5	120.94
438.721	113.94
438.943	95.94
439.165	100.94
439.386	96.94
439.608	102.94
439.829	96.94
440.05	132.94
440.272	131.94
440.493	113.94
440.715	94.94
440.936	81.94
441.158	102.94
441.379	84.94
441.6	102.94
441.822	99.94
442.043	95.94
442.264	102.94
442.486	112.94
442.707	92.94
442.928	92.94
443.149	125.94
443.371	124.94
443.592	107.94
443.813	108.94
444.034	105.94
444.255	91.94
444.476	93.94
444.698	109.94
444.919	83.94
445.14	147.94
445.361	117.94
445.582	103.94
445.803	132.94
446.024	136.94
446.245	134.94
446.466	112.94
446.687	77.94
446.908	93.94
447.129	88.94
447.35	92.94
447.571	93.94
447.792	79.94
448.013	93.94
448.234	105.94
448.455	90.94
448.675	116.94
448.896	116.94
449.117	101.94
449.338	100.94
449.559	129.94
449.779	125.94
450	84.94
450.221	100.94
450.442	88.94
450.662	93.94
450.883	105.94
451.104	94.94
451.324	86.94
451.545	92.94
451.766	87.94
451.986	80.94
452.207	104.94
452.428	112.94
452.648	106.94
452.869	114.94
453.089	109.94
453.31	87.94
453.53	93.94
453.751	95.94
453.971	87.94
454.192	111.94
454.412	102.94
454.633	86.94
454.853	99.94
455.073	86.94
455.294	86.94
455.514	113.94
455.734	83.94
455.955	91.94
456.175	99.94
456.395	95.94
456.616	95.94
456.836	94.94
457.056	86.94
457.276	79.94
457.497	83.94
457.717	90.94
457.937	64.94
458.157	88.94
458.377	101.94
458.598	96.94
458.818	149.94
459.038	155.94
459.258	112.94
459.478	91.94
459.698	81.94
459.918	98.94
460.138	88.94
460.358	83.94
460.578	89.94
460.798	100.94
461.018	80.94
461.238	87.94
461.458	92.94
461.678	70.94
461.898	81.94
462.118	75.94
462.338	94.94
462.558	81.94
462.777	96.94
462.997	79.94
463.217	91.94
463.437	82.94
463.657	70.94
463.876	84.94
464.096	79.94
464.316	85.94
464.536	92.94
464.755	88.94
464.975	89.94
465.195	132.94
465.414	136.94
465.634	91.94
465.854	84.94
466.073	94.94
466.293	82.94
466.512	84.94
466.732	89.94
466.951	88.94
467.171	84.94
467.391	99.94
467.61	93.94
467.829	107.94
468.049	98.94
468.268	98.94
468.488	96.94
468.707	84.94
468.927	89.94
469.146	92.94
469.365	89.94
469.585	71.94
469.804	104.94
470.023	91.94
470.243	84.94
470.462	94.94
470.681	99.94
470.901	83.94
471.12	86.94
471.339	85.94
471.558	72.94
471.777	95.94
471.997	103.94
472.216	101.94
472.435	141.94
472.654	87.94
472.873	85.94
473.092	88.94
473.311	110.94
473.53	84.94
473.749	85.94
473.968	79.94
474.187	98.94
474.406	91.94
474.625	93.94
474.844	94.94
475.063	88.94
475.282	96.94
475.501	86.94
475.72	92.94
475.939	103.94
476.158	90.94
476.377	91.94
476.596	86.94
476.814	83.94
477.033	86.94
477.252	92.94
477.471	83.94
477.69	93.94
477.908	86.94
478.127	97.94
478.346	83.94
478.564	91.94
478.783	98.94
479.002	85.94
479.22	94.94
479.439	103.94
479.658	105.94
479.876	96.94
480.095	86.94
480.313	81.94
480.532	96.94
480.751	94.94
480.969	103.94
481.188	167.94
481.406	140.94
481.624	91.94
481.843	89.94
482.061	91.94
482.28	87.94
482.498	87.94
482.717	100.94
482.935	104.94
483.153	99.94
483.372	102.94
483.59	111.94
483.808	91.94
484.027	97.94
484.245	101.94
484.463	76.94
484.681	90.94
484.9	76.94
485.118	102.94
485.336	88.94
485.554	101.94
485.772	95.94
485.99	104.94
486.209	109.94
486.427	100.94
486.645	120.94
486.863	108.94
487.081	96.94
487.299	91.94
487.517	101.94
487.735	84.94
487.953	94.94
488.171	107.94
488.389	102.94
488.607	89.94
488.825	96.94
489.043	95.94
489.261	83.94
489.479	90.94
489.696	83.94
489.914	88.94
490.132	98.94
490.35	102.94
490.568	96.94
490.786	91.94
491.003	77.94
491.221	96.94
491.439	94.94
491.657	86.94
491.874	103.94
492.092	85.94
492.31	90.94
492.527	95.94
492.745	93.94
492.963	90.94
493.18	84.94
493.398	90.94
493.615	89.94
493.833	90.94
494.05	76.94
494.268	88.94
494.485	97.94
494.703	91.94
494.92	85.94
495.138	82.94
495.355	100.94
495.573	104.94
495.79	90.94
496.008	105.94
496.225	95.94
496.442	87.94
496.66	75.94
496.877	81.94
497.094	94.94
497.312	88.94
497.529	86.94
497.746	74.94
497.963	107.94
498.181	99.94
498.398	88.94
498.615	116.94
498.832	96.94
499.049	101.94
499.267	101.94
499.484	99.94
499.701	86.94
499.918	119.94
500.135	93.94
500.352	113.94
500.569	103.94
500.786	86.94
501.003	82.94
501.22	97.94
501.437	79.94
501.654	83.94
501.871	104.94
502.088	97.94
502.305	86.94
502.522	99.94
502.739	85.94
502.956	88.94
503.172	91.94
503.389	86.94
503.606	92.94
503.823	109.94
504.04	99.94
504.256	96.94
504.473	83.94
504.69	87.94
504.907	90.94
505.123	81.94
505.34	97.94
505.557	100.94
505.773	92.94
505.99	80.94
506.207	90.94
506.423	81.94
506.64	85.94
506.856	88.94
507.073	103.94
507.289	79.94
507.506	104.94
507.722	111.94
507.939	104.94
508.155	96.94
508.372	90.94
508.588	83.94
508.805	86.94
509.021	95.94
509.238	88.94
509.454	102.94
509.67	89.94
509.887	114.94
510.103	133.94
510.319	201.94
510.536	703.94
510.752	2192.94
510.968	592.94
511.184	146.94
511.401	99.94
511.617	100.94
511.833	102.94
512.049	99.94
512.265	87.94
512.481	99.94
512.698	96.94
512.914	92.94
513.13	105.94
513.346	89.94
513.562	95.94
513.778	111.94
513.994	104.94
514.21	105.94
514.426	119.94
514.642	114.94
514.858	115.94
515.074	175.94
515.29	406.94
