Data from Uncirc_1990_H10_HRD10591_00045.txt Node
Date: Wed Jan 03 11:54:00 EST 2024
User: Yrep
Spectrometer: HR+D1059
Trigger mode: 1
Integration Time (sec): 1.000000E-1
Scans to average: 1
Electric dark correction enabled: true
Nonlinearity correction enabled: false
Boxcar width: 0
XAxis mode: Wavelengths
Number of Pixels in Spectrum: 2048
>>>>>Begin Spectral Data<<<<<
223.165	-25.38
223.4	-25.38
223.635	-25.38
223.869	-25.38
224.104	-27.38
224.338	-9.38
224.573	-6.38
224.808	-9.38
225.042	-3.38
225.277	1.62
225.511	-4.38
225.746	-5.38
225.98	21.62
226.215	-1.38
226.449	17.62
226.683	14.62
226.918	25.62
227.152	36.62
227.387	37.62
227.621	28.62
227.856	50.62
228.09	53.62
228.324	36.62
228.559	38.62
228.793	69.62
229.027	51.62
229.262	64.62
229.496	68.62
229.73	75.62
229.964	90.62
230.199	81.62
230.433	73.62
230.667	69.62
230.901	89.62
231.136	73.62
231.37	59.62
231.604	76.62
231.838	82.62
232.072	80.62
232.306	85.62
232.541	70.62
232.775	74.62
233.009	78.62
233.243	76.62
233.477	65.62
233.711	84.62
233.945	80.62
234.179	79.62
234.413	81.62
234.647	90.62
234.881	68.62
235.115	72.62
235.349	76.62
235.583	78.62
235.817	83.62
236.051	69.62
236.285	78.62
236.519	86.62
236.753	64.62
236.987	80.62
237.221	72.62
237.455	66.62
237.689	77.62
237.922	77.62
238.156	84.62
238.39	91.62
238.624	81.62
238.858	85.62
239.091	59.62
239.325	78.62
239.559	78.62
239.793	68.62
240.027	64.62
240.26	68.62
240.494	81.62
240.728	80.62
240.961	65.62
241.195	69.62
241.429	77.62
241.662	76.62
241.896	80.62
242.13	70.62
242.363	60.62
242.597	76.62
242.83	81.62
243.064	80.62
243.298	76.62
243.531	78.62
243.765	68.62
243.998	68.62
244.232	80.62
244.465	76.62
244.699	71.62
244.932	82.62
245.166	84.62
245.399	81.62
245.633	81.62
245.866	63.62
246.099	67.62
246.333	74.62
246.566	88.62
246.8	81.62
247.033	76.62
247.266	72.62
247.5	67.62
247.733	84.62
247.966	80.62
248.2	88.62
248.433	81.62
248.666	75.62
248.899	75.62
249.133	89.62
249.366	94.62
249.599	93.62
249.832	82.62
250.066	82.62
250.299	73.62
250.532	74.62
250.765	78.62
250.998	84.62
251.231	88.62
251.465	68.62
251.698	74.62
251.931	79.62
252.164	72.62
252.397	82.62
252.63	76.62
252.863	76.62
253.096	79.62
253.329	80.62
253.562	72.62
253.795	75.62
254.028	78.62
254.261	77.62
254.494	75.62
254.727	80.62
254.96	78.62
255.193	86.62
255.426	78.62
255.659	67.62
255.892	85.62
256.124	64.62
256.357	74.62
256.59	74.62
256.823	63.62
257.056	82.62
257.289	80.62
257.521	79.62
257.754	85.62
257.987	81.62
258.22	78.62
258.452	76.62
258.685	75.62
258.918	76.62
259.151	65.62
259.383	82.62
259.616	85.62
259.849	92.62
260.081	70.62
260.314	72.62
260.547	85.62
260.779	81.62
261.012	68.62
261.244	76.62
261.477	96.62
261.71	106.62
261.942	108.62
262.175	114.62
262.407	65.62
262.64	90.62
262.872	92.62
263.105	80.62
263.337	73.62
263.57	82.62
263.802	77.62
264.035	79.62
264.267	77.62
264.499	81.62
264.732	89.62
264.964	67.62
265.197	74.62
265.429	82.62
265.661	84.62
265.894	68.62
266.126	88.62
266.358	72.62
266.591	69.62
266.823	81.62
267.055	68.62
267.287	78.62
267.52	87.62
267.752	83.62
267.984	80.62
268.216	88.62
268.448	89.62
268.681	85.62
268.913	82.62
269.145	91.62
269.377	76.62
269.609	90.62
269.841	92.62
270.073	72.62
270.306	67.62
270.538	90.62
270.77	84.62
271.002	86.62
271.234	78.62
271.466	100.62
271.698	78.62
271.93	75.62
272.162	85.62
272.394	75.62
272.626	74.62
272.858	92.62
273.09	75.62
273.322	77.62
273.553	85.62
273.785	86.62
274.017	69.62
274.249	78.62
274.481	93.62
274.713	78.62
274.945	75.62
275.176	68.62
275.408	96.62
275.64	85.62
275.872	75.62
276.104	75.62
276.335	79.62
276.567	102.62
276.799	102.62
277.031	100.62
277.262	74.62
277.494	92.62
277.726	85.62
277.957	89.62
278.189	87.62
278.421	79.62
278.652	77.62
278.884	82.62
279.115	88.62
279.347	78.62
279.579	94.62
279.81	88.62
280.042	91.62
280.273	72.62
280.505	85.62
280.736	81.62
280.968	91.62
281.199	81.62
281.431	76.62
281.662	81.62
281.894	84.62
282.125	97.62
282.356	108.62
282.588	131.62
282.819	98.62
283.051	99.62
283.282	76.62
283.513	88.62
283.745	93.62
283.976	81.62
284.207	75.62
284.439	77.62
284.67	84.62
284.901	78.62
285.132	78.62
285.364	87.62
285.595	76.62
285.826	72.62
286.057	77.62
286.288	78.62
286.52	91.62
286.751	90.62
286.982	81.62
287.213	78.62
287.444	80.62
287.675	65.62
287.906	83.62
288.138	77.62
288.369	88.62
288.6	80.62
288.831	83.62
289.062	89.62
289.293	86.62
289.524	93.62
289.755	86.62
289.986	89.62
290.217	81.62
290.448	74.62
290.679	89.62
290.91	82.62
291.141	76.62
291.371	76.62
291.602	91.62
291.833	88.62
292.064	91.62
292.295	86.62
292.526	99.62
292.757	82.62
292.987	91.62
293.218	82.62
293.449	76.62
293.68	85.62
293.91	91.62
294.141	90.62
294.372	100.62
294.603	88.62
294.833	91.62
295.064	79.62
295.295	79.62
295.525	89.62
295.756	92.62
295.987	130.62
296.217	129.62
296.448	105.62
296.679	88.62
296.909	81.62
297.14	81.62
297.37	76.62
297.601	92.62
297.831	84.62
298.062	84.62
298.292	72.62
298.523	82.62
298.753	90.62
298.984	78.62
299.214	77.62
299.445	80.62
299.675	94.62
299.905	91.62
300.136	82.62
300.366	90.62
300.597	85.62
300.827	78.62
301.057	87.62
301.288	90.62
301.518	72.62
301.748	87.62
301.979	93.62
302.209	92.62
302.439	94.62
302.669	74.62
302.9	100.62
303.13	86.62
303.36	97.62
303.59	82.62
303.82	88.62
304.051	78.62
304.281	95.62
304.511	97.62
304.741	82.62
304.971	92.62
305.201	79.62
305.431	95.62
305.661	93.62
305.891	82.62
306.121	102.62
306.352	98.62
306.582	91.62
306.812	68.62
307.042	88.62
307.272	65.62
307.502	85.62
307.731	81.62
307.961	96.62
308.191	95.62
308.421	83.62
308.651	90.62
308.881	95.62
309.111	93.62
309.341	89.62
309.571	85.62
309.8	90.62
310.03	85.62
310.26	80.62
310.49	80.62
310.72	101.62
310.949	101.62
311.179	99.62
311.409	102.62
311.639	77.62
311.868	93.62
312.098	86.62
312.328	92.62
312.557	101.62
312.787	93.62
313.017	92.62
313.246	80.62
313.476	91.62
313.706	95.62
313.935	97.62
314.165	96.62
314.394	109.62
314.624	90.62
314.853	80.62
315.083	101.62
315.312	83.62
315.542	96.62
315.771	92.62
316.001	93.62
316.23	92.62
316.46	73.62
316.689	77.62
316.919	84.62
317.148	81.62
317.377	92.62
317.607	89.62
317.836	99.62
318.065	91.62
318.295	93.62
318.524	91.62
318.753	97.62
318.983	92.62
319.212	100.62
319.441	97.62
319.67	112.62
319.9	91.62
320.129	84.62
320.358	107.62
320.587	96.62
320.816	80.62
321.046	97.62
321.275	93.62
321.504	87.62
321.733	87.62
321.962	107.62
322.191	97.62
322.42	97.62
322.649	101.62
322.878	101.62
323.108	115.62
323.337	107.62
323.566	120.62
323.795	150.62
324.024	185.62
324.253	344.62
324.482	733.62
324.71	1524.62
324.939	2014.62
325.168	768.62
325.397	210.62
325.626	142.62
325.855	120.62
326.084	121.62
326.313	121.62
326.542	159.62
326.77	235.62
326.999	395.62
327.228	848.62
327.457	1552.62
327.686	1267.62
327.914	339.62
328.143	175.62
328.372	138.62
328.6	111.62
328.829	117.62
329.058	104.62
329.287	118.62
329.515	88.62
329.744	101.62
329.972	94.62
330.201	99.62
330.43	107.62
330.658	118.62
330.887	142.62
331.115	110.62
331.344	93.62
331.572	99.62
331.801	101.62
332.03	85.62
332.258	97.62
332.486	93.62
332.715	84.62
332.943	92.62
333.172	91.62
333.4	105.62
333.629	108.62
333.857	102.62
334.085	123.62
334.314	88.62
334.542	97.62
334.771	100.62
334.999	93.62
335.227	85.62
335.455	98.62
335.684	101.62
335.912	89.62
336.14	90.62
336.369	86.62
336.597	94.62
336.825	95.62
337.053	105.62
337.281	88.62
337.51	84.62
337.738	79.62
337.966	78.62
338.194	94.62
338.422	100.62
338.65	101.62
338.878	91.62
339.106	86.62
339.334	85.62
339.562	82.62
339.79	93.62
340.018	79.62
340.246	84.62
340.474	102.62
340.702	107.62
340.93	88.62
341.158	89.62
341.386	87.62
341.614	80.62
341.842	89.62
342.07	77.62
342.298	84.62
342.526	79.62
342.754	92.62
342.981	76.62
343.209	84.62
343.437	93.62
343.665	99.62
343.893	84.62
344.12	100.62
344.348	77.62
344.576	91.62
344.804	92.62
345.031	88.62
345.259	76.62
345.487	99.62
345.714	94.62
345.942	94.62
346.17	85.62
346.397	88.62
346.625	106.62
346.853	92.62
347.08	87.62
347.308	97.62
347.535	79.62
347.763	97.62
347.99	91.62
348.218	88.62
348.445	97.62
348.673	105.62
348.9	99.62
349.128	80.62
349.355	78.62
349.583	88.62
349.81	92.62
350.037	89.62
350.265	84.62
350.492	82.62
350.72	98.62
350.947	99.62
351.174	99.62
351.402	97.62
351.629	101.62
351.856	90.62
352.083	106.62
352.311	88.62
352.538	102.62
352.765	102.62
352.992	108.62
353.22	109.62
353.447	96.62
353.674	116.62
353.901	100.62
354.128	93.62
354.355	76.62
354.583	84.62
354.81	104.62
355.037	92.62
355.264	90.62
355.491	85.62
355.718	95.62
355.945	97.62
356.172	92.62
356.399	92.62
356.626	96.62
356.853	93.62
357.08	95.62
357.307	87.62
357.534	87.62
357.761	84.62
357.988	110.62
358.215	95.62
358.441	95.62
358.668	92.62
358.895	88.62
359.122	85.62
359.349	90.62
359.576	86.62
359.802	103.62
360.029	117.62
360.256	102.62
360.483	79.62
360.709	98.62
360.936	85.62
361.163	82.62
361.39	84.62
361.616	82.62
361.843	85.62
362.07	87.62
362.296	100.62
362.523	95.62
362.749	83.62
362.976	88.62
363.203	88.62
363.429	91.62
363.656	83.62
363.882	76.62
364.109	90.62
364.335	81.62
364.562	83.62
364.788	85.62
365.015	88.62
365.241	91.62
365.468	101.62
365.694	108.62
365.92	94.62
366.147	96.62
366.373	80.62
366.599	92.62
366.826	90.62
367.052	83.62
367.278	85.62
367.505	94.62
367.731	105.62
367.957	106.62
368.184	95.62
368.41	90.62
368.636	102.62
368.862	106.62
369.089	100.62
369.315	84.62
369.541	86.62
369.767	83.62
369.993	81.62
370.219	100.62
370.445	86.62
370.672	92.62
370.898	82.62
371.124	82.62
371.35	103.62
371.576	77.62
371.802	92.62
372.028	81.62
372.254	91.62
372.48	98.62
372.706	82.62
372.932	78.62
373.158	85.62
373.384	90.62
373.61	83.62
373.835	93.62
374.061	78.62
374.287	77.62
374.513	93.62
374.739	83.62
374.965	85.62
375.191	80.62
375.416	84.62
375.642	87.62
375.868	91.62
376.094	84.62
376.319	98.62
376.545	93.62
376.771	92.62
376.997	84.62
377.222	86.62
377.448	88.62
377.674	82.62
377.899	90.62
378.125	98.62
378.35	93.62
378.576	94.62
378.802	94.62
379.027	90.62
379.253	87.62
379.478	89.62
379.704	86.62
379.929	81.62
380.155	80.62
380.38	93.62
380.606	78.62
380.831	87.62
381.057	94.62
381.282	89.62
381.507	82.62
381.733	96.62
381.958	86.62
382.184	90.62
382.409	100.62
382.634	88.62
382.86	100.62
383.085	86.62
383.31	81.62
383.535	108.62
383.761	96.62
383.986	100.62
384.211	95.62
384.436	88.62
384.662	85.62
384.887	94.62
385.112	108.62
385.337	95.62
385.562	100.62
385.787	102.62
386.013	104.62
386.238	120.62
386.463	101.62
386.688	100.62
386.913	91.62
387.138	115.62
387.363	84.62
387.588	102.62
387.813	94.62
388.038	97.62
388.263	120.62
388.488	93.62
388.713	90.62
388.938	92.62
389.163	115.62
389.387	91.62
389.612	105.62
389.837	96.62
390.062	90.62
390.287	86.62
390.512	96.62
390.736	83.62
390.961	97.62
391.186	99.62
391.411	95.62
391.636	96.62
391.86	81.62
392.085	81.62
392.31	90.62
392.534	74.62
392.759	88.62
392.984	83.62
393.208	85.62
393.433	81.62
393.658	88.62
393.882	80.62
394.107	82.62
394.331	89.62
394.556	78.62
394.78	93.62
395.005	81.62
395.229	98.62
395.454	82.62
395.678	98.62
395.903	81.62
396.127	84.62
396.352	97.62
396.576	91.62
396.801	93.62
397.025	72.62
397.249	88.62
397.474	90.62
397.698	68.62
397.922	86.62
398.147	86.62
398.371	85.62
398.595	74.62
398.82	88.62
399.044	89.62
399.268	72.62
399.492	83.62
399.717	97.62
399.941	95.62
400.165	100.62
400.389	92.62
400.613	68.62
400.837	77.62
401.062	82.62
401.286	75.62
401.51	87.62
401.734	86.62
401.958	91.62
402.182	113.62
402.406	141.62
402.63	103.62
402.854	92.62
403.078	81.62
403.302	87.62
403.526	89.62
403.75	87.62
403.974	82.62
404.198	85.62
404.422	77.62
404.645	84.62
404.869	96.62
405.093	97.62
405.317	91.62
405.541	106.62
405.765	97.62
405.988	109.62
406.212	145.62
406.436	212.62
406.66	132.62
406.883	89.62
407.107	80.62
407.331	83.62
407.555	94.62
407.778	97.62
408.002	83.62
408.226	85.62
408.449	87.62
408.673	91.62
408.896	95.62
409.12	78.62
409.344	93.62
409.567	87.62
409.791	81.62
410.014	95.62
410.238	101.62
410.461	85.62
410.685	101.62
410.908	101.62
411.132	105.62
411.355	98.62
411.578	80.62
411.802	87.62
412.025	90.62
412.249	79.62
412.472	96.62
412.695	93.62
412.919	77.62
413.142	91.62
413.365	90.62
413.589	83.62
413.812	89.62
414.035	99.62
414.258	91.62
414.482	93.62
414.705	89.62
414.928	94.62
415.151	96.62
415.374	90.62
415.597	88.62
415.821	86.62
416.044	82.62
416.267	80.62
416.49	90.62
416.713	95.62
416.936	63.62
417.159	73.62
417.382	79.62
417.605	89.62
417.828	83.62
418.051	82.62
418.274	85.62
418.497	88.62
418.72	77.62
418.943	92.62
419.166	85.62
419.389	99.62
419.611	97.62
419.834	86.62
420.057	87.62
420.28	94.62
420.503	80.62
420.726	97.62
420.948	81.62
421.171	79.62
421.394	96.62
421.617	76.62
421.839	87.62
422.062	96.62
422.285	94.62
422.507	99.62
422.73	78.62
422.953	93.62
423.175	91.62
423.398	92.62
423.621	91.62
423.843	75.62
424.066	87.62
424.288	92.62
424.511	88.62
424.733	93.62
424.956	103.62
425.178	86.62
425.401	88.62
425.623	98.62
425.846	89.62
426.068	96.62
426.291	84.62
426.513	78.62
426.735	102.62
426.958	109.62
427.18	103.62
427.402	125.62
427.625	134.62
427.847	100.62
428.069	114.62
428.292	85.62
428.514	86.62
428.736	76.62
428.958	89.62
429.181	70.62
429.403	73.62
429.625	73.62
429.847	93.62
430.069	102.62
430.292	92.62
430.514	76.62
430.736	94.62
430.958	84.62
431.18	85.62
431.402	88.62
431.624	82.62
431.846	96.62
432.068	84.62
432.29	85.62
432.512	89.62
432.734	89.62
432.956	85.62
433.178	95.62
433.4	103.62
433.622	88.62
433.844	94.62
434.066	89.62
434.287	100.62
434.509	84.62
434.731	100.62
434.953	79.62
435.175	87.62
435.397	81.62
435.618	75.62
435.84	93.62
436.062	112.62
436.284	111.62
436.505	101.62
436.727	99.62
436.949	82.62
437.17	81.62
437.392	76.62
437.614	80.62
437.835	97.62
438.057	118.62
438.278	115.62
438.5	107.62
438.721	108.62
438.943	98.62
439.165	81.62
439.386	86.62
439.608	96.62
439.829	93.62
440.05	111.62
440.272	124.62
440.493	83.62
440.715	100.62
440.936	94.62
441.158	103.62
441.379	88.62
441.6	100.62
441.822	90.62
442.043	93.62
442.264	106.62
442.486	91.62
442.707	89.62
442.928	100.62
443.149	106.62
443.371	130.62
443.592	97.62
443.813	102.62
444.034	96.62
444.255	92.62
444.476	79.62
444.698	82.62
444.919	98.62
445.14	125.62
445.361	130.62
445.582	105.62
445.803	113.62
446.024	124.62
446.245	130.62
446.466	114.62
446.687	78.62
446.908	96.62
447.129	93.62
447.35	83.62
447.571	86.62
447.792	86.62
448.013	85.62
448.234	94.62
448.455	84.62
448.675	107.62
448.896	103.62
449.117	92.62
449.338	86.62
449.559	124.62
449.779	117.62
450	85.62
450.221	68.62
450.442	80.62
450.662	97.62
450.883	104.62
451.104	111.62
451.324	85.62
451.545	81.62
451.766	86.62
451.986	83.62
452.207	93.62
452.428	80.62
452.648	112.62
452.869	109.62
453.089	117.62
453.31	92.62
453.53	89.62
453.751	79.62
453.971	102.62
454.192	105.62
454.412	99.62
454.633	79.62
454.853	84.62
455.073	78.62
455.294	96.62
455.514	89.62
455.734	94.62
455.955	87.62
456.175	88.62
456.395	88.62
456.616	75.62
456.836	74.62
457.056	83.62
457.276	76.62
457.497	99.62
457.717	95.62
457.937	96.62
458.157	87.62
458.377	86.62
458.598	102.62
458.818	140.62
459.038	141.62
459.258	106.62
459.478	86.62
459.698	86.62
459.918	86.62
460.138	79.62
460.358	84.62
460.578	94.62
460.798	84.62
461.018	77.62
461.238	85.62
461.458	93.62
461.678	91.62
461.898	82.62
462.118	85.62
462.338	79.62
462.558	66.62
462.777	76.62
462.997	88.62
463.217	87.62
463.437	86.62
463.657	80.62
463.876	98.62
464.096	87.62
464.316	101.62
464.536	84.62
464.755	89.62
464.975	94.62
465.195	149.62
465.414	127.62
465.634	89.62
465.854	87.62
466.073	88.62
466.293	102.62
466.512	82.62
466.732	82.62
466.951	72.62
467.171	90.62
467.391	84.62
467.61	92.62
467.829	101.62
468.049	94.62
468.268	99.62
468.488	83.62
468.707	78.62
468.927	83.62
469.146	74.62
469.365	95.62
469.585	77.62
469.804	100.62
470.023	89.62
470.243	89.62
470.462	102.62
470.681	88.62
470.901	88.62
471.12	83.62
471.339	80.62
471.558	82.62
471.777	82.62
471.997	84.62
472.216	95.62
472.435	76.62
472.654	78.62
472.873	84.62
473.092	89.62
473.311	90.62
473.53	67.62
473.749	98.62
473.968	97.62
474.187	83.62
474.406	88.62
474.625	79.62
474.844	87.62
475.063	75.62
475.282	85.62
475.501	84.62
475.72	78.62
475.939	90.62
476.158	78.62
476.377	86.62
476.596	86.62
476.814	96.62
477.033	85.62
477.252	77.62
477.471	103.62
477.69	94.62
477.908	93.62
478.127	92.62
478.346	88.62
478.564	92.62
478.783	91.62
479.002	97.62
479.22	84.62
479.439	98.62
479.658	84.62
479.876	74.62
480.095	88.62
480.313	96.62
480.532	93.62
480.751	91.62
480.969	84.62
481.188	101.62
481.406	107.62
481.624	105.62
481.843	73.62
482.061	89.62
482.28	80.62
482.498	89.62
482.717	81.62
482.935	80.62
483.153	86.62
483.372	94.62
483.59	96.62
483.808	75.62
484.027	78.62
484.245	84.62
484.463	78.62
484.681	91.62
484.9	109.62
485.118	90.62
485.336	83.62
485.554	88.62
485.772	94.62
485.99	91.62
486.209	96.62
486.427	105.62
486.645	111.62
486.863	93.62
487.081	100.62
487.299	92.62
487.517	92.62
487.735	97.62
487.953	93.62
488.171	97.62
488.389	91.62
488.607	98.62
488.825	92.62
489.043	86.62
489.261	83.62
489.479	99.62
489.696	85.62
489.914	64.62
490.132	93.62
490.35	93.62
490.568	83.62
490.786	88.62
491.003	78.62
491.221	83.62
491.439	90.62
491.657	93.62
491.874	77.62
492.092	83.62
492.31	74.62
492.527	92.62
492.745	96.62
492.963	91.62
493.18	64.62
493.398	88.62
493.615	89.62
493.833	88.62
494.05	101.62
494.268	80.62
494.485	83.62
494.703	80.62
494.92	91.62
495.138	92.62
495.355	99.62
495.573	84.62
495.79	75.62
496.008	93.62
496.225	83.62
496.442	83.62
496.66	96.62
496.877	88.62
497.094	96.62
497.312	73.62
497.529	88.62
497.746	96.62
497.963	90.62
498.181	87.62
498.398	81.62
498.615	101.62
498.832	106.62
499.049	92.62
499.267	82.62
499.484	78.62
499.701	83.62
499.918	92.62
500.135	84.62
500.352	69.62
500.569	92.62
500.786	88.62
501.003	73.62
501.22	83.62
501.437	90.62
501.654	99.62
501.871	91.62
502.088	78.62
502.305	94.62
502.522	82.62
502.739	89.62
502.956	86.62
503.172	89.62
503.389	87.62
503.606	113.62
503.823	88.62
504.04	87.62
504.256	105.62
504.473	93.62
504.69	85.62
504.907	88.62
505.123	88.62
505.34	88.62
505.557	78.62
505.773	90.62
505.99	98.62
506.207	83.62
506.423	77.62
506.64	88.62
506.856	96.62
507.073	84.62
507.289	65.62
507.506	77.62
507.722	117.62
507.939	103.62
508.155	103.62
508.372	90.62
508.588	84.62
508.805	86.62
509.021	76.62
509.238	90.62
509.454	95.62
509.67	94.62
509.887	104.62
510.103	117.62
510.319	195.62
510.536	675.62
510.752	2156.62
510.968	599.62
511.184	145.62
511.401	116.62
511.617	91.62
511.833	77.62
512.049	86.62
512.265	81.62
512.481	95.62
512.698	86.62
512.914	85.62
513.13	78.62
513.346	97.62
513.562	88.62
513.778	94.62
513.994	105.62
514.21	98.62
514.426	110.62
514.642	125.62
514.858	112.62
515.074	159.62
515.29	385.62
515.506	1279.62
515.721	467.62
515.937	150.62
516.153	117.62
516.369	86.62
516.585	91.62
516.801	88.62
517.016	87.62
