Data from Uncirc_1990_H10_HRD10591_00012.txt Node
Date: Wed Jan 03 11:53:54 EST 2024
User: Yrep
Spectrometer: HR+D1059
Trigger mode: 1
Integration Time (sec): 1.000000E-1
Scans to average: 1
Electric dark correction enabled: true
Nonlinearity correction enabled: false
Boxcar width: 0
XAxis mode: Wavelengths
Number of Pixels in Spectrum: 2048
>>>>>Begin Spectral Data<<<<<
223.165	-8.81
223.4	-8.81
223.635	-8.81
223.869	-32.81
224.104	-16.81
224.338	-4.81
224.573	-19.81
224.808	-13.81
225.042	-4.81
225.277	-9.81
225.511	0.19
225.746	19.19
225.98	-4.81
226.215	12.19
226.449	15.19
226.683	20.19
226.918	25.19
227.152	24.19
227.387	42.19
227.621	35.19
227.856	41.19
228.09	56.19
228.324	58.19
228.559	46.19
228.793	55.19
229.027	62.19
229.262	66.19
229.496	82.19
229.73	67.19
229.964	89.19
230.199	95.19
230.433	75.19
230.667	82.19
230.901	72.19
231.136	81.19
231.37	79.19
231.604	85.19
231.838	70.19
232.072	73.19
232.306	89.19
232.541	72.19
232.775	80.19
233.009	89.19
233.243	78.19
233.477	89.19
233.711	96.19
233.945	90.19
234.179	90.19
234.413	78.19
234.647	77.19
234.881	87.19
235.115	90.19
235.349	82.19
235.583	75.19
235.817	77.19
236.051	71.19
236.285	86.19
236.519	72.19
236.753	77.19
236.987	77.19
237.221	83.19
237.455	86.19
237.689	66.19
237.922	87.19
238.156	87.19
238.39	73.19
238.624	90.19
238.858	79.19
239.091	72.19
239.325	82.19
239.559	83.19
239.793	89.19
240.027	78.19
240.26	74.19
240.494	81.19
240.728	70.19
240.961	91.19
241.195	70.19
241.429	73.19
241.662	74.19
241.896	58.19
242.13	74.19
242.363	80.19
242.597	81.19
242.83	77.19
243.064	77.19
243.298	84.19
243.531	89.19
243.765	74.19
243.998	73.19
244.232	69.19
244.465	81.19
244.699	85.19
244.932	70.19
245.166	70.19
245.399	75.19
245.633	79.19
245.866	77.19
246.099	67.19
246.333	79.19
246.566	84.19
246.8	85.19
247.033	69.19
247.266	88.19
247.5	75.19
247.733	69.19
247.966	88.19
248.2	88.19
248.433	103.19
248.666	75.19
248.899	85.19
249.133	87.19
249.366	95.19
249.599	104.19
249.832	85.19
250.066	93.19
250.299	98.19
250.532	88.19
250.765	88.19
250.998	88.19
251.231	90.19
251.465	75.19
251.698	88.19
251.931	86.19
252.164	86.19
252.397	86.19
252.63	85.19
252.863	80.19
253.096	82.19
253.329	87.19
253.562	82.19
253.795	82.19
254.028	77.19
254.261	63.19
254.494	83.19
254.727	81.19
254.96	86.19
255.193	83.19
255.426	87.19
255.659	82.19
255.892	69.19
256.124	85.19
256.357	83.19
256.59	82.19
256.823	84.19
257.056	84.19
257.289	90.19
257.521	81.19
257.754	85.19
257.987	71.19
258.22	78.19
258.452	78.19
258.685	101.19
258.918	79.19
259.151	84.19
259.383	75.19
259.616	82.19
259.849	92.19
260.081	71.19
260.314	77.19
260.547	88.19
260.779	88.19
261.012	85.19
261.244	90.19
261.477	91.19
261.71	79.19
261.942	96.19
262.175	112.19
262.407	88.19
262.64	86.19
262.872	83.19
263.105	83.19
263.337	93.19
263.57	76.19
263.802	81.19
264.035	86.19
264.267	94.19
264.499	83.19
264.732	79.19
264.964	67.19
265.197	73.19
265.429	93.19
265.661	89.19
265.894	77.19
266.126	74.19
266.358	81.19
266.591	81.19
266.823	91.19
267.055	83.19
267.287	79.19
267.52	86.19
267.752	75.19
267.984	89.19
268.216	80.19
268.448	94.19
268.681	84.19
268.913	86.19
269.145	93.19
269.377	88.19
269.609	78.19
269.841	85.19
270.073	91.19
270.306	97.19
270.538	90.19
270.77	87.19
271.002	102.19
271.234	92.19
271.466	94.19
271.698	73.19
271.93	95.19
272.162	91.19
272.394	89.19
272.626	83.19
272.858	80.19
273.09	90.19
273.322	93.19
273.553	86.19
273.785	74.19
274.017	85.19
274.249	77.19
274.481	89.19
274.713	85.19
274.945	81.19
275.176	66.19
275.408	89.19
275.64	94.19
275.872	87.19
276.104	88.19
276.335	82.19
276.567	89.19
276.799	99.19
277.031	89.19
277.262	84.19
277.494	89.19
277.726	89.19
277.957	79.19
278.189	88.19
278.421	75.19
278.652	89.19
278.884	95.19
279.115	77.19
279.347	85.19
279.579	99.19
279.81	87.19
280.042	69.19
280.273	79.19
280.505	74.19
280.736	80.19
280.968	89.19
281.199	100.19
281.431	85.19
281.662	89.19
281.894	101.19
282.125	78.19
282.356	122.19
282.588	132.19
282.819	105.19
283.051	87.19
283.282	94.19
283.513	93.19
283.745	92.19
283.976	91.19
284.207	85.19
284.439	80.19
284.67	95.19
284.901	87.19
285.132	87.19
285.364	75.19
285.595	87.19
285.826	84.19
286.057	81.19
286.288	82.19
286.52	78.19
286.751	94.19
286.982	88.19
287.213	86.19
287.444	87.19
287.675	88.19
287.906	93.19
288.138	98.19
288.369	91.19
288.6	93.19
288.831	95.19
289.062	89.19
289.293	87.19
289.524	87.19
289.755	83.19
289.986	95.19
290.217	77.19
290.448	79.19
290.679	99.19
290.91	103.19
291.141	85.19
291.371	99.19
291.602	81.19
291.833	90.19
292.064	83.19
292.295	98.19
292.526	106.19
292.757	82.19
292.987	94.19
293.218	93.19
293.449	95.19
293.68	86.19
293.91	93.19
294.141	72.19
294.372	96.19
294.603	97.19
294.833	78.19
295.064	82.19
295.295	96.19
295.525	93.19
295.756	90.19
295.987	109.19
296.217	137.19
296.448	115.19
296.679	93.19
296.909	87.19
297.14	102.19
297.37	104.19
297.601	91.19
297.831	91.19
298.062	94.19
298.292	81.19
298.523	72.19
298.753	92.19
298.984	97.19
299.214	101.19
299.445	98.19
299.675	74.19
299.905	91.19
300.136	94.19
300.366	92.19
300.597	94.19
300.827	95.19
301.057	101.19
301.288	94.19
301.518	81.19
301.748	94.19
301.979	101.19
302.209	79.19
302.439	85.19
302.669	92.19
302.9	91.19
303.13	94.19
303.36	93.19
303.59	114.19
303.82	96.19
304.051	98.19
304.281	89.19
304.511	103.19
304.741	97.19
304.971	97.19
305.201	90.19
305.431	82.19
305.661	89.19
305.891	88.19
306.121	89.19
306.352	100.19
306.582	104.19
306.812	94.19
307.042	86.19
307.272	96.19
307.502	86.19
307.731	91.19
307.961	97.19
308.191	94.19
308.421	95.19
308.651	89.19
308.881	81.19
309.111	88.19
309.341	89.19
309.571	103.19
309.8	95.19
310.03	99.19
310.26	87.19
310.49	99.19
310.72	82.19
310.949	97.19
311.179	94.19
311.409	98.19
311.639	98.19
311.868	93.19
312.098	96.19
312.328	86.19
312.557	104.19
312.787	97.19
313.017	83.19
313.246	91.19
313.476	81.19
313.706	90.19
313.935	90.19
314.165	105.19
314.394	106.19
314.624	107.19
314.853	97.19
315.083	94.19
315.312	86.19
315.542	89.19
315.771	93.19
316.001	93.19
316.23	90.19
316.46	90.19
316.689	97.19
316.919	73.19
317.148	97.19
317.377	102.19
317.607	96.19
317.836	91.19
318.065	99.19
318.295	93.19
318.524	79.19
318.753	88.19
318.983	95.19
319.212	96.19
319.441	101.19
319.67	91.19
319.9	107.19
320.129	111.19
320.358	88.19
320.587	85.19
320.816	108.19
321.046	98.19
321.275	104.19
321.504	101.19
321.733	86.19
321.962	103.19
322.191	119.19
322.42	95.19
322.649	106.19
322.878	112.19
323.108	119.19
323.337	113.19
323.566	132.19
323.795	142.19
324.024	208.19
324.253	367.19
324.482	740.19
324.71	1512.19
324.939	2016.19
325.168	737.19
325.397	223.19
325.626	160.19
325.855	118.19
326.084	110.19
326.313	140.19
326.542	145.19
326.77	222.19
326.999	423.19
327.228	853.19
327.457	1554.19
327.686	1298.19
327.914	338.19
328.143	183.19
328.372	146.19
328.6	117.19
328.829	119.19
329.058	113.19
329.287	120.19
329.515	104.19
329.744	99.19
329.972	91.19
330.201	94.19
330.43	92.19
330.658	118.19
330.887	129.19
331.115	114.19
331.344	109.19
331.572	105.19
331.801	97.19
332.03	104.19
332.258	100.19
332.486	88.19
332.715	105.19
332.943	95.19
333.172	91.19
333.4	104.19
333.629	113.19
333.857	95.19
334.085	91.19
334.314	105.19
334.542	91.19
334.771	89.19
334.999	98.19
335.227	106.19
335.455	100.19
335.684	93.19
335.912	87.19
336.14	111.19
336.369	99.19
336.597	102.19
336.825	103.19
337.053	95.19
337.281	92.19
337.51	93.19
337.738	98.19
337.966	82.19
338.194	105.19
338.422	106.19
338.65	93.19
338.878	89.19
339.106	100.19
339.334	112.19
339.562	86.19
339.79	97.19
340.018	93.19
340.246	97.19
340.474	109.19
340.702	93.19
340.93	80.19
341.158	88.19
341.386	106.19
341.614	84.19
341.842	91.19
342.07	86.19
342.298	80.19
342.526	91.19
342.754	91.19
342.981	101.19
343.209	90.19
343.437	102.19
343.665	100.19
343.893	93.19
344.12	89.19
344.348	121.19
344.576	89.19
344.804	81.19
345.031	90.19
345.259	89.19
345.487	105.19
345.714	110.19
345.942	100.19
346.17	91.19
346.397	81.19
346.625	103.19
346.853	100.19
347.08	91.19
347.308	89.19
347.535	92.19
347.763	101.19
347.99	109.19
348.218	104.19
348.445	97.19
348.673	96.19
348.9	91.19
349.128	91.19
349.355	90.19
349.583	94.19
349.81	92.19
350.037	84.19
350.265	105.19
350.492	106.19
350.72	95.19
350.947	99.19
351.174	109.19
351.402	100.19
351.629	94.19
351.856	98.19
352.083	111.19
352.311	103.19
352.538	105.19
352.765	109.19
352.992	123.19
353.22	102.19
353.447	97.19
353.674	116.19
353.901	97.19
354.128	91.19
354.355	107.19
354.583	116.19
354.81	111.19
355.037	94.19
355.264	89.19
355.491	86.19
355.718	105.19
355.945	97.19
356.172	102.19
356.399	92.19
356.626	100.19
356.853	94.19
357.08	109.19
357.307	106.19
357.534	97.19
357.761	87.19
357.988	100.19
358.215	93.19
358.441	93.19
358.668	89.19
358.895	94.19
359.122	88.19
359.349	91.19
359.576	102.19
359.802	107.19
360.029	104.19
360.256	109.19
360.483	115.19
360.709	88.19
360.936	94.19
361.163	105.19
361.39	96.19
361.616	106.19
361.843	90.19
362.07	103.19
362.296	98.19
362.523	98.19
362.749	86.19
362.976	84.19
363.203	98.19
363.429	103.19
363.656	100.19
363.882	87.19
364.109	94.19
364.335	105.19
364.562	105.19
364.788	102.19
365.015	102.19
365.241	97.19
365.468	102.19
365.694	99.19
365.92	93.19
366.147	82.19
366.373	94.19
366.599	86.19
366.826	77.19
367.052	81.19
367.278	98.19
367.505	89.19
367.731	86.19
367.957	97.19
368.184	89.19
368.41	93.19
368.636	101.19
368.862	107.19
369.089	115.19
369.315	91.19
369.541	99.19
369.767	94.19
369.993	105.19
370.219	84.19
370.445	72.19
370.672	89.19
370.898	93.19
371.124	95.19
371.35	102.19
371.576	90.19
371.802	91.19
372.028	106.19
372.254	86.19
372.48	82.19
372.706	94.19
372.932	94.19
373.158	101.19
373.384	90.19
373.61	95.19
373.835	97.19
374.061	97.19
374.287	92.19
374.513	93.19
374.739	89.19
374.965	95.19
375.191	96.19
375.416	84.19
375.642	99.19
375.868	77.19
376.094	94.19
376.319	89.19
376.545	77.19
376.771	93.19
376.997	78.19
377.222	80.19
377.448	93.19
377.674	111.19
377.899	83.19
378.125	83.19
378.35	87.19
378.576	86.19
378.802	95.19
379.027	86.19
379.253	92.19
379.478	97.19
379.704	103.19
379.929	103.19
380.155	103.19
380.38	90.19
380.606	98.19
380.831	92.19
381.057	106.19
381.282	102.19
381.507	98.19
381.733	101.19
381.958	95.19
382.184	113.19
382.409	92.19
382.634	93.19
382.86	100.19
383.085	94.19
383.31	91.19
383.535	95.19
383.761	99.19
383.986	113.19
384.211	92.19
384.436	103.19
384.662	104.19
384.887	96.19
385.112	94.19
385.337	111.19
385.562	88.19
385.787	110.19
386.013	94.19
386.238	107.19
386.463	98.19
386.688	113.19
386.913	101.19
387.138	107.19
387.363	100.19
387.588	101.19
387.813	102.19
388.038	100.19
388.263	106.19
388.488	101.19
388.713	104.19
388.938	94.19
389.163	105.19
389.387	104.19
389.612	90.19
389.837	89.19
390.062	88.19
390.287	87.19
390.512	90.19
390.736	94.19
390.961	97.19
391.186	95.19
391.411	103.19
391.636	86.19
391.86	86.19
392.085	78.19
392.31	87.19
392.534	75.19
392.759	85.19
392.984	89.19
393.208	93.19
393.433	96.19
393.658	86.19
393.882	86.19
394.107	93.19
394.331	87.19
394.556	95.19
394.78	90.19
395.005	96.19
395.229	84.19
395.454	71.19
395.678	69.19
395.903	94.19
396.127	87.19
396.352	77.19
396.576	88.19
396.801	106.19
397.025	83.19
397.249	90.19
397.474	92.19
397.698	87.19
397.922	94.19
398.147	101.19
398.371	88.19
398.595	91.19
398.82	86.19
399.044	87.19
399.268	83.19
399.492	88.19
399.717	89.19
399.941	82.19
400.165	107.19
400.389	102.19
400.613	81.19
400.837	102.19
401.062	93.19
401.286	93.19
401.51	94.19
401.734	92.19
401.958	96.19
402.182	113.19
402.406	144.19
402.63	122.19
402.854	87.19
403.078	96.19
403.302	88.19
403.526	91.19
403.75	84.19
403.974	87.19
404.198	89.19
404.422	94.19
404.645	91.19
404.869	95.19
405.093	100.19
405.317	93.19
405.541	102.19
405.765	103.19
405.988	120.19
406.212	146.19
406.436	173.19
406.66	118.19
406.883	94.19
407.107	98.19
407.331	95.19
407.555	112.19
407.778	99.19
408.002	97.19
408.226	93.19
408.449	80.19
408.673	76.19
408.896	106.19
409.12	88.19
409.344	79.19
409.567	86.19
409.791	106.19
410.014	101.19
410.238	102.19
410.461	83.19
410.685	97.19
410.908	95.19
411.132	114.19
411.355	97.19
411.578	108.19
411.802	81.19
412.025	90.19
412.249	96.19
412.472	94.19
412.695	86.19
412.919	83.19
413.142	86.19
413.365	88.19
413.589	94.19
413.812	85.19
414.035	101.19
414.258	97.19
414.482	92.19
414.705	90.19
414.928	88.19
415.151	90.19
415.374	99.19
415.597	91.19
415.821	94.19
416.044	87.19
416.267	89.19
416.49	74.19
416.713	81.19
416.936	85.19
417.159	93.19
417.382	103.19
417.605	98.19
417.828	101.19
418.051	96.19
418.274	89.19
418.497	89.19
418.72	89.19
418.943	94.19
419.166	87.19
419.389	81.19
419.611	94.19
419.834	77.19
420.057	78.19
420.28	84.19
420.503	94.19
420.726	97.19
420.948	82.19
421.171	97.19
421.394	86.19
421.617	87.19
421.839	96.19
422.062	105.19
422.285	102.19
422.507	89.19
422.73	106.19
422.953	105.19
423.175	89.19
423.398	89.19
423.621	82.19
423.843	97.19
424.066	79.19
424.288	74.19
424.511	111.19
424.733	99.19
424.956	90.19
425.178	98.19
425.401	97.19
425.623	98.19
425.846	87.19
426.068	101.19
426.291	103.19
426.513	97.19
426.735	100.19
426.958	103.19
427.18	97.19
427.402	117.19
427.625	143.19
427.847	117.19
428.069	102.19
428.292	105.19
428.514	89.19
428.736	89.19
428.958	74.19
429.181	105.19
429.403	97.19
429.625	77.19
429.847	91.19
430.069	80.19
430.292	84.19
430.514	94.19
430.736	72.19
430.958	82.19
431.18	78.19
431.402	87.19
431.624	87.19
431.846	86.19
432.068	99.19
432.29	91.19
432.512	87.19
432.734	103.19
432.956	94.19
433.178	91.19
433.4	100.19
433.622	85.19
433.844	96.19
434.066	95.19
434.287	101.19
434.509	104.19
434.731	99.19
434.953	84.19
435.175	78.19
435.397	94.19
435.618	95.19
435.84	96.19
436.062	115.19
436.284	109.19
436.505	105.19
436.727	103.19
436.949	108.19
437.17	83.19
437.392	88.19
437.614	84.19
437.835	88.19
438.057	100.19
438.278	113.19
438.5	112.19
438.721	114.19
438.943	105.19
439.165	87.19
439.386	92.19
439.608	91.19
439.829	84.19
440.05	118.19
440.272	125.19
440.493	100.19
440.715	83.19
440.936	87.19
441.158	93.19
441.379	89.19
441.6	99.19
441.822	82.19
442.043	96.19
442.264	100.19
442.486	86.19
442.707	85.19
442.928	103.19
443.149	110.19
443.371	114.19
443.592	118.19
443.813	114.19
444.034	116.19
444.255	111.19
444.476	105.19
444.698	95.19
444.919	90.19
445.14	135.19
445.361	113.19
445.582	104.19
445.803	121.19
446.024	119.19
446.245	139.19
446.466	110.19
446.687	91.19
446.908	93.19
447.129	88.19
447.35	82.19
447.571	85.19
447.792	106.19
448.013	93.19
448.234	101.19
448.455	101.19
448.675	107.19
448.896	122.19
449.117	97.19
449.338	106.19
449.559	125.19
449.779	133.19
450	94.19
450.221	80.19
450.442	91.19
450.662	86.19
450.883	104.19
451.104	99.19
451.324	100.19
451.545	85.19
451.766	102.19
451.986	83.19
452.207	90.19
452.428	90.19
452.648	91.19
452.869	94.19
453.089	117.19
453.31	113.19
453.53	88.19
453.751	105.19
453.971	88.19
454.192	101.19
454.412	99.19
454.633	68.19
454.853	97.19
455.073	101.19
455.294	96.19
455.514	103.19
455.734	97.19
455.955	86.19
456.175	98.19
456.395	87.19
456.616	87.19
456.836	80.19
457.056	83.19
457.276	89.19
457.497	81.19
457.717	109.19
457.937	93.19
458.157	88.19
458.377	81.19
458.598	103.19
458.818	119.19
459.038	132.19
459.258	115.19
459.478	104.19
459.698	75.19
459.918	96.19
460.138	88.19
460.358	77.19
460.578	94.19
460.798	91.19
461.018	81.19
461.238	94.19
461.458	86.19
461.678	96.19
461.898	92.19
462.118	106.19
462.338	91.19
462.558	79.19
462.777	79.19
462.997	93.19
463.217	98.19
463.437	88.19
463.657	93.19
463.876	85.19
464.096	94.19
464.316	101.19
464.536	87.19
464.755	88.19
464.975	97.19
465.195	146.19
465.414	149.19
465.634	100.19
465.854	68.19
466.073	94.19
466.293	100.19
466.512	81.19
466.732	75.19
466.951	90.19
467.171	98.19
467.391	97.19
467.61	91.19
467.829	84.19
468.049	87.19
468.268	87.19
468.488	69.19
468.707	85.19
468.927	97.19
469.146	91.19
469.365	93.19
469.585	107.19
469.804	96.19
470.023	91.19
470.243	99.19
470.462	115.19
470.681	109.19
470.901	97.19
471.12	82.19
471.339	79.19
471.558	89.19
471.777	82.19
471.997	60.19
472.216	87.19
472.435	96.19
472.654	83.19
472.873	96.19
473.092	81.19
473.311	86.19
473.53	98.19
473.749	101.19
473.968	95.19
474.187	99.19
474.406	95.19
474.625	93.19
474.844	69.19
475.063	95.19
475.282	80.19
475.501	95.19
475.72	85.19
475.939	83.19
476.158	78.19
476.377	96.19
476.596	87.19
476.814	85.19
477.033	99.19
477.252	97.19
477.471	86.19
477.69	84.19
477.908	82.19
478.127	86.19
478.346	90.19
478.564	81.19
478.783	93.19
479.002	99.19
479.22	98.19
479.439	101.19
479.658	94.19
479.876	99.19
480.095	85.19
480.313	85.19
480.532	90.19
480.751	77.19
480.969	99.19
481.188	103.19
481.406	104.19
481.624	106.19
481.843	86.19
482.061	96.19
482.28	86.19
482.498	103.19
482.717	94.19
482.935	101.19
483.153	90.19
483.372	97.19
483.59	83.19
483.808	99.19
484.027	98.19
484.245	97.19
484.463	100.19
484.681	89.19
484.9	109.19
485.118	91.19
485.336	86.19
485.554	113.19
485.772	109.19
485.99	102.19
486.209	101.19
486.427	115.19
486.645	107.19
486.863	123.19
487.081	97.19
487.299	87.19
487.517	89.19
487.735	96.19
487.953	83.19
488.171	104.19
488.389	99.19
488.607	105.19
488.825	83.19
489.043	91.19
489.261	91.19
489.479	97.19
489.696	108.19
489.914	101.19
490.132	100.19
490.35	94.19
490.568	89.19
490.786	73.19
491.003	93.19
491.221	100.19
491.439	97.19
491.657	101.19
491.874	100.19
492.092	79.19
492.31	97.19
492.527	90.19
492.745	94.19
492.963	78.19
493.18	93.19
493.398	95.19
493.615	101.19
493.833	101.19
494.05	90.19
494.268	120.19
494.485	90.19
494.703	78.19
494.92	86.19
495.138	93.19
495.355	102.19
495.573	93.19
495.79	88.19
496.008	83.19
496.225	100.19
496.442	91.19
496.66	88.19
496.877	90.19
497.094	89.19
497.312	99.19
497.529	93.19
497.746	89.19
497.963	96.19
498.181	84.19
498.398	93.19
498.615	112.19
498.832	95.19
499.049	103.19
499.267	96.19
499.484	94.19
499.701	95.19
499.918	88.19
500.135	107.19
500.352	91.19
500.569	95.19
500.786	81.19
501.003	88.19
501.22	102.19
501.437	102.19
501.654	88.19
501.871	101.19
502.088	100.19
502.305	97.19
502.522	89.19
502.739	98.19
502.956	84.19
503.172	106.19
503.389	89.19
503.606	102.19
503.823	101.19
504.04	97.19
504.256	88.19
504.473	97.19
504.69	98.19
504.907	98.19
505.123	99.19
505.34	93.19
505.557	107.19
505.773	85.19
505.99	85.19
506.207	84.19
506.423	78.19
506.64	97.19
506.856	83.19
507.073	98.19
507.289	113.19
507.506	97.19
507.722	103.19
507.939	100.19
508.155	101.19
508.372	90.19
508.588	103.19
508.805	102.19
509.021	96.19
509.238	110.19
509.454	107.19
509.67	107.19
509.887	121.19
510.103	131.19
510.319	200.19
510.536	647.19
510.752	1964.19
510.968	534.19
511.184	137.19
511.401	117.19
511.617	95.19
511.833	95.19
512.049	97.19
512.265	110.19
512.481	89.19
512.698	97.19
512.914	90.19
513.13	95.19
513.346	90.19
513.562	97.19
513.778	90.19
513.994	89.19
514.21	94.19
514.426	110.19
514.642	121.19
514.858	112.19
515.074	148.19
515.29	355.19
