Data from Uncirc_1990_H10_HRD10591_00055.txt Node
Date: Wed Jan 03 11:54:02 EST 2024
User: Yrep
Spectrometer: HR+D1059
Trigger mode: 1
Integration Time (sec): 1.000000E-1
Scans to average: 1
Electric dark correction enabled: true
Nonlinearity correction enabled: false
Boxcar width: 0
XAxis mode: Wavelengths
Number of Pixels in Spectrum: 2048
>>>>>Begin Spectral Data<<<<<
223.165	-10.38
223.4	-10.38
223.635	-10.38
223.869	-20.38
224.104	-6.38
224.338	-17.38
224.573	-8.38
224.808	-14.38
225.042	-0.38
225.277	-9.38
225.511	-10.38
225.746	-0.38
225.98	12.62
226.215	8.62
226.449	12.62
226.683	18.62
226.918	6.62
227.152	38.62
227.387	31.62
227.621	39.62
227.856	35.62
228.09	39.62
228.324	54.62
228.559	49.62
228.793	48.62
229.027	62.62
229.262	64.62
229.496	66.62
229.73	77.62
229.964	67.62
230.199	74.62
230.433	74.62
230.667	91.62
230.901	71.62
231.136	80.62
231.37	75.62
231.604	76.62
231.838	89.62
232.072	84.62
232.306	93.62
232.541	80.62
232.775	79.62
233.009	87.62
233.243	70.62
233.477	76.62
233.711	78.62
233.945	94.62
234.179	76.62
234.413	88.62
234.647	78.62
234.881	87.62
235.115	77.62
235.349	74.62
235.583	83.62
235.817	89.62
236.051	68.62
236.285	65.62
236.519	76.62
236.753	82.62
236.987	82.62
237.221	79.62
237.455	86.62
237.689	82.62
237.922	95.62
238.156	78.62
238.39	68.62
238.624	76.62
238.858	65.62
239.091	72.62
239.325	79.62
239.559	65.62
239.793	76.62
240.027	71.62
240.26	78.62
240.494	79.62
240.728	87.62
240.961	77.62
241.195	86.62
241.429	68.62
241.662	78.62
241.896	68.62
242.13	55.62
242.363	71.62
242.597	77.62
242.83	72.62
243.064	68.62
243.298	79.62
243.531	56.62
243.765	76.62
243.998	95.62
244.232	88.62
244.465	76.62
244.699	88.62
244.932	83.62
245.166	90.62
245.399	74.62
245.633	71.62
245.866	76.62
246.099	75.62
246.333	88.62
246.566	77.62
246.8	86.62
247.033	74.62
247.266	95.62
247.5	90.62
247.733	76.62
247.966	56.62
248.2	67.62
248.433	80.62
248.666	76.62
248.899	78.62
249.133	84.62
249.366	94.62
249.599	101.62
249.832	69.62
250.066	91.62
250.299	90.62
250.532	84.62
250.765	74.62
250.998	69.62
251.231	84.62
251.465	85.62
251.698	86.62
251.931	90.62
252.164	79.62
252.397	71.62
252.63	93.62
252.863	69.62
253.096	72.62
253.329	85.62
253.562	84.62
253.795	68.62
254.028	83.62
254.261	80.62
254.494	89.62
254.727	79.62
254.96	84.62
255.193	79.62
255.426	94.62
255.659	93.62
255.892	91.62
256.124	80.62
256.357	86.62
256.59	82.62
256.823	87.62
257.056	82.62
257.289	88.62
257.521	85.62
257.754	85.62
257.987	81.62
258.22	86.62
258.452	84.62
258.685	86.62
258.918	77.62
259.151	77.62
259.383	82.62
259.616	88.62
259.849	78.62
260.081	74.62
260.314	88.62
260.547	90.62
260.779	75.62
261.012	91.62
261.244	74.62
261.477	96.62
261.71	95.62
261.942	94.62
262.175	99.62
262.407	80.62
262.64	82.62
262.872	83.62
263.105	84.62
263.337	82.62
263.57	70.62
263.802	73.62
264.035	94.62
264.267	66.62
264.499	88.62
264.732	86.62
264.964	66.62
265.197	72.62
265.429	73.62
265.661	85.62
265.894	76.62
266.126	92.62
266.358	89.62
266.591	83.62
266.823	80.62
267.055	79.62
267.287	73.62
267.52	91.62
267.752	88.62
267.984	85.62
268.216	92.62
268.448	76.62
268.681	94.62
268.913	80.62
269.145	89.62
269.377	79.62
269.609	88.62
269.841	75.62
270.073	86.62
270.306	76.62
270.538	69.62
270.77	94.62
271.002	102.62
271.234	90.62
271.466	88.62
271.698	82.62
271.93	80.62
272.162	91.62
272.394	86.62
272.626	77.62
272.858	82.62
273.09	93.62
273.322	75.62
273.553	79.62
273.785	91.62
274.017	93.62
274.249	72.62
274.481	78.62
274.713	78.62
274.945	79.62
275.176	84.62
275.408	93.62
275.64	86.62
275.872	86.62
276.104	91.62
276.335	88.62
276.567	96.62
276.799	94.62
277.031	98.62
277.262	87.62
277.494	82.62
277.726	88.62
277.957	94.62
278.189	85.62
278.421	79.62
278.652	72.62
278.884	86.62
279.115	76.62
279.347	99.62
279.579	92.62
279.81	81.62
280.042	80.62
280.273	84.62
280.505	71.62
280.736	90.62
280.968	82.62
281.199	82.62
281.431	91.62
281.662	86.62
281.894	95.62
282.125	109.62
282.356	111.62
282.588	135.62
282.819	115.62
283.051	82.62
283.282	86.62
283.513	89.62
283.745	89.62
283.976	85.62
284.207	88.62
284.439	81.62
284.67	74.62
284.901	80.62
285.132	87.62
285.364	92.62
285.595	98.62
285.826	81.62
286.057	87.62
286.288	97.62
286.52	80.62
286.751	66.62
286.982	88.62
287.213	78.62
287.444	91.62
287.675	80.62
287.906	74.62
288.138	96.62
288.369	84.62
288.6	82.62
288.831	84.62
289.062	91.62
289.293	67.62
289.524	82.62
289.755	81.62
289.986	91.62
290.217	85.62
290.448	99.62
290.679	94.62
290.91	90.62
291.141	82.62
291.371	87.62
291.602	76.62
291.833	76.62
292.064	91.62
292.295	105.62
292.526	102.62
292.757	96.62
292.987	70.62
293.218	83.62
293.449	89.62
293.68	80.62
293.91	80.62
294.141	92.62
294.372	98.62
294.603	92.62
294.833	86.62
295.064	98.62
295.295	100.62
295.525	81.62
295.756	90.62
295.987	115.62
296.217	129.62
296.448	127.62
296.679	94.62
296.909	87.62
297.14	95.62
297.37	82.62
297.601	80.62
297.831	87.62
298.062	98.62
298.292	85.62
298.523	79.62
298.753	84.62
298.984	97.62
299.214	80.62
299.445	92.62
299.675	97.62
299.905	90.62
300.136	86.62
300.366	87.62
300.597	95.62
300.827	89.62
301.057	101.62
301.288	108.62
301.518	90.62
301.748	78.62
301.979	94.62
302.209	107.62
302.439	89.62
302.669	83.62
302.9	85.62
303.13	80.62
303.36	98.62
303.59	107.62
303.82	89.62
304.051	84.62
304.281	90.62
304.511	87.62
304.741	105.62
304.971	84.62
305.201	89.62
305.431	87.62
305.661	90.62
305.891	88.62
306.121	94.62
306.352	106.62
306.582	115.62
306.812	86.62
307.042	95.62
307.272	91.62
307.502	81.62
307.731	90.62
307.961	92.62
308.191	91.62
308.421	80.62
308.651	100.62
308.881	91.62
309.111	83.62
309.341	94.62
309.571	105.62
309.8	95.62
310.03	97.62
310.26	86.62
310.49	97.62
310.72	107.62
310.949	97.62
311.179	98.62
311.409	98.62
311.639	95.62
311.868	98.62
312.098	85.62
312.328	96.62
312.557	119.62
312.787	102.62
313.017	80.62
313.246	102.62
313.476	95.62
313.706	104.62
313.935	94.62
314.165	98.62
314.394	95.62
314.624	99.62
314.853	97.62
315.083	94.62
315.312	86.62
315.542	82.62
315.771	83.62
316.001	82.62
316.23	96.62
316.46	100.62
316.689	96.62
316.919	87.62
317.148	85.62
317.377	96.62
317.607	95.62
317.836	85.62
318.065	83.62
318.295	102.62
318.524	90.62
318.753	99.62
318.983	99.62
319.212	94.62
319.441	107.62
319.67	109.62
319.9	89.62
320.129	93.62
320.358	96.62
320.587	93.62
320.816	100.62
321.046	85.62
321.275	103.62
321.504	85.62
321.733	94.62
321.962	90.62
322.191	104.62
322.42	109.62
322.649	101.62
322.878	100.62
323.108	116.62
323.337	117.62
323.566	131.62
323.795	135.62
324.024	184.62
324.253	360.62
324.482	736.62
324.71	1463.62
324.939	1964.62
325.168	704.62
325.397	231.62
325.626	132.62
325.855	121.62
326.084	126.62
326.313	131.62
326.542	138.62
326.77	206.62
326.999	395.62
327.228	812.62
327.457	1532.62
327.686	1196.62
327.914	344.62
328.143	166.62
328.372	131.62
328.6	116.62
328.829	114.62
329.058	126.62
329.287	125.62
329.515	103.62
329.744	97.62
329.972	91.62
330.201	103.62
330.43	107.62
330.658	104.62
330.887	134.62
331.115	107.62
331.344	87.62
331.572	96.62
331.801	114.62
332.03	91.62
332.258	98.62
332.486	84.62
332.715	83.62
332.943	104.62
333.172	84.62
333.4	87.62
333.629	89.62
333.857	115.62
334.085	104.62
334.314	106.62
334.542	110.62
334.771	101.62
334.999	106.62
335.227	104.62
335.455	90.62
335.684	99.62
335.912	92.62
336.14	94.62
336.369	98.62
336.597	95.62
336.825	94.62
337.053	92.62
337.281	91.62
337.51	101.62
337.738	84.62
337.966	91.62
338.194	104.62
338.422	98.62
338.65	103.62
338.878	90.62
339.106	90.62
339.334	94.62
339.562	84.62
339.79	94.62
340.018	90.62
340.246	87.62
340.474	86.62
340.702	82.62
340.93	96.62
341.158	93.62
341.386	99.62
341.614	83.62
341.842	94.62
342.07	77.62
342.298	87.62
342.526	80.62
342.754	78.62
342.981	98.62
343.209	68.62
343.437	79.62
343.665	97.62
343.893	90.62
344.12	76.62
344.348	85.62
344.576	86.62
344.804	87.62
345.031	87.62
345.259	84.62
345.487	78.62
345.714	91.62
345.942	96.62
346.17	107.62
346.397	113.62
346.625	97.62
346.853	94.62
347.08	79.62
347.308	83.62
347.535	93.62
347.763	101.62
347.99	78.62
348.218	102.62
348.445	92.62
348.673	94.62
348.9	91.62
349.128	94.62
349.355	96.62
349.583	97.62
349.81	95.62
350.037	95.62
350.265	88.62
350.492	104.62
350.72	84.62
350.947	111.62
351.174	88.62
351.402	103.62
351.629	102.62
351.856	101.62
352.083	94.62
352.311	90.62
352.538	96.62
352.765	96.62
352.992	107.62
353.22	114.62
353.447	99.62
353.674	101.62
353.901	94.62
354.128	88.62
354.355	102.62
354.583	89.62
354.81	106.62
355.037	99.62
355.264	104.62
355.491	93.62
355.718	85.62
355.945	107.62
356.172	96.62
356.399	106.62
356.626	99.62
356.853	94.62
357.08	98.62
357.307	101.62
357.534	80.62
357.761	92.62
357.988	104.62
358.215	85.62
358.441	93.62
358.668	86.62
358.895	90.62
359.122	86.62
359.349	96.62
359.576	87.62
359.802	95.62
360.029	107.62
360.256	107.62
360.483	95.62
360.709	92.62
360.936	89.62
361.163	87.62
361.39	104.62
361.616	86.62
361.843	81.62
362.07	99.62
362.296	97.62
362.523	94.62
362.749	98.62
362.976	98.62
363.203	96.62
363.429	96.62
363.656	86.62
363.882	76.62
364.109	74.62
364.335	84.62
364.562	89.62
364.788	82.62
365.015	105.62
365.241	101.62
365.468	100.62
365.694	97.62
365.92	97.62
366.147	95.62
366.373	100.62
366.599	67.62
366.826	81.62
367.052	72.62
367.278	86.62
367.505	98.62
367.731	82.62
367.957	85.62
368.184	90.62
368.41	94.62
368.636	110.62
368.862	99.62
369.089	90.62
369.315	78.62
369.541	89.62
369.767	92.62
369.993	96.62
370.219	90.62
370.445	86.62
370.672	94.62
370.898	87.62
371.124	80.62
371.35	82.62
371.576	82.62
371.802	93.62
372.028	94.62
372.254	93.62
372.48	98.62
372.706	94.62
372.932	85.62
373.158	101.62
373.384	90.62
373.61	98.62
373.835	94.62
374.061	85.62
374.287	95.62
374.513	94.62
374.739	71.62
374.965	81.62
375.191	75.62
375.416	85.62
375.642	96.62
375.868	86.62
376.094	98.62
376.319	79.62
376.545	79.62
376.771	91.62
376.997	81.62
377.222	93.62
377.448	99.62
377.674	89.62
377.899	93.62
378.125	77.62
378.35	86.62
378.576	91.62
378.802	91.62
379.027	97.62
379.253	86.62
379.478	87.62
379.704	92.62
379.929	81.62
380.155	93.62
380.38	85.62
380.606	96.62
380.831	90.62
381.057	88.62
381.282	91.62
381.507	90.62
381.733	91.62
381.958	102.62
382.184	108.62
382.409	104.62
382.634	93.62
382.86	92.62
383.085	103.62
383.31	93.62
383.535	94.62
383.761	86.62
383.986	90.62
384.211	105.62
384.436	96.62
384.662	89.62
384.887	95.62
385.112	83.62
385.337	102.62
385.562	110.62
385.787	104.62
386.013	108.62
386.238	121.62
386.463	92.62
386.688	99.62
386.913	100.62
387.138	88.62
387.363	86.62
387.588	88.62
387.813	107.62
388.038	96.62
388.263	94.62
388.488	99.62
388.713	94.62
388.938	107.62
389.163	98.62
389.387	90.62
389.612	104.62
389.837	96.62
390.062	97.62
390.287	93.62
390.512	97.62
390.736	98.62
390.961	105.62
391.186	99.62
391.411	98.62
391.636	107.62
391.86	95.62
392.085	100.62
392.31	85.62
392.534	91.62
392.759	74.62
392.984	81.62
393.208	82.62
393.433	79.62
393.658	87.62
393.882	85.62
394.107	83.62
394.331	94.62
394.556	83.62
394.78	88.62
395.005	92.62
395.229	94.62
395.454	87.62
395.678	86.62
395.903	93.62
396.127	98.62
396.352	98.62
396.576	98.62
396.801	84.62
397.025	80.62
397.249	87.62
397.474	84.62
397.698	78.62
397.922	97.62
398.147	90.62
398.371	79.62
398.595	93.62
398.82	83.62
399.044	76.62
399.268	94.62
399.492	83.62
399.717	83.62
399.941	93.62
400.165	86.62
400.389	85.62
400.613	86.62
400.837	87.62
401.062	82.62
401.286	98.62
401.51	87.62
401.734	77.62
401.958	109.62
402.182	120.62
402.406	139.62
402.63	106.62
402.854	90.62
403.078	83.62
403.302	83.62
403.526	85.62
403.75	88.62
403.974	87.62
404.198	90.62
404.422	91.62
404.645	97.62
404.869	96.62
405.093	86.62
405.317	79.62
405.541	92.62
405.765	100.62
405.988	106.62
406.212	158.62
406.436	193.62
406.66	128.62
406.883	88.62
407.107	91.62
407.331	84.62
407.555	93.62
407.778	91.62
408.002	87.62
408.226	102.62
408.449	87.62
408.673	87.62
408.896	71.62
409.12	89.62
409.344	91.62
409.567	91.62
409.791	81.62
410.014	92.62
410.238	97.62
410.461	96.62
410.685	94.62
410.908	97.62
411.132	98.62
411.355	93.62
411.578	101.62
411.802	97.62
412.025	78.62
412.249	105.62
412.472	90.62
412.695	102.62
412.919	99.62
413.142	66.62
413.365	79.62
413.589	91.62
413.812	86.62
414.035	82.62
414.258	101.62
414.482	91.62
414.705	70.62
414.928	77.62
415.151	94.62
415.374	76.62
415.597	85.62
415.821	90.62
416.044	92.62
416.267	97.62
416.49	92.62
416.713	92.62
416.936	99.62
417.159	78.62
417.382	95.62
417.605	85.62
417.828	92.62
418.051	92.62
418.274	90.62
418.497	89.62
418.72	80.62
418.943	86.62
419.166	94.62
419.389	96.62
419.611	96.62
419.834	78.62
420.057	83.62
420.28	78.62
420.503	76.62
420.726	85.62
420.948	77.62
421.171	83.62
421.394	94.62
421.617	82.62
421.839	93.62
422.062	80.62
422.285	96.62
422.507	94.62
422.73	108.62
422.953	97.62
423.175	86.62
423.398	89.62
423.621	71.62
423.843	86.62
424.066	93.62
424.288	92.62
424.511	82.62
424.733	98.62
424.956	103.62
425.178	109.62
425.401	88.62
425.623	88.62
425.846	96.62
426.068	82.62
426.291	90.62
426.513	101.62
426.735	84.62
426.958	101.62
427.18	101.62
427.402	130.62
427.625	144.62
427.847	120.62
428.069	89.62
428.292	96.62
428.514	75.62
428.736	74.62
428.958	88.62
429.181	84.62
429.403	88.62
429.625	88.62
429.847	91.62
430.069	101.62
430.292	88.62
430.514	99.62
430.736	84.62
430.958	70.62
431.18	93.62
431.402	79.62
431.624	85.62
431.846	80.62
432.068	65.62
432.29	76.62
432.512	90.62
432.734	75.62
432.956	89.62
433.178	93.62
433.4	89.62
433.622	75.62
433.844	86.62
434.066	89.62
434.287	82.62
434.509	83.62
434.731	102.62
434.953	74.62
435.175	87.62
435.397	98.62
435.618	93.62
435.84	99.62
436.062	106.62
436.284	96.62
436.505	103.62
436.727	91.62
436.949	91.62
437.17	88.62
437.392	90.62
437.614	99.62
437.835	96.62
438.057	113.62
438.278	113.62
438.5	98.62
438.721	116.62
438.943	94.62
439.165	100.62
439.386	89.62
439.608	88.62
439.829	102.62
440.05	109.62
440.272	125.62
440.493	91.62
440.715	87.62
440.936	104.62
441.158	106.62
441.379	86.62
441.6	107.62
441.822	94.62
442.043	108.62
442.264	102.62
442.486	92.62
442.707	95.62
442.928	98.62
443.149	119.62
443.371	119.62
443.592	106.62
443.813	111.62
444.034	104.62
444.255	92.62
444.476	102.62
444.698	94.62
444.919	83.62
445.14	140.62
445.361	115.62
445.582	88.62
445.803	123.62
446.024	129.62
446.245	117.62
446.466	109.62
446.687	93.62
446.908	80.62
447.129	80.62
447.35	85.62
447.571	96.62
447.792	90.62
448.013	97.62
448.234	99.62
448.455	98.62
448.675	98.62
448.896	119.62
449.117	99.62
449.338	96.62
449.559	129.62
449.779	127.62
450	96.62
450.221	82.62
450.442	101.62
450.662	101.62
450.883	92.62
451.104	107.62
451.324	86.62
451.545	80.62
451.766	86.62
451.986	83.62
452.207	89.62
452.428	95.62
452.648	96.62
452.869	116.62
453.089	111.62
453.31	105.62
453.53	99.62
453.751	89.62
453.971	91.62
454.192	101.62
454.412	86.62
454.633	72.62
454.853	86.62
455.073	85.62
455.294	85.62
455.514	96.62
455.734	70.62
455.955	84.62
456.175	79.62
456.395	108.62
456.616	85.62
456.836	78.62
457.056	101.62
457.276	84.62
457.497	99.62
457.717	87.62
457.937	75.62
458.157	88.62
458.377	85.62
458.598	103.62
458.818	117.62
459.038	129.62
459.258	111.62
459.478	86.62
459.698	75.62
459.918	78.62
460.138	82.62
460.358	67.62
460.578	71.62
460.798	91.62
461.018	89.62
461.238	88.62
461.458	101.62
461.678	90.62
461.898	83.62
462.118	101.62
462.338	93.62
462.558	95.62
462.777	86.62
462.997	78.62
463.217	83.62
463.437	93.62
463.657	99.62
463.876	91.62
464.096	78.62
464.316	90.62
464.536	93.62
464.755	92.62
464.975	86.62
465.195	145.62
465.414	131.62
465.634	93.62
465.854	79.62
466.073	75.62
466.293	82.62
466.512	84.62
466.732	89.62
466.951	84.62
467.171	81.62
467.391	87.62
467.61	98.62
467.829	80.62
468.049	79.62
468.268	96.62
468.488	83.62
468.707	86.62
468.927	90.62
469.146	88.62
469.365	86.62
469.585	99.62
469.804	97.62
470.023	107.62
470.243	93.62
470.462	70.62
470.681	90.62
470.901	95.62
471.12	92.62
471.339	94.62
471.558	78.62
471.777	86.62
471.997	95.62
472.216	92.62
472.435	99.62
472.654	92.62
472.873	84.62
473.092	94.62
473.311	86.62
473.53	88.62
473.749	84.62
473.968	87.62
474.187	83.62
474.406	96.62
474.625	99.62
474.844	96.62
475.063	96.62
475.282	84.62
475.501	82.62
475.72	91.62
475.939	92.62
476.158	91.62
476.377	79.62
476.596	84.62
476.814	86.62
477.033	94.62
477.252	96.62
477.471	90.62
477.69	79.62
477.908	85.62
478.127	87.62
478.346	81.62
478.564	93.62
478.783	85.62
479.002	77.62
479.22	89.62
479.439	78.62
479.658	106.62
479.876	91.62
480.095	89.62
480.313	93.62
480.532	81.62
480.751	78.62
480.969	99.62
481.188	125.62
481.406	130.62
481.624	86.62
481.843	79.62
482.061	95.62
482.28	85.62
482.498	95.62
482.717	94.62
482.935	101.62
483.153	72.62
483.372	85.62
483.59	92.62
483.808	89.62
484.027	90.62
484.245	98.62
484.463	95.62
484.681	101.62
484.9	99.62
485.118	98.62
485.336	77.62
485.554	93.62
485.772	92.62
485.99	100.62
486.209	111.62
486.427	106.62
486.645	101.62
486.863	97.62
487.081	83.62
487.299	95.62
487.517	80.62
487.735	86.62
487.953	90.62
488.171	93.62
488.389	86.62
488.607	89.62
488.825	88.62
489.043	83.62
489.261	101.62
489.479	97.62
489.696	88.62
489.914	86.62
490.132	79.62
490.35	93.62
490.568	74.62
490.786	82.62
491.003	84.62
491.221	92.62
491.439	88.62
491.657	89.62
491.874	90.62
492.092	90.62
492.31	92.62
492.527	81.62
492.745	78.62
492.963	89.62
493.18	93.62
493.398	99.62
493.615	98.62
493.833	98.62
494.05	84.62
494.268	88.62
494.485	85.62
494.703	80.62
494.92	90.62
495.138	89.62
495.355	75.62
495.573	101.62
495.79	84.62
496.008	100.62
496.225	93.62
496.442	87.62
496.66	98.62
496.877	87.62
497.094	87.62
497.312	81.62
497.529	85.62
497.746	88.62
497.963	99.62
498.181	83.62
498.398	97.62
498.615	104.62
498.832	106.62
499.049	95.62
499.267	89.62
499.484	81.62
499.701	91.62
499.918	92.62
500.135	87.62
500.352	78.62
500.569	89.62
500.786	97.62
501.003	81.62
501.22	81.62
501.437	85.62
501.654	109.62
501.871	90.62
502.088	96.62
502.305	82.62
502.522	82.62
502.739	89.62
502.956	87.62
503.172	96.62
503.389	94.62
503.606	91.62
503.823	86.62
504.04	94.62
504.256	99.62
504.473	103.62
504.69	98.62
504.907	86.62
505.123	92.62
505.34	92.62
505.557	92.62
505.773	98.62
505.99	79.62
506.207	90.62
506.423	80.62
506.64	74.62
506.856	92.62
507.073	98.62
507.289	94.62
507.506	102.62
507.722	98.62
507.939	107.62
508.155	93.62
508.372	85.62
508.588	104.62
508.805	86.62
509.021	82.62
509.238	99.62
509.454	93.62
509.67	102.62
509.887	104.62
510.103	124.62
510.319	200.62
510.536	642.62
510.752	2085.62
510.968	590.62
511.184	138.62
511.401	104.62
511.617	91.62
511.833	88.62
512.049	99.62
512.265	80.62
512.481	95.62
512.698	91.62
512.914	83.62
513.13	91.62
513.346	95.62
513.562	108.62
513.778	95.62
513.994	99.62
514.21	98.62
514.426	107.62
514.642	112.62
514.858	112.62
515.074	140.62
515.29	371.62
515.506	1217.62
515.721	443.62
515.937	126.62
516.153	113.62
516.369	95.62
516.585	89.62
516.801	90.62
