Data from Foil_1_HRD10591_00020.txt Node
Date: Wed Nov 05 16:15:30 EST 2025
User: Yrep
Spectrometer: HR+D1059
Trigger mode: 1
Integration Time (sec): 1.000000E-1
Scans to average: 1
Electric dark correction enabled: true
Nonlinearity correction enabled: false
Boxcar width: 0
XAxis mode: Wavelengths
Number of Pixels in Spectrum: 2048
>>>>>Begin Spectral Data<<<<<
223.165	-14.5
223.4	-14.5
223.635	-14.5
223.869	-23.5
224.104	-33.5
224.338	-17.5
224.573	-3.5
224.808	-26.5
225.042	-3.5
225.277	-0.5
225.511	-1.5
225.746	4.5
225.98	13.5
226.215	18.5
226.449	12.5
226.683	18.5
226.918	14.5
227.152	42.5
227.387	41.5
227.621	21.5
227.856	38.5
228.09	53.5
228.324	43.5
228.559	52.5
228.793	50.5
229.027	58.5
229.262	62.5
229.496	66.5
229.73	56.5
229.964	60.5
230.199	84.5
230.433	74.5
230.667	78.5
230.901	89.5
231.136	69.5
231.37	78.5
231.604	95.5
231.838	80.5
232.072	81.5
232.306	92.5
232.541	78.5
232.775	82.5
233.009	80.5
233.243	84.5
233.477	81.5
233.711	85.5
233.945	60.5
234.179	83.5
234.413	76.5
234.647	79.5
234.881	83.5
235.115	88.5
235.349	65.5
235.583	76.5
235.817	76.5
236.051	77.5
236.285	82.5
236.519	75.5
236.753	76.5
236.987	69.5
237.221	70.5
237.455	70.5
237.689	93.5
237.922	78.5
238.156	86.5
238.39	76.5
238.624	75.5
238.858	89.5
239.091	79.5
239.325	70.5
239.559	80.5
239.793	69.5
240.027	79.5
240.26	66.5
240.494	78.5
240.728	67.5
240.961	75.5
241.195	77.5
241.429	73.5
241.662	79.5
241.896	71.5
242.13	76.5
242.363	78.5
242.597	73.5
242.83	91.5
243.064	72.5
243.298	58.5
243.531	79.5
243.765	66.5
243.998	69.5
244.232	79.5
244.465	69.5
244.699	72.5
244.932	74.5
245.166	76.5
245.399	73.5
245.633	72.5
245.866	88.5
246.099	82.5
246.333	79.5
246.566	62.5
246.8	83.5
247.033	74.5
247.266	78.5
247.5	88.5
247.733	78.5
247.966	79.5
248.2	77.5
248.433	91.5
248.666	74.5
248.899	78.5
249.133	94.5
249.366	69.5
249.599	73.5
249.832	73.5
250.066	88.5
250.299	77.5
250.532	74.5
250.765	72.5
250.998	86.5
251.231	62.5
251.465	83.5
251.698	72.5
251.931	79.5
252.164	68.5
252.397	87.5
252.63	65.5
252.863	74.5
253.096	86.5
253.329	78.5
253.562	72.5
253.795	83.5
254.028	87.5
254.261	88.5
254.494	81.5
254.727	92.5
254.96	95.5
255.193	69.5
255.426	75.5
255.659	70.5
255.892	93.5
256.124	81.5
256.357	75.5
256.59	81.5
256.823	74.5
257.056	100.5
257.289	82.5
257.521	94.5
257.754	78.5
257.987	87.5
258.22	84.5
258.452	66.5
258.685	89.5
258.918	73.5
259.151	79.5
259.383	95.5
259.616	86.5
259.849	71.5
260.081	78.5
260.314	72.5
260.547	87.5
260.779	82.5
261.012	84.5
261.244	81.5
261.477	82.5
261.71	77.5
261.942	79.5
262.175	84.5
262.407	87.5
262.64	82.5
262.872	86.5
263.105	78.5
263.337	88.5
263.57	78.5
263.802	96.5
264.035	71.5
264.267	89.5
264.499	71.5
264.732	62.5
264.964	84.5
265.197	82.5
265.429	81.5
265.661	84.5
265.894	91.5
266.126	81.5
266.358	69.5
266.591	76.5
266.823	78.5
267.055	80.5
267.287	86.5
267.52	70.5
267.752	71.5
267.984	100.5
268.216	74.5
268.448	84.5
268.681	73.5
268.913	74.5
269.145	85.5
269.377	79.5
269.609	76.5
269.841	96.5
270.073	81.5
270.306	74.5
270.538	80.5
270.77	69.5
271.002	81.5
271.234	76.5
271.466	94.5
271.698	88.5
271.93	78.5
272.162	81.5
272.394	81.5
272.626	79.5
272.858	98.5
273.09	70.5
273.322	83.5
273.553	79.5
273.785	77.5
274.017	76.5
274.249	94.5
274.481	87.5
274.713	74.5
274.945	76.5
275.176	84.5
275.408	72.5
275.64	77.5
275.872	66.5
276.104	66.5
276.335	80.5
276.567	82.5
276.799	84.5
277.031	64.5
277.262	77.5
277.494	84.5
277.726	86.5
277.957	99.5
278.189	94.5
278.421	90.5
278.652	87.5
278.884	82.5
279.115	77.5
279.347	77.5
279.579	89.5
279.81	87.5
280.042	76.5
280.273	78.5
280.505	74.5
280.736	71.5
280.968	86.5
281.199	72.5
281.431	86.5
281.662	73.5
281.894	90.5
282.125	85.5
282.356	74.5
282.588	82.5
282.819	76.5
283.051	90.5
283.282	92.5
283.513	80.5
283.745	77.5
283.976	79.5
284.207	79.5
284.439	86.5
284.67	77.5
284.901	82.5
285.132	80.5
285.364	83.5
285.595	81.5
285.826	80.5
286.057	92.5
286.288	80.5
286.52	78.5
286.751	81.5
286.982	84.5
287.213	80.5
287.444	80.5
287.675	83.5
287.906	73.5
288.138	78.5
288.369	90.5
288.6	90.5
288.831	90.5
289.062	81.5
289.293	84.5
289.524	75.5
289.755	68.5
289.986	74.5
290.217	87.5
290.448	79.5
290.679	97.5
290.91	88.5
291.141	75.5
291.371	79.5
291.602	79.5
291.833	92.5
292.064	66.5
292.295	76.5
292.526	81.5
292.757	106.5
292.987	86.5
293.218	74.5
293.449	86.5
293.68	92.5
293.91	75.5
294.141	75.5
294.372	80.5
294.603	86.5
294.833	88.5
295.064	88.5
295.295	88.5
295.525	79.5
295.756	70.5
295.987	86.5
296.217	79.5
296.448	74.5
296.679	90.5
296.909	81.5
297.14	88.5
297.37	78.5
297.601	67.5
297.831	83.5
298.062	90.5
298.292	88.5
298.523	88.5
298.753	99.5
298.984	74.5
299.214	95.5
299.445	91.5
299.675	99.5
299.905	78.5
300.136	90.5
300.366	81.5
300.597	83.5
300.827	78.5
301.057	80.5
301.288	81.5
301.518	86.5
301.748	85.5
301.979	92.5
302.209	90.5
302.439	79.5
302.669	86.5
302.9	74.5
303.13	79.5
303.36	92.5
303.59	78.5
303.82	86.5
304.051	88.5
304.281	83.5
304.511	91.5
304.741	85.5
304.971	88.5
305.201	86.5
305.431	95.5
305.661	79.5
305.891	90.5
306.121	87.5
306.352	82.5
306.582	88.5
306.812	92.5
307.042	79.5
307.272	76.5
307.502	95.5
307.731	94.5
307.961	104.5
308.191	103.5
308.421	111.5
308.651	77.5
308.881	106.5
309.111	106.5
309.341	130.5
309.571	104.5
309.8	95.5
310.03	79.5
310.26	95.5
310.49	75.5
310.72	76.5
310.949	79.5
311.179	89.5
311.409	82.5
311.639	79.5
311.868	82.5
312.098	89.5
312.328	100.5
312.557	92.5
312.787	103.5
313.017	100.5
313.246	81.5
313.476	96.5
313.706	70.5
313.935	89.5
314.165	81.5
314.394	87.5
314.624	86.5
314.853	88.5
315.083	92.5
315.312	78.5
315.542	86.5
315.771	92.5
316.001	85.5
316.23	81.5
316.46	78.5
316.689	86.5
316.919	79.5
317.148	99.5
317.377	79.5
317.607	79.5
317.836	89.5
318.065	84.5
318.295	89.5
318.524	77.5
318.753	94.5
318.983	78.5
319.212	96.5
319.441	81.5
319.67	83.5
319.9	84.5
320.129	84.5
320.358	92.5
320.587	81.5
320.816	75.5
321.046	71.5
321.275	73.5
321.504	82.5
321.733	86.5
321.962	89.5
322.191	81.5
322.42	83.5
322.649	82.5
322.878	92.5
323.108	86.5
323.337	95.5
323.566	80.5
323.795	80.5
324.024	91.5
324.253	78.5
324.482	84.5
324.71	81.5
324.939	93.5
325.168	84.5
325.397	84.5
325.626	74.5
325.855	85.5
326.084	84.5
326.313	88.5
326.542	90.5
326.77	78.5
326.999	84.5
327.228	78.5
327.457	88.5
327.686	73.5
327.914	103.5
328.143	89.5
328.372	68.5
328.6	69.5
328.829	94.5
329.058	80.5
329.287	83.5
329.515	83.5
329.744	93.5
329.972	87.5
330.201	92.5
330.43	76.5
330.658	75.5
330.887	87.5
331.115	90.5
331.344	92.5
331.572	93.5
331.801	73.5
332.03	82.5
332.258	89.5
332.486	80.5
332.715	86.5
332.943	74.5
333.172	83.5
333.4	86.5
333.629	87.5
333.857	76.5
334.085	78.5
334.314	81.5
334.542	74.5
334.771	74.5
334.999	86.5
335.227	68.5
335.455	79.5
335.684	87.5
335.912	78.5
336.14	68.5
336.369	87.5
336.597	84.5
336.825	91.5
337.053	75.5
337.281	77.5
337.51	83.5
337.738	82.5
337.966	83.5
338.194	84.5
338.422	86.5
338.65	87.5
338.878	86.5
339.106	80.5
339.334	91.5
339.562	82.5
339.79	84.5
340.018	82.5
340.246	82.5
340.474	77.5
340.702	68.5
340.93	102.5
341.158	84.5
341.386	70.5
341.614	65.5
341.842	95.5
342.07	82.5
342.298	83.5
342.526	84.5
342.754	85.5
342.981	88.5
343.209	90.5
343.437	98.5
343.665	68.5
343.893	69.5
344.12	84.5
344.348	81.5
344.576	78.5
344.804	96.5
345.031	87.5
345.259	95.5
345.487	90.5
345.714	79.5
345.942	69.5
346.17	86.5
346.397	74.5
346.625	70.5
346.853	82.5
347.08	85.5
347.308	85.5
347.535	80.5
347.763	90.5
347.99	96.5
348.218	80.5
348.445	75.5
348.673	87.5
348.9	80.5
349.128	77.5
349.355	82.5
349.583	78.5
349.81	72.5
350.037	80.5
350.265	82.5
350.492	79.5
350.72	90.5
350.947	76.5
351.174	80.5
351.402	83.5
351.629	90.5
351.856	87.5
352.083	78.5
352.311	84.5
352.538	88.5
352.765	68.5
352.992	82.5
353.22	98.5
353.447	90.5
353.674	84.5
353.901	85.5
354.128	74.5
354.355	84.5
354.583	79.5
354.81	77.5
355.037	83.5
355.264	90.5
355.491	82.5
355.718	78.5
355.945	81.5
356.172	82.5
356.399	88.5
356.626	88.5
356.853	80.5
357.08	78.5
357.307	92.5
357.534	75.5
357.761	84.5
357.988	88.5
358.215	99.5
358.441	86.5
358.668	83.5
358.895	80.5
359.122	80.5
359.349	91.5
359.576	88.5
359.802	88.5
360.029	82.5
360.256	93.5
360.483	78.5
360.709	86.5
360.936	87.5
361.163	89.5
361.39	73.5
361.616	80.5
361.843	88.5
362.07	91.5
362.296	86.5
362.523	82.5
362.749	87.5
362.976	69.5
363.203	79.5
363.429	73.5
363.656	85.5
363.882	83.5
364.109	92.5
364.335	74.5
364.562	78.5
364.788	88.5
365.015	86.5
365.241	81.5
365.468	86.5
365.694	94.5
365.92	101.5
366.147	95.5
366.373	76.5
366.599	76.5
366.826	84.5
367.052	76.5
367.278	86.5
367.505	76.5
367.731	105.5
367.957	70.5
368.184	104.5
368.41	84.5
368.636	88.5
368.862	70.5
369.089	87.5
369.315	84.5
369.541	86.5
369.767	76.5
369.993	94.5
370.219	78.5
370.445	80.5
370.672	96.5
370.898	83.5
371.124	84.5
371.35	70.5
371.576	72.5
371.802	83.5
372.028	84.5
372.254	86.5
372.48	70.5
372.706	90.5
372.932	88.5
373.158	78.5
373.384	86.5
373.61	104.5
373.835	98.5
374.061	91.5
374.287	74.5
374.513	74.5
374.739	97.5
374.965	90.5
375.191	78.5
375.416	86.5
375.642	80.5
375.868	95.5
376.094	67.5
376.319	82.5
376.545	82.5
376.771	94.5
376.997	88.5
377.222	80.5
377.448	76.5
377.674	86.5
377.899	86.5
378.125	68.5
378.35	104.5
378.576	82.5
378.802	84.5
379.027	74.5
379.253	94.5
379.478	72.5
379.704	85.5
379.929	95.5
380.155	98.5
380.38	92.5
380.606	81.5
380.831	81.5
381.057	98.5
381.282	86.5
381.507	91.5
381.733	82.5
381.958	82.5
382.184	101.5
382.409	88.5
382.634	100.5
382.86	87.5
383.085	101.5
383.31	86.5
383.535	95.5
383.761	82.5
383.986	88.5
384.211	91.5
384.436	98.5
384.662	84.5
384.887	96.5
385.112	98.5
385.337	89.5
385.562	82.5
385.787	87.5
386.013	93.5
386.238	99.5
386.463	70.5
386.688	103.5
386.913	86.5
387.138	88.5
387.363	94.5
387.588	95.5
387.813	83.5
388.038	91.5
388.263	96.5
388.488	86.5
388.713	78.5
388.938	94.5
389.163	97.5
389.387	80.5
389.612	93.5
389.837	93.5
390.062	76.5
390.287	77.5
390.512	104.5
390.736	92.5
390.961	84.5
391.186	79.5
391.411	79.5
391.636	106.5
391.86	86.5
392.085	80.5
392.31	80.5
392.534	81.5
392.759	85.5
392.984	105.5
393.208	86.5
393.433	84.5
393.658	92.5
393.882	100.5
394.107	126.5
394.331	170.5
394.556	185.5
394.78	117.5
395.005	104.5
395.229	106.5
395.454	97.5
395.678	115.5
395.903	150.5
396.127	216.5
396.352	209.5
396.576	119.5
396.801	89.5
397.025	94.5
397.249	82.5
397.474	102.5
397.698	87.5
397.922	84.5
398.147	98.5
398.371	78.5
398.595	81.5
398.82	106.5
399.044	97.5
399.268	91.5
399.492	87.5
399.717	91.5
399.941	85.5
400.165	91.5
400.389	107.5
400.613	83.5
400.837	93.5
401.062	81.5
401.286	98.5
401.51	90.5
401.734	89.5
401.958	98.5
402.182	98.5
402.406	94.5
402.63	110.5
402.854	116.5
403.078	96.5
403.302	86.5
403.526	86.5
403.75	85.5
403.974	80.5
404.198	88.5
404.422	100.5
404.645	90.5
404.869	106.5
405.093	102.5
405.317	105.5
405.541	103.5
405.765	88.5
405.988	88.5
406.212	102.5
406.436	103.5
406.66	94.5
406.883	93.5
407.107	93.5
407.331	96.5
407.555	94.5
407.778	104.5
408.002	97.5
408.226	103.5
408.449	95.5
408.673	100.5
408.896	92.5
409.12	101.5
409.344	90.5
409.567	100.5
409.791	89.5
410.014	94.5
410.238	90.5
410.461	80.5
410.685	107.5
410.908	93.5
411.132	97.5
411.355	103.5
411.578	98.5
411.802	114.5
412.025	102.5
412.249	86.5
412.472	90.5
412.695	95.5
412.919	96.5
413.142	100.5
413.365	98.5
413.589	90.5
413.812	100.5
414.035	83.5
414.258	96.5
414.482	92.5
414.705	88.5
414.928	99.5
415.151	87.5
415.374	96.5
415.597	97.5
415.821	102.5
416.044	102.5
416.267	87.5
416.49	99.5
416.713	94.5
416.936	91.5
417.159	94.5
417.382	88.5
417.605	106.5
417.828	103.5
418.051	96.5
418.274	90.5
418.497	95.5
418.72	99.5
418.943	111.5
419.166	92.5
419.389	88.5
419.611	103.5
419.834	118.5
420.057	102.5
420.28	107.5
420.503	94.5
420.726	103.5
420.948	94.5
421.171	92.5
421.394	98.5
421.617	103.5
421.839	98.5
422.062	102.5
422.285	91.5
422.507	105.5
422.73	86.5
422.953	112.5
423.175	94.5
423.398	93.5
423.621	91.5
423.843	111.5
424.066	95.5
424.288	108.5
424.511	88.5
424.733	116.5
424.956	101.5
425.178	89.5
425.401	88.5
425.623	105.5
425.846	104.5
426.068	100.5
426.291	112.5
426.513	112.5
426.735	107.5
426.958	94.5
427.18	93.5
427.402	108.5
427.625	102.5
427.847	99.5
428.069	107.5
428.292	101.5
428.514	92.5
428.736	101.5
428.958	90.5
429.181	104.5
429.403	110.5
429.625	116.5
429.847	107.5
430.069	95.5
430.292	96.5
430.514	96.5
430.736	100.5
430.958	95.5
431.18	105.5
431.402	87.5
431.624	100.5
431.846	94.5
432.068	79.5
432.29	80.5
432.512	84.5
432.734	110.5
432.956	108.5
433.178	103.5
433.4	115.5
433.622	110.5
433.844	96.5
434.066	93.5
434.287	88.5
434.509	80.5
434.731	88.5
434.953	91.5
435.175	94.5
435.397	99.5
435.618	96.5
435.84	104.5
436.062	105.5
436.284	95.5
436.505	102.5
436.727	101.5
436.949	113.5
437.17	115.5
437.392	86.5
437.614	90.5
437.835	90.5
438.057	91.5
438.278	104.5
438.5	90.5
438.721	109.5
438.943	94.5
439.165	121.5
439.386	118.5
439.608	104.5
439.829	111.5
440.05	124.5
440.272	98.5
440.493	101.5
440.715	104.5
440.936	110.5
441.158	97.5
441.379	104.5
441.6	105.5
441.822	93.5
442.043	99.5
442.264	102.5
442.486	108.5
442.707	104.5
442.928	116.5
443.149	102.5
443.371	102.5
443.592	104.5
443.813	101.5
444.034	114.5
444.255	110.5
444.476	107.5
444.698	107.5
444.919	106.5
445.14	175.5
445.361	118.5
445.582	101.5
445.803	98.5
446.024	106.5
446.245	108.5
446.466	87.5
446.687	106.5
446.908	106.5
447.129	103.5
447.35	100.5
447.571	110.5
447.792	103.5
448.013	115.5
448.234	106.5
448.455	93.5
448.675	102.5
448.896	88.5
449.117	103.5
449.338	104.5
449.559	105.5
449.779	120.5
450	103.5
450.221	124.5
450.442	101.5
450.662	102.5
450.883	101.5
451.104	86.5
451.324	105.5
451.545	86.5
451.766	96.5
451.986	93.5
452.207	90.5
452.428	96.5
452.648	107.5
452.869	98.5
453.089	101.5
453.31	100.5
453.53	93.5
453.751	79.5
453.971	84.5
454.192	90.5
454.412	77.5
454.633	78.5
454.853	92.5
455.073	100.5
455.294	91.5
455.514	98.5
455.734	101.5
455.955	98.5
456.175	91.5
456.395	84.5
456.616	95.5
456.836	87.5
457.056	90.5
457.276	98.5
457.497	79.5
457.717	93.5
457.937	83.5
458.157	90.5
458.377	79.5
458.598	74.5
458.818	88.5
459.038	80.5
459.258	78.5
459.478	86.5
459.698	73.5
459.918	84.5
460.138	77.5
460.358	86.5
460.578	88.5
460.798	82.5
461.018	80.5
461.238	99.5
461.458	94.5
461.678	100.5
461.898	86.5
462.118	101.5
462.338	96.5
462.558	94.5
462.777	90.5
462.997	93.5
463.217	105.5
463.437	94.5
463.657	92.5
463.876	82.5
464.096	97.5
464.316	98.5
464.536	92.5
464.755	93.5
464.975	102.5
465.195	87.5
465.414	97.5
465.634	91.5
465.854	100.5
466.073	96.5
466.293	106.5
466.512	105.5
466.732	96.5
466.951	105.5
467.171	109.5
467.391	133.5
467.61	122.5
467.829	125.5
468.049	106.5
468.268	110.5
468.488	101.5
468.707	107.5
468.927	104.5
469.146	116.5
469.365	110.5
469.585	121.5
469.804	111.5
470.023	98.5
470.243	110.5
470.462	117.5
470.681	104.5
470.901	103.5
471.12	111.5
471.339	100.5
471.558	112.5
471.777	95.5
471.997	94.5
472.216	104.5
472.435	93.5
472.654	74.5
472.873	105.5
473.092	102.5
473.311	107.5
473.53	120.5
473.749	98.5
473.968	104.5
474.187	95.5
474.406	89.5
474.625	111.5
474.844	99.5
475.063	96.5
475.282	97.5
475.501	90.5
475.72	99.5
475.939	86.5
476.158	114.5
476.377	95.5
476.596	91.5
476.814	101.5
477.033	84.5
477.252	93.5
477.471	99.5
477.69	104.5
477.908	92.5
478.127	107.5
478.346	108.5
478.564	98.5
478.783	104.5
479.002	94.5
479.22	114.5
479.439	110.5
479.658	90.5
479.876	104.5
480.095	83.5
480.313	103.5
480.532	88.5
480.751	91.5
480.969	83.5
481.188	83.5
481.406	87.5
481.624	95.5
481.843	92.5
482.061	85.5
482.28	102.5
482.498	80.5
482.717	103.5
482.935	97.5
483.153	110.5
483.372	111.5
483.59	109.5
483.808	89.5
484.027	91.5
484.245	93.5
484.463	103.5
484.681	102.5
484.9	98.5
485.118	98.5
485.336	86.5
485.554	104.5
485.772	88.5
485.99	93.5
486.209	86.5
486.427	104.5
486.645	107.5
486.863	114.5
487.081	112.5
487.299	84.5
487.517	95.5
487.735	108.5
487.953	114.5
488.171	122.5
488.389	104.5
488.607	102.5
488.825	90.5
489.043	108.5
489.261	109.5
489.479	105.5
489.696	100.5
489.914	101.5
490.132	98.5
490.35	124.5
490.568	126.5
490.786	116.5
491.003	117.5
491.221	126.5
491.439	122.5
491.657	125.5
491.874	132.5
492.092	150.5
492.31	146.5
492.527	154.5
492.745	127.5
492.963	134.5
493.18	148.5
493.398	142.5
493.615	128.5
493.833	129.5
494.05	110.5
494.268	108.5
494.485	120.5
494.703	132.5
494.92	129.5
495.138	114.5
495.355	120.5
495.573	139.5
495.79	130.5
496.008	104.5
496.225	116.5
496.442	115.5
496.66	120.5
496.877	111.5
497.094	116.5
497.312	118.5
497.529	94.5
497.746	112.5
497.963	99.5
498.181	102.5
498.398	103.5
498.615	98.5
498.832	92.5
499.049	86.5
499.267	106.5
499.484	96.5
499.701	108.5
499.918	112.5
500.135	98.5
500.352	104.5
500.569	103.5
500.786	99.5
501.003	103.5
501.22	102.5
501.437	98.5
501.654	105.5
501.871	100.5
502.088	101.5
502.305	108.5
502.522	110.5
502.739	97.5
502.956	101.5
503.172	103.5
503.389	104.5
503.606	98.5
503.823	86.5
504.04	94.5
504.256	77.5
504.473	84.5
504.69	84.5
504.907	94.5
505.123	99.5
505.34	102.5
505.557	102.5
505.773	95.5
505.99	86.5
506.207	92.5
506.423	87.5
506.64	98.5
506.856	104.5
507.073	84.5
507.289	99.5
507.506	98.5
507.722	94.5
507.939	107.5
508.155	94.5
508.372	96.5
508.588	90.5
508.805	86.5
509.021	73.5
509.238	94.5
509.454	86.5
509.67	84.5
509.887	92.5
510.103	96.5
510.319	77.5
510.536	90.5
510.752	69.5
510.968	90.5
511.184	79.5
511.401	78.5
511.617	91.5
511.833	86.5
512.049	92.5
512.265	93.5
512.481	90.5
512.698	83.5
512.914	78.5
513.13	92.5
513.346	75.5
513.562	82.5
513.778	88.5
513.994	87.5
514.21	92.5
514.426	89.5
514.642	84.5
514.858	87.5
515.074	88.5
515.29	99.5
515.506	85.5
515.721	74.5
515.937	82.5
516.153	92.5
516.369	74.5
516.585	86.5
516.801	84.5
517.016	78.5
517.232	82.5
517.448	75.5
517.664	84.5
517.879	79.5
518.095	91.5
518.311	97.5
518.527	90.5
518.742	92.5
518.958	75.5
519.173	98.5
519.389	84.5
519.605	83.5
519.82	75.5
520.036	88.5
520.251	81.5
520.467	78.5
520.682	95.5
520.898	94.5
521.113	81.5
521.329	78.5
521.544	78.5
521.76	85.5
521.975	98.5
522.19	102.5
522.406	85.5
522.621	84.5
522.836	86.5
523.052	86.5
523.267	107.5
523.482	84.5
523.698	88.5
523.913	102.5
524.128	106.5
524.343	96.5
524.559	95.5
524.774	103.5
524.989	95.5
525.204	86.5
525.419	95.5
525.634	103.5
525.849	87.5
526.064	78.5
526.28	80.5
526.495	80.5
526.71	76.5
526.925	79.5
527.14	80.5
527.355	76.5
527.57	86.5
527.785	80.5
527.999	72.5
528.214	71.5
528.429	96.5
528.644	101.5
528.859	90.5
529.074	90.5
529.289	91.5
529.503	94.5
529.718	96.5
529.933	84.5
530.148	88.5
530.363	88.5
530.577	78.5
530.792	78.5
531.007	83.5
531.221	87.5
531.436	77.5
531.651	80.5
531.865	77.5
532.08	90.5
532.295	96.5
532.509	77.5
532.724	80.5
532.938	88.5
533.153	96.5
533.367	95.5
533.582	90.5
533.796	77.5
534.011	70.5
534.225	82.5
534.44	76.5
534.654	75.5
534.868	90.5
535.083	79.5
535.297	84.5
535.511	95.5
535.726	93.5
535.94	85.5
536.154	79.5
