Data from Foil_1_HRD10591_00009.txt Node
Date: Wed Nov 05 16:15:25 EST 2025
User: Yrep
Spectrometer: HR+D1059
Trigger mode: 1
Integration Time (sec): 1.000000E-1
Scans to average: 1
Electric dark correction enabled: true
Nonlinearity correction enabled: false
Boxcar width: 0
XAxis mode: Wavelengths
Number of Pixels in Spectrum: 2048
>>>>>Begin Spectral Data<<<<<
223.165	-15.75
223.4	-15.75
223.635	-15.75
223.869	-8.75
224.104	-32.75
224.338	-10.75
224.573	-5.75
224.808	-22.75
225.042	-2.75
225.277	9.25
225.511	6.25
225.746	11.25
225.98	11.25
226.215	10.25
226.449	15.25
226.683	-0.75
226.918	13.25
227.152	23.25
227.387	30.25
227.621	28.25
227.856	45.25
228.09	49.25
228.324	54.25
228.559	59.25
228.793	55.25
229.027	61.25
229.262	55.25
229.496	57.25
229.73	72.25
229.964	73.25
230.199	78.25
230.433	62.25
230.667	87.25
230.901	75.25
231.136	67.25
231.37	81.25
231.604	80.25
231.838	76.25
232.072	77.25
232.306	85.25
232.541	76.25
232.775	71.25
233.009	76.25
233.243	75.25
233.477	83.25
233.711	84.25
233.945	75.25
234.179	76.25
234.413	88.25
234.647	71.25
234.881	71.25
235.115	72.25
235.349	86.25
235.583	80.25
235.817	81.25
236.051	80.25
236.285	80.25
236.519	73.25
236.753	73.25
236.987	74.25
237.221	69.25
237.455	89.25
237.689	79.25
237.922	83.25
238.156	86.25
238.39	79.25
238.624	87.25
238.858	83.25
239.091	77.25
239.325	71.25
239.559	87.25
239.793	71.25
240.027	78.25
240.26	70.25
240.494	84.25
240.728	71.25
240.961	69.25
241.195	86.25
241.429	70.25
241.662	64.25
241.896	63.25
242.13	65.25
242.363	70.25
242.597	74.25
242.83	83.25
243.064	79.25
243.298	71.25
243.531	63.25
243.765	64.25
243.998	65.25
244.232	90.25
244.465	80.25
244.699	93.25
244.932	70.25
245.166	90.25
245.399	91.25
245.633	81.25
245.866	68.25
246.099	72.25
246.333	82.25
246.566	68.25
246.8	77.25
247.033	94.25
247.266	71.25
247.5	85.25
247.733	79.25
247.966	74.25
248.2	65.25
248.433	68.25
248.666	91.25
248.899	71.25
249.133	86.25
249.366	88.25
249.599	66.25
249.832	86.25
250.066	83.25
250.299	80.25
250.532	77.25
250.765	82.25
250.998	73.25
251.231	75.25
251.465	77.25
251.698	73.25
251.931	88.25
252.164	77.25
252.397	74.25
252.63	71.25
252.863	85.25
253.096	100.25
253.329	80.25
253.562	79.25
253.795	85.25
254.028	88.25
254.261	84.25
254.494	93.25
254.727	84.25
254.96	75.25
255.193	79.25
255.426	89.25
255.659	78.25
255.892	76.25
256.124	64.25
256.357	91.25
256.59	71.25
256.823	89.25
257.056	87.25
257.289	85.25
257.521	81.25
257.754	79.25
257.987	78.25
258.22	66.25
258.452	74.25
258.685	75.25
258.918	58.25
259.151	86.25
259.383	81.25
259.616	84.25
259.849	74.25
260.081	75.25
260.314	71.25
260.547	77.25
260.779	75.25
261.012	81.25
261.244	80.25
261.477	78.25
261.71	77.25
261.942	89.25
262.175	74.25
262.407	79.25
262.64	76.25
262.872	68.25
263.105	73.25
263.337	93.25
263.57	82.25
263.802	90.25
264.035	89.25
264.267	74.25
264.499	64.25
264.732	89.25
264.964	92.25
265.197	85.25
265.429	90.25
265.661	83.25
265.894	78.25
266.126	73.25
266.358	87.25
266.591	81.25
266.823	81.25
267.055	90.25
267.287	79.25
267.52	91.25
267.752	78.25
267.984	75.25
268.216	87.25
268.448	61.25
268.681	63.25
268.913	77.25
269.145	77.25
269.377	86.25
269.609	85.25
269.841	71.25
270.073	66.25
270.306	81.25
270.538	87.25
270.77	85.25
271.002	90.25
271.234	76.25
271.466	94.25
271.698	87.25
271.93	82.25
272.162	95.25
272.394	71.25
272.626	80.25
272.858	79.25
273.09	81.25
273.322	76.25
273.553	89.25
273.785	92.25
274.017	88.25
274.249	84.25
274.481	72.25
274.713	77.25
274.945	63.25
275.176	93.25
275.408	82.25
275.64	91.25
275.872	77.25
276.104	83.25
276.335	93.25
276.567	63.25
276.799	81.25
277.031	75.25
277.262	80.25
277.494	78.25
277.726	84.25
277.957	89.25
278.189	74.25
278.421	75.25
278.652	85.25
278.884	106.25
279.115	85.25
279.347	75.25
279.579	71.25
279.81	88.25
280.042	81.25
280.273	89.25
280.505	75.25
280.736	77.25
280.968	78.25
281.199	89.25
281.431	87.25
281.662	80.25
281.894	91.25
282.125	74.25
282.356	70.25
282.588	68.25
282.819	86.25
283.051	91.25
283.282	86.25
283.513	87.25
283.745	80.25
283.976	93.25
284.207	81.25
284.439	85.25
284.67	87.25
284.901	58.25
285.132	79.25
285.364	82.25
285.595	77.25
285.826	85.25
286.057	76.25
286.288	92.25
286.52	83.25
286.751	89.25
286.982	91.25
287.213	86.25
287.444	112.25
287.675	94.25
287.906	77.25
288.138	82.25
288.369	82.25
288.6	85.25
288.831	78.25
289.062	99.25
289.293	96.25
289.524	78.25
289.755	76.25
289.986	81.25
290.217	72.25
290.448	74.25
290.679	79.25
290.91	84.25
291.141	75.25
291.371	92.25
291.602	88.25
291.833	77.25
292.064	73.25
292.295	79.25
292.526	70.25
292.757	80.25
292.987	97.25
293.218	77.25
293.449	76.25
293.68	78.25
293.91	66.25
294.141	91.25
294.372	86.25
294.603	69.25
294.833	71.25
295.064	91.25
295.295	75.25
295.525	88.25
295.756	99.25
295.987	77.25
296.217	74.25
296.448	95.25
296.679	82.25
296.909	86.25
297.14	75.25
297.37	81.25
297.601	69.25
297.831	82.25
298.062	81.25
298.292	82.25
298.523	78.25
298.753	94.25
298.984	80.25
299.214	80.25
299.445	88.25
299.675	83.25
299.905	76.25
300.136	78.25
300.366	65.25
300.597	86.25
300.827	71.25
301.057	89.25
301.288	90.25
301.518	85.25
301.748	79.25
301.979	103.25
302.209	79.25
302.439	84.25
302.669	79.25
302.9	91.25
303.13	82.25
303.36	90.25
303.59	88.25
303.82	88.25
304.051	77.25
304.281	80.25
304.511	89.25
304.741	82.25
304.971	87.25
305.201	84.25
305.431	79.25
305.661	85.25
305.891	85.25
306.121	84.25
306.352	85.25
306.582	90.25
306.812	88.25
307.042	88.25
307.272	89.25
307.502	80.25
307.731	83.25
307.961	104.25
308.191	112.25
308.421	104.25
308.651	99.25
308.881	112.25
309.111	115.25
309.341	111.25
309.571	104.25
309.8	85.25
310.03	85.25
310.26	78.25
310.49	105.25
310.72	91.25
310.949	73.25
311.179	92.25
311.409	80.25
311.639	87.25
311.868	79.25
312.098	83.25
312.328	76.25
312.557	77.25
312.787	87.25
313.017	89.25
313.246	83.25
313.476	85.25
313.706	67.25
313.935	77.25
314.165	85.25
314.394	88.25
314.624	81.25
314.853	91.25
315.083	82.25
315.312	92.25
315.542	77.25
315.771	84.25
316.001	82.25
316.23	76.25
316.46	89.25
316.689	77.25
316.919	69.25
317.148	82.25
317.377	90.25
317.607	80.25
317.836	90.25
318.065	73.25
318.295	79.25
318.524	74.25
318.753	87.25
318.983	79.25
319.212	87.25
319.441	79.25
319.67	85.25
319.9	63.25
320.129	96.25
320.358	103.25
320.587	87.25
320.816	87.25
321.046	82.25
321.275	88.25
321.504	88.25
321.733	85.25
321.962	76.25
322.191	82.25
322.42	79.25
322.649	71.25
322.878	77.25
323.108	75.25
323.337	72.25
323.566	63.25
323.795	80.25
324.024	86.25
324.253	73.25
324.482	71.25
324.71	95.25
324.939	84.25
325.168	78.25
325.397	62.25
325.626	80.25
325.855	83.25
326.084	75.25
326.313	87.25
326.542	93.25
326.77	88.25
326.999	81.25
327.228	87.25
327.457	91.25
327.686	81.25
327.914	80.25
328.143	88.25
328.372	80.25
328.6	84.25
328.829	78.25
329.058	79.25
329.287	96.25
329.515	80.25
329.744	90.25
329.972	95.25
330.201	91.25
330.43	70.25
330.658	81.25
330.887	88.25
331.115	91.25
331.344	88.25
331.572	93.25
331.801	80.25
332.03	80.25
332.258	84.25
332.486	89.25
332.715	88.25
332.943	80.25
333.172	72.25
333.4	86.25
333.629	72.25
333.857	76.25
334.085	84.25
334.314	76.25
334.542	87.25
334.771	75.25
334.999	82.25
335.227	85.25
335.455	82.25
335.684	87.25
335.912	71.25
336.14	76.25
336.369	84.25
336.597	79.25
336.825	69.25
337.053	87.25
337.281	80.25
337.51	86.25
337.738	87.25
337.966	93.25
338.194	84.25
338.422	87.25
338.65	73.25
338.878	71.25
339.106	82.25
339.334	84.25
339.562	80.25
339.79	83.25
340.018	69.25
340.246	87.25
340.474	77.25
340.702	85.25
340.93	83.25
341.158	87.25
341.386	76.25
341.614	89.25
341.842	87.25
342.07	75.25
342.298	77.25
342.526	77.25
342.754	78.25
342.981	88.25
343.209	85.25
343.437	87.25
343.665	91.25
343.893	78.25
344.12	77.25
344.348	77.25
344.576	82.25
344.804	101.25
345.031	91.25
345.259	101.25
345.487	75.25
345.714	74.25
345.942	88.25
346.17	79.25
346.397	81.25
346.625	77.25
346.853	70.25
347.08	78.25
347.308	86.25
347.535	83.25
347.763	82.25
347.99	84.25
348.218	83.25
348.445	84.25
348.673	84.25
348.9	78.25
349.128	81.25
349.355	79.25
349.583	92.25
349.81	81.25
350.037	69.25
350.265	91.25
350.492	92.25
350.72	97.25
350.947	75.25
351.174	87.25
351.402	82.25
351.629	78.25
351.856	82.25
352.083	79.25
352.311	79.25
352.538	84.25
352.765	88.25
352.992	105.25
353.22	83.25
353.447	76.25
353.674	89.25
353.901	87.25
354.128	87.25
354.355	87.25
354.583	93.25
354.81	72.25
355.037	83.25
355.264	86.25
355.491	86.25
355.718	81.25
355.945	92.25
356.172	89.25
356.399	87.25
356.626	84.25
356.853	71.25
357.08	84.25
357.307	80.25
357.534	76.25
357.761	88.25
357.988	91.25
358.215	89.25
358.441	91.25
358.668	72.25
358.895	75.25
359.122	89.25
359.349	61.25
359.576	72.25
359.802	75.25
360.029	92.25
360.256	80.25
360.483	93.25
360.709	95.25
360.936	77.25
361.163	81.25
361.39	76.25
361.616	71.25
361.843	80.25
362.07	91.25
362.296	88.25
362.523	84.25
362.749	77.25
362.976	81.25
363.203	89.25
363.429	73.25
363.656	80.25
363.882	93.25
364.109	93.25
364.335	76.25
364.562	83.25
364.788	77.25
365.015	79.25
365.241	90.25
365.468	95.25
365.694	84.25
365.92	84.25
366.147	89.25
366.373	87.25
366.599	73.25
366.826	78.25
367.052	82.25
367.278	87.25
367.505	87.25
367.731	92.25
367.957	75.25
368.184	69.25
368.41	79.25
368.636	73.25
368.862	80.25
369.089	89.25
369.315	81.25
369.541	85.25
369.767	99.25
369.993	84.25
370.219	84.25
370.445	82.25
370.672	76.25
370.898	71.25
371.124	93.25
371.35	88.25
371.576	85.25
371.802	84.25
372.028	90.25
372.254	74.25
372.48	77.25
372.706	94.25
372.932	83.25
373.158	83.25
373.384	82.25
373.61	86.25
373.835	100.25
374.061	96.25
374.287	65.25
374.513	79.25
374.739	99.25
374.965	79.25
375.191	83.25
375.416	93.25
375.642	83.25
375.868	96.25
376.094	89.25
376.319	86.25
376.545	79.25
376.771	103.25
376.997	86.25
377.222	104.25
377.448	69.25
377.674	79.25
377.899	88.25
378.125	89.25
378.35	80.25
378.576	92.25
378.802	88.25
379.027	90.25
379.253	80.25
379.478	87.25
379.704	82.25
379.929	100.25
380.155	90.25
380.38	90.25
380.606	91.25
380.831	90.25
381.057	82.25
381.282	81.25
381.507	93.25
381.733	79.25
381.958	83.25
382.184	103.25
382.409	86.25
382.634	91.25
382.86	99.25
383.085	94.25
383.31	92.25
383.535	79.25
383.761	83.25
383.986	83.25
384.211	85.25
384.436	79.25
384.662	89.25
384.887	90.25
385.112	86.25
385.337	104.25
385.562	91.25
385.787	71.25
386.013	83.25
386.238	88.25
386.463	68.25
386.688	97.25
386.913	97.25
387.138	86.25
387.363	79.25
387.588	94.25
387.813	85.25
388.038	99.25
388.263	97.25
388.488	90.25
388.713	76.25
388.938	98.25
389.163	87.25
389.387	81.25
389.612	101.25
389.837	81.25
390.062	74.25
390.287	75.25
390.512	80.25
390.736	97.25
390.961	93.25
391.186	95.25
391.411	89.25
391.636	93.25
391.86	99.25
392.085	86.25
392.31	104.25
392.534	95.25
392.759	100.25
392.984	97.25
393.208	99.25
393.433	98.25
393.658	116.25
393.882	104.25
394.107	135.25
394.331	166.25
394.556	176.25
394.78	135.25
395.005	112.25
395.229	93.25
395.454	99.25
395.678	112.25
395.903	144.25
396.127	224.25
396.352	201.25
396.576	107.25
396.801	93.25
397.025	95.25
397.249	92.25
397.474	96.25
397.698	97.25
397.922	100.25
398.147	89.25
398.371	100.25
398.595	80.25
398.82	102.25
399.044	96.25
399.268	96.25
399.492	103.25
399.717	105.25
399.941	95.25
400.165	83.25
400.389	91.25
400.613	82.25
400.837	89.25
401.062	86.25
401.286	101.25
401.51	103.25
401.734	95.25
401.958	84.25
402.182	99.25
402.406	87.25
402.63	79.25
402.854	90.25
403.078	97.25
403.302	87.25
403.526	115.25
403.75	97.25
403.974	93.25
404.198	88.25
404.422	103.25
404.645	78.25
404.869	106.25
405.093	92.25
405.317	92.25
405.541	101.25
405.765	109.25
405.988	89.25
406.212	88.25
406.436	85.25
406.66	93.25
406.883	100.25
407.107	98.25
407.331	106.25
407.555	101.25
407.778	107.25
408.002	95.25
408.226	102.25
408.449	107.25
408.673	100.25
408.896	99.25
409.12	89.25
409.344	97.25
409.567	99.25
409.791	84.25
410.014	105.25
410.238	99.25
410.461	112.25
410.685	87.25
410.908	111.25
411.132	96.25
411.355	96.25
411.578	105.25
411.802	99.25
412.025	95.25
412.249	91.25
412.472	115.25
412.695	96.25
412.919	99.25
413.142	110.25
413.365	106.25
413.589	108.25
413.812	109.25
414.035	104.25
414.258	92.25
414.482	103.25
414.705	91.25
414.928	103.25
415.151	102.25
415.374	93.25
415.597	92.25
415.821	80.25
416.044	96.25
416.267	99.25
416.49	103.25
416.713	107.25
416.936	104.25
417.159	89.25
417.382	94.25
417.605	113.25
417.828	100.25
418.051	108.25
418.274	91.25
418.497	109.25
418.72	99.25
418.943	105.25
419.166	93.25
419.389	89.25
419.611	100.25
419.834	103.25
420.057	95.25
420.28	89.25
420.503	88.25
420.726	98.25
420.948	97.25
421.171	99.25
421.394	105.25
421.617	115.25
421.839	106.25
422.062	96.25
422.285	110.25
422.507	96.25
422.73	109.25
422.953	88.25
423.175	85.25
423.398	99.25
423.621	101.25
423.843	100.25
424.066	90.25
424.288	94.25
424.511	97.25
424.733	107.25
424.956	107.25
425.178	105.25
425.401	119.25
425.623	96.25
425.846	113.25
426.068	101.25
426.291	93.25
426.513	105.25
426.735	95.25
426.958	109.25
427.18	105.25
427.402	114.25
427.625	103.25
427.847	100.25
428.069	124.25
428.292	101.25
428.514	113.25
428.736	89.25
428.958	110.25
429.181	110.25
429.403	104.25
429.625	107.25
429.847	101.25
430.069	99.25
430.292	106.25
430.514	104.25
430.736	105.25
430.958	113.25
431.18	108.25
431.402	99.25
431.624	99.25
431.846	92.25
432.068	87.25
432.29	90.25
432.512	99.25
432.734	102.25
432.956	92.25
433.178	105.25
433.4	103.25
433.622	94.25
433.844	101.25
434.066	109.25
434.287	91.25
434.509	94.25
434.731	96.25
434.953	92.25
435.175	104.25
435.397	104.25
435.618	101.25
435.84	83.25
436.062	90.25
436.284	80.25
436.505	101.25
436.727	93.25
436.949	111.25
437.17	112.25
437.392	103.25
437.614	112.25
437.835	91.25
438.057	95.25
438.278	121.25
438.5	99.25
438.721	105.25
438.943	119.25
439.165	112.25
439.386	103.25
439.608	110.25
439.829	112.25
440.05	119.25
440.272	105.25
440.493	104.25
440.715	115.25
440.936	108.25
441.158	104.25
441.379	99.25
441.6	120.25
441.822	99.25
442.043	106.25
442.264	100.25
442.486	104.25
442.707	112.25
442.928	95.25
443.149	103.25
443.371	94.25
443.592	99.25
443.813	105.25
444.034	133.25
444.255	101.25
444.476	108.25
444.698	107.25
444.919	92.25
445.14	183.25
445.361	153.25
445.582	94.25
445.803	89.25
446.024	99.25
446.245	115.25
446.466	103.25
446.687	105.25
446.908	101.25
447.129	110.25
447.35	106.25
447.571	117.25
447.792	107.25
448.013	109.25
448.234	116.25
448.455	107.25
448.675	98.25
448.896	110.25
449.117	117.25
449.338	109.25
449.559	109.25
449.779	107.25
450	112.25
450.221	127.25
450.442	117.25
450.662	115.25
450.883	88.25
451.104	100.25
451.324	101.25
451.545	107.25
451.766	97.25
451.986	98.25
452.207	78.25
452.428	102.25
452.648	120.25
452.869	104.25
453.089	110.25
453.31	83.25
453.53	76.25
453.751	95.25
453.971	93.25
454.192	94.25
454.412	90.25
454.633	95.25
454.853	83.25
455.073	97.25
455.294	87.25
455.514	101.25
455.734	99.25
455.955	81.25
456.175	99.25
456.395	89.25
456.616	108.25
456.836	89.25
457.056	88.25
457.276	96.25
457.497	82.25
457.717	95.25
457.937	91.25
458.157	92.25
458.377	81.25
458.598	87.25
458.818	91.25
459.038	93.25
459.258	87.25
459.478	82.25
459.698	99.25
459.918	90.25
460.138	80.25
460.358	85.25
460.578	84.25
460.798	70.25
461.018	91.25
461.238	101.25
461.458	93.25
461.678	100.25
461.898	87.25
462.118	100.25
462.338	100.25
462.558	116.25
462.777	80.25
462.997	105.25
463.217	82.25
463.437	99.25
463.657	98.25
463.876	93.25
464.096	94.25
464.316	88.25
464.536	89.25
464.755	99.25
464.975	98.25
465.195	92.25
465.414	95.25
465.634	112.25
465.854	78.25
466.073	88.25
466.293	110.25
466.512	105.25
466.732	96.25
466.951	106.25
467.171	119.25
467.391	118.25
467.61	113.25
467.829	104.25
468.049	109.25
468.268	131.25
468.488	117.25
468.707	108.25
468.927	109.25
469.146	101.25
469.365	97.25
469.585	106.25
469.804	123.25
470.023	115.25
470.243	111.25
470.462	105.25
470.681	105.25
470.901	111.25
471.12	105.25
471.339	115.25
471.558	126.25
471.777	96.25
471.997	101.25
472.216	95.25
472.435	102.25
472.654	84.25
472.873	99.25
473.092	101.25
473.311	103.25
473.53	111.25
473.749	106.25
473.968	93.25
474.187	93.25
474.406	112.25
474.625	101.25
474.844	117.25
475.063	96.25
475.282	100.25
475.501	110.25
475.72	102.25
475.939	87.25
476.158	112.25
476.377	113.25
476.596	101.25
476.814	85.25
477.033	81.25
477.252	97.25
477.471	100.25
477.69	106.25
477.908	111.25
478.127	121.25
478.346	105.25
478.564	96.25
478.783	105.25
479.002	109.25
479.22	102.25
479.439	92.25
479.658	105.25
479.876	96.25
480.095	93.25
480.313	93.25
480.532	105.25
480.751	81.25
480.969	72.25
481.188	74.25
481.406	91.25
481.624	87.25
481.843	75.25
482.061	95.25
482.28	85.25
482.498	102.25
482.717	75.25
482.935	99.25
483.153	97.25
483.372	112.25
483.59	101.25
483.808	98.25
484.027	104.25
484.245	103.25
484.463	101.25
484.681	95.25
484.9	93.25
485.118	100.25
485.336	90.25
485.554	92.25
485.772	104.25
485.99	99.25
486.209	97.25
486.427	89.25
486.645	97.25
486.863	101.25
487.081	92.25
487.299	110.25
487.517	95.25
487.735	122.25
487.953	125.25
488.171	122.25
488.389	108.25
488.607	115.25
488.825	108.25
489.043	99.25
489.261	99.25
489.479	98.25
489.696	112.25
489.914	105.25
490.132	96.25
490.35	117.25
490.568	113.25
490.786	121.25
491.003	132.25
491.221	124.25
491.439	118.25
491.657	141.25
491.874	153.25
492.092	140.25
492.31	142.25
492.527	145.25
492.745	131.25
492.963	140.25
493.18	140.25
493.398	126.25
493.615	127.25
493.833	128.25
494.05	118.25
494.268	135.25
494.485	122.25
494.703	117.25
494.92	123.25
495.138	140.25
495.355	115.25
495.573	131.25
495.79	124.25
496.008	121.25
496.225	106.25
496.442	115.25
496.66	119.25
496.877	115.25
497.094	120.25
497.312	105.25
497.529	103.25
497.746	101.25
497.963	117.25
498.181	99.25
498.398	104.25
498.615	89.25
498.832	92.25
499.049	91.25
499.267	85.25
499.484	100.25
499.701	103.25
499.918	103.25
500.135	93.25
500.352	98.25
500.569	102.25
500.786	105.25
501.003	104.25
501.22	118.25
501.437	109.25
501.654	116.25
501.871	107.25
502.088	103.25
502.305	108.25
502.522	99.25
502.739	98.25
502.956	103.25
503.172	104.25
503.389	94.25
503.606	104.25
503.823	97.25
504.04	108.25
504.256	97.25
504.473	95.25
504.69	107.25
504.907	84.25
505.123	95.25
505.34	100.25
505.557	87.25
505.773	96.25
505.99	102.25
506.207	104.25
506.423	86.25
506.64	102.25
506.856	99.25
507.073	90.25
507.289	91.25
507.506	104.25
507.722	81.25
507.939	97.25
508.155	82.25
508.372	106.25
508.588	101.25
508.805	83.25
509.021	84.25
509.238	91.25
509.454	90.25
509.67	71.25
509.887	83.25
510.103	92.25
510.319	80.25
510.536	97.25
510.752	78.25
510.968	77.25
511.184	73.25
511.401	87.25
511.617	81.25
511.833	82.25
512.049	85.25
512.265	91.25
512.481	85.25
512.698	101.25
512.914	104.25
513.13	91.25
513.346	85.25
513.562	91.25
513.778	107.25
513.994	96.25
514.21	94.25
514.426	91.25
514.642	87.25
514.858	95.25
515.074	78.25
515.29	82.25
515.506	82.25
515.721	78.25
