Data from Foil_1_HRD10591_00014.txt Node
Date: Wed Nov 05 16:15:27 EST 2025
User: Yrep
Spectrometer: HR+D1059
Trigger mode: 1
Integration Time (sec): 1.000000E-1
Scans to average: 1
Electric dark correction enabled: true
Nonlinearity correction enabled: false
Boxcar width: 0
XAxis mode: Wavelengths
Number of Pixels in Spectrum: 2048
>>>>>Begin Spectral Data<<<<<
223.165	-28.94
223.4	-28.94
223.635	-28.94
223.869	-25.94
224.104	-14.94
224.338	-15.94
224.573	-10.94
224.808	-5.94
225.042	-2.94
225.277	-2.94
225.511	-12.94
225.746	-1.94
225.98	-0.94
226.215	22.06
226.449	17.06
226.683	12.06
226.918	31.06
227.152	42.06
227.387	34.06
227.621	46.06
227.856	39.06
228.09	43.06
228.324	47.06
228.559	47.06
228.793	62.06
229.027	56.06
229.262	69.06
229.496	75.06
229.73	67.06
229.964	82.06
230.199	76.06
230.433	74.06
230.667	67.06
230.901	78.06
231.136	72.06
231.37	82.06
231.604	63.06
231.838	79.06
232.072	81.06
232.306	68.06
232.541	83.06
232.775	79.06
233.009	87.06
233.243	90.06
233.477	77.06
233.711	71.06
233.945	88.06
234.179	74.06
234.413	72.06
234.647	81.06
234.881	87.06
235.115	77.06
235.349	85.06
235.583	92.06
235.817	80.06
236.051	72.06
236.285	80.06
236.519	80.06
236.753	72.06
236.987	88.06
237.221	84.06
237.455	70.06
237.689	88.06
237.922	78.06
238.156	71.06
238.39	87.06
238.624	75.06
238.858	77.06
239.091	72.06
239.325	74.06
239.559	90.06
239.793	75.06
240.027	75.06
240.26	83.06
240.494	68.06
240.728	73.06
240.961	84.06
241.195	82.06
241.429	87.06
241.662	72.06
241.896	76.06
242.13	67.06
242.363	83.06
242.597	83.06
242.83	81.06
243.064	84.06
243.298	75.06
243.531	81.06
243.765	61.06
243.998	74.06
244.232	90.06
244.465	77.06
244.699	78.06
244.932	75.06
245.166	73.06
245.399	88.06
245.633	66.06
245.866	91.06
246.099	66.06
246.333	83.06
246.566	89.06
246.8	77.06
247.033	80.06
247.266	87.06
247.5	77.06
247.733	89.06
247.966	86.06
248.2	89.06
248.433	63.06
248.666	60.06
248.899	71.06
249.133	83.06
249.366	84.06
249.599	71.06
249.832	94.06
250.066	77.06
250.299	77.06
250.532	86.06
250.765	83.06
250.998	77.06
251.231	69.06
251.465	86.06
251.698	86.06
251.931	74.06
252.164	83.06
252.397	81.06
252.63	97.06
252.863	78.06
253.096	75.06
253.329	82.06
253.562	79.06
253.795	107.06
254.028	86.06
254.261	82.06
254.494	89.06
254.727	79.06
254.96	82.06
255.193	85.06
255.426	84.06
255.659	75.06
255.892	84.06
256.124	79.06
256.357	79.06
256.59	74.06
256.823	68.06
257.056	78.06
257.289	97.06
257.521	79.06
257.754	75.06
257.987	97.06
258.22	80.06
258.452	89.06
258.685	73.06
258.918	76.06
259.151	86.06
259.383	78.06
259.616	99.06
259.849	80.06
260.081	84.06
260.314	82.06
260.547	73.06
260.779	91.06
261.012	94.06
261.244	90.06
261.477	96.06
261.71	82.06
261.942	89.06
262.175	96.06
262.407	93.06
262.64	87.06
262.872	73.06
263.105	95.06
263.337	85.06
263.57	69.06
263.802	82.06
264.035	105.06
264.267	97.06
264.499	91.06
264.732	80.06
264.964	97.06
265.197	79.06
265.429	79.06
265.661	84.06
265.894	74.06
266.126	87.06
266.358	86.06
266.591	74.06
266.823	76.06
267.055	87.06
267.287	86.06
267.52	89.06
267.752	83.06
267.984	93.06
268.216	76.06
268.448	80.06
268.681	75.06
268.913	83.06
269.145	78.06
269.377	93.06
269.609	87.06
269.841	93.06
270.073	90.06
270.306	79.06
270.538	89.06
270.77	79.06
271.002	78.06
271.234	85.06
271.466	83.06
271.698	85.06
271.93	95.06
272.162	105.06
272.394	91.06
272.626	76.06
272.858	75.06
273.09	81.06
273.322	94.06
273.553	94.06
273.785	83.06
274.017	80.06
274.249	77.06
274.481	87.06
274.713	94.06
274.945	83.06
275.176	75.06
275.408	89.06
275.64	86.06
275.872	93.06
276.104	85.06
276.335	86.06
276.567	73.06
276.799	91.06
277.031	75.06
277.262	71.06
277.494	84.06
277.726	84.06
277.957	100.06
278.189	69.06
278.421	74.06
278.652	80.06
278.884	82.06
279.115	83.06
279.347	79.06
279.579	71.06
279.81	76.06
280.042	85.06
280.273	83.06
280.505	83.06
280.736	93.06
280.968	85.06
281.199	80.06
281.431	95.06
281.662	93.06
281.894	97.06
282.125	87.06
282.356	80.06
282.588	76.06
282.819	94.06
283.051	88.06
283.282	69.06
283.513	80.06
283.745	86.06
283.976	89.06
284.207	87.06
284.439	93.06
284.67	82.06
284.901	89.06
285.132	81.06
285.364	89.06
285.595	97.06
285.826	87.06
286.057	93.06
286.288	90.06
286.52	81.06
286.751	87.06
286.982	85.06
287.213	97.06
287.444	92.06
287.675	82.06
287.906	100.06
288.138	77.06
288.369	97.06
288.6	74.06
288.831	74.06
289.062	88.06
289.293	91.06
289.524	90.06
289.755	93.06
289.986	80.06
290.217	90.06
290.448	93.06
290.679	93.06
290.91	79.06
291.141	83.06
291.371	73.06
291.602	90.06
291.833	86.06
292.064	71.06
292.295	73.06
292.526	92.06
292.757	80.06
292.987	84.06
293.218	79.06
293.449	92.06
293.68	101.06
293.91	87.06
294.141	92.06
294.372	88.06
294.603	94.06
294.833	74.06
295.064	78.06
295.295	79.06
295.525	84.06
295.756	88.06
295.987	90.06
296.217	87.06
296.448	89.06
296.679	82.06
296.909	93.06
297.14	82.06
297.37	89.06
297.601	75.06
297.831	91.06
298.062	67.06
298.292	81.06
298.523	89.06
298.753	88.06
298.984	73.06
299.214	90.06
299.445	91.06
299.675	84.06
299.905	84.06
300.136	95.06
300.366	93.06
300.597	74.06
300.827	84.06
301.057	79.06
301.288	77.06
301.518	89.06
301.748	82.06
301.979	95.06
302.209	74.06
302.439	87.06
302.669	81.06
302.9	83.06
303.13	90.06
303.36	87.06
303.59	89.06
303.82	105.06
304.051	84.06
304.281	80.06
304.511	80.06
304.741	84.06
304.971	92.06
305.201	95.06
305.431	90.06
305.661	82.06
305.891	82.06
306.121	84.06
306.352	85.06
306.582	88.06
306.812	102.06
307.042	90.06
307.272	81.06
307.502	80.06
307.731	80.06
307.961	98.06
308.191	109.06
308.421	101.06
308.651	105.06
308.881	110.06
309.111	118.06
309.341	138.06
309.571	114.06
309.8	105.06
310.03	85.06
310.26	85.06
310.49	84.06
310.72	90.06
310.949	80.06
311.179	80.06
311.409	81.06
311.639	101.06
311.868	75.06
312.098	91.06
312.328	89.06
312.557	90.06
312.787	72.06
313.017	94.06
313.246	102.06
313.476	86.06
313.706	84.06
313.935	82.06
314.165	81.06
314.394	89.06
314.624	80.06
314.853	88.06
315.083	82.06
315.312	81.06
315.542	84.06
315.771	88.06
316.001	84.06
316.23	88.06
316.46	79.06
316.689	80.06
316.919	81.06
317.148	89.06
317.377	86.06
317.607	77.06
317.836	88.06
318.065	77.06
318.295	82.06
318.524	102.06
318.753	78.06
318.983	81.06
319.212	94.06
319.441	85.06
319.67	95.06
319.9	100.06
320.129	80.06
320.358	96.06
320.587	90.06
320.816	91.06
321.046	74.06
321.275	101.06
321.504	84.06
321.733	86.06
321.962	90.06
322.191	73.06
322.42	75.06
322.649	88.06
322.878	90.06
323.108	73.06
323.337	89.06
323.566	86.06
323.795	81.06
324.024	90.06
324.253	81.06
324.482	93.06
324.71	80.06
324.939	87.06
325.168	95.06
325.397	84.06
325.626	91.06
325.855	81.06
326.084	67.06
326.313	75.06
326.542	90.06
326.77	80.06
326.999	87.06
327.228	85.06
327.457	75.06
327.686	82.06
327.914	90.06
328.143	80.06
328.372	89.06
328.6	87.06
328.829	71.06
329.058	80.06
329.287	89.06
329.515	89.06
329.744	80.06
329.972	79.06
330.201	92.06
330.43	100.06
330.658	92.06
330.887	88.06
331.115	83.06
331.344	94.06
331.572	76.06
331.801	73.06
332.03	79.06
332.258	68.06
332.486	91.06
332.715	88.06
332.943	88.06
333.172	79.06
333.4	80.06
333.629	82.06
333.857	95.06
334.085	81.06
334.314	82.06
334.542	82.06
334.771	94.06
334.999	89.06
335.227	87.06
335.455	93.06
335.684	84.06
335.912	84.06
336.14	96.06
336.369	84.06
336.597	90.06
336.825	89.06
337.053	74.06
337.281	63.06
337.51	93.06
337.738	91.06
337.966	87.06
338.194	84.06
338.422	103.06
338.65	85.06
338.878	76.06
339.106	85.06
339.334	88.06
339.562	71.06
339.79	64.06
340.018	82.06
340.246	83.06
340.474	87.06
340.702	91.06
340.93	73.06
341.158	81.06
341.386	84.06
341.614	85.06
341.842	81.06
342.07	87.06
342.298	77.06
342.526	75.06
342.754	81.06
342.981	95.06
343.209	79.06
343.437	101.06
343.665	89.06
343.893	83.06
344.12	79.06
344.348	87.06
344.576	82.06
344.804	88.06
345.031	87.06
345.259	79.06
345.487	78.06
345.714	79.06
345.942	80.06
346.17	86.06
346.397	87.06
346.625	84.06
346.853	90.06
347.08	88.06
347.308	96.06
347.535	81.06
347.763	85.06
347.99	79.06
348.218	73.06
348.445	89.06
348.673	95.06
348.9	91.06
349.128	80.06
349.355	82.06
349.583	76.06
349.81	98.06
350.037	99.06
350.265	89.06
350.492	87.06
350.72	91.06
350.947	93.06
351.174	93.06
351.402	87.06
351.629	87.06
351.856	103.06
352.083	73.06
352.311	82.06
352.538	71.06
352.765	84.06
352.992	80.06
353.22	82.06
353.447	78.06
353.674	109.06
353.901	83.06
354.128	90.06
354.355	63.06
354.583	88.06
354.81	77.06
355.037	76.06
355.264	94.06
355.491	86.06
355.718	83.06
355.945	103.06
356.172	76.06
356.399	79.06
356.626	70.06
356.853	84.06
357.08	97.06
357.307	79.06
357.534	92.06
357.761	96.06
357.988	82.06
358.215	73.06
358.441	86.06
358.668	91.06
358.895	89.06
359.122	82.06
359.349	82.06
359.576	90.06
359.802	87.06
360.029	72.06
360.256	92.06
360.483	82.06
360.709	87.06
360.936	97.06
361.163	84.06
361.39	81.06
361.616	87.06
361.843	84.06
362.07	79.06
362.296	80.06
362.523	81.06
362.749	77.06
362.976	79.06
363.203	106.06
363.429	81.06
363.656	79.06
363.882	87.06
364.109	75.06
364.335	93.06
364.562	93.06
364.788	87.06
365.015	90.06
365.241	83.06
365.468	95.06
365.694	86.06
365.92	83.06
366.147	80.06
366.373	77.06
366.599	80.06
366.826	90.06
367.052	93.06
367.278	97.06
367.505	80.06
367.731	85.06
367.957	64.06
368.184	91.06
368.41	76.06
368.636	77.06
368.862	90.06
369.089	97.06
369.315	106.06
369.541	96.06
369.767	84.06
369.993	84.06
370.219	83.06
370.445	89.06
370.672	81.06
370.898	90.06
371.124	89.06
371.35	87.06
371.576	90.06
371.802	83.06
372.028	75.06
372.254	82.06
372.48	73.06
372.706	89.06
372.932	82.06
373.158	88.06
373.384	81.06
373.61	101.06
373.835	86.06
374.061	80.06
374.287	82.06
374.513	92.06
374.739	93.06
374.965	88.06
375.191	90.06
375.416	80.06
375.642	95.06
375.868	77.06
376.094	84.06
376.319	85.06
376.545	96.06
376.771	81.06
376.997	89.06
377.222	74.06
377.448	74.06
377.674	72.06
377.899	91.06
378.125	83.06
378.35	81.06
378.576	91.06
378.802	81.06
379.027	89.06
379.253	87.06
379.478	95.06
379.704	94.06
379.929	76.06
380.155	78.06
380.38	83.06
380.606	90.06
380.831	96.06
381.057	101.06
381.282	86.06
381.507	78.06
381.733	84.06
381.958	91.06
382.184	77.06
382.409	93.06
382.634	96.06
382.86	94.06
383.085	83.06
383.31	91.06
383.535	86.06
383.761	94.06
383.986	90.06
384.211	76.06
384.436	83.06
384.662	85.06
384.887	79.06
385.112	85.06
385.337	93.06
385.562	87.06
385.787	98.06
386.013	87.06
386.238	89.06
386.463	89.06
386.688	97.06
386.913	85.06
387.138	90.06
387.363	105.06
387.588	86.06
387.813	94.06
388.038	82.06
388.263	94.06
388.488	86.06
388.713	79.06
388.938	97.06
389.163	92.06
389.387	98.06
389.612	103.06
389.837	90.06
390.062	91.06
390.287	97.06
390.512	95.06
390.736	93.06
390.961	86.06
391.186	77.06
391.411	92.06
391.636	75.06
391.86	91.06
392.085	108.06
392.31	93.06
392.534	81.06
392.759	97.06
392.984	93.06
393.208	92.06
393.433	93.06
393.658	85.06
393.882	102.06
394.107	125.06
394.331	153.06
394.556	193.06
394.78	135.06
395.005	102.06
395.229	90.06
395.454	88.06
395.678	117.06
395.903	166.06
396.127	225.06
396.352	216.06
396.576	114.06
396.801	101.06
397.025	71.06
397.249	97.06
397.474	105.06
397.698	86.06
397.922	89.06
398.147	95.06
398.371	97.06
398.595	91.06
398.82	94.06
399.044	74.06
399.268	103.06
399.492	106.06
399.717	103.06
399.941	90.06
400.165	93.06
400.389	105.06
400.613	78.06
400.837	96.06
401.062	110.06
401.286	93.06
401.51	109.06
401.734	89.06
401.958	89.06
402.182	108.06
402.406	102.06
402.63	89.06
402.854	95.06
403.078	89.06
403.302	91.06
403.526	94.06
403.75	101.06
403.974	101.06
404.198	90.06
404.422	104.06
404.645	95.06
404.869	94.06
405.093	86.06
405.317	111.06
405.541	91.06
405.765	110.06
405.988	112.06
406.212	96.06
406.436	107.06
406.66	112.06
406.883	99.06
407.107	98.06
407.331	107.06
407.555	100.06
407.778	90.06
408.002	87.06
408.226	115.06
408.449	96.06
408.673	87.06
408.896	90.06
409.12	94.06
409.344	103.06
409.567	106.06
409.791	101.06
410.014	96.06
410.238	99.06
410.461	110.06
410.685	102.06
410.908	93.06
411.132	83.06
411.355	87.06
411.578	106.06
411.802	97.06
412.025	106.06
412.249	97.06
412.472	92.06
412.695	115.06
412.919	102.06
413.142	94.06
413.365	104.06
413.589	102.06
413.812	102.06
414.035	104.06
414.258	101.06
414.482	114.06
414.705	120.06
414.928	105.06
415.151	84.06
415.374	89.06
415.597	86.06
415.821	94.06
416.044	113.06
416.267	95.06
416.49	95.06
416.713	96.06
416.936	105.06
417.159	104.06
417.382	97.06
417.605	108.06
417.828	84.06
418.051	115.06
418.274	117.06
418.497	93.06
418.72	102.06
418.943	109.06
419.166	91.06
419.389	93.06
419.611	91.06
419.834	112.06
420.057	95.06
420.28	103.06
420.503	109.06
420.726	105.06
420.948	105.06
421.171	96.06
421.394	107.06
421.617	100.06
421.839	119.06
422.062	110.06
422.285	90.06
422.507	91.06
422.73	102.06
422.953	98.06
423.175	87.06
423.398	90.06
423.621	91.06
423.843	90.06
424.066	101.06
424.288	110.06
424.511	111.06
424.733	106.06
424.956	103.06
425.178	97.06
425.401	100.06
425.623	100.06
425.846	106.06
426.068	99.06
426.291	104.06
426.513	104.06
426.735	100.06
426.958	112.06
427.18	114.06
427.402	106.06
427.625	104.06
427.847	96.06
428.069	94.06
428.292	97.06
428.514	112.06
428.736	111.06
428.958	105.06
429.181	99.06
429.403	109.06
429.625	106.06
429.847	98.06
430.069	95.06
430.292	106.06
430.514	98.06
430.736	118.06
430.958	93.06
431.18	91.06
431.402	87.06
431.624	98.06
431.846	77.06
432.068	80.06
432.29	77.06
432.512	78.06
432.734	97.06
432.956	98.06
433.178	117.06
433.4	112.06
433.622	101.06
433.844	94.06
434.066	97.06
434.287	82.06
434.509	86.06
434.731	95.06
434.953	96.06
435.175	102.06
435.397	112.06
435.618	94.06
435.84	89.06
436.062	91.06
436.284	91.06
436.505	101.06
436.727	95.06
436.949	96.06
437.17	94.06
437.392	107.06
437.614	87.06
437.835	86.06
438.057	83.06
438.278	101.06
438.5	94.06
438.721	111.06
438.943	118.06
439.165	115.06
439.386	104.06
439.608	107.06
439.829	95.06
440.05	107.06
440.272	104.06
440.493	105.06
440.715	99.06
440.936	109.06
441.158	96.06
441.379	98.06
441.6	105.06
441.822	117.06
442.043	104.06
442.264	115.06
442.486	105.06
442.707	100.06
442.928	103.06
443.149	98.06
443.371	113.06
443.592	102.06
443.813	97.06
444.034	96.06
444.255	119.06
444.476	96.06
444.698	112.06
444.919	96.06
445.14	184.06
445.361	133.06
445.582	93.06
445.803	94.06
446.024	107.06
446.245	113.06
446.466	113.06
446.687	114.06
446.908	109.06
447.129	112.06
447.35	110.06
447.571	108.06
447.792	111.06
448.013	111.06
448.234	112.06
448.455	100.06
448.675	112.06
448.896	99.06
449.117	97.06
449.338	97.06
449.559	93.06
449.779	96.06
450	118.06
450.221	123.06
450.442	108.06
450.662	111.06
450.883	88.06
451.104	105.06
451.324	91.06
451.545	90.06
451.766	95.06
451.986	95.06
452.207	97.06
452.428	113.06
452.648	96.06
452.869	107.06
453.089	106.06
453.31	86.06
453.53	95.06
453.751	90.06
453.971	90.06
454.192	94.06
454.412	78.06
454.633	85.06
454.853	91.06
455.073	114.06
455.294	91.06
455.514	115.06
455.734	100.06
455.955	93.06
456.175	92.06
456.395	86.06
456.616	86.06
456.836	89.06
457.056	97.06
457.276	88.06
457.497	93.06
457.717	95.06
457.937	91.06
458.157	95.06
458.377	80.06
458.598	79.06
458.818	91.06
459.038	90.06
459.258	94.06
459.478	94.06
459.698	82.06
459.918	90.06
460.138	83.06
460.358	81.06
460.578	99.06
460.798	91.06
461.018	84.06
461.238	95.06
461.458	87.06
461.678	102.06
461.898	97.06
462.118	105.06
462.338	90.06
462.558	101.06
462.777	94.06
462.997	101.06
463.217	89.06
463.437	97.06
463.657	102.06
463.876	98.06
464.096	87.06
464.316	89.06
464.536	100.06
464.755	92.06
464.975	107.06
465.195	94.06
465.414	106.06
465.634	92.06
465.854	101.06
466.073	97.06
466.293	91.06
466.512	128.06
466.732	117.06
466.951	120.06
467.171	118.06
467.391	126.06
467.61	124.06
467.829	142.06
468.049	111.06
468.268	102.06
468.488	113.06
468.707	115.06
468.927	123.06
469.146	109.06
469.365	117.06
469.585	113.06
469.804	107.06
470.023	123.06
470.243	109.06
470.462	108.06
470.681	105.06
470.901	114.06
471.12	106.06
471.339	117.06
471.558	104.06
471.777	115.06
471.997	119.06
472.216	91.06
472.435	99.06
472.654	83.06
472.873	93.06
473.092	88.06
473.311	103.06
473.53	111.06
473.749	122.06
473.968	108.06
474.187	109.06
474.406	81.06
474.625	106.06
474.844	106.06
475.063	108.06
475.282	98.06
475.501	103.06
475.72	101.06
475.939	101.06
476.158	115.06
476.377	101.06
476.596	92.06
476.814	83.06
477.033	91.06
477.252	84.06
477.471	101.06
477.69	101.06
477.908	114.06
478.127	105.06
478.346	101.06
478.564	112.06
478.783	97.06
479.002	106.06
479.22	107.06
479.439	100.06
479.658	98.06
479.876	96.06
480.095	95.06
480.313	91.06
480.532	99.06
480.751	89.06
480.969	88.06
481.188	92.06
481.406	95.06
481.624	85.06
481.843	84.06
482.061	87.06
482.28	92.06
482.498	90.06
482.717	91.06
482.935	106.06
483.153	102.06
483.372	121.06
483.59	105.06
483.808	97.06
484.027	84.06
484.245	87.06
484.463	87.06
484.681	93.06
484.9	94.06
485.118	98.06
485.336	98.06
485.554	105.06
485.772	79.06
485.99	98.06
486.209	81.06
486.427	91.06
486.645	90.06
486.863	105.06
487.081	112.06
487.299	96.06
487.517	93.06
487.735	91.06
487.953	119.06
488.171	112.06
488.389	119.06
488.607	98.06
488.825	89.06
489.043	89.06
489.261	103.06
489.479	100.06
489.696	102.06
489.914	104.06
490.132	100.06
490.35	110.06
490.568	104.06
490.786	137.06
491.003	109.06
491.221	128.06
491.439	137.06
491.657	139.06
491.874	144.06
492.092	143.06
492.31	144.06
492.527	143.06
492.745	161.06
492.963	155.06
493.18	140.06
493.398	141.06
493.615	120.06
493.833	131.06
494.05	142.06
494.268	131.06
494.485	132.06
494.703	110.06
494.92	135.06
495.138	122.06
495.355	121.06
495.573	118.06
495.79	117.06
496.008	134.06
496.225	131.06
496.442	109.06
496.66	109.06
496.877	124.06
497.094	115.06
497.312	103.06
497.529	118.06
497.746	111.06
497.963	107.06
498.181	97.06
498.398	97.06
498.615	105.06
498.832	85.06
499.049	99.06
499.267	91.06
499.484	95.06
499.701	99.06
499.918	105.06
500.135	109.06
500.352	108.06
500.569	102.06
500.786	117.06
501.003	103.06
501.22	118.06
501.437	121.06
501.654	108.06
501.871	114.06
502.088	102.06
502.305	100.06
502.522	113.06
502.739	124.06
502.956	91.06
503.172	98.06
503.389	93.06
503.606	83.06
503.823	107.06
504.04	99.06
504.256	91.06
504.473	91.06
504.69	89.06
504.907	101.06
505.123	96.06
505.34	93.06
505.557	99.06
505.773	109.06
505.99	90.06
506.207	99.06
506.423	96.06
506.64	98.06
506.856	90.06
507.073	106.06
507.289	98.06
507.506	112.06
507.722	94.06
507.939	92.06
508.155	106.06
508.372	103.06
508.588	105.06
508.805	97.06
509.021	83.06
509.238	87.06
509.454	87.06
509.67	88.06
509.887	93.06
510.103	94.06
510.319	99.06
510.536	88.06
510.752	82.06
510.968	77.06
511.184	93.06
511.401	79.06
511.617	95.06
511.833	83.06
512.049	96.06
512.265	95.06
512.481	98.06
512.698	96.06
512.914	100.06
513.13	87.06
513.346	88.06
513.562	87.06
513.778	87.06
513.994	96.06
514.21	82.06
514.426	83.06
514.642	90.06
514.858	80.06
515.074	103.06
515.29	85.06
515.506	90.06
515.721	83.06
