Data from Foil_1_HRD10591_00008.txt Node
Date: Wed Nov 05 16:15:24 EST 2025
User: Yrep
Spectrometer: HR+D1059
Trigger mode: 1
Integration Time (sec): 1.000000E-1
Scans to average: 1
Electric dark correction enabled: true
Nonlinearity correction enabled: false
Boxcar width: 0
XAxis mode: Wavelengths
Number of Pixels in Spectrum: 2048
>>>>>Begin Spectral Data<<<<<
223.165	-24.12
223.4	-24.12
223.635	-24.12
223.869	-7.12
224.104	-25.12
224.338	-12.12
224.573	-7.12
224.808	-17.12
225.042	-7.12
225.277	2.88
225.511	-1.12
225.746	6.88
225.98	5.88
226.215	18.88
226.449	7.88
226.683	19.88
226.918	17.88
227.152	20.88
227.387	24.88
227.621	28.88
227.856	33.88
228.09	46.88
228.324	53.88
228.559	56.88
228.793	54.88
229.027	60.88
229.262	59.88
229.496	68.88
229.73	70.88
229.964	73.88
230.199	58.88
230.433	67.88
230.667	76.88
230.901	69.88
231.136	78.88
231.37	69.88
231.604	94.88
231.838	87.88
232.072	81.88
232.306	72.88
232.541	68.88
232.775	74.88
233.009	79.88
233.243	80.88
233.477	82.88
233.711	88.88
233.945	78.88
234.179	65.88
234.413	83.88
234.647	66.88
234.881	75.88
235.115	74.88
235.349	72.88
235.583	63.88
235.817	78.88
236.051	63.88
236.285	53.88
236.519	73.88
236.753	73.88
236.987	76.88
237.221	82.88
237.455	62.88
237.689	72.88
237.922	68.88
238.156	68.88
238.39	81.88
238.624	81.88
238.858	77.88
239.091	73.88
239.325	83.88
239.559	71.88
239.793	70.88
240.027	64.88
240.26	72.88
240.494	70.88
240.728	76.88
240.961	60.88
241.195	69.88
241.429	77.88
241.662	85.88
241.896	76.88
242.13	79.88
242.363	67.88
242.597	68.88
242.83	76.88
243.064	86.88
243.298	70.88
243.531	74.88
243.765	71.88
243.998	64.88
244.232	72.88
244.465	72.88
244.699	66.88
244.932	77.88
245.166	69.88
245.399	81.88
245.633	72.88
245.866	56.88
246.099	69.88
246.333	65.88
246.566	77.88
246.8	83.88
247.033	86.88
247.266	82.88
247.5	82.88
247.733	90.88
247.966	67.88
248.2	73.88
248.433	72.88
248.666	60.88
248.899	70.88
249.133	83.88
249.366	90.88
249.599	81.88
249.832	75.88
250.066	92.88
250.299	83.88
250.532	73.88
250.765	87.88
250.998	84.88
251.231	80.88
251.465	79.88
251.698	82.88
251.931	84.88
252.164	74.88
252.397	74.88
252.63	76.88
252.863	74.88
253.096	79.88
253.329	86.88
253.562	74.88
253.795	84.88
254.028	74.88
254.261	68.88
254.494	82.88
254.727	87.88
254.96	70.88
255.193	76.88
255.426	62.88
255.659	62.88
255.892	76.88
256.124	78.88
256.357	79.88
256.59	76.88
256.823	80.88
257.056	64.88
257.289	72.88
257.521	85.88
257.754	76.88
257.987	70.88
258.22	91.88
258.452	64.88
258.685	80.88
258.918	84.88
259.151	78.88
259.383	75.88
259.616	69.88
259.849	75.88
260.081	69.88
260.314	76.88
260.547	72.88
260.779	81.88
261.012	68.88
261.244	58.88
261.477	70.88
261.71	70.88
261.942	71.88
262.175	58.88
262.407	77.88
262.64	84.88
262.872	80.88
263.105	72.88
263.337	81.88
263.57	73.88
263.802	74.88
264.035	84.88
264.267	77.88
264.499	78.88
264.732	98.88
264.964	62.88
265.197	82.88
265.429	73.88
265.661	73.88
265.894	81.88
266.126	92.88
266.358	81.88
266.591	80.88
266.823	83.88
267.055	84.88
267.287	72.88
267.52	85.88
267.752	84.88
267.984	74.88
268.216	91.88
268.448	77.88
268.681	73.88
268.913	61.88
269.145	88.88
269.377	69.88
269.609	80.88
269.841	76.88
270.073	75.88
270.306	66.88
270.538	64.88
270.77	87.88
271.002	70.88
271.234	87.88
271.466	78.88
271.698	77.88
271.93	78.88
272.162	68.88
272.394	71.88
272.626	78.88
272.858	83.88
273.09	92.88
273.322	70.88
273.553	84.88
273.785	75.88
274.017	91.88
274.249	77.88
274.481	82.88
274.713	84.88
274.945	75.88
275.176	79.88
275.408	84.88
275.64	71.88
275.872	84.88
276.104	74.88
276.335	73.88
276.567	84.88
276.799	84.88
277.031	71.88
277.262	84.88
277.494	88.88
277.726	76.88
277.957	88.88
278.189	77.88
278.421	82.88
278.652	78.88
278.884	82.88
279.115	71.88
279.347	84.88
279.579	80.88
279.81	96.88
280.042	82.88
280.273	66.88
280.505	75.88
280.736	81.88
280.968	68.88
281.199	74.88
281.431	83.88
281.662	74.88
281.894	88.88
282.125	85.88
282.356	77.88
282.588	72.88
282.819	79.88
283.051	77.88
283.282	82.88
283.513	79.88
283.745	75.88
283.976	80.88
284.207	86.88
284.439	66.88
284.67	81.88
284.901	78.88
285.132	69.88
285.364	70.88
285.595	74.88
285.826	77.88
286.057	101.88
286.288	79.88
286.52	89.88
286.751	91.88
286.982	88.88
287.213	61.88
287.444	80.88
287.675	86.88
287.906	76.88
288.138	87.88
288.369	92.88
288.6	96.88
288.831	79.88
289.062	84.88
289.293	84.88
289.524	84.88
289.755	68.88
289.986	80.88
290.217	64.88
290.448	79.88
290.679	80.88
290.91	105.88
291.141	81.88
291.371	84.88
291.602	80.88
291.833	88.88
292.064	73.88
292.295	82.88
292.526	69.88
292.757	73.88
292.987	86.88
293.218	78.88
293.449	83.88
293.68	77.88
293.91	77.88
294.141	79.88
294.372	72.88
294.603	89.88
294.833	68.88
295.064	83.88
295.295	82.88
295.525	84.88
295.756	90.88
295.987	83.88
296.217	86.88
296.448	78.88
296.679	82.88
296.909	100.88
297.14	78.88
297.37	89.88
297.601	74.88
297.831	97.88
298.062	80.88
298.292	85.88
298.523	70.88
298.753	93.88
298.984	80.88
299.214	92.88
299.445	86.88
299.675	85.88
299.905	92.88
300.136	77.88
300.366	82.88
300.597	89.88
300.827	72.88
301.057	78.88
301.288	90.88
301.518	76.88
301.748	76.88
301.979	99.88
302.209	62.88
302.439	78.88
302.669	84.88
302.9	84.88
303.13	81.88
303.36	95.88
303.59	72.88
303.82	83.88
304.051	84.88
304.281	78.88
304.511	94.88
304.741	75.88
304.971	86.88
305.201	82.88
305.431	76.88
305.661	91.88
305.891	83.88
306.121	85.88
306.352	86.88
306.582	82.88
306.812	92.88
307.042	91.88
307.272	84.88
307.502	79.88
307.731	91.88
307.961	96.88
308.191	111.88
308.421	100.88
308.651	100.88
308.881	92.88
309.111	98.88
309.341	126.88
309.571	120.88
309.8	88.88
310.03	84.88
310.26	85.88
310.49	78.88
310.72	78.88
310.949	87.88
311.179	76.88
311.409	88.88
311.639	89.88
311.868	89.88
312.098	83.88
312.328	77.88
312.557	92.88
312.787	89.88
313.017	76.88
313.246	73.88
313.476	72.88
313.706	70.88
313.935	75.88
314.165	73.88
314.394	77.88
314.624	79.88
314.853	83.88
315.083	98.88
315.312	88.88
315.542	85.88
315.771	72.88
316.001	76.88
316.23	80.88
316.46	92.88
316.689	91.88
316.919	68.88
317.148	78.88
317.377	88.88
317.607	83.88
317.836	77.88
318.065	94.88
318.295	84.88
318.524	89.88
318.753	83.88
318.983	82.88
319.212	81.88
319.441	87.88
319.67	83.88
319.9	74.88
320.129	88.88
320.358	75.88
320.587	80.88
320.816	68.88
321.046	75.88
321.275	91.88
321.504	80.88
321.733	88.88
321.962	81.88
322.191	80.88
322.42	66.88
322.649	76.88
322.878	77.88
323.108	85.88
323.337	83.88
323.566	73.88
323.795	88.88
324.024	83.88
324.253	102.88
324.482	82.88
324.71	77.88
324.939	81.88
325.168	91.88
325.397	92.88
325.626	80.88
325.855	71.88
326.084	90.88
326.313	92.88
326.542	86.88
326.77	74.88
326.999	82.88
327.228	81.88
327.457	81.88
327.686	78.88
327.914	84.88
328.143	102.88
328.372	81.88
328.6	87.88
328.829	78.88
329.058	77.88
329.287	90.88
329.515	92.88
329.744	79.88
329.972	73.88
330.201	66.88
330.43	84.88
330.658	78.88
330.887	92.88
331.115	84.88
331.344	84.88
331.572	86.88
331.801	86.88
332.03	91.88
332.258	90.88
332.486	76.88
332.715	75.88
332.943	77.88
333.172	84.88
333.4	74.88
333.629	74.88
333.857	69.88
334.085	99.88
334.314	102.88
334.542	87.88
334.771	84.88
334.999	82.88
335.227	85.88
335.455	84.88
335.684	80.88
335.912	85.88
336.14	94.88
336.369	74.88
336.597	77.88
336.825	98.88
337.053	85.88
337.281	98.88
337.51	73.88
337.738	86.88
337.966	82.88
338.194	79.88
338.422	82.88
338.65	75.88
338.878	86.88
339.106	85.88
339.334	78.88
339.562	68.88
339.79	80.88
340.018	83.88
340.246	81.88
340.474	100.88
340.702	85.88
340.93	88.88
341.158	78.88
341.386	78.88
341.614	79.88
341.842	88.88
342.07	80.88
342.298	81.88
342.526	89.88
342.754	94.88
342.981	84.88
343.209	84.88
343.437	94.88
343.665	87.88
343.893	78.88
344.12	88.88
344.348	80.88
344.576	80.88
344.804	92.88
345.031	82.88
345.259	76.88
345.487	85.88
345.714	71.88
345.942	79.88
346.17	71.88
346.397	93.88
346.625	85.88
346.853	87.88
347.08	84.88
347.308	86.88
347.535	76.88
347.763	60.88
347.99	81.88
348.218	89.88
348.445	90.88
348.673	84.88
348.9	98.88
349.128	83.88
349.355	81.88
349.583	83.88
349.81	88.88
350.037	70.88
350.265	72.88
350.492	75.88
350.72	77.88
350.947	74.88
351.174	74.88
351.402	72.88
351.629	74.88
351.856	77.88
352.083	70.88
352.311	76.88
352.538	85.88
352.765	84.88
352.992	85.88
353.22	78.88
353.447	98.88
353.674	94.88
353.901	74.88
354.128	70.88
354.355	78.88
354.583	75.88
354.81	73.88
355.037	73.88
355.264	70.88
355.491	75.88
355.718	81.88
355.945	99.88
356.172	86.88
356.399	88.88
356.626	78.88
356.853	71.88
357.08	73.88
357.307	70.88
357.534	100.88
357.761	76.88
357.988	89.88
358.215	78.88
358.441	86.88
358.668	72.88
358.895	77.88
359.122	79.88
359.349	89.88
359.576	82.88
359.802	90.88
360.029	82.88
360.256	62.88
360.483	81.88
360.709	76.88
360.936	86.88
361.163	86.88
361.39	75.88
361.616	88.88
361.843	86.88
362.07	82.88
362.296	83.88
362.523	80.88
362.749	68.88
362.976	88.88
363.203	82.88
363.429	74.88
363.656	74.88
363.882	84.88
364.109	79.88
364.335	83.88
364.562	81.88
364.788	87.88
365.015	88.88
365.241	81.88
365.468	86.88
365.694	74.88
365.92	86.88
366.147	72.88
366.373	58.88
366.599	81.88
366.826	76.88
367.052	79.88
367.278	91.88
367.505	89.88
367.731	84.88
367.957	80.88
368.184	85.88
368.41	77.88
368.636	93.88
368.862	90.88
369.089	78.88
369.315	81.88
369.541	90.88
369.767	91.88
369.993	73.88
370.219	72.88
370.445	92.88
370.672	83.88
370.898	94.88
371.124	84.88
371.35	76.88
371.576	76.88
371.802	68.88
372.028	89.88
372.254	92.88
372.48	84.88
372.706	84.88
372.932	91.88
373.158	84.88
373.384	97.88
373.61	79.88
373.835	91.88
374.061	101.88
374.287	76.88
374.513	85.88
374.739	76.88
374.965	76.88
375.191	88.88
375.416	77.88
375.642	90.88
375.868	89.88
376.094	76.88
376.319	90.88
376.545	69.88
376.771	77.88
376.997	93.88
377.222	75.88
377.448	64.88
377.674	76.88
377.899	82.88
378.125	92.88
378.35	91.88
378.576	100.88
378.802	91.88
379.027	84.88
379.253	88.88
379.478	82.88
379.704	89.88
379.929	78.88
380.155	78.88
380.38	76.88
380.606	78.88
380.831	90.88
381.057	88.88
381.282	80.88
381.507	86.88
381.733	98.88
381.958	87.88
382.184	81.88
382.409	76.88
382.634	87.88
382.86	81.88
383.085	82.88
383.31	84.88
383.535	92.88
383.761	78.88
383.986	85.88
384.211	85.88
384.436	84.88
384.662	76.88
384.887	81.88
385.112	75.88
385.337	87.88
385.562	96.88
385.787	87.88
386.013	89.88
386.238	86.88
386.463	91.88
386.688	100.88
386.913	81.88
387.138	80.88
387.363	92.88
387.588	99.88
387.813	85.88
388.038	91.88
388.263	93.88
388.488	84.88
388.713	66.88
388.938	68.88
389.163	84.88
389.387	101.88
389.612	85.88
389.837	88.88
390.062	100.88
390.287	99.88
390.512	79.88
390.736	77.88
390.961	88.88
391.186	78.88
391.411	98.88
391.636	95.88
391.86	83.88
392.085	86.88
392.31	71.88
392.534	87.88
392.759	93.88
392.984	84.88
393.208	89.88
393.433	86.88
393.658	90.88
393.882	99.88
394.107	126.88
394.331	192.88
394.556	186.88
394.78	134.88
395.005	89.88
395.229	94.88
395.454	96.88
395.678	106.88
395.903	155.88
396.127	232.88
396.352	213.88
396.576	116.88
396.801	97.88
397.025	101.88
397.249	91.88
397.474	84.88
397.698	93.88
397.922	90.88
398.147	100.88
398.371	94.88
398.595	84.88
398.82	86.88
399.044	116.88
399.268	93.88
399.492	97.88
399.717	101.88
399.941	96.88
400.165	89.88
400.389	69.88
400.613	100.88
400.837	91.88
401.062	86.88
401.286	98.88
401.51	94.88
401.734	102.88
401.958	85.88
402.182	92.88
402.406	84.88
402.63	82.88
402.854	90.88
403.078	87.88
403.302	99.88
403.526	99.88
403.75	99.88
403.974	104.88
404.198	88.88
404.422	98.88
404.645	94.88
404.869	106.88
405.093	107.88
405.317	93.88
405.541	94.88
405.765	98.88
405.988	104.88
406.212	85.88
406.436	99.88
406.66	92.88
406.883	98.88
407.107	100.88
407.331	92.88
407.555	84.88
407.778	83.88
408.002	94.88
408.226	92.88
408.449	91.88
408.673	92.88
408.896	100.88
409.12	90.88
409.344	89.88
409.567	86.88
409.791	91.88
410.014	94.88
410.238	100.88
410.461	97.88
410.685	88.88
410.908	96.88
411.132	104.88
411.355	104.88
411.578	94.88
411.802	108.88
412.025	93.88
412.249	94.88
412.472	94.88
412.695	79.88
412.919	96.88
413.142	88.88
413.365	99.88
413.589	99.88
413.812	97.88
414.035	106.88
414.258	112.88
414.482	96.88
414.705	98.88
414.928	97.88
415.151	92.88
415.374	100.88
415.597	100.88
415.821	98.88
416.044	102.88
416.267	94.88
416.49	96.88
416.713	95.88
416.936	107.88
417.159	98.88
417.382	99.88
417.605	93.88
417.828	97.88
418.051	93.88
418.274	105.88
418.497	98.88
418.72	104.88
418.943	104.88
419.166	107.88
419.389	102.88
419.611	112.88
419.834	89.88
420.057	85.88
420.28	77.88
420.503	106.88
420.726	91.88
420.948	103.88
421.171	88.88
421.394	91.88
421.617	96.88
421.839	90.88
422.062	109.88
422.285	82.88
422.507	84.88
422.73	96.88
422.953	100.88
423.175	105.88
423.398	95.88
423.621	90.88
423.843	83.88
424.066	90.88
424.288	89.88
424.511	117.88
424.733	94.88
424.956	93.88
425.178	97.88
425.401	96.88
425.623	96.88
425.846	97.88
426.068	93.88
426.291	90.88
426.513	97.88
426.735	98.88
426.958	104.88
427.18	89.88
427.402	90.88
427.625	104.88
427.847	74.88
428.069	93.88
428.292	93.88
428.514	98.88
428.736	92.88
428.958	106.88
429.181	96.88
429.403	93.88
429.625	92.88
429.847	112.88
430.069	99.88
430.292	108.88
430.514	89.88
430.736	88.88
430.958	100.88
431.18	99.88
431.402	98.88
431.624	91.88
431.846	76.88
432.068	83.88
432.29	92.88
432.512	97.88
432.734	99.88
432.956	105.88
433.178	104.88
433.4	90.88
433.622	86.88
433.844	91.88
434.066	93.88
434.287	71.88
434.509	91.88
434.731	84.88
434.953	87.88
435.175	98.88
435.397	93.88
435.618	88.88
435.84	86.88
436.062	92.88
436.284	94.88
436.505	92.88
436.727	92.88
436.949	97.88
437.17	93.88
437.392	77.88
437.614	91.88
437.835	72.88
438.057	76.88
438.278	88.88
438.5	90.88
438.721	105.88
438.943	101.88
439.165	102.88
439.386	107.88
439.608	122.88
439.829	102.88
440.05	108.88
440.272	83.88
440.493	103.88
440.715	105.88
440.936	110.88
441.158	104.88
441.379	106.88
441.6	94.88
441.822	97.88
442.043	108.88
442.264	103.88
442.486	102.88
442.707	103.88
442.928	99.88
443.149	94.88
443.371	101.88
443.592	107.88
443.813	96.88
444.034	110.88
444.255	100.88
444.476	109.88
444.698	105.88
444.919	101.88
445.14	188.88
445.361	143.88
445.582	104.88
445.803	116.88
446.024	108.88
446.245	91.88
446.466	106.88
446.687	91.88
446.908	96.88
447.129	104.88
447.35	101.88
447.571	107.88
447.792	97.88
448.013	110.88
448.234	97.88
448.455	102.88
448.675	105.88
448.896	105.88
449.117	112.88
449.338	100.88
449.559	100.88
449.779	95.88
450	109.88
450.221	110.88
450.442	126.88
450.662	86.88
450.883	108.88
451.104	100.88
451.324	99.88
451.545	107.88
451.766	96.88
451.986	101.88
452.207	100.88
452.428	99.88
452.648	104.88
452.869	93.88
453.089	81.88
453.31	88.88
453.53	85.88
453.751	87.88
453.971	85.88
454.192	89.88
454.412	97.88
454.633	83.88
454.853	91.88
455.073	101.88
455.294	92.88
455.514	92.88
455.734	91.88
455.955	91.88
456.175	95.88
456.395	94.88
456.616	90.88
456.836	89.88
457.056	91.88
457.276	74.88
457.497	85.88
457.717	77.88
457.937	88.88
458.157	76.88
458.377	78.88
458.598	76.88
458.818	78.88
459.038	80.88
459.258	90.88
459.478	88.88
459.698	80.88
459.918	82.88
460.138	88.88
460.358	80.88
460.578	87.88
460.798	85.88
461.018	98.88
461.238	88.88
461.458	88.88
461.678	82.88
461.898	76.88
462.118	72.88
462.338	79.88
462.558	84.88
462.777	85.88
462.997	84.88
463.217	83.88
463.437	92.88
463.657	88.88
463.876	73.88
464.096	88.88
464.316	82.88
464.536	95.88
464.755	87.88
464.975	99.88
465.195	103.88
465.414	99.88
465.634	96.88
465.854	90.88
466.073	89.88
466.293	104.88
466.512	97.88
466.732	100.88
466.951	97.88
467.171	106.88
467.391	120.88
467.61	117.88
467.829	119.88
468.049	97.88
468.268	125.88
468.488	116.88
468.707	109.88
468.927	104.88
469.146	108.88
469.365	112.88
469.585	116.88
469.804	103.88
470.023	94.88
470.243	109.88
470.462	109.88
470.681	102.88
470.901	102.88
471.12	107.88
471.339	101.88
471.558	100.88
471.777	100.88
471.997	81.88
472.216	94.88
472.435	67.88
472.654	90.88
472.873	99.88
473.092	99.88
473.311	106.88
473.53	112.88
473.749	103.88
473.968	99.88
474.187	95.88
474.406	107.88
474.625	114.88
474.844	122.88
475.063	105.88
475.282	95.88
475.501	87.88
475.72	96.88
475.939	100.88
476.158	89.88
476.377	101.88
476.596	103.88
476.814	79.88
477.033	97.88
477.252	90.88
477.471	97.88
477.69	109.88
477.908	101.88
478.127	108.88
478.346	100.88
478.564	103.88
478.783	88.88
479.002	113.88
479.22	104.88
479.439	107.88
479.658	97.88
479.876	69.88
480.095	83.88
480.313	97.88
480.532	92.88
480.751	91.88
480.969	84.88
481.188	90.88
481.406	101.88
481.624	98.88
481.843	84.88
482.061	79.88
482.28	89.88
482.498	92.88
482.717	95.88
482.935	88.88
483.153	106.88
483.372	105.88
483.59	110.88
483.808	114.88
484.027	96.88
484.245	94.88
484.463	98.88
484.681	89.88
484.9	84.88
485.118	93.88
485.336	88.88
485.554	74.88
485.772	91.88
485.99	84.88
486.209	89.88
486.427	84.88
486.645	102.88
486.863	107.88
487.081	100.88
487.299	105.88
487.517	102.88
487.735	112.88
487.953	109.88
488.171	114.88
488.389	92.88
488.607	96.88
488.825	94.88
489.043	93.88
489.261	93.88
489.479	98.88
489.696	104.88
489.914	113.88
490.132	108.88
490.35	114.88
490.568	116.88
490.786	122.88
491.003	121.88
491.221	118.88
491.439	140.88
491.657	126.88
491.874	158.88
492.092	123.88
492.31	137.88
492.527	151.88
492.745	132.88
492.963	132.88
493.18	132.88
493.398	106.88
493.615	134.88
493.833	125.88
494.05	113.88
494.268	116.88
494.485	132.88
494.703	121.88
494.92	137.88
495.138	122.88
495.355	131.88
495.573	110.88
495.79	130.88
496.008	122.88
496.225	113.88
496.442	117.88
496.66	117.88
496.877	105.88
497.094	120.88
497.312	95.88
497.529	87.88
497.746	106.88
497.963	99.88
498.181	91.88
498.398	98.88
498.615	100.88
498.832	109.88
499.049	88.88
499.267	91.88
499.484	108.88
499.701	95.88
499.918	112.88
500.135	103.88
500.352	91.88
500.569	99.88
500.786	101.88
501.003	120.88
501.22	96.88
501.437	105.88
501.654	92.88
501.871	106.88
502.088	92.88
502.305	100.88
502.522	99.88
502.739	106.88
502.956	93.88
503.172	103.88
503.389	85.88
503.606	95.88
503.823	93.88
504.04	104.88
504.256	85.88
504.473	91.88
504.69	92.88
504.907	89.88
505.123	97.88
505.34	107.88
505.557	100.88
505.773	105.88
505.99	82.88
506.207	88.88
506.423	84.88
506.64	96.88
506.856	88.88
507.073	103.88
507.289	88.88
507.506	90.88
507.722	91.88
507.939	78.88
508.155	87.88
508.372	84.88
508.588	92.88
508.805	82.88
509.021	88.88
509.238	87.88
509.454	85.88
509.67	82.88
509.887	84.88
510.103	88.88
510.319	79.88
510.536	88.88
510.752	90.88
510.968	98.88
511.184	81.88
511.401	77.88
511.617	83.88
511.833	96.88
512.049	93.88
512.265	85.88
512.481	88.88
512.698	82.88
512.914	90.88
513.13	90.88
513.346	89.88
513.562	87.88
513.778	84.88
513.994	79.88
514.21	91.88
514.426	85.88
514.642	76.88
514.858	78.88
515.074	77.88
515.29	86.88
515.506	84.88
515.721	76.88
515.937	91.88
516.153	81.88
516.369	88.88
516.585	93.88
516.801	77.88
517.016	91.88
517.232	86.88
