Data from Foil_1_HRD10591_00002.txt Node
Date: Wed Nov 05 16:15:21 EST 2025
User: Yrep
Spectrometer: HR+D1059
Trigger mode: 1
Integration Time (sec): 1.000000E-1
Scans to average: 1
Electric dark correction enabled: true
Nonlinearity correction enabled: false
Boxcar width: 0
XAxis mode: Wavelengths
Number of Pixels in Spectrum: 2048
>>>>>Begin Spectral Data<<<<<
223.165	-21.06
223.4	-21.06
223.635	-21.06
223.869	-10.06
224.104	-12.06
224.338	-20.06
224.573	-20.06
224.808	-3.06
225.042	12.94
225.277	-7.06
225.511	1.94
225.746	-8.06
225.98	-7.06
226.215	10.94
226.449	4.94
226.683	14.94
226.918	25.94
227.152	36.94
227.387	27.94
227.621	38.94
227.856	48.94
228.09	53.94
228.324	44.94
228.559	63.94
228.793	57.94
229.027	67.94
229.262	75.94
229.496	74.94
229.73	73.94
229.964	76.94
230.199	80.94
230.433	73.94
230.667	73.94
230.901	61.94
231.136	71.94
231.37	67.94
231.604	71.94
231.838	77.94
232.072	82.94
232.306	72.94
232.541	85.94
232.775	93.94
233.009	75.94
233.243	68.94
233.477	81.94
233.711	76.94
233.945	80.94
234.179	68.94
234.413	93.94
234.647	84.94
234.881	82.94
235.115	67.94
235.349	85.94
235.583	67.94
235.817	67.94
236.051	79.94
236.285	67.94
236.519	63.94
236.753	80.94
236.987	73.94
237.221	68.94
237.455	64.94
237.689	72.94
237.922	76.94
238.156	75.94
238.39	59.94
238.624	79.94
238.858	81.94
239.091	74.94
239.325	67.94
239.559	64.94
239.793	73.94
240.027	82.94
240.26	80.94
240.494	75.94
240.728	91.94
240.961	81.94
241.195	67.94
241.429	72.94
241.662	72.94
241.896	75.94
242.13	67.94
242.363	77.94
242.597	65.94
242.83	77.94
243.064	81.94
243.298	64.94
243.531	79.94
243.765	70.94
243.998	69.94
244.232	76.94
244.465	85.94
244.699	63.94
244.932	80.94
245.166	68.94
245.399	74.94
245.633	51.94
245.866	62.94
246.099	76.94
246.333	76.94
246.566	76.94
246.8	86.94
247.033	95.94
247.266	80.94
247.5	78.94
247.733	77.94
247.966	82.94
248.2	77.94
248.433	88.94
248.666	86.94
248.899	83.94
249.133	67.94
249.366	95.94
249.599	74.94
249.832	75.94
250.066	75.94
250.299	79.94
250.532	98.94
250.765	69.94
250.998	80.94
251.231	87.94
251.465	78.94
251.698	77.94
251.931	90.94
252.164	77.94
252.397	79.94
252.63	88.94
252.863	80.94
253.096	87.94
253.329	87.94
253.562	88.94
253.795	63.94
254.028	84.94
254.261	72.94
254.494	76.94
254.727	84.94
254.96	87.94
255.193	60.94
255.426	67.94
255.659	69.94
255.892	65.94
256.124	89.94
256.357	77.94
256.59	89.94
256.823	83.94
257.056	80.94
257.289	85.94
257.521	73.94
257.754	84.94
257.987	88.94
258.22	81.94
258.452	77.94
258.685	69.94
258.918	68.94
259.151	77.94
259.383	85.94
259.616	77.94
259.849	81.94
260.081	78.94
260.314	81.94
260.547	86.94
260.779	58.94
261.012	93.94
261.244	73.94
261.477	82.94
261.71	79.94
261.942	73.94
262.175	86.94
262.407	75.94
262.64	87.94
262.872	82.94
263.105	95.94
263.337	73.94
263.57	83.94
263.802	77.94
264.035	82.94
264.267	75.94
264.499	73.94
264.732	96.94
264.964	71.94
265.197	78.94
265.429	79.94
265.661	76.94
265.894	73.94
266.126	87.94
266.358	80.94
266.591	86.94
266.823	88.94
267.055	60.94
267.287	80.94
267.52	86.94
267.752	72.94
267.984	88.94
268.216	91.94
268.448	85.94
268.681	79.94
268.913	96.94
269.145	69.94
269.377	81.94
269.609	94.94
269.841	83.94
270.073	84.94
270.306	73.94
270.538	85.94
270.77	72.94
271.002	72.94
271.234	92.94
271.466	79.94
271.698	75.94
271.93	69.94
272.162	85.94
272.394	80.94
272.626	81.94
272.858	72.94
273.09	84.94
273.322	86.94
273.553	85.94
273.785	78.94
274.017	81.94
274.249	83.94
274.481	71.94
274.713	75.94
274.945	81.94
275.176	82.94
275.408	91.94
275.64	80.94
275.872	97.94
276.104	71.94
276.335	84.94
276.567	73.94
276.799	83.94
277.031	85.94
277.262	68.94
277.494	86.94
277.726	77.94
277.957	78.94
278.189	81.94
278.421	84.94
278.652	77.94
278.884	85.94
279.115	88.94
279.347	80.94
279.579	97.94
279.81	93.94
280.042	72.94
280.273	90.94
280.505	77.94
280.736	80.94
280.968	98.94
281.199	89.94
281.431	79.94
281.662	77.94
281.894	89.94
282.125	84.94
282.356	89.94
282.588	87.94
282.819	75.94
283.051	87.94
283.282	75.94
283.513	83.94
283.745	85.94
283.976	79.94
284.207	77.94
284.439	74.94
284.67	87.94
284.901	81.94
285.132	79.94
285.364	75.94
285.595	90.94
285.826	81.94
286.057	79.94
286.288	72.94
286.52	91.94
286.751	85.94
286.982	71.94
287.213	73.94
287.444	90.94
287.675	86.94
287.906	82.94
288.138	71.94
288.369	84.94
288.6	77.94
288.831	78.94
289.062	86.94
289.293	80.94
289.524	80.94
289.755	81.94
289.986	82.94
290.217	72.94
290.448	75.94
290.679	79.94
290.91	91.94
291.141	75.94
291.371	79.94
291.602	80.94
291.833	74.94
292.064	93.94
292.295	95.94
292.526	71.94
292.757	74.94
292.987	75.94
293.218	79.94
293.449	72.94
293.68	77.94
293.91	82.94
294.141	96.94
294.372	75.94
294.603	91.94
294.833	78.94
295.064	81.94
295.295	93.94
295.525	97.94
295.756	82.94
295.987	79.94
296.217	95.94
296.448	77.94
296.679	78.94
296.909	92.94
297.14	83.94
297.37	87.94
297.601	84.94
297.831	85.94
298.062	74.94
298.292	93.94
298.523	83.94
298.753	87.94
298.984	94.94
299.214	74.94
299.445	85.94
299.675	91.94
299.905	77.94
300.136	73.94
300.366	85.94
300.597	75.94
300.827	76.94
301.057	78.94
301.288	85.94
301.518	71.94
301.748	74.94
301.979	91.94
302.209	88.94
302.439	87.94
302.669	80.94
302.9	85.94
303.13	79.94
303.36	71.94
303.59	88.94
303.82	95.94
304.051	84.94
304.281	73.94
304.511	86.94
304.741	75.94
304.971	91.94
305.201	78.94
305.431	73.94
305.661	94.94
305.891	69.94
306.121	75.94
306.352	86.94
306.582	89.94
306.812	100.94
307.042	75.94
307.272	92.94
307.502	80.94
307.731	83.94
307.961	97.94
308.191	127.94
308.421	133.94
308.651	98.94
308.881	99.94
309.111	125.94
309.341	120.94
309.571	121.94
309.8	80.94
310.03	80.94
310.26	79.94
310.49	74.94
310.72	80.94
310.949	79.94
311.179	94.94
311.409	88.94
311.639	74.94
311.868	72.94
312.098	89.94
312.328	87.94
312.557	81.94
312.787	81.94
313.017	80.94
313.246	92.94
313.476	79.94
313.706	85.94
313.935	75.94
314.165	91.94
314.394	72.94
314.624	80.94
314.853	85.94
315.083	82.94
315.312	73.94
315.542	76.94
315.771	67.94
316.001	94.94
316.23	92.94
316.46	80.94
316.689	72.94
316.919	84.94
317.148	89.94
317.377	75.94
317.607	77.94
317.836	82.94
318.065	78.94
318.295	86.94
318.524	83.94
318.753	81.94
318.983	95.94
319.212	87.94
319.441	70.94
319.67	66.94
319.9	87.94
320.129	89.94
320.358	87.94
320.587	84.94
320.816	87.94
321.046	80.94
321.275	84.94
321.504	79.94
321.733	81.94
321.962	95.94
322.191	78.94
322.42	77.94
322.649	86.94
322.878	78.94
323.108	92.94
323.337	74.94
323.566	84.94
323.795	75.94
324.024	80.94
324.253	104.94
324.482	85.94
324.71	87.94
324.939	94.94
325.168	76.94
325.397	80.94
325.626	83.94
325.855	73.94
326.084	85.94
326.313	92.94
326.542	93.94
326.77	87.94
326.999	95.94
327.228	92.94
327.457	85.94
327.686	87.94
327.914	83.94
328.143	91.94
328.372	95.94
328.6	82.94
328.829	90.94
329.058	87.94
329.287	75.94
329.515	81.94
329.744	79.94
329.972	79.94
330.201	76.94
330.43	79.94
330.658	84.94
330.887	74.94
331.115	79.94
331.344	86.94
331.572	80.94
331.801	82.94
332.03	78.94
332.258	89.94
332.486	91.94
332.715	81.94
332.943	78.94
333.172	89.94
333.4	74.94
333.629	91.94
333.857	82.94
334.085	88.94
334.314	91.94
334.542	87.94
334.771	83.94
334.999	71.94
335.227	74.94
335.455	88.94
335.684	88.94
335.912	81.94
336.14	77.94
336.369	93.94
336.597	86.94
336.825	89.94
337.053	86.94
337.281	93.94
337.51	75.94
337.738	90.94
337.966	80.94
338.194	85.94
338.422	95.94
338.65	97.94
338.878	100.94
339.106	95.94
339.334	87.94
339.562	89.94
339.79	82.94
340.018	86.94
340.246	89.94
340.474	74.94
340.702	89.94
340.93	83.94
341.158	83.94
341.386	89.94
341.614	87.94
341.842	89.94
342.07	75.94
342.298	75.94
342.526	87.94
342.754	81.94
342.981	85.94
343.209	89.94
343.437	97.94
343.665	84.94
343.893	91.94
344.12	96.94
344.348	88.94
344.576	74.94
344.804	87.94
345.031	77.94
345.259	93.94
345.487	68.94
345.714	67.94
345.942	77.94
346.17	69.94
346.397	80.94
346.625	92.94
346.853	69.94
347.08	71.94
347.308	88.94
347.535	79.94
347.763	80.94
347.99	84.94
348.218	69.94
348.445	76.94
348.673	74.94
348.9	79.94
349.128	82.94
349.355	80.94
349.583	90.94
349.81	91.94
350.037	78.94
350.265	71.94
350.492	69.94
350.72	91.94
350.947	89.94
351.174	90.94
351.402	79.94
351.629	73.94
351.856	69.94
352.083	78.94
352.311	80.94
352.538	63.94
352.765	83.94
352.992	91.94
353.22	103.94
353.447	87.94
353.674	82.94
353.901	83.94
354.128	85.94
354.355	78.94
354.583	67.94
354.81	90.94
355.037	72.94
355.264	78.94
355.491	77.94
355.718	76.94
355.945	79.94
356.172	82.94
356.399	73.94
356.626	83.94
356.853	83.94
357.08	79.94
357.307	75.94
357.534	71.94
357.761	83.94
357.988	92.94
358.215	81.94
358.441	96.94
358.668	86.94
358.895	79.94
359.122	80.94
359.349	70.94
359.576	81.94
359.802	88.94
360.029	86.94
360.256	87.94
360.483	80.94
360.709	78.94
360.936	90.94
361.163	77.94
361.39	77.94
361.616	75.94
361.843	81.94
362.07	74.94
362.296	77.94
362.523	69.94
362.749	89.94
362.976	92.94
363.203	87.94
363.429	71.94
363.656	80.94
363.882	87.94
364.109	75.94
364.335	99.94
364.562	85.94
364.788	90.94
365.015	75.94
365.241	84.94
365.468	87.94
365.694	79.94
365.92	87.94
366.147	81.94
366.373	100.94
366.599	77.94
366.826	86.94
367.052	67.94
367.278	74.94
367.505	72.94
367.731	99.94
367.957	88.94
368.184	81.94
368.41	80.94
368.636	85.94
368.862	89.94
369.089	80.94
369.315	77.94
369.541	78.94
369.767	70.94
369.993	84.94
370.219	78.94
370.445	69.94
370.672	82.94
370.898	82.94
371.124	89.94
371.35	71.94
371.576	88.94
371.802	76.94
372.028	86.94
372.254	80.94
372.48	81.94
372.706	90.94
372.932	89.94
373.158	92.94
373.384	88.94
373.61	87.94
373.835	80.94
374.061	77.94
374.287	80.94
374.513	87.94
374.739	72.94
374.965	83.94
375.191	82.94
375.416	77.94
375.642	87.94
375.868	97.94
376.094	88.94
376.319	86.94
376.545	81.94
376.771	86.94
376.997	80.94
377.222	92.94
377.448	75.94
377.674	96.94
377.899	103.94
378.125	84.94
378.35	69.94
378.576	87.94
378.802	85.94
379.027	76.94
379.253	88.94
379.478	87.94
379.704	81.94
379.929	91.94
380.155	85.94
380.38	90.94
380.606	83.94
380.831	92.94
381.057	87.94
381.282	91.94
381.507	94.94
381.733	87.94
381.958	73.94
382.184	81.94
382.409	94.94
382.634	72.94
382.86	83.94
383.085	79.94
383.31	85.94
383.535	87.94
383.761	77.94
383.986	89.94
384.211	94.94
384.436	96.94
384.662	91.94
384.887	87.94
385.112	92.94
385.337	96.94
385.562	93.94
385.787	95.94
386.013	91.94
386.238	96.94
386.463	97.94
386.688	106.94
386.913	97.94
387.138	87.94
387.363	82.94
387.588	73.94
387.813	85.94
388.038	92.94
388.263	83.94
388.488	85.94
388.713	84.94
388.938	86.94
389.163	87.94
389.387	75.94
389.612	87.94
389.837	100.94
390.062	94.94
390.287	79.94
390.512	80.94
390.736	99.94
390.961	91.94
391.186	92.94
391.411	87.94
391.636	89.94
391.86	82.94
392.085	97.94
392.31	95.94
392.534	94.94
392.759	90.94
392.984	84.94
393.208	92.94
393.433	97.94
393.658	101.94
393.882	102.94
394.107	115.94
394.331	176.94
394.556	208.94
394.78	140.94
395.005	106.94
395.229	97.94
395.454	101.94
395.678	106.94
395.903	149.94
396.127	257.94
396.352	237.94
396.576	136.94
396.801	103.94
397.025	87.94
397.249	98.94
397.474	99.94
397.698	109.94
397.922	93.94
398.147	82.94
398.371	96.94
398.595	89.94
398.82	91.94
399.044	95.94
399.268	88.94
399.492	91.94
399.717	87.94
399.941	83.94
400.165	95.94
400.389	95.94
400.613	96.94
400.837	88.94
401.062	82.94
401.286	82.94
401.51	93.94
401.734	91.94
401.958	93.94
402.182	92.94
402.406	77.94
402.63	93.94
402.854	98.94
403.078	87.94
403.302	92.94
403.526	87.94
403.75	90.94
403.974	81.94
404.198	99.94
404.422	105.94
404.645	90.94
404.869	91.94
405.093	87.94
405.317	92.94
405.541	101.94
405.765	76.94
405.988	91.94
406.212	91.94
406.436	105.94
406.66	95.94
406.883	111.94
407.107	108.94
407.331	94.94
407.555	100.94
407.778	94.94
408.002	101.94
408.226	85.94
408.449	93.94
408.673	86.94
408.896	82.94
409.12	95.94
409.344	79.94
409.567	101.94
409.791	102.94
410.014	99.94
410.238	98.94
410.461	102.94
410.685	93.94
410.908	105.94
411.132	89.94
411.355	101.94
411.578	95.94
411.802	107.94
412.025	104.94
412.249	88.94
412.472	92.94
412.695	89.94
412.919	90.94
413.142	87.94
413.365	106.94
413.589	96.94
413.812	94.94
414.035	95.94
414.258	85.94
414.482	99.94
414.705	109.94
414.928	91.94
415.151	100.94
415.374	107.94
415.597	100.94
415.821	115.94
416.044	98.94
416.267	91.94
416.49	101.94
416.713	102.94
416.936	111.94
417.159	92.94
417.382	99.94
417.605	90.94
417.828	112.94
418.051	82.94
418.274	87.94
418.497	96.94
418.72	107.94
418.943	94.94
419.166	105.94
419.389	107.94
419.611	81.94
419.834	111.94
420.057	105.94
420.28	108.94
420.503	91.94
420.726	97.94
420.948	95.94
421.171	93.94
421.394	104.94
421.617	92.94
421.839	97.94
422.062	88.94
422.285	112.94
422.507	97.94
422.73	101.94
422.953	103.94
423.175	96.94
423.398	116.94
423.621	98.94
423.843	110.94
424.066	105.94
424.288	83.94
424.511	116.94
424.733	84.94
424.956	94.94
425.178	97.94
425.401	99.94
425.623	93.94
425.846	105.94
426.068	101.94
426.291	105.94
426.513	95.94
426.735	103.94
426.958	101.94
427.18	108.94
427.402	107.94
427.625	91.94
427.847	87.94
428.069	99.94
428.292	104.94
428.514	103.94
428.736	108.94
428.958	103.94
429.181	106.94
429.403	83.94
429.625	97.94
429.847	80.94
430.069	106.94
430.292	102.94
430.514	105.94
430.736	99.94
430.958	97.94
431.18	88.94
431.402	93.94
431.624	90.94
431.846	106.94
432.068	82.94
432.29	88.94
432.512	86.94
432.734	105.94
432.956	85.94
433.178	99.94
433.4	93.94
433.622	105.94
433.844	97.94
434.066	78.94
434.287	79.94
434.509	67.94
434.731	75.94
434.953	72.94
435.175	102.94
435.397	101.94
435.618	76.94
435.84	97.94
436.062	77.94
436.284	102.94
436.505	85.94
436.727	97.94
436.949	105.94
437.17	80.94
437.392	99.94
437.614	93.94
437.835	92.94
438.057	82.94
438.278	86.94
438.5	89.94
438.721	117.94
438.943	109.94
439.165	106.94
439.386	103.94
439.608	109.94
439.829	121.94
440.05	99.94
440.272	98.94
440.493	104.94
440.715	117.94
440.936	111.94
441.158	100.94
441.379	110.94
441.6	110.94
441.822	103.94
442.043	100.94
442.264	104.94
442.486	117.94
442.707	99.94
442.928	111.94
443.149	98.94
443.371	99.94
443.592	95.94
443.813	118.94
444.034	98.94
444.255	104.94
444.476	99.94
444.698	105.94
444.919	108.94
445.14	153.94
445.361	131.94
445.582	85.94
445.803	98.94
446.024	107.94
446.245	112.94
446.466	105.94
446.687	119.94
446.908	102.94
447.129	96.94
447.35	93.94
447.571	113.94
447.792	111.94
448.013	104.94
448.234	84.94
448.455	91.94
448.675	87.94
448.896	112.94
449.117	124.94
449.338	100.94
449.559	103.94
449.779	111.94
450	117.94
450.221	102.94
450.442	120.94
450.662	95.94
450.883	105.94
451.104	96.94
451.324	99.94
451.545	101.94
451.766	102.94
451.986	101.94
452.207	101.94
452.428	96.94
452.648	85.94
452.869	97.94
453.089	71.94
453.31	83.94
453.53	77.94
453.751	87.94
453.971	73.94
454.192	91.94
454.412	100.94
454.633	95.94
454.853	81.94
455.073	99.94
455.294	86.94
455.514	100.94
455.734	82.94
455.955	93.94
456.175	85.94
456.395	87.94
456.616	89.94
456.836	91.94
457.056	77.94
457.276	80.94
457.497	97.94
457.717	96.94
457.937	78.94
458.157	84.94
458.377	85.94
458.598	78.94
458.818	97.94
459.038	80.94
459.258	77.94
459.478	87.94
459.698	79.94
459.918	73.94
460.138	79.94
460.358	75.94
460.578	81.94
460.798	91.94
461.018	88.94
461.238	89.94
461.458	93.94
461.678	89.94
461.898	89.94
462.118	99.94
462.338	94.94
462.558	85.94
462.777	86.94
462.997	95.94
463.217	80.94
463.437	87.94
463.657	97.94
463.876	84.94
464.096	93.94
464.316	94.94
464.536	91.94
464.755	89.94
464.975	103.94
465.195	100.94
465.414	91.94
465.634	91.94
465.854	83.94
466.073	91.94
466.293	96.94
466.512	92.94
466.732	104.94
466.951	98.94
467.171	112.94
467.391	126.94
467.61	103.94
467.829	112.94
468.049	124.94
468.268	96.94
468.488	95.94
468.707	101.94
468.927	105.94
469.146	100.94
469.365	102.94
469.585	106.94
469.804	102.94
470.023	118.94
470.243	112.94
470.462	101.94
470.681	108.94
470.901	96.94
471.12	112.94
471.339	117.94
471.558	102.94
471.777	115.94
471.997	88.94
472.216	99.94
472.435	95.94
472.654	96.94
472.873	83.94
473.092	92.94
473.311	97.94
473.53	102.94
473.749	111.94
473.968	112.94
474.187	97.94
474.406	88.94
474.625	99.94
474.844	103.94
475.063	85.94
475.282	80.94
475.501	85.94
475.72	95.94
475.939	78.94
476.158	92.94
476.377	104.94
476.596	78.94
476.814	92.94
477.033	77.94
477.252	97.94
477.471	94.94
477.69	99.94
477.908	117.94
478.127	96.94
478.346	98.94
478.564	93.94
478.783	90.94
479.002	95.94
479.22	89.94
479.439	108.94
479.658	95.94
479.876	95.94
480.095	77.94
480.313	80.94
480.532	91.94
480.751	94.94
480.969	82.94
481.188	89.94
481.406	72.94
481.624	72.94
481.843	72.94
482.061	83.94
482.28	90.94
482.498	92.94
482.717	81.94
482.935	96.94
483.153	97.94
483.372	110.94
483.59	105.94
483.808	85.94
484.027	95.94
484.245	101.94
484.463	97.94
484.681	97.94
484.9	103.94
485.118	99.94
485.336	80.94
485.554	100.94
485.772	85.94
485.99	81.94
486.209	92.94
486.427	95.94
486.645	72.94
486.863	97.94
487.081	92.94
487.299	105.94
487.517	102.94
487.735	92.94
487.953	123.94
488.171	117.94
488.389	110.94
488.607	93.94
488.825	103.94
489.043	88.94
489.261	86.94
489.479	89.94
489.696	110.94
489.914	112.94
490.132	121.94
490.35	112.94
490.568	126.94
490.786	125.94
491.003	108.94
491.221	124.94
491.439	131.94
491.657	128.94
491.874	156.94
492.092	141.94
492.31	143.94
492.527	122.94
492.745	123.94
492.963	146.94
493.18	127.94
493.398	139.94
493.615	136.94
493.833	133.94
494.05	134.94
494.268	128.94
494.485	113.94
494.703	133.94
494.92	119.94
495.138	104.94
495.355	133.94
495.573	127.94
495.79	102.94
496.008	121.94
496.225	104.94
496.442	119.94
496.66	121.94
496.877	101.94
497.094	105.94
497.312	118.94
497.529	95.94
497.746	120.94
497.963	96.94
498.181	91.94
498.398	92.94
498.615	86.94
498.832	90.94
499.049	76.94
499.267	100.94
499.484	95.94
499.701	85.94
499.918	107.94
500.135	103.94
500.352	111.94
500.569	102.94
500.786	103.94
501.003	105.94
501.22	101.94
501.437	108.94
501.654	94.94
501.871	85.94
502.088	99.94
502.305	77.94
502.522	101.94
502.739	84.94
502.956	101.94
503.172	98.94
503.389	93.94
503.606	91.94
503.823	99.94
504.04	74.94
504.256	88.94
504.473	94.94
504.69	83.94
504.907	94.94
505.123	93.94
505.34	87.94
505.557	100.94
505.773	109.94
505.99	99.94
506.207	97.94
506.423	87.94
506.64	115.94
506.856	94.94
507.073	100.94
507.289	103.94
507.506	93.94
507.722	95.94
507.939	106.94
508.155	93.94
508.372	100.94
508.588	85.94
508.805	82.94
509.021	92.94
509.238	75.94
509.454	93.94
509.67	93.94
509.887	70.94
510.103	86.94
510.319	89.94
510.536	92.94
510.752	89.94
510.968	86.94
511.184	78.94
511.401	85.94
511.617	92.94
511.833	86.94
512.049	88.94
512.265	102.94
512.481	80.94
512.698	84.94
512.914	75.94
513.13	99.94
513.346	75.94
513.562	90.94
513.778	98.94
513.994	82.94
514.21	95.94
514.426	92.94
514.642	85.94
514.858	86.94
515.074	82.94
515.29	82.94
515.506	85.94
515.721	78.94
515.937	79.94
516.153	82.94
516.369	83.94
516.585	80.94
516.801	88.94
517.016	71.94
