Data from Foil_1_HRD10591_00003.txt Node
Date: Wed Nov 05 16:15:22 EST 2025
User: Yrep
Spectrometer: HR+D1059
Trigger mode: 1
Integration Time (sec): 1.000000E-1
Scans to average: 1
Electric dark correction enabled: true
Nonlinearity correction enabled: false
Boxcar width: 0
XAxis mode: Wavelengths
Number of Pixels in Spectrum: 2048
>>>>>Begin Spectral Data<<<<<
223.165	-26.62
223.4	-26.62
223.635	-26.62
223.869	-16.62
224.104	-27.62
224.338	-1.62
224.573	-1.62
224.808	-13.62
225.042	-11.62
225.277	-0.62
225.511	-10.62
225.746	-0.62
225.98	8.38
226.215	6.38
226.449	11.38
226.683	25.38
226.918	31.38
227.152	28.38
227.387	36.38
227.621	44.38
227.856	47.38
228.09	57.38
228.324	50.38
228.559	63.38
228.793	69.38
229.027	61.38
229.262	70.38
229.496	69.38
229.73	64.38
229.964	66.38
230.199	64.38
230.433	72.38
230.667	76.38
230.901	76.38
231.136	70.38
231.37	66.38
231.604	88.38
231.838	75.38
232.072	72.38
232.306	90.38
232.541	83.38
232.775	69.38
233.009	87.38
233.243	84.38
233.477	92.38
233.711	90.38
233.945	69.38
234.179	72.38
234.413	78.38
234.647	77.38
234.881	74.38
235.115	66.38
235.349	78.38
235.583	72.38
235.817	76.38
236.051	80.38
236.285	72.38
236.519	77.38
236.753	91.38
236.987	77.38
237.221	77.38
237.455	73.38
237.689	70.38
237.922	76.38
238.156	81.38
238.39	78.38
238.624	71.38
238.858	73.38
239.091	82.38
239.325	84.38
239.559	86.38
239.793	85.38
240.027	83.38
240.26	65.38
240.494	80.38
240.728	65.38
240.961	76.38
241.195	74.38
241.429	82.38
241.662	65.38
241.896	73.38
242.13	77.38
242.363	74.38
242.597	68.38
242.83	90.38
243.064	95.38
243.298	90.38
243.531	89.38
243.765	72.38
243.998	79.38
244.232	84.38
244.465	77.38
244.699	87.38
244.932	68.38
245.166	74.38
245.399	84.38
245.633	91.38
245.866	65.38
246.099	80.38
246.333	91.38
246.566	74.38
246.8	74.38
247.033	75.38
247.266	70.38
247.5	80.38
247.733	76.38
247.966	81.38
248.2	76.38
248.433	73.38
248.666	75.38
248.899	90.38
249.133	82.38
249.366	80.38
249.599	76.38
249.832	76.38
250.066	87.38
250.299	71.38
250.532	92.38
250.765	71.38
250.998	69.38
251.231	84.38
251.465	71.38
251.698	66.38
251.931	83.38
252.164	76.38
252.397	83.38
252.63	73.38
252.863	83.38
253.096	67.38
253.329	76.38
253.562	73.38
253.795	76.38
254.028	94.38
254.261	71.38
254.494	65.38
254.727	71.38
254.96	61.38
255.193	65.38
255.426	78.38
255.659	63.38
255.892	73.38
256.124	79.38
256.357	78.38
256.59	77.38
256.823	68.38
257.056	88.38
257.289	88.38
257.521	76.38
257.754	69.38
257.987	76.38
258.22	79.38
258.452	82.38
258.685	87.38
258.918	88.38
259.151	83.38
259.383	86.38
259.616	74.38
259.849	79.38
260.081	99.38
260.314	80.38
260.547	82.38
260.779	95.38
261.012	77.38
261.244	82.38
261.477	81.38
261.71	89.38
261.942	75.38
262.175	86.38
262.407	74.38
262.64	81.38
262.872	77.38
263.105	87.38
263.337	71.38
263.57	73.38
263.802	72.38
264.035	70.38
264.267	82.38
264.499	75.38
264.732	88.38
264.964	78.38
265.197	82.38
265.429	79.38
265.661	88.38
265.894	82.38
266.126	88.38
266.358	69.38
266.591	84.38
266.823	82.38
267.055	83.38
267.287	74.38
267.52	72.38
267.752	82.38
267.984	90.38
268.216	87.38
268.448	80.38
268.681	75.38
268.913	68.38
269.145	83.38
269.377	81.38
269.609	90.38
269.841	81.38
270.073	74.38
270.306	72.38
270.538	81.38
270.77	73.38
271.002	68.38
271.234	88.38
271.466	92.38
271.698	69.38
271.93	79.38
272.162	83.38
272.394	81.38
272.626	72.38
272.858	69.38
273.09	70.38
273.322	72.38
273.553	89.38
273.785	70.38
274.017	76.38
274.249	80.38
274.481	87.38
274.713	100.38
274.945	70.38
275.176	87.38
275.408	82.38
275.64	79.38
275.872	80.38
276.104	86.38
276.335	80.38
276.567	89.38
276.799	72.38
277.031	71.38
277.262	96.38
277.494	78.38
277.726	88.38
277.957	82.38
278.189	86.38
278.421	76.38
278.652	83.38
278.884	86.38
279.115	88.38
279.347	77.38
279.579	80.38
279.81	78.38
280.042	72.38
280.273	92.38
280.505	74.38
280.736	95.38
280.968	77.38
281.199	71.38
281.431	74.38
281.662	86.38
281.894	95.38
282.125	82.38
282.356	99.38
282.588	83.38
282.819	77.38
283.051	81.38
283.282	66.38
283.513	89.38
283.745	81.38
283.976	89.38
284.207	77.38
284.439	88.38
284.67	70.38
284.901	79.38
285.132	74.38
285.364	75.38
285.595	82.38
285.826	78.38
286.057	80.38
286.288	85.38
286.52	81.38
286.751	77.38
286.982	80.38
287.213	69.38
287.444	73.38
287.675	85.38
287.906	91.38
288.138	95.38
288.369	77.38
288.6	78.38
288.831	89.38
289.062	72.38
289.293	90.38
289.524	100.38
289.755	84.38
289.986	78.38
290.217	77.38
290.448	95.38
290.679	84.38
290.91	94.38
291.141	79.38
291.371	90.38
291.602	88.38
291.833	72.38
292.064	85.38
292.295	72.38
292.526	87.38
292.757	77.38
292.987	82.38
293.218	97.38
293.449	74.38
293.68	80.38
293.91	79.38
294.141	81.38
294.372	89.38
294.603	73.38
294.833	84.38
295.064	90.38
295.295	92.38
295.525	83.38
295.756	92.38
295.987	78.38
296.217	68.38
296.448	78.38
296.679	93.38
296.909	97.38
297.14	81.38
297.37	84.38
297.601	77.38
297.831	82.38
298.062	77.38
298.292	73.38
298.523	89.38
298.753	92.38
298.984	69.38
299.214	94.38
299.445	92.38
299.675	87.38
299.905	88.38
300.136	82.38
300.366	76.38
300.597	74.38
300.827	82.38
301.057	82.38
301.288	85.38
301.518	75.38
301.748	88.38
301.979	100.38
302.209	77.38
302.439	81.38
302.669	88.38
302.9	90.38
303.13	87.38
303.36	93.38
303.59	91.38
303.82	83.38
304.051	87.38
304.281	80.38
304.511	84.38
304.741	76.38
304.971	94.38
305.201	72.38
305.431	97.38
305.661	96.38
305.891	67.38
306.121	75.38
306.352	83.38
306.582	86.38
306.812	81.38
307.042	78.38
307.272	80.38
307.502	81.38
307.731	83.38
307.961	101.38
308.191	96.38
308.421	102.38
308.651	106.38
308.881	107.38
309.111	118.38
309.341	135.38
309.571	114.38
309.8	91.38
310.03	81.38
310.26	76.38
310.49	85.38
310.72	68.38
310.949	66.38
311.179	73.38
311.409	97.38
311.639	81.38
311.868	78.38
312.098	77.38
312.328	95.38
312.557	101.38
312.787	88.38
313.017	78.38
313.246	96.38
313.476	98.38
313.706	81.38
313.935	78.38
314.165	68.38
314.394	81.38
314.624	89.38
314.853	86.38
315.083	83.38
315.312	83.38
315.542	92.38
315.771	72.38
316.001	77.38
316.23	83.38
316.46	78.38
316.689	76.38
316.919	88.38
317.148	92.38
317.377	93.38
317.607	82.38
317.836	79.38
318.065	91.38
318.295	90.38
318.524	68.38
318.753	80.38
318.983	71.38
319.212	93.38
319.441	78.38
319.67	92.38
319.9	94.38
320.129	87.38
320.358	74.38
320.587	96.38
320.816	78.38
321.046	79.38
321.275	84.38
321.504	86.38
321.733	68.38
321.962	68.38
322.191	84.38
322.42	73.38
322.649	87.38
322.878	72.38
323.108	78.38
323.337	80.38
323.566	85.38
323.795	87.38
324.024	88.38
324.253	88.38
324.482	71.38
324.71	76.38
324.939	83.38
325.168	78.38
325.397	78.38
325.626	83.38
325.855	82.38
326.084	78.38
326.313	100.38
326.542	77.38
326.77	87.38
326.999	70.38
327.228	81.38
327.457	86.38
327.686	96.38
327.914	82.38
328.143	86.38
328.372	76.38
328.6	69.38
328.829	79.38
329.058	93.38
329.287	80.38
329.515	87.38
329.744	68.38
329.972	80.38
330.201	63.38
330.43	96.38
330.658	64.38
330.887	80.38
331.115	86.38
331.344	92.38
331.572	80.38
331.801	79.38
332.03	83.38
332.258	89.38
332.486	80.38
332.715	69.38
332.943	74.38
333.172	77.38
333.4	90.38
333.629	77.38
333.857	86.38
334.085	79.38
334.314	99.38
334.542	90.38
334.771	94.38
334.999	80.38
335.227	86.38
335.455	90.38
335.684	78.38
335.912	85.38
336.14	83.38
336.369	83.38
336.597	77.38
336.825	71.38
337.053	85.38
337.281	84.38
337.51	90.38
337.738	94.38
337.966	82.38
338.194	71.38
338.422	92.38
338.65	87.38
338.878	79.38
339.106	93.38
339.334	94.38
339.562	82.38
339.79	80.38
340.018	88.38
340.246	76.38
340.474	83.38
340.702	66.38
340.93	85.38
341.158	86.38
341.386	70.38
341.614	80.38
341.842	92.38
342.07	86.38
342.298	73.38
342.526	90.38
342.754	80.38
342.981	97.38
343.209	77.38
343.437	83.38
343.665	70.38
343.893	72.38
344.12	84.38
344.348	75.38
344.576	88.38
344.804	90.38
345.031	94.38
345.259	82.38
345.487	95.38
345.714	88.38
345.942	90.38
346.17	76.38
346.397	83.38
346.625	81.38
346.853	88.38
347.08	74.38
347.308	88.38
347.535	79.38
347.763	88.38
347.99	82.38
348.218	85.38
348.445	96.38
348.673	80.38
348.9	76.38
349.128	78.38
349.355	98.38
349.583	76.38
349.81	82.38
350.037	82.38
350.265	96.38
350.492	92.38
350.72	96.38
350.947	95.38
351.174	86.38
351.402	76.38
351.629	75.38
351.856	68.38
352.083	75.38
352.311	91.38
352.538	82.38
352.765	90.38
352.992	102.38
353.22	100.38
353.447	79.38
353.674	95.38
353.901	92.38
354.128	79.38
354.355	77.38
354.583	86.38
354.81	80.38
355.037	88.38
355.264	91.38
355.491	81.38
355.718	72.38
355.945	91.38
356.172	103.38
356.399	81.38
356.626	80.38
356.853	81.38
357.08	75.38
357.307	85.38
357.534	77.38
357.761	82.38
357.988	80.38
358.215	85.38
358.441	84.38
358.668	78.38
358.895	86.38
359.122	76.38
359.349	77.38
359.576	76.38
359.802	86.38
360.029	79.38
360.256	81.38
360.483	77.38
360.709	88.38
360.936	88.38
361.163	83.38
361.39	90.38
361.616	88.38
361.843	74.38
362.07	66.38
362.296	89.38
362.523	69.38
362.749	74.38
362.976	70.38
363.203	80.38
363.429	80.38
363.656	88.38
363.882	70.38
364.109	96.38
364.335	89.38
364.562	73.38
364.788	74.38
365.015	90.38
365.241	68.38
365.468	88.38
365.694	85.38
365.92	87.38
366.147	70.38
366.373	76.38
366.599	82.38
366.826	91.38
367.052	82.38
367.278	92.38
367.505	82.38
367.731	83.38
367.957	76.38
368.184	77.38
368.41	92.38
368.636	86.38
368.862	86.38
369.089	89.38
369.315	87.38
369.541	90.38
369.767	89.38
369.993	77.38
370.219	83.38
370.445	79.38
370.672	82.38
370.898	90.38
371.124	86.38
371.35	82.38
371.576	87.38
371.802	76.38
372.028	73.38
372.254	95.38
372.48	72.38
372.706	78.38
372.932	69.38
373.158	84.38
373.384	80.38
373.61	84.38
373.835	94.38
374.061	81.38
374.287	89.38
374.513	89.38
374.739	79.38
374.965	91.38
375.191	100.38
375.416	77.38
375.642	88.38
375.868	99.38
376.094	76.38
376.319	80.38
376.545	89.38
376.771	82.38
376.997	83.38
377.222	78.38
377.448	81.38
377.674	83.38
377.899	87.38
378.125	91.38
378.35	98.38
378.576	82.38
378.802	83.38
379.027	88.38
379.253	75.38
379.478	92.38
379.704	96.38
379.929	82.38
380.155	79.38
380.38	95.38
380.606	88.38
380.831	77.38
381.057	99.38
381.282	81.38
381.507	89.38
381.733	79.38
381.958	92.38
382.184	84.38
382.409	93.38
382.634	90.38
382.86	93.38
383.085	88.38
383.31	84.38
383.535	93.38
383.761	88.38
383.986	102.38
384.211	82.38
384.436	93.38
384.662	100.38
384.887	68.38
385.112	65.38
385.337	94.38
385.562	94.38
385.787	87.38
386.013	80.38
386.238	80.38
386.463	91.38
386.688	98.38
386.913	73.38
387.138	96.38
387.363	88.38
387.588	85.38
387.813	84.38
388.038	90.38
388.263	85.38
388.488	85.38
388.713	96.38
388.938	91.38
389.163	103.38
389.387	86.38
389.612	85.38
389.837	84.38
390.062	95.38
390.287	85.38
390.512	84.38
390.736	84.38
390.961	89.38
391.186	88.38
391.411	78.38
391.636	104.38
391.86	87.38
392.085	88.38
392.31	86.38
392.534	97.38
392.759	106.38
392.984	80.38
393.208	83.38
393.433	72.38
393.658	97.38
393.882	108.38
394.107	137.38
394.331	195.38
394.556	206.38
394.78	122.38
395.005	106.38
395.229	108.38
395.454	107.38
395.678	111.38
395.903	171.38
396.127	229.38
396.352	239.38
396.576	145.38
396.801	80.38
397.025	107.38
397.249	86.38
397.474	93.38
397.698	85.38
397.922	90.38
398.147	90.38
398.371	98.38
398.595	97.38
398.82	104.38
399.044	102.38
399.268	102.38
399.492	86.38
399.717	100.38
399.941	88.38
400.165	107.38
400.389	96.38
400.613	85.38
400.837	95.38
401.062	93.38
401.286	93.38
401.51	89.38
401.734	80.38
401.958	86.38
402.182	73.38
402.406	81.38
402.63	82.38
402.854	95.38
403.078	77.38
403.302	97.38
403.526	90.38
403.75	91.38
403.974	96.38
404.198	92.38
404.422	98.38
404.645	94.38
404.869	102.38
405.093	97.38
405.317	105.38
405.541	90.38
405.765	97.38
405.988	104.38
406.212	92.38
406.436	98.38
406.66	101.38
406.883	87.38
407.107	86.38
407.331	98.38
407.555	100.38
407.778	92.38
408.002	89.38
408.226	86.38
408.449	98.38
408.673	98.38
408.896	100.38
409.12	82.38
409.344	96.38
409.567	98.38
409.791	109.38
410.014	88.38
410.238	105.38
410.461	109.38
410.685	89.38
410.908	93.38
411.132	109.38
411.355	98.38
411.578	102.38
411.802	89.38
412.025	112.38
412.249	105.38
412.472	95.38
412.695	97.38
412.919	91.38
413.142	106.38
413.365	98.38
413.589	115.38
413.812	106.38
414.035	100.38
414.258	100.38
414.482	91.38
414.705	94.38
414.928	92.38
415.151	110.38
415.374	91.38
415.597	111.38
415.821	101.38
416.044	95.38
416.267	103.38
416.49	98.38
416.713	87.38
416.936	92.38
417.159	91.38
417.382	102.38
417.605	105.38
417.828	90.38
418.051	103.38
418.274	104.38
418.497	93.38
418.72	101.38
418.943	107.38
419.166	102.38
419.389	86.38
419.611	98.38
419.834	96.38
420.057	87.38
420.28	98.38
420.503	89.38
420.726	107.38
420.948	101.38
421.171	88.38
421.394	99.38
421.617	97.38
421.839	100.38
422.062	95.38
422.285	91.38
422.507	98.38
422.73	95.38
422.953	85.38
423.175	103.38
423.398	87.38
423.621	87.38
423.843	91.38
424.066	86.38
424.288	105.38
424.511	95.38
424.733	104.38
424.956	103.38
425.178	109.38
425.401	85.38
425.623	96.38
425.846	107.38
426.068	100.38
426.291	104.38
426.513	111.38
426.735	96.38
426.958	113.38
427.18	116.38
427.402	90.38
427.625	122.38
427.847	105.38
428.069	87.38
428.292	94.38
428.514	97.38
428.736	101.38
428.958	96.38
429.181	109.38
429.403	90.38
429.625	100.38
429.847	105.38
430.069	98.38
430.292	104.38
430.514	103.38
430.736	101.38
430.958	109.38
431.18	107.38
431.402	87.38
431.624	114.38
431.846	100.38
432.068	68.38
432.29	96.38
432.512	88.38
432.734	97.38
432.956	108.38
433.178	103.38
433.4	110.38
433.622	100.38
433.844	100.38
434.066	85.38
434.287	82.38
434.509	80.38
434.731	92.38
434.953	92.38
435.175	87.38
435.397	92.38
435.618	90.38
435.84	96.38
436.062	95.38
436.284	110.38
436.505	96.38
436.727	111.38
436.949	110.38
437.17	112.38
437.392	104.38
437.614	87.38
437.835	87.38
438.057	91.38
438.278	86.38
438.5	105.38
438.721	100.38
438.943	122.38
439.165	98.38
439.386	113.38
439.608	117.38
439.829	109.38
440.05	113.38
440.272	96.38
440.493	100.38
440.715	110.38
440.936	99.38
441.158	110.38
441.379	102.38
441.6	101.38
441.822	103.38
442.043	114.38
442.264	123.38
442.486	113.38
442.707	106.38
442.928	95.38
443.149	112.38
443.371	112.38
443.592	115.38
443.813	111.38
444.034	112.38
444.255	104.38
444.476	109.38
444.698	99.38
444.919	102.38
445.14	169.38
445.361	145.38
445.582	97.38
445.803	112.38
446.024	100.38
446.245	98.38
446.466	100.38
446.687	106.38
446.908	111.38
447.129	112.38
447.35	110.38
447.571	121.38
447.792	100.38
448.013	107.38
448.234	92.38
448.455	95.38
448.675	112.38
448.896	101.38
449.117	95.38
449.338	92.38
449.559	102.38
449.779	99.38
450	106.38
450.221	107.38
450.442	106.38
450.662	113.38
450.883	103.38
451.104	108.38
451.324	105.38
451.545	104.38
451.766	88.38
451.986	106.38
452.207	83.38
452.428	100.38
452.648	88.38
452.869	80.38
453.089	77.38
453.31	91.38
453.53	96.38
453.751	91.38
453.971	86.38
454.192	90.38
454.412	96.38
454.633	86.38
454.853	100.38
455.073	97.38
455.294	104.38
455.514	96.38
455.734	100.38
455.955	101.38
456.175	90.38
456.395	103.38
456.616	105.38
456.836	82.38
457.056	102.38
457.276	90.38
457.497	88.38
457.717	95.38
457.937	91.38
458.157	95.38
458.377	89.38
458.598	85.38
458.818	72.38
459.038	85.38
459.258	87.38
459.478	81.38
459.698	78.38
459.918	89.38
460.138	72.38
460.358	79.38
460.578	81.38
460.798	75.38
461.018	103.38
461.238	97.38
461.458	80.38
461.678	89.38
461.898	96.38
462.118	84.38
462.338	83.38
462.558	88.38
462.777	92.38
462.997	94.38
463.217	96.38
463.437	89.38
463.657	90.38
463.876	100.38
464.096	101.38
464.316	93.38
464.536	102.38
464.755	104.38
464.975	93.38
465.195	91.38
465.414	98.38
465.634	89.38
465.854	86.38
466.073	83.38
466.293	88.38
466.512	110.38
466.732	107.38
466.951	95.38
467.171	116.38
467.391	118.38
467.61	116.38
467.829	124.38
468.049	121.38
468.268	100.38
468.488	112.38
468.707	112.38
468.927	110.38
469.146	117.38
469.365	98.38
469.585	121.38
469.804	121.38
470.023	99.38
470.243	117.38
470.462	122.38
470.681	111.38
470.901	110.38
471.12	105.38
471.339	117.38
471.558	96.38
471.777	116.38
471.997	99.38
472.216	90.38
472.435	104.38
472.654	89.38
472.873	107.38
473.092	90.38
473.311	105.38
473.53	106.38
473.749	105.38
473.968	108.38
474.187	88.38
474.406	102.38
474.625	97.38
474.844	116.38
475.063	104.38
475.282	104.38
475.501	82.38
475.72	107.38
475.939	97.38
476.158	99.38
476.377	110.38
476.596	95.38
476.814	87.38
477.033	90.38
477.252	92.38
477.471	106.38
477.69	96.38
477.908	92.38
478.127	128.38
478.346	105.38
478.564	111.38
478.783	105.38
479.002	109.38
479.22	104.38
479.439	116.38
479.658	84.38
479.876	88.38
480.095	84.38
480.313	106.38
480.532	96.38
480.751	99.38
480.969	88.38
481.188	87.38
481.406	79.38
481.624	81.38
481.843	87.38
482.061	101.38
482.28	80.38
482.498	75.38
482.717	88.38
482.935	90.38
483.153	98.38
483.372	111.38
483.59	107.38
483.808	90.38
484.027	90.38
484.245	88.38
484.463	93.38
484.681	90.38
484.9	80.38
485.118	100.38
485.336	87.38
485.554	100.38
485.772	94.38
485.99	89.38
486.209	81.38
486.427	102.38
486.645	98.38
486.863	97.38
487.081	111.38
487.299	98.38
487.517	100.38
487.735	94.38
487.953	116.38
488.171	112.38
488.389	100.38
488.607	100.38
488.825	87.38
489.043	96.38
489.261	93.38
489.479	104.38
489.696	120.38
489.914	104.38
490.132	105.38
490.35	117.38
490.568	114.38
490.786	108.38
491.003	128.38
491.221	120.38
491.439	134.38
491.657	125.38
491.874	143.38
492.092	138.38
492.31	143.38
492.527	146.38
492.745	126.38
492.963	137.38
493.18	138.38
493.398	126.38
493.615	139.38
493.833	125.38
494.05	119.38
494.268	116.38
494.485	132.38
494.703	123.38
494.92	122.38
495.138	132.38
495.355	138.38
495.573	122.38
495.79	126.38
496.008	104.38
496.225	129.38
496.442	116.38
496.66	125.38
496.877	112.38
497.094	104.38
497.312	120.38
497.529	115.38
497.746	121.38
497.963	96.38
498.181	83.38
498.398	96.38
498.615	101.38
498.832	92.38
499.049	99.38
499.267	98.38
499.484	102.38
499.701	105.38
499.918	101.38
500.135	123.38
500.352	102.38
500.569	96.38
500.786	96.38
501.003	115.38
501.22	101.38
501.437	104.38
501.654	107.38
501.871	99.38
502.088	96.38
502.305	100.38
502.522	107.38
502.739	97.38
502.956	104.38
503.172	112.38
503.389	93.38
503.606	94.38
503.823	102.38
504.04	93.38
504.256	90.38
504.473	103.38
504.69	103.38
504.907	94.38
505.123	95.38
505.34	91.38
505.557	101.38
505.773	92.38
505.99	85.38
506.207	93.38
506.423	98.38
506.64	99.38
506.856	80.38
507.073	81.38
507.289	104.38
507.506	104.38
507.722	89.38
507.939	95.38
508.155	94.38
508.372	84.38
508.588	87.38
508.805	92.38
509.021	88.38
509.238	87.38
509.454	84.38
509.67	81.38
509.887	88.38
510.103	80.38
510.319	91.38
510.536	86.38
510.752	90.38
510.968	96.38
511.184	61.38
511.401	81.38
511.617	97.38
511.833	86.38
512.049	86.38
512.265	85.38
512.481	89.38
512.698	96.38
512.914	88.38
513.13	86.38
513.346	89.38
513.562	86.38
513.778	85.38
513.994	93.38
514.21	95.38
514.426	92.38
514.642	85.38
514.858	87.38
515.074	96.38
515.29	97.38
515.506	74.38
515.721	88.38
515.937	84.38
516.153	76.38
516.369	68.38
