Data from Foil_1_HRD10591_00018.txt Node
Date: Wed Nov 05 16:15:29 EST 2025
User: Yrep
Spectrometer: HR+D1059
Trigger mode: 1
Integration Time (sec): 1.000000E-1
Scans to average: 1
Electric dark correction enabled: true
Nonlinearity correction enabled: false
Boxcar width: 0
XAxis mode: Wavelengths
Number of Pixels in Spectrum: 2048
>>>>>Begin Spectral Data<<<<<
223.165	-12.94
223.4	-12.94
223.635	-12.94
223.869	-1.94
224.104	-9.94
224.338	-13.94
224.573	-20.94
224.808	-8.94
225.042	-2.94
225.277	-8.94
225.511	-1.94
225.746	-7.94
225.98	4.06
226.215	22.06
226.449	-4.94
226.683	12.06
226.918	31.06
227.152	26.06
227.387	41.06
227.621	44.06
227.856	35.06
228.09	43.06
228.324	51.06
228.559	59.06
228.793	47.06
229.027	66.06
229.262	63.06
229.496	67.06
229.73	78.06
229.964	65.06
230.199	69.06
230.433	82.06
230.667	74.06
230.901	82.06
231.136	81.06
231.37	76.06
231.604	63.06
231.838	74.06
232.072	86.06
232.306	76.06
232.541	92.06
232.775	93.06
233.009	77.06
233.243	80.06
233.477	71.06
233.711	88.06
233.945	87.06
234.179	83.06
234.413	94.06
234.647	79.06
234.881	78.06
235.115	76.06
235.349	75.06
235.583	68.06
235.817	62.06
236.051	74.06
236.285	74.06
236.519	83.06
236.753	78.06
236.987	88.06
237.221	90.06
237.455	88.06
237.689	84.06
237.922	77.06
238.156	89.06
238.39	89.06
238.624	75.06
238.858	86.06
239.091	80.06
239.325	90.06
239.559	72.06
239.793	68.06
240.027	90.06
240.26	90.06
240.494	80.06
240.728	77.06
240.961	74.06
241.195	84.06
241.429	80.06
241.662	72.06
241.896	79.06
242.13	65.06
242.363	72.06
242.597	87.06
242.83	84.06
243.064	86.06
243.298	80.06
243.531	75.06
243.765	84.06
243.998	72.06
244.232	90.06
244.465	60.06
244.699	72.06
244.932	82.06
245.166	84.06
245.399	84.06
245.633	86.06
245.866	82.06
246.099	70.06
246.333	102.06
246.566	84.06
246.8	80.06
247.033	75.06
247.266	70.06
247.5	78.06
247.733	86.06
247.966	87.06
248.2	68.06
248.433	67.06
248.666	75.06
248.899	85.06
249.133	99.06
249.366	90.06
249.599	85.06
249.832	97.06
250.066	82.06
250.299	73.06
250.532	79.06
250.765	85.06
250.998	73.06
251.231	83.06
251.465	93.06
251.698	84.06
251.931	88.06
252.164	91.06
252.397	66.06
252.63	75.06
252.863	84.06
253.096	77.06
253.329	99.06
253.562	81.06
253.795	71.06
254.028	70.06
254.261	76.06
254.494	89.06
254.727	83.06
254.96	87.06
255.193	94.06
255.426	84.06
255.659	91.06
255.892	72.06
256.124	84.06
256.357	80.06
256.59	76.06
256.823	83.06
257.056	84.06
257.289	73.06
257.521	88.06
257.754	86.06
257.987	67.06
258.22	89.06
258.452	94.06
258.685	84.06
258.918	82.06
259.151	79.06
259.383	95.06
259.616	83.06
259.849	60.06
260.081	78.06
260.314	87.06
260.547	73.06
260.779	83.06
261.012	69.06
261.244	78.06
261.477	80.06
261.71	83.06
261.942	78.06
262.175	81.06
262.407	78.06
262.64	93.06
262.872	88.06
263.105	97.06
263.337	89.06
263.57	89.06
263.802	79.06
264.035	77.06
264.267	99.06
264.499	75.06
264.732	85.06
264.964	82.06
265.197	87.06
265.429	99.06
265.661	92.06
265.894	88.06
266.126	89.06
266.358	85.06
266.591	76.06
266.823	88.06
267.055	81.06
267.287	98.06
267.52	89.06
267.752	83.06
267.984	87.06
268.216	91.06
268.448	78.06
268.681	74.06
268.913	75.06
269.145	92.06
269.377	94.06
269.609	80.06
269.841	84.06
270.073	80.06
270.306	95.06
270.538	93.06
270.77	87.06
271.002	104.06
271.234	96.06
271.466	78.06
271.698	83.06
271.93	92.06
272.162	82.06
272.394	102.06
272.626	82.06
272.858	81.06
273.09	76.06
273.322	82.06
273.553	75.06
273.785	70.06
274.017	83.06
274.249	76.06
274.481	73.06
274.713	80.06
274.945	84.06
275.176	84.06
275.408	88.06
275.64	90.06
275.872	70.06
276.104	80.06
276.335	90.06
276.567	82.06
276.799	86.06
277.031	80.06
277.262	71.06
277.494	93.06
277.726	88.06
277.957	84.06
278.189	90.06
278.421	83.06
278.652	85.06
278.884	74.06
279.115	82.06
279.347	79.06
279.579	89.06
279.81	77.06
280.042	81.06
280.273	93.06
280.505	90.06
280.736	78.06
280.968	90.06
281.199	83.06
281.431	81.06
281.662	93.06
281.894	82.06
282.125	80.06
282.356	82.06
282.588	81.06
282.819	89.06
283.051	80.06
283.282	85.06
283.513	102.06
283.745	98.06
283.976	90.06
284.207	99.06
284.439	82.06
284.67	88.06
284.901	94.06
285.132	83.06
285.364	92.06
285.595	81.06
285.826	91.06
286.057	99.06
286.288	84.06
286.52	88.06
286.751	80.06
286.982	94.06
287.213	82.06
287.444	89.06
287.675	76.06
287.906	82.06
288.138	68.06
288.369	73.06
288.6	84.06
288.831	84.06
289.062	91.06
289.293	98.06
289.524	81.06
289.755	80.06
289.986	82.06
290.217	82.06
290.448	82.06
290.679	80.06
290.91	73.06
291.141	88.06
291.371	90.06
291.602	95.06
291.833	84.06
292.064	94.06
292.295	82.06
292.526	93.06
292.757	86.06
292.987	88.06
293.218	83.06
293.449	81.06
293.68	82.06
293.91	81.06
294.141	95.06
294.372	84.06
294.603	104.06
294.833	90.06
295.064	77.06
295.295	78.06
295.525	89.06
295.756	86.06
295.987	89.06
296.217	99.06
296.448	99.06
296.679	91.06
296.909	99.06
297.14	85.06
297.37	107.06
297.601	90.06
297.831	92.06
298.062	94.06
298.292	78.06
298.523	95.06
298.753	93.06
298.984	89.06
299.214	94.06
299.445	80.06
299.675	92.06
299.905	97.06
300.136	94.06
300.366	95.06
300.597	97.06
300.827	104.06
301.057	105.06
301.288	99.06
301.518	99.06
301.748	87.06
301.979	102.06
302.209	85.06
302.439	87.06
302.669	83.06
302.9	90.06
303.13	88.06
303.36	90.06
303.59	80.06
303.82	82.06
304.051	68.06
304.281	85.06
304.511	90.06
304.741	95.06
304.971	99.06
305.201	100.06
305.431	98.06
305.661	102.06
305.891	93.06
306.121	90.06
306.352	72.06
306.582	82.06
306.812	93.06
307.042	86.06
307.272	98.06
307.502	90.06
307.731	97.06
307.961	111.06
308.191	113.06
308.421	119.06
308.651	100.06
308.881	97.06
309.111	112.06
309.341	118.06
309.571	101.06
309.8	102.06
310.03	88.06
310.26	85.06
310.49	94.06
310.72	92.06
310.949	91.06
311.179	91.06
311.409	81.06
311.639	70.06
311.868	67.06
312.098	91.06
312.328	88.06
312.557	87.06
312.787	95.06
313.017	106.06
313.246	80.06
313.476	94.06
313.706	88.06
313.935	91.06
314.165	95.06
314.394	72.06
314.624	82.06
314.853	74.06
315.083	88.06
315.312	84.06
315.542	78.06
315.771	89.06
316.001	91.06
316.23	92.06
316.46	89.06
316.689	76.06
316.919	83.06
317.148	78.06
317.377	82.06
317.607	98.06
317.836	85.06
318.065	95.06
318.295	106.06
318.524	85.06
318.753	96.06
318.983	75.06
319.212	108.06
319.441	94.06
319.67	90.06
319.9	75.06
320.129	89.06
320.358	93.06
320.587	86.06
320.816	89.06
321.046	86.06
321.275	84.06
321.504	92.06
321.733	80.06
321.962	89.06
322.191	82.06
322.42	75.06
322.649	81.06
322.878	94.06
323.108	84.06
323.337	99.06
323.566	90.06
323.795	104.06
324.024	82.06
324.253	81.06
324.482	86.06
324.71	96.06
324.939	104.06
325.168	98.06
325.397	88.06
325.626	92.06
325.855	93.06
326.084	94.06
326.313	98.06
326.542	80.06
326.77	92.06
326.999	93.06
327.228	88.06
327.457	93.06
327.686	102.06
327.914	102.06
328.143	74.06
328.372	77.06
328.6	93.06
328.829	95.06
329.058	86.06
329.287	80.06
329.515	102.06
329.744	90.06
329.972	105.06
330.201	86.06
330.43	98.06
330.658	80.06
330.887	86.06
331.115	72.06
331.344	91.06
331.572	90.06
331.801	89.06
332.03	80.06
332.258	88.06
332.486	83.06
332.715	79.06
332.943	82.06
333.172	90.06
333.4	79.06
333.629	111.06
333.857	84.06
334.085	87.06
334.314	82.06
334.542	90.06
334.771	108.06
334.999	95.06
335.227	92.06
335.455	84.06
335.684	92.06
335.912	79.06
336.14	86.06
336.369	80.06
336.597	91.06
336.825	83.06
337.053	90.06
337.281	84.06
337.51	98.06
337.738	83.06
337.966	95.06
338.194	84.06
338.422	86.06
338.65	96.06
338.878	95.06
339.106	92.06
339.334	99.06
339.562	99.06
339.79	80.06
340.018	88.06
340.246	78.06
340.474	91.06
340.702	85.06
340.93	89.06
341.158	83.06
341.386	90.06
341.614	84.06
341.842	92.06
342.07	81.06
342.298	82.06
342.526	89.06
342.754	76.06
342.981	79.06
343.209	87.06
343.437	98.06
343.665	81.06
343.893	88.06
344.12	88.06
344.348	93.06
344.576	79.06
344.804	86.06
345.031	87.06
345.259	94.06
345.487	90.06
345.714	83.06
345.942	93.06
346.17	95.06
346.397	83.06
346.625	91.06
346.853	76.06
347.08	76.06
347.308	87.06
347.535	84.06
347.763	91.06
347.99	98.06
348.218	82.06
348.445	80.06
348.673	77.06
348.9	94.06
349.128	102.06
349.355	88.06
349.583	96.06
349.81	85.06
350.037	92.06
350.265	94.06
350.492	85.06
350.72	102.06
350.947	93.06
351.174	80.06
351.402	83.06
351.629	92.06
351.856	84.06
352.083	97.06
352.311	79.06
352.538	80.06
352.765	86.06
352.992	90.06
353.22	80.06
353.447	90.06
353.674	78.06
353.901	90.06
354.128	90.06
354.355	77.06
354.583	81.06
354.81	90.06
355.037	92.06
355.264	78.06
355.491	89.06
355.718	89.06
355.945	83.06
356.172	87.06
356.399	88.06
356.626	78.06
356.853	84.06
357.08	87.06
357.307	105.06
357.534	94.06
357.761	92.06
357.988	83.06
358.215	81.06
358.441	76.06
358.668	94.06
358.895	89.06
359.122	80.06
359.349	84.06
359.576	80.06
359.802	80.06
360.029	91.06
360.256	74.06
360.483	81.06
360.709	74.06
360.936	91.06
361.163	96.06
361.39	99.06
361.616	84.06
361.843	80.06
362.07	91.06
362.296	80.06
362.523	95.06
362.749	82.06
362.976	99.06
363.203	75.06
363.429	87.06
363.656	85.06
363.882	84.06
364.109	91.06
364.335	93.06
364.562	83.06
364.788	76.06
365.015	86.06
365.241	94.06
365.468	83.06
365.694	84.06
365.92	77.06
366.147	76.06
366.373	86.06
366.599	85.06
366.826	96.06
367.052	85.06
367.278	88.06
367.505	75.06
367.731	78.06
367.957	83.06
368.184	102.06
368.41	81.06
368.636	92.06
368.862	93.06
369.089	89.06
369.315	99.06
369.541	90.06
369.767	96.06
369.993	97.06
370.219	83.06
370.445	88.06
370.672	89.06
370.898	84.06
371.124	97.06
371.35	103.06
371.576	84.06
371.802	83.06
372.028	96.06
372.254	90.06
372.48	76.06
372.706	90.06
372.932	87.06
373.158	108.06
373.384	92.06
373.61	81.06
373.835	72.06
374.061	83.06
374.287	87.06
374.513	96.06
374.739	105.06
374.965	97.06
375.191	83.06
375.416	91.06
375.642	87.06
375.868	104.06
376.094	86.06
376.319	70.06
376.545	81.06
376.771	86.06
376.997	92.06
377.222	99.06
377.448	103.06
377.674	92.06
377.899	79.06
378.125	85.06
378.35	103.06
378.576	90.06
378.802	83.06
379.027	86.06
379.253	84.06
379.478	88.06
379.704	95.06
379.929	90.06
380.155	85.06
380.38	95.06
380.606	84.06
380.831	91.06
381.057	100.06
381.282	94.06
381.507	102.06
381.733	89.06
381.958	94.06
382.184	95.06
382.409	86.06
382.634	84.06
382.86	90.06
383.085	102.06
383.31	96.06
383.535	77.06
383.761	100.06
383.986	110.06
384.211	95.06
384.436	79.06
384.662	84.06
384.887	83.06
385.112	79.06
385.337	102.06
385.562	88.06
385.787	99.06
386.013	90.06
386.238	91.06
386.463	92.06
386.688	102.06
386.913	87.06
387.138	85.06
387.363	80.06
387.588	82.06
387.813	99.06
388.038	88.06
388.263	95.06
388.488	92.06
388.713	78.06
388.938	94.06
389.163	92.06
389.387	99.06
389.612	104.06
389.837	87.06
390.062	91.06
390.287	90.06
390.512	89.06
390.736	100.06
390.961	93.06
391.186	98.06
391.411	88.06
391.636	88.06
391.86	88.06
392.085	103.06
392.31	96.06
392.534	100.06
392.759	94.06
392.984	102.06
393.208	102.06
393.433	103.06
393.658	99.06
393.882	110.06
394.107	108.06
394.331	166.06
394.556	199.06
394.78	124.06
395.005	106.06
395.229	82.06
395.454	108.06
395.678	112.06
395.903	156.06
396.127	228.06
396.352	218.06
396.576	120.06
396.801	91.06
397.025	90.06
397.249	100.06
397.474	114.06
397.698	96.06
397.922	107.06
398.147	95.06
398.371	74.06
398.595	100.06
398.82	99.06
399.044	94.06
399.268	98.06
399.492	102.06
399.717	94.06
399.941	100.06
400.165	105.06
400.389	88.06
400.613	90.06
400.837	80.06
401.062	96.06
401.286	96.06
401.51	88.06
401.734	97.06
401.958	92.06
402.182	84.06
402.406	98.06
402.63	108.06
402.854	95.06
403.078	88.06
403.302	94.06
403.526	99.06
403.75	100.06
403.974	80.06
404.198	104.06
404.422	101.06
404.645	98.06
404.869	78.06
405.093	99.06
405.317	87.06
405.541	96.06
405.765	97.06
405.988	101.06
406.212	106.06
406.436	99.06
406.66	95.06
406.883	98.06
407.107	91.06
407.331	93.06
407.555	94.06
407.778	111.06
408.002	104.06
408.226	106.06
408.449	101.06
408.673	105.06
408.896	94.06
409.12	94.06
409.344	100.06
409.567	105.06
409.791	110.06
410.014	112.06
410.238	115.06
410.461	118.06
410.685	104.06
410.908	100.06
411.132	98.06
411.355	103.06
411.578	98.06
411.802	99.06
412.025	92.06
412.249	103.06
412.472	107.06
412.695	93.06
412.919	98.06
413.142	93.06
413.365	100.06
413.589	92.06
413.812	105.06
414.035	99.06
414.258	109.06
414.482	97.06
414.705	96.06
414.928	88.06
415.151	106.06
415.374	105.06
415.597	94.06
415.821	117.06
416.044	102.06
416.267	107.06
416.49	100.06
416.713	100.06
416.936	105.06
417.159	97.06
417.382	108.06
417.605	110.06
417.828	116.06
418.051	109.06
418.274	95.06
418.497	115.06
418.72	104.06
418.943	112.06
419.166	95.06
419.389	92.06
419.611	106.06
419.834	101.06
420.057	103.06
420.28	107.06
420.503	94.06
420.726	108.06
420.948	98.06
421.171	88.06
421.394	107.06
421.617	110.06
421.839	107.06
422.062	106.06
422.285	84.06
422.507	95.06
422.73	100.06
422.953	97.06
423.175	100.06
423.398	103.06
423.621	114.06
423.843	96.06
424.066	115.06
424.288	98.06
424.511	98.06
424.733	106.06
424.956	98.06
425.178	106.06
425.401	105.06
425.623	115.06
425.846	100.06
426.068	106.06
426.291	86.06
426.513	112.06
426.735	100.06
426.958	106.06
427.18	111.06
427.402	102.06
427.625	85.06
427.847	96.06
428.069	94.06
428.292	101.06
428.514	107.06
428.736	100.06
428.958	107.06
429.181	105.06
429.403	101.06
429.625	98.06
429.847	101.06
430.069	107.06
430.292	96.06
430.514	110.06
430.736	102.06
430.958	118.06
431.18	102.06
431.402	101.06
431.624	95.06
431.846	84.06
432.068	100.06
432.29	101.06
432.512	118.06
432.734	107.06
432.956	106.06
433.178	106.06
433.4	101.06
433.622	97.06
433.844	110.06
434.066	99.06
434.287	88.06
434.509	91.06
434.731	77.06
434.953	92.06
435.175	101.06
435.397	78.06
435.618	98.06
435.84	90.06
436.062	102.06
436.284	94.06
436.505	115.06
436.727	104.06
436.949	105.06
437.17	98.06
437.392	107.06
437.614	113.06
437.835	103.06
438.057	85.06
438.278	103.06
438.5	84.06
438.721	96.06
438.943	109.06
439.165	111.06
439.386	95.06
439.608	110.06
439.829	94.06
440.05	97.06
440.272	116.06
440.493	127.06
440.715	106.06
440.936	104.06
441.158	116.06
441.379	100.06
441.6	108.06
441.822	104.06
442.043	95.06
442.264	112.06
442.486	115.06
442.707	122.06
442.928	104.06
443.149	113.06
443.371	109.06
443.592	99.06
443.813	110.06
444.034	100.06
444.255	94.06
444.476	109.06
444.698	108.06
444.919	114.06
445.14	160.06
445.361	137.06
445.582	102.06
445.803	104.06
446.024	120.06
446.245	103.06
446.466	114.06
446.687	111.06
446.908	111.06
447.129	93.06
447.35	110.06
447.571	97.06
447.792	98.06
448.013	107.06
448.234	102.06
448.455	96.06
448.675	102.06
448.896	108.06
449.117	102.06
449.338	112.06
449.559	115.06
449.779	112.06
450	99.06
450.221	114.06
450.442	105.06
450.662	113.06
450.883	97.06
451.104	104.06
451.324	109.06
451.545	98.06
451.766	94.06
451.986	91.06
452.207	104.06
452.428	92.06
452.648	100.06
452.869	94.06
453.089	99.06
453.31	98.06
453.53	96.06
453.751	94.06
453.971	100.06
454.192	100.06
454.412	108.06
454.633	100.06
454.853	105.06
455.073	96.06
455.294	88.06
455.514	98.06
455.734	96.06
455.955	99.06
456.175	88.06
456.395	85.06
456.616	86.06
456.836	95.06
457.056	105.06
457.276	91.06
457.497	86.06
457.717	94.06
457.937	94.06
458.157	87.06
458.377	72.06
458.598	93.06
458.818	98.06
459.038	84.06
459.258	73.06
459.478	85.06
459.698	78.06
459.918	86.06
460.138	88.06
460.358	83.06
460.578	82.06
460.798	107.06
461.018	96.06
461.238	100.06
461.458	94.06
461.678	99.06
461.898	103.06
462.118	97.06
462.338	102.06
462.558	102.06
462.777	99.06
462.997	88.06
463.217	95.06
463.437	93.06
463.657	101.06
463.876	107.06
464.096	108.06
464.316	89.06
464.536	95.06
464.755	95.06
464.975	102.06
465.195	97.06
465.414	95.06
465.634	94.06
465.854	89.06
466.073	103.06
466.293	92.06
466.512	106.06
466.732	102.06
466.951	111.06
467.171	120.06
467.391	124.06
467.61	120.06
467.829	126.06
468.049	115.06
468.268	114.06
468.488	113.06
468.707	108.06
468.927	118.06
469.146	106.06
469.365	125.06
469.585	118.06
469.804	109.06
470.023	120.06
470.243	111.06
470.462	118.06
470.681	116.06
470.901	112.06
471.12	120.06
471.339	122.06
471.558	102.06
471.777	108.06
471.997	101.06
472.216	100.06
472.435	96.06
472.654	101.06
472.873	107.06
473.092	111.06
473.311	107.06
473.53	103.06
473.749	112.06
473.968	113.06
474.187	107.06
474.406	99.06
474.625	103.06
474.844	111.06
475.063	102.06
475.282	92.06
475.501	91.06
475.72	105.06
475.939	114.06
476.158	95.06
476.377	102.06
476.596	112.06
476.814	91.06
477.033	91.06
477.252	103.06
477.471	102.06
477.69	108.06
477.908	95.06
478.127	105.06
478.346	115.06
478.564	110.06
478.783	106.06
479.002	96.06
479.22	103.06
479.439	100.06
479.658	92.06
479.876	82.06
480.095	98.06
480.313	96.06
480.532	84.06
480.751	93.06
480.969	86.06
481.188	97.06
481.406	85.06
481.624	86.06
481.843	78.06
482.061	71.06
482.28	103.06
482.498	104.06
482.717	94.06
482.935	106.06
483.153	106.06
483.372	112.06
483.59	101.06
483.808	100.06
484.027	106.06
484.245	97.06
484.463	92.06
484.681	108.06
484.9	110.06
485.118	99.06
485.336	104.06
485.554	105.06
485.772	105.06
485.99	90.06
486.209	82.06
486.427	88.06
486.645	81.06
486.863	114.06
487.081	97.06
487.299	105.06
487.517	107.06
487.735	119.06
487.953	120.06
488.171	110.06
488.389	106.06
488.607	94.06
488.825	95.06
489.043	92.06
489.261	106.06
489.479	96.06
489.696	104.06
489.914	84.06
490.132	107.06
490.35	118.06
490.568	122.06
490.786	129.06
491.003	127.06
491.221	121.06
491.439	123.06
491.657	143.06
491.874	140.06
492.092	156.06
492.31	151.06
492.527	140.06
492.745	147.06
492.963	140.06
493.18	145.06
493.398	128.06
493.615	130.06
493.833	137.06
494.05	129.06
494.268	125.06
494.485	115.06
494.703	122.06
494.92	123.06
495.138	134.06
495.355	126.06
495.573	120.06
495.79	121.06
496.008	122.06
496.225	122.06
496.442	115.06
496.66	134.06
496.877	130.06
497.094	121.06
497.312	115.06
497.529	116.06
497.746	107.06
497.963	102.06
498.181	102.06
498.398	98.06
498.615	92.06
498.832	99.06
499.049	99.06
499.267	115.06
499.484	85.06
499.701	105.06
499.918	103.06
500.135	104.06
500.352	105.06
500.569	116.06
500.786	116.06
501.003	102.06
501.22	103.06
501.437	87.06
501.654	105.06
501.871	98.06
502.088	100.06
502.305	108.06
502.522	95.06
502.739	112.06
502.956	95.06
503.172	78.06
503.389	76.06
503.606	102.06
503.823	99.06
504.04	95.06
504.256	99.06
504.473	103.06
504.69	96.06
504.907	96.06
505.123	102.06
505.34	92.06
505.557	108.06
505.773	107.06
505.99	99.06
506.207	106.06
506.423	108.06
506.64	117.06
506.856	104.06
507.073	98.06
507.289	110.06
507.506	98.06
507.722	98.06
507.939	105.06
508.155	96.06
508.372	94.06
508.588	95.06
508.805	98.06
509.021	93.06
509.238	96.06
509.454	96.06
509.67	101.06
509.887	94.06
510.103	76.06
510.319	90.06
510.536	99.06
510.752	80.06
510.968	81.06
511.184	81.06
511.401	91.06
511.617	84.06
511.833	96.06
512.049	83.06
512.265	81.06
512.481	69.06
512.698	92.06
512.914	94.06
513.13	84.06
513.346	81.06
513.562	83.06
513.778	79.06
513.994	82.06
514.21	88.06
514.426	95.06
514.642	109.06
514.858	91.06
515.074	74.06
