Data from Foil_1_HRD10591_00013.txt Node
Date: Wed Nov 05 16:15:27 EST 2025
User: Yrep
Spectrometer: HR+D1059
Trigger mode: 1
Integration Time (sec): 1.000000E-1
Scans to average: 1
Electric dark correction enabled: true
Nonlinearity correction enabled: false
Boxcar width: 0
XAxis mode: Wavelengths
Number of Pixels in Spectrum: 2048
>>>>>Begin Spectral Data<<<<<
223.165	-21.56
223.4	-21.56
223.635	-21.56
223.869	-29.56
224.104	-11.56
224.338	-11.56
224.573	-20.56
224.808	-19.56
225.042	-3.56
225.277	-14.56
225.511	-1.56
225.746	10.44
225.98	18.44
226.215	18.44
226.449	20.44
226.683	9.44
226.918	29.44
227.152	27.44
227.387	31.44
227.621	21.44
227.856	48.44
228.09	56.44
228.324	40.44
228.559	66.44
228.793	60.44
229.027	70.44
229.262	71.44
229.496	72.44
229.73	86.44
229.964	72.44
230.199	74.44
230.433	64.44
230.667	69.44
230.901	79.44
231.136	84.44
231.37	60.44
231.604	73.44
231.838	67.44
232.072	79.44
232.306	75.44
232.541	79.44
232.775	72.44
233.009	75.44
233.243	90.44
233.477	78.44
233.711	70.44
233.945	78.44
234.179	72.44
234.413	81.44
234.647	78.44
234.881	85.44
235.115	75.44
235.349	88.44
235.583	91.44
235.817	81.44
236.051	76.44
236.285	72.44
236.519	83.44
236.753	81.44
236.987	66.44
237.221	79.44
237.455	88.44
237.689	80.44
237.922	84.44
238.156	77.44
238.39	83.44
238.624	84.44
238.858	90.44
239.091	73.44
239.325	86.44
239.559	91.44
239.793	86.44
240.027	89.44
240.26	63.44
240.494	83.44
240.728	76.44
240.961	67.44
241.195	96.44
241.429	72.44
241.662	80.44
241.896	84.44
242.13	83.44
242.363	66.44
242.597	73.44
242.83	75.44
243.064	83.44
243.298	76.44
243.531	76.44
243.765	82.44
243.998	80.44
244.232	77.44
244.465	69.44
244.699	70.44
244.932	79.44
245.166	66.44
245.399	78.44
245.633	82.44
245.866	96.44
246.099	70.44
246.333	80.44
246.566	89.44
246.8	68.44
247.033	79.44
247.266	90.44
247.5	74.44
247.733	70.44
247.966	102.44
248.2	82.44
248.433	71.44
248.666	82.44
248.899	83.44
249.133	83.44
249.366	77.44
249.599	72.44
249.832	80.44
250.066	89.44
250.299	100.44
250.532	96.44
250.765	89.44
250.998	72.44
251.231	80.44
251.465	93.44
251.698	85.44
251.931	75.44
252.164	73.44
252.397	84.44
252.63	79.44
252.863	87.44
253.096	73.44
253.329	84.44
253.562	79.44
253.795	74.44
254.028	88.44
254.261	80.44
254.494	84.44
254.727	92.44
254.96	74.44
255.193	67.44
255.426	82.44
255.659	85.44
255.892	79.44
256.124	76.44
256.357	88.44
256.59	75.44
256.823	85.44
257.056	78.44
257.289	96.44
257.521	82.44
257.754	85.44
257.987	80.44
258.22	94.44
258.452	80.44
258.685	82.44
258.918	81.44
259.151	81.44
259.383	79.44
259.616	97.44
259.849	82.44
260.081	83.44
260.314	81.44
260.547	82.44
260.779	68.44
261.012	92.44
261.244	76.44
261.477	98.44
261.71	69.44
261.942	94.44
262.175	84.44
262.407	79.44
262.64	76.44
262.872	75.44
263.105	84.44
263.337	90.44
263.57	85.44
263.802	90.44
264.035	82.44
264.267	99.44
264.499	88.44
264.732	88.44
264.964	79.44
265.197	64.44
265.429	84.44
265.661	93.44
265.894	89.44
266.126	87.44
266.358	75.44
266.591	97.44
266.823	94.44
267.055	85.44
267.287	78.44
267.52	85.44
267.752	92.44
267.984	88.44
268.216	78.44
268.448	91.44
268.681	85.44
268.913	82.44
269.145	84.44
269.377	89.44
269.609	74.44
269.841	79.44
270.073	85.44
270.306	80.44
270.538	92.44
270.77	78.44
271.002	78.44
271.234	67.44
271.466	90.44
271.698	75.44
271.93	73.44
272.162	89.44
272.394	82.44
272.626	85.44
272.858	86.44
273.09	82.44
273.322	74.44
273.553	79.44
273.785	102.44
274.017	81.44
274.249	83.44
274.481	85.44
274.713	64.44
274.945	82.44
275.176	81.44
275.408	93.44
275.64	77.44
275.872	86.44
276.104	99.44
276.335	79.44
276.567	82.44
276.799	90.44
277.031	84.44
277.262	71.44
277.494	83.44
277.726	94.44
277.957	77.44
278.189	74.44
278.421	76.44
278.652	69.44
278.884	80.44
279.115	81.44
279.347	99.44
279.579	80.44
279.81	78.44
280.042	72.44
280.273	93.44
280.505	74.44
280.736	92.44
280.968	100.44
281.199	104.44
281.431	77.44
281.662	72.44
281.894	81.44
282.125	96.44
282.356	82.44
282.588	77.44
282.819	82.44
283.051	84.44
283.282	87.44
283.513	93.44
283.745	79.44
283.976	77.44
284.207	81.44
284.439	73.44
284.67	78.44
284.901	96.44
285.132	92.44
285.364	79.44
285.595	96.44
285.826	81.44
286.057	77.44
286.288	94.44
286.52	89.44
286.751	95.44
286.982	95.44
287.213	96.44
287.444	95.44
287.675	89.44
287.906	93.44
288.138	79.44
288.369	90.44
288.6	93.44
288.831	86.44
289.062	87.44
289.293	77.44
289.524	90.44
289.755	82.44
289.986	91.44
290.217	80.44
290.448	82.44
290.679	85.44
290.91	71.44
291.141	81.44
291.371	86.44
291.602	90.44
291.833	84.44
292.064	80.44
292.295	85.44
292.526	77.44
292.757	83.44
292.987	86.44
293.218	84.44
293.449	89.44
293.68	94.44
293.91	76.44
294.141	94.44
294.372	92.44
294.603	75.44
294.833	80.44
295.064	95.44
295.295	74.44
295.525	91.44
295.756	84.44
295.987	99.44
296.217	99.44
296.448	86.44
296.679	77.44
296.909	70.44
297.14	86.44
297.37	105.44
297.601	68.44
297.831	101.44
298.062	93.44
298.292	89.44
298.523	83.44
298.753	85.44
298.984	86.44
299.214	83.44
299.445	76.44
299.675	81.44
299.905	82.44
300.136	80.44
300.366	93.44
300.597	93.44
300.827	92.44
301.057	88.44
301.288	92.44
301.518	92.44
301.748	82.44
301.979	102.44
302.209	79.44
302.439	92.44
302.669	91.44
302.9	82.44
303.13	86.44
303.36	93.44
303.59	90.44
303.82	89.44
304.051	81.44
304.281	94.44
304.511	97.44
304.741	88.44
304.971	91.44
305.201	93.44
305.431	78.44
305.661	88.44
305.891	90.44
306.121	84.44
306.352	81.44
306.582	89.44
306.812	84.44
307.042	94.44
307.272	79.44
307.502	103.44
307.731	89.44
307.961	96.44
308.191	122.44
308.421	119.44
308.651	111.44
308.881	104.44
309.111	107.44
309.341	138.44
309.571	111.44
309.8	83.44
310.03	94.44
310.26	88.44
310.49	77.44
310.72	84.44
310.949	94.44
311.179	78.44
311.409	79.44
311.639	81.44
311.868	94.44
312.098	83.44
312.328	82.44
312.557	69.44
312.787	82.44
313.017	89.44
313.246	86.44
313.476	84.44
313.706	73.44
313.935	81.44
314.165	93.44
314.394	78.44
314.624	99.44
314.853	81.44
315.083	91.44
315.312	84.44
315.542	79.44
315.771	89.44
316.001	89.44
316.23	87.44
316.46	91.44
316.689	84.44
316.919	80.44
317.148	95.44
317.377	88.44
317.607	79.44
317.836	84.44
318.065	79.44
318.295	81.44
318.524	87.44
318.753	92.44
318.983	82.44
319.212	90.44
319.441	96.44
319.67	89.44
319.9	84.44
320.129	95.44
320.358	102.44
320.587	74.44
320.816	85.44
321.046	87.44
321.275	97.44
321.504	95.44
321.733	72.44
321.962	84.44
322.191	81.44
322.42	92.44
322.649	76.44
322.878	99.44
323.108	85.44
323.337	93.44
323.566	92.44
323.795	83.44
324.024	69.44
324.253	71.44
324.482	72.44
324.71	82.44
324.939	95.44
325.168	80.44
325.397	90.44
325.626	84.44
325.855	89.44
326.084	89.44
326.313	96.44
326.542	89.44
326.77	76.44
326.999	77.44
327.228	86.44
327.457	74.44
327.686	98.44
327.914	92.44
328.143	85.44
328.372	85.44
328.6	84.44
328.829	82.44
329.058	82.44
329.287	97.44
329.515	78.44
329.744	95.44
329.972	91.44
330.201	102.44
330.43	83.44
330.658	90.44
330.887	68.44
331.115	86.44
331.344	107.44
331.572	80.44
331.801	94.44
332.03	82.44
332.258	101.44
332.486	76.44
332.715	86.44
332.943	86.44
333.172	89.44
333.4	98.44
333.629	79.44
333.857	84.44
334.085	91.44
334.314	83.44
334.542	84.44
334.771	102.44
334.999	91.44
335.227	84.44
335.455	94.44
335.684	97.44
335.912	81.44
336.14	80.44
336.369	90.44
336.597	90.44
336.825	89.44
337.053	82.44
337.281	83.44
337.51	86.44
337.738	79.44
337.966	86.44
338.194	80.44
338.422	82.44
338.65	99.44
338.878	84.44
339.106	81.44
339.334	102.44
339.562	83.44
339.79	95.44
340.018	84.44
340.246	89.44
340.474	87.44
340.702	101.44
340.93	85.44
341.158	91.44
341.386	87.44
341.614	96.44
341.842	80.44
342.07	88.44
342.298	91.44
342.526	82.44
342.754	90.44
342.981	67.44
343.209	76.44
343.437	105.44
343.665	87.44
343.893	73.44
344.12	80.44
344.348	80.44
344.576	79.44
344.804	84.44
345.031	91.44
345.259	103.44
345.487	93.44
345.714	89.44
345.942	80.44
346.17	84.44
346.397	70.44
346.625	88.44
346.853	76.44
347.08	66.44
347.308	87.44
347.535	99.44
347.763	84.44
347.99	85.44
348.218	82.44
348.445	76.44
348.673	83.44
348.9	78.44
349.128	90.44
349.355	84.44
349.583	88.44
349.81	77.44
350.037	85.44
350.265	104.44
350.492	96.44
350.72	82.44
350.947	89.44
351.174	84.44
351.402	76.44
351.629	74.44
351.856	82.44
352.083	76.44
352.311	86.44
352.538	85.44
352.765	95.44
352.992	99.44
353.22	84.44
353.447	95.44
353.674	79.44
353.901	77.44
354.128	95.44
354.355	85.44
354.583	82.44
354.81	86.44
355.037	85.44
355.264	67.44
355.491	74.44
355.718	91.44
355.945	99.44
356.172	97.44
356.399	96.44
356.626	76.44
356.853	97.44
357.08	98.44
357.307	94.44
357.534	80.44
357.761	83.44
357.988	77.44
358.215	92.44
358.441	86.44
358.668	86.44
358.895	84.44
359.122	91.44
359.349	86.44
359.576	102.44
359.802	89.44
360.029	79.44
360.256	92.44
360.483	70.44
360.709	81.44
360.936	78.44
361.163	93.44
361.39	94.44
361.616	75.44
361.843	85.44
362.07	90.44
362.296	78.44
362.523	87.44
362.749	83.44
362.976	84.44
363.203	90.44
363.429	88.44
363.656	93.44
363.882	76.44
364.109	84.44
364.335	93.44
364.562	89.44
364.788	95.44
365.015	90.44
365.241	95.44
365.468	92.44
365.694	82.44
365.92	93.44
366.147	79.44
366.373	76.44
366.599	97.44
366.826	90.44
367.052	98.44
367.278	78.44
367.505	80.44
367.731	91.44
367.957	84.44
368.184	88.44
368.41	92.44
368.636	90.44
368.862	92.44
369.089	104.44
369.315	84.44
369.541	96.44
369.767	76.44
369.993	88.44
370.219	86.44
370.445	86.44
370.672	89.44
370.898	87.44
371.124	96.44
371.35	92.44
371.576	99.44
371.802	113.44
372.028	84.44
372.254	103.44
372.48	78.44
372.706	80.44
372.932	93.44
373.158	89.44
373.384	99.44
373.61	85.44
373.835	92.44
374.061	83.44
374.287	74.44
374.513	85.44
374.739	84.44
374.965	80.44
375.191	88.44
375.416	83.44
375.642	85.44
375.868	88.44
376.094	81.44
376.319	91.44
376.545	79.44
376.771	89.44
376.997	100.44
377.222	93.44
377.448	97.44
377.674	94.44
377.899	98.44
378.125	77.44
378.35	92.44
378.576	86.44
378.802	89.44
379.027	88.44
379.253	91.44
379.478	79.44
379.704	91.44
379.929	90.44
380.155	94.44
380.38	87.44
380.606	103.44
380.831	88.44
381.057	89.44
381.282	84.44
381.507	92.44
381.733	91.44
381.958	90.44
382.184	74.44
382.409	94.44
382.634	101.44
382.86	87.44
383.085	81.44
383.31	84.44
383.535	95.44
383.761	94.44
383.986	91.44
384.211	98.44
384.436	76.44
384.662	88.44
384.887	99.44
385.112	90.44
385.337	90.44
385.562	86.44
385.787	90.44
386.013	84.44
386.238	94.44
386.463	90.44
386.688	104.44
386.913	98.44
387.138	90.44
387.363	95.44
387.588	113.44
387.813	102.44
388.038	84.44
388.263	104.44
388.488	94.44
388.713	103.44
388.938	97.44
389.163	96.44
389.387	106.44
389.612	102.44
389.837	96.44
390.062	85.44
390.287	96.44
390.512	106.44
390.736	97.44
390.961	77.44
391.186	87.44
391.411	82.44
391.636	90.44
391.86	106.44
392.085	92.44
392.31	91.44
392.534	99.44
392.759	97.44
392.984	76.44
393.208	97.44
393.433	84.44
393.658	99.44
393.882	111.44
394.107	125.44
394.331	157.44
394.556	180.44
394.78	116.44
395.005	115.44
395.229	98.44
395.454	110.44
395.678	107.44
395.903	162.44
396.127	220.44
396.352	235.44
396.576	112.44
396.801	78.44
397.025	100.44
397.249	93.44
397.474	98.44
397.698	95.44
397.922	90.44
398.147	97.44
398.371	92.44
398.595	102.44
398.82	99.44
399.044	97.44
399.268	90.44
399.492	91.44
399.717	87.44
399.941	96.44
400.165	103.44
400.389	97.44
400.613	106.44
400.837	85.44
401.062	113.44
401.286	90.44
401.51	101.44
401.734	98.44
401.958	92.44
402.182	100.44
402.406	97.44
402.63	90.44
402.854	106.44
403.078	101.44
403.302	100.44
403.526	106.44
403.75	95.44
403.974	90.44
404.198	84.44
404.422	104.44
404.645	100.44
404.869	104.44
405.093	103.44
405.317	101.44
405.541	96.44
405.765	98.44
405.988	105.44
406.212	84.44
406.436	106.44
406.66	101.44
406.883	90.44
407.107	93.44
407.331	95.44
407.555	100.44
407.778	94.44
408.002	121.44
408.226	111.44
408.449	110.44
408.673	110.44
408.896	94.44
409.12	89.44
409.344	100.44
409.567	104.44
409.791	99.44
410.014	106.44
410.238	112.44
410.461	96.44
410.685	100.44
410.908	104.44
411.132	103.44
411.355	106.44
411.578	110.44
411.802	114.44
412.025	105.44
412.249	99.44
412.472	102.44
412.695	110.44
412.919	83.44
413.142	115.44
413.365	112.44
413.589	93.44
413.812	94.44
414.035	119.44
414.258	107.44
414.482	93.44
414.705	94.44
414.928	109.44
415.151	116.44
415.374	108.44
415.597	99.44
415.821	114.44
416.044	94.44
416.267	99.44
416.49	101.44
416.713	100.44
416.936	90.44
417.159	104.44
417.382	90.44
417.605	95.44
417.828	99.44
418.051	106.44
418.274	113.44
418.497	99.44
418.72	98.44
418.943	105.44
419.166	103.44
419.389	100.44
419.611	106.44
419.834	111.44
420.057	112.44
420.28	88.44
420.503	103.44
420.726	104.44
420.948	105.44
421.171	88.44
421.394	110.44
421.617	102.44
421.839	109.44
422.062	103.44
422.285	100.44
422.507	95.44
422.73	88.44
422.953	96.44
423.175	109.44
423.398	93.44
423.621	106.44
423.843	94.44
424.066	107.44
424.288	104.44
424.511	107.44
424.733	90.44
424.956	115.44
425.178	104.44
425.401	113.44
425.623	100.44
425.846	96.44
426.068	95.44
426.291	96.44
426.513	93.44
426.735	102.44
426.958	103.44
427.18	110.44
427.402	107.44
427.625	108.44
427.847	100.44
428.069	107.44
428.292	94.44
428.514	104.44
428.736	111.44
428.958	101.44
429.181	101.44
429.403	96.44
429.625	96.44
429.847	119.44
430.069	111.44
430.292	92.44
430.514	109.44
430.736	101.44
430.958	120.44
431.18	98.44
431.402	97.44
431.624	96.44
431.846	93.44
432.068	89.44
432.29	88.44
432.512	97.44
432.734	98.44
432.956	106.44
433.178	110.44
433.4	99.44
433.622	96.44
433.844	98.44
434.066	90.44
434.287	91.44
434.509	99.44
434.731	99.44
434.953	99.44
435.175	102.44
435.397	101.44
435.618	81.44
435.84	90.44
436.062	87.44
436.284	95.44
436.505	112.44
436.727	107.44
436.949	103.44
437.17	100.44
437.392	96.44
437.614	108.44
437.835	95.44
438.057	98.44
438.278	86.44
438.5	100.44
438.721	108.44
438.943	110.44
439.165	102.44
439.386	110.44
439.608	121.44
439.829	96.44
440.05	110.44
440.272	114.44
440.493	108.44
440.715	118.44
440.936	107.44
441.158	112.44
441.379	113.44
441.6	122.44
441.822	98.44
442.043	110.44
442.264	116.44
442.486	121.44
442.707	95.44
442.928	95.44
443.149	119.44
443.371	103.44
443.592	105.44
443.813	92.44
444.034	98.44
444.255	99.44
444.476	93.44
444.698	124.44
444.919	92.44
445.14	178.44
445.361	138.44
445.582	122.44
445.803	118.44
446.024	97.44
446.245	113.44
446.466	108.44
446.687	100.44
446.908	116.44
447.129	98.44
447.35	104.44
447.571	101.44
447.792	118.44
448.013	112.44
448.234	95.44
448.455	102.44
448.675	107.44
448.896	111.44
449.117	92.44
449.338	105.44
449.559	106.44
449.779	107.44
450	101.44
450.221	118.44
450.442	112.44
450.662	116.44
450.883	115.44
451.104	107.44
451.324	90.44
451.545	99.44
451.766	96.44
451.986	115.44
452.207	100.44
452.428	95.44
452.648	103.44
452.869	97.44
453.089	92.44
453.31	85.44
453.53	88.44
453.751	83.44
453.971	86.44
454.192	94.44
454.412	103.44
454.633	94.44
454.853	103.44
455.073	98.44
455.294	92.44
455.514	93.44
455.734	105.44
455.955	91.44
456.175	97.44
456.395	99.44
456.616	90.44
456.836	92.44
457.056	82.44
457.276	83.44
457.497	96.44
457.717	98.44
457.937	112.44
458.157	87.44
458.377	98.44
458.598	94.44
458.818	93.44
459.038	81.44
459.258	78.44
459.478	81.44
459.698	70.44
459.918	94.44
460.138	81.44
460.358	87.44
460.578	91.44
460.798	100.44
461.018	95.44
461.238	81.44
461.458	101.44
461.678	102.44
461.898	92.44
462.118	91.44
462.338	102.44
462.558	110.44
462.777	98.44
462.997	105.44
463.217	80.44
463.437	97.44
463.657	90.44
463.876	93.44
464.096	90.44
464.316	87.44
464.536	85.44
464.755	83.44
464.975	87.44
465.195	82.44
465.414	104.44
465.634	76.44
465.854	87.44
466.073	113.44
466.293	102.44
466.512	94.44
466.732	110.44
466.951	112.44
467.171	110.44
467.391	121.44
467.61	114.44
467.829	133.44
468.049	123.44
468.268	126.44
468.488	107.44
468.707	120.44
468.927	112.44
469.146	121.44
469.365	119.44
469.585	120.44
469.804	126.44
470.023	120.44
470.243	103.44
470.462	132.44
470.681	118.44
470.901	107.44
471.12	118.44
471.339	119.44
471.558	102.44
471.777	104.44
471.997	114.44
472.216	102.44
472.435	92.44
472.654	98.44
472.873	108.44
473.092	96.44
473.311	99.44
473.53	99.44
473.749	113.44
473.968	95.44
474.187	80.44
474.406	106.44
474.625	115.44
474.844	100.44
475.063	97.44
475.282	96.44
475.501	84.44
475.72	119.44
475.939	114.44
476.158	94.44
476.377	84.44
476.596	95.44
476.814	92.44
477.033	94.44
477.252	97.44
477.471	84.44
477.69	102.44
477.908	94.44
478.127	102.44
478.346	87.44
478.564	107.44
478.783	94.44
479.002	110.44
479.22	106.44
479.439	93.44
479.658	87.44
479.876	86.44
480.095	89.44
480.313	106.44
480.532	109.44
480.751	82.44
480.969	89.44
481.188	85.44
481.406	67.44
481.624	84.44
481.843	97.44
482.061	95.44
482.28	108.44
482.498	88.44
482.717	79.44
482.935	86.44
483.153	110.44
483.372	104.44
483.59	100.44
483.808	95.44
484.027	95.44
484.245	111.44
484.463	98.44
484.681	105.44
484.9	94.44
485.118	97.44
485.336	82.44
485.554	88.44
485.772	84.44
485.99	84.44
486.209	97.44
486.427	95.44
486.645	89.44
486.863	109.44
487.081	102.44
487.299	94.44
487.517	101.44
487.735	92.44
487.953	107.44
488.171	102.44
488.389	110.44
488.607	104.44
488.825	101.44
489.043	97.44
489.261	96.44
489.479	99.44
489.696	106.44
489.914	96.44
490.132	102.44
490.35	122.44
490.568	122.44
490.786	123.44
491.003	134.44
491.221	128.44
491.439	131.44
491.657	127.44
491.874	142.44
492.092	148.44
492.31	142.44
492.527	136.44
492.745	142.44
492.963	144.44
493.18	147.44
493.398	134.44
493.615	132.44
493.833	126.44
494.05	132.44
494.268	131.44
494.485	138.44
494.703	125.44
494.92	135.44
495.138	118.44
495.355	121.44
495.573	127.44
495.79	114.44
496.008	127.44
496.225	131.44
496.442	124.44
496.66	122.44
496.877	111.44
497.094	126.44
497.312	124.44
497.529	116.44
497.746	121.44
497.963	106.44
498.181	105.44
498.398	94.44
498.615	103.44
498.832	86.44
499.049	87.44
499.267	88.44
499.484	104.44
499.701	122.44
499.918	109.44
500.135	98.44
500.352	107.44
500.569	122.44
500.786	108.44
501.003	94.44
501.22	110.44
501.437	110.44
501.654	111.44
501.871	99.44
502.088	102.44
502.305	101.44
502.522	84.44
502.739	107.44
502.956	104.44
503.172	111.44
503.389	97.44
503.606	112.44
503.823	89.44
504.04	100.44
504.256	98.44
504.473	103.44
504.69	106.44
504.907	91.44
505.123	97.44
505.34	102.44
505.557	98.44
505.773	89.44
505.99	100.44
506.207	99.44
506.423	108.44
506.64	102.44
506.856	95.44
507.073	100.44
507.289	88.44
507.506	100.44
507.722	88.44
507.939	80.44
508.155	92.44
508.372	103.44
508.588	94.44
508.805	94.44
509.021	102.44
509.238	84.44
509.454	108.44
509.67	99.44
509.887	94.44
510.103	82.44
510.319	90.44
510.536	83.44
510.752	92.44
510.968	84.44
511.184	70.44
511.401	79.44
511.617	88.44
511.833	83.44
512.049	82.44
512.265	80.44
512.481	83.44
512.698	99.44
512.914	90.44
513.13	85.44
513.346	77.44
513.562	101.44
513.778	90.44
513.994	84.44
514.21	82.44
514.426	107.44
514.642	94.44
514.858	98.44
515.074	93.44
515.29	104.44
515.506	90.44
