Data from Foil_1_HRD10591_00004.txt Node
Date: Wed Nov 05 16:15:22 EST 2025
User: Yrep
Spectrometer: HR+D1059
Trigger mode: 1
Integration Time (sec): 1.000000E-1
Scans to average: 1
Electric dark correction enabled: true
Nonlinearity correction enabled: false
Boxcar width: 0
XAxis mode: Wavelengths
Number of Pixels in Spectrum: 2048
>>>>>Begin Spectral Data<<<<<
223.165	-17.81
223.4	-17.81
223.635	-17.81
223.869	-16.81
224.104	-22.81
224.338	-14.81
224.573	-12.81
224.808	-6.81
225.042	-10.81
225.277	-14.81
225.511	-11.81
225.746	-0.81
225.98	14.19
226.215	26.19
226.449	25.19
226.683	27.19
226.918	13.19
227.152	24.19
227.387	36.19
227.621	49.19
227.856	45.19
228.09	57.19
228.324	41.19
228.559	56.19
228.793	59.19
229.027	70.19
229.262	59.19
229.496	68.19
229.73	71.19
229.964	60.19
230.199	74.19
230.433	71.19
230.667	81.19
230.901	73.19
231.136	77.19
231.37	82.19
231.604	74.19
231.838	87.19
232.072	77.19
232.306	77.19
232.541	74.19
232.775	70.19
233.009	107.19
233.243	80.19
233.477	86.19
233.711	78.19
233.945	74.19
234.179	60.19
234.413	83.19
234.647	88.19
234.881	81.19
235.115	71.19
235.349	80.19
235.583	75.19
235.817	77.19
236.051	76.19
236.285	69.19
236.519	82.19
236.753	74.19
236.987	74.19
237.221	78.19
237.455	83.19
237.689	80.19
237.922	75.19
238.156	61.19
238.39	84.19
238.624	83.19
238.858	75.19
239.091	80.19
239.325	70.19
239.559	72.19
239.793	85.19
240.027	95.19
240.26	74.19
240.494	84.19
240.728	84.19
240.961	69.19
241.195	85.19
241.429	73.19
241.662	63.19
241.896	79.19
242.13	80.19
242.363	79.19
242.597	79.19
242.83	70.19
243.064	76.19
243.298	81.19
243.531	73.19
243.765	85.19
243.998	82.19
244.232	78.19
244.465	88.19
244.699	85.19
244.932	82.19
245.166	79.19
245.399	101.19
245.633	82.19
245.866	71.19
246.099	90.19
246.333	59.19
246.566	70.19
246.8	75.19
247.033	78.19
247.266	78.19
247.5	74.19
247.733	61.19
247.966	79.19
248.2	78.19
248.433	67.19
248.666	81.19
248.899	81.19
249.133	91.19
249.366	77.19
249.599	75.19
249.832	94.19
250.066	94.19
250.299	79.19
250.532	85.19
250.765	83.19
250.998	77.19
251.231	78.19
251.465	77.19
251.698	76.19
251.931	75.19
252.164	82.19
252.397	75.19
252.63	76.19
252.863	77.19
253.096	82.19
253.329	68.19
253.562	78.19
253.795	83.19
254.028	98.19
254.261	80.19
254.494	88.19
254.727	73.19
254.96	77.19
255.193	69.19
255.426	86.19
255.659	82.19
255.892	86.19
256.124	77.19
256.357	75.19
256.59	95.19
256.823	92.19
257.056	83.19
257.289	79.19
257.521	73.19
257.754	90.19
257.987	92.19
258.22	79.19
258.452	77.19
258.685	86.19
258.918	86.19
259.151	83.19
259.383	81.19
259.616	78.19
259.849	81.19
260.081	66.19
260.314	74.19
260.547	76.19
260.779	84.19
261.012	85.19
261.244	71.19
261.477	73.19
261.71	69.19
261.942	77.19
262.175	93.19
262.407	75.19
262.64	82.19
262.872	85.19
263.105	75.19
263.337	83.19
263.57	82.19
263.802	81.19
264.035	90.19
264.267	89.19
264.499	77.19
264.732	81.19
264.964	72.19
265.197	78.19
265.429	81.19
265.661	87.19
265.894	87.19
266.126	77.19
266.358	85.19
266.591	94.19
266.823	72.19
267.055	87.19
267.287	74.19
267.52	86.19
267.752	81.19
267.984	82.19
268.216	77.19
268.448	95.19
268.681	95.19
268.913	88.19
269.145	93.19
269.377	83.19
269.609	65.19
269.841	84.19
270.073	80.19
270.306	88.19
270.538	88.19
270.77	76.19
271.002	93.19
271.234	83.19
271.466	83.19
271.698	88.19
271.93	79.19
272.162	85.19
272.394	86.19
272.626	79.19
272.858	80.19
273.09	76.19
273.322	97.19
273.553	72.19
273.785	75.19
274.017	83.19
274.249	90.19
274.481	84.19
274.713	84.19
274.945	86.19
275.176	83.19
275.408	79.19
275.64	95.19
275.872	84.19
276.104	76.19
276.335	93.19
276.567	89.19
276.799	82.19
277.031	77.19
277.262	96.19
277.494	83.19
277.726	89.19
277.957	74.19
278.189	70.19
278.421	83.19
278.652	72.19
278.884	81.19
279.115	82.19
279.347	82.19
279.579	87.19
279.81	89.19
280.042	92.19
280.273	70.19
280.505	81.19
280.736	76.19
280.968	75.19
281.199	86.19
281.431	83.19
281.662	91.19
281.894	89.19
282.125	94.19
282.356	69.19
282.588	81.19
282.819	81.19
283.051	78.19
283.282	72.19
283.513	94.19
283.745	82.19
283.976	95.19
284.207	97.19
284.439	82.19
284.67	99.19
284.901	81.19
285.132	93.19
285.364	78.19
285.595	77.19
285.826	88.19
286.057	78.19
286.288	83.19
286.52	82.19
286.751	82.19
286.982	68.19
287.213	82.19
287.444	87.19
287.675	83.19
287.906	84.19
288.138	78.19
288.369	97.19
288.6	78.19
288.831	89.19
289.062	85.19
289.293	85.19
289.524	102.19
289.755	88.19
289.986	92.19
290.217	87.19
290.448	82.19
290.679	82.19
290.91	91.19
291.141	84.19
291.371	101.19
291.602	82.19
291.833	78.19
292.064	82.19
292.295	79.19
292.526	86.19
292.757	91.19
292.987	78.19
293.218	93.19
293.449	92.19
293.68	90.19
293.91	76.19
294.141	92.19
294.372	92.19
294.603	94.19
294.833	82.19
295.064	77.19
295.295	91.19
295.525	103.19
295.756	79.19
295.987	84.19
296.217	92.19
296.448	75.19
296.679	82.19
296.909	91.19
297.14	81.19
297.37	93.19
297.601	80.19
297.831	88.19
298.062	102.19
298.292	79.19
298.523	85.19
298.753	77.19
298.984	79.19
299.214	94.19
299.445	75.19
299.675	83.19
299.905	86.19
300.136	97.19
300.366	84.19
300.597	83.19
300.827	80.19
301.057	82.19
301.288	79.19
301.518	76.19
301.748	76.19
301.979	106.19
302.209	86.19
302.439	89.19
302.669	86.19
302.9	77.19
303.13	86.19
303.36	87.19
303.59	80.19
303.82	82.19
304.051	78.19
304.281	84.19
304.511	87.19
304.741	80.19
304.971	77.19
305.201	81.19
305.431	83.19
305.661	85.19
305.891	85.19
306.121	73.19
306.352	104.19
306.582	95.19
306.812	93.19
307.042	85.19
307.272	77.19
307.502	92.19
307.731	101.19
307.961	98.19
308.191	106.19
308.421	130.19
308.651	102.19
308.881	104.19
309.111	142.19
309.341	131.19
309.571	101.19
309.8	73.19
310.03	87.19
310.26	77.19
310.49	76.19
310.72	74.19
310.949	93.19
311.179	73.19
311.409	86.19
311.639	86.19
311.868	94.19
312.098	87.19
312.328	72.19
312.557	83.19
312.787	76.19
313.017	69.19
313.246	84.19
313.476	64.19
313.706	81.19
313.935	84.19
314.165	87.19
314.394	89.19
314.624	89.19
314.853	76.19
315.083	95.19
315.312	80.19
315.542	81.19
315.771	84.19
316.001	84.19
316.23	83.19
316.46	80.19
316.689	83.19
316.919	80.19
317.148	90.19
317.377	105.19
317.607	99.19
317.836	104.19
318.065	84.19
318.295	91.19
318.524	77.19
318.753	89.19
318.983	87.19
319.212	92.19
319.441	73.19
319.67	84.19
319.9	80.19
320.129	89.19
320.358	75.19
320.587	77.19
320.816	73.19
321.046	100.19
321.275	70.19
321.504	76.19
321.733	80.19
321.962	81.19
322.191	83.19
322.42	82.19
322.649	88.19
322.878	96.19
323.108	86.19
323.337	89.19
323.566	87.19
323.795	81.19
324.024	81.19
324.253	72.19
324.482	77.19
324.71	77.19
324.939	82.19
325.168	77.19
325.397	88.19
325.626	71.19
325.855	89.19
326.084	85.19
326.313	80.19
326.542	90.19
326.77	87.19
326.999	80.19
327.228	77.19
327.457	95.19
327.686	101.19
327.914	85.19
328.143	93.19
328.372	82.19
328.6	69.19
328.829	86.19
329.058	67.19
329.287	89.19
329.515	99.19
329.744	91.19
329.972	92.19
330.201	81.19
330.43	85.19
330.658	77.19
330.887	79.19
331.115	88.19
331.344	77.19
331.572	81.19
331.801	89.19
332.03	86.19
332.258	95.19
332.486	77.19
332.715	77.19
332.943	80.19
333.172	81.19
333.4	79.19
333.629	86.19
333.857	93.19
334.085	67.19
334.314	80.19
334.542	82.19
334.771	80.19
334.999	100.19
335.227	87.19
335.455	73.19
335.684	88.19
335.912	90.19
336.14	92.19
336.369	79.19
336.597	92.19
336.825	75.19
337.053	92.19
337.281	80.19
337.51	82.19
337.738	89.19
337.966	74.19
338.194	73.19
338.422	71.19
338.65	86.19
338.878	98.19
339.106	76.19
339.334	88.19
339.562	91.19
339.79	79.19
340.018	74.19
340.246	88.19
340.474	80.19
340.702	89.19
340.93	73.19
341.158	75.19
341.386	77.19
341.614	83.19
341.842	81.19
342.07	93.19
342.298	82.19
342.526	90.19
342.754	86.19
342.981	83.19
343.209	95.19
343.437	87.19
343.665	74.19
343.893	95.19
344.12	77.19
344.348	82.19
344.576	80.19
344.804	93.19
345.031	85.19
345.259	87.19
345.487	79.19
345.714	72.19
345.942	80.19
346.17	89.19
346.397	77.19
346.625	87.19
346.853	87.19
347.08	82.19
347.308	91.19
347.535	68.19
347.763	98.19
347.99	78.19
348.218	76.19
348.445	68.19
348.673	89.19
348.9	77.19
349.128	83.19
349.355	91.19
349.583	92.19
349.81	81.19
350.037	90.19
350.265	89.19
350.492	78.19
350.72	89.19
350.947	99.19
351.174	98.19
351.402	86.19
351.629	88.19
351.856	96.19
352.083	79.19
352.311	77.19
352.538	80.19
352.765	87.19
352.992	83.19
353.22	89.19
353.447	82.19
353.674	80.19
353.901	99.19
354.128	87.19
354.355	86.19
354.583	83.19
354.81	89.19
355.037	82.19
355.264	94.19
355.491	80.19
355.718	83.19
355.945	71.19
356.172	92.19
356.399	70.19
356.626	81.19
356.853	93.19
357.08	80.19
357.307	89.19
357.534	78.19
357.761	78.19
357.988	88.19
358.215	89.19
358.441	82.19
358.668	91.19
358.895	82.19
359.122	84.19
359.349	95.19
359.576	93.19
359.802	76.19
360.029	87.19
360.256	89.19
360.483	78.19
360.709	91.19
360.936	93.19
361.163	92.19
361.39	91.19
361.616	76.19
361.843	94.19
362.07	82.19
362.296	83.19
362.523	89.19
362.749	81.19
362.976	83.19
363.203	97.19
363.429	93.19
363.656	90.19
363.882	81.19
364.109	95.19
364.335	81.19
364.562	70.19
364.788	83.19
365.015	82.19
365.241	86.19
365.468	82.19
365.694	87.19
365.92	78.19
366.147	85.19
366.373	91.19
366.599	76.19
366.826	81.19
367.052	88.19
367.278	81.19
367.505	76.19
367.731	83.19
367.957	84.19
368.184	75.19
368.41	83.19
368.636	86.19
368.862	85.19
369.089	84.19
369.315	71.19
369.541	88.19
369.767	74.19
369.993	74.19
370.219	75.19
370.445	83.19
370.672	83.19
370.898	74.19
371.124	77.19
371.35	71.19
371.576	69.19
371.802	70.19
372.028	86.19
372.254	89.19
372.48	80.19
372.706	81.19
372.932	87.19
373.158	90.19
373.384	95.19
373.61	80.19
373.835	78.19
374.061	84.19
374.287	86.19
374.513	84.19
374.739	81.19
374.965	79.19
375.191	85.19
375.416	89.19
375.642	88.19
375.868	82.19
376.094	75.19
376.319	85.19
376.545	87.19
376.771	89.19
376.997	79.19
377.222	87.19
377.448	79.19
377.674	80.19
377.899	86.19
378.125	81.19
378.35	83.19
378.576	90.19
378.802	83.19
379.027	81.19
379.253	88.19
379.478	82.19
379.704	93.19
379.929	91.19
380.155	84.19
380.38	89.19
380.606	87.19
380.831	97.19
381.057	86.19
381.282	93.19
381.507	74.19
381.733	95.19
381.958	91.19
382.184	90.19
382.409	91.19
382.634	93.19
382.86	94.19
383.085	91.19
383.31	89.19
383.535	83.19
383.761	90.19
383.986	88.19
384.211	92.19
384.436	89.19
384.662	86.19
384.887	78.19
385.112	95.19
385.337	99.19
385.562	91.19
385.787	97.19
386.013	95.19
386.238	86.19
386.463	74.19
386.688	97.19
386.913	81.19
387.138	83.19
387.363	98.19
387.588	89.19
387.813	75.19
388.038	77.19
388.263	98.19
388.488	81.19
388.713	82.19
388.938	71.19
389.163	93.19
389.387	91.19
389.612	98.19
389.837	93.19
390.062	94.19
390.287	86.19
390.512	79.19
390.736	107.19
390.961	97.19
391.186	111.19
391.411	90.19
391.636	88.19
391.86	83.19
392.085	93.19
392.31	87.19
392.534	79.19
392.759	101.19
392.984	90.19
393.208	101.19
393.433	86.19
393.658	110.19
393.882	114.19
394.107	123.19
394.331	187.19
394.556	199.19
394.78	144.19
395.005	103.19
395.229	94.19
395.454	103.19
395.678	112.19
395.903	158.19
396.127	222.19
396.352	223.19
396.576	109.19
396.801	98.19
397.025	93.19
397.249	105.19
397.474	91.19
397.698	81.19
397.922	87.19
398.147	89.19
398.371	89.19
398.595	105.19
398.82	98.19
399.044	98.19
399.268	102.19
399.492	92.19
399.717	93.19
399.941	92.19
400.165	108.19
400.389	110.19
400.613	93.19
400.837	93.19
401.062	94.19
401.286	92.19
401.51	109.19
401.734	103.19
401.958	98.19
402.182	101.19
402.406	95.19
402.63	94.19
402.854	101.19
403.078	93.19
403.302	86.19
403.526	101.19
403.75	99.19
403.974	87.19
404.198	88.19
404.422	101.19
404.645	96.19
404.869	93.19
405.093	81.19
405.317	82.19
405.541	98.19
405.765	98.19
405.988	85.19
406.212	86.19
406.436	97.19
406.66	87.19
406.883	93.19
407.107	103.19
407.331	97.19
407.555	99.19
407.778	98.19
408.002	108.19
408.226	111.19
408.449	92.19
408.673	96.19
408.896	116.19
409.12	99.19
409.344	91.19
409.567	103.19
409.791	91.19
410.014	105.19
410.238	104.19
410.461	94.19
410.685	109.19
410.908	106.19
411.132	102.19
411.355	102.19
411.578	106.19
411.802	105.19
412.025	101.19
412.249	100.19
412.472	106.19
412.695	98.19
412.919	95.19
413.142	100.19
413.365	101.19
413.589	96.19
413.812	97.19
414.035	98.19
414.258	107.19
414.482	101.19
414.705	102.19
414.928	91.19
415.151	91.19
415.374	92.19
415.597	110.19
415.821	98.19
416.044	100.19
416.267	101.19
416.49	101.19
416.713	107.19
416.936	97.19
417.159	98.19
417.382	92.19
417.605	86.19
417.828	100.19
418.051	98.19
418.274	105.19
418.497	100.19
418.72	99.19
418.943	99.19
419.166	90.19
419.389	102.19
419.611	98.19
419.834	110.19
420.057	93.19
420.28	102.19
420.503	103.19
420.726	105.19
420.948	98.19
421.171	95.19
421.394	110.19
421.617	94.19
421.839	91.19
422.062	107.19
422.285	95.19
422.507	111.19
422.73	90.19
422.953	82.19
423.175	79.19
423.398	96.19
423.621	114.19
423.843	124.19
424.066	96.19
424.288	104.19
424.511	101.19
424.733	91.19
424.956	95.19
425.178	92.19
425.401	93.19
425.623	101.19
425.846	104.19
426.068	112.19
426.291	99.19
426.513	93.19
426.735	111.19
426.958	112.19
427.18	96.19
427.402	104.19
427.625	89.19
427.847	84.19
428.069	97.19
428.292	105.19
428.514	101.19
428.736	105.19
428.958	91.19
429.181	96.19
429.403	96.19
429.625	89.19
429.847	98.19
430.069	105.19
430.292	109.19
430.514	83.19
430.736	104.19
430.958	101.19
431.18	87.19
431.402	90.19
431.624	97.19
431.846	83.19
432.068	78.19
432.29	95.19
432.512	105.19
432.734	107.19
432.956	106.19
433.178	87.19
433.4	93.19
433.622	96.19
433.844	105.19
434.066	97.19
434.287	101.19
434.509	96.19
434.731	93.19
434.953	92.19
435.175	94.19
435.397	101.19
435.618	91.19
435.84	90.19
436.062	98.19
436.284	96.19
436.505	99.19
436.727	108.19
436.949	96.19
437.17	94.19
437.392	106.19
437.614	91.19
437.835	82.19
438.057	91.19
438.278	91.19
438.5	114.19
438.721	96.19
438.943	107.19
439.165	103.19
439.386	95.19
439.608	106.19
439.829	117.19
440.05	114.19
440.272	121.19
440.493	101.19
440.715	117.19
440.936	121.19
441.158	111.19
441.379	113.19
441.6	118.19
441.822	123.19
442.043	95.19
442.264	108.19
442.486	111.19
442.707	102.19
442.928	101.19
443.149	103.19
443.371	97.19
443.592	97.19
443.813	90.19
444.034	115.19
444.255	110.19
444.476	110.19
444.698	94.19
444.919	95.19
445.14	156.19
445.361	111.19
445.582	117.19
445.803	94.19
446.024	104.19
446.245	109.19
446.466	113.19
446.687	118.19
446.908	103.19
447.129	110.19
447.35	110.19
447.571	99.19
447.792	111.19
448.013	94.19
448.234	96.19
448.455	108.19
448.675	101.19
448.896	93.19
449.117	110.19
449.338	113.19
449.559	105.19
449.779	115.19
450	104.19
450.221	114.19
450.442	108.19
450.662	100.19
450.883	104.19
451.104	95.19
451.324	111.19
451.545	91.19
451.766	123.19
451.986	97.19
452.207	101.19
452.428	88.19
452.648	99.19
452.869	96.19
453.089	98.19
453.31	106.19
453.53	73.19
453.751	90.19
453.971	91.19
454.192	86.19
454.412	103.19
454.633	82.19
454.853	74.19
455.073	84.19
455.294	104.19
455.514	100.19
455.734	98.19
455.955	96.19
456.175	94.19
456.395	94.19
456.616	99.19
456.836	102.19
457.056	99.19
457.276	89.19
457.497	81.19
457.717	94.19
457.937	87.19
458.157	82.19
458.377	94.19
458.598	85.19
458.818	77.19
459.038	75.19
459.258	94.19
459.478	85.19
459.698	91.19
459.918	86.19
460.138	92.19
460.358	81.19
460.578	100.19
460.798	83.19
461.018	98.19
461.238	105.19
461.458	88.19
461.678	96.19
461.898	73.19
462.118	105.19
462.338	100.19
462.558	97.19
462.777	102.19
462.997	87.19
463.217	96.19
463.437	104.19
463.657	91.19
463.876	94.19
464.096	83.19
464.316	103.19
464.536	89.19
464.755	97.19
464.975	105.19
465.195	91.19
465.414	82.19
465.634	94.19
465.854	95.19
466.073	100.19
466.293	102.19
466.512	105.19
466.732	113.19
466.951	121.19
467.171	113.19
467.391	120.19
467.61	133.19
467.829	125.19
468.049	109.19
468.268	110.19
468.488	103.19
468.707	110.19
468.927	104.19
469.146	126.19
469.365	115.19
469.585	103.19
469.804	113.19
470.023	109.19
470.243	110.19
470.462	114.19
470.681	95.19
470.901	118.19
471.12	109.19
471.339	107.19
471.558	118.19
471.777	81.19
471.997	101.19
472.216	101.19
472.435	92.19
472.654	96.19
472.873	96.19
473.092	92.19
473.311	103.19
473.53	106.19
473.749	118.19
473.968	121.19
474.187	94.19
474.406	92.19
474.625	96.19
474.844	95.19
475.063	98.19
475.282	97.19
475.501	104.19
475.72	99.19
475.939	104.19
476.158	107.19
476.377	97.19
476.596	84.19
476.814	81.19
477.033	83.19
477.252	91.19
477.471	122.19
477.69	108.19
477.908	100.19
478.127	110.19
478.346	92.19
478.564	98.19
478.783	108.19
479.002	99.19
479.22	93.19
479.439	95.19
479.658	94.19
479.876	91.19
480.095	97.19
480.313	91.19
480.532	87.19
480.751	86.19
480.969	82.19
481.188	94.19
481.406	96.19
481.624	87.19
481.843	86.19
482.061	94.19
482.28	76.19
482.498	87.19
482.717	88.19
482.935	104.19
483.153	106.19
483.372	108.19
483.59	99.19
483.808	84.19
484.027	101.19
484.245	86.19
484.463	97.19
484.681	101.19
484.9	95.19
485.118	97.19
485.336	85.19
485.554	95.19
485.772	92.19
485.99	95.19
486.209	91.19
486.427	102.19
486.645	101.19
486.863	97.19
487.081	101.19
487.299	100.19
487.517	78.19
487.735	112.19
487.953	117.19
488.171	113.19
488.389	114.19
488.607	106.19
488.825	97.19
489.043	103.19
489.261	93.19
489.479	93.19
489.696	99.19
489.914	99.19
490.132	106.19
490.35	109.19
490.568	114.19
490.786	134.19
491.003	107.19
491.221	118.19
491.439	117.19
491.657	135.19
491.874	154.19
492.092	139.19
492.31	130.19
492.527	138.19
492.745	147.19
492.963	155.19
493.18	147.19
493.398	141.19
493.615	137.19
493.833	129.19
494.05	115.19
494.268	134.19
494.485	130.19
494.703	138.19
494.92	118.19
495.138	122.19
495.355	122.19
495.573	136.19
495.79	126.19
496.008	131.19
496.225	135.19
496.442	102.19
496.66	118.19
496.877	128.19
497.094	127.19
497.312	99.19
497.529	125.19
497.746	112.19
497.963	98.19
498.181	107.19
498.398	95.19
498.615	101.19
498.832	100.19
499.049	96.19
499.267	87.19
499.484	96.19
499.701	111.19
499.918	105.19
500.135	111.19
500.352	98.19
500.569	97.19
500.786	120.19
501.003	106.19
501.22	118.19
501.437	118.19
501.654	97.19
501.871	97.19
502.088	81.19
502.305	99.19
502.522	95.19
502.739	107.19
502.956	102.19
503.172	96.19
503.389	101.19
503.606	98.19
503.823	96.19
504.04	98.19
504.256	93.19
504.473	87.19
504.69	86.19
504.907	90.19
505.123	80.19
505.34	102.19
505.557	119.19
505.773	94.19
505.99	94.19
506.207	95.19
506.423	96.19
506.64	106.19
506.856	100.19
507.073	91.19
507.289	84.19
507.506	79.19
507.722	96.19
507.939	105.19
508.155	95.19
508.372	90.19
508.588	107.19
508.805	92.19
509.021	84.19
509.238	103.19
509.454	95.19
509.67	92.19
509.887	101.19
510.103	86.19
510.319	91.19
510.536	93.19
510.752	93.19
510.968	90.19
511.184	82.19
511.401	66.19
511.617	98.19
511.833	80.19
512.049	95.19
512.265	84.19
512.481	79.19
512.698	82.19
512.914	104.19
513.13	89.19
513.346	90.19
513.562	95.19
513.778	89.19
513.994	97.19
514.21	83.19
514.426	89.19
514.642	74.19
514.858	97.19
515.074	98.19
515.29	88.19
515.506	89.19
515.721	84.19
515.937	101.19
516.153	77.19
