Data from Foil_1_HRD10591_00015.txt Node
Date: Wed Nov 05 16:15:28 EST 2025
User: Yrep
Spectrometer: HR+D1059
Trigger mode: 1
Integration Time (sec): 1.000000E-1
Scans to average: 1
Electric dark correction enabled: true
Nonlinearity correction enabled: false
Boxcar width: 0
XAxis mode: Wavelengths
Number of Pixels in Spectrum: 2048
>>>>>Begin Spectral Data<<<<<
223.165	-4.44
223.4	-4.44
223.635	-4.44
223.869	-22.44
224.104	-25.44
224.338	-23.44
224.573	-18.44
224.808	-11.44
225.042	-8.44
225.277	-16.44
225.511	-12.44
225.746	-2.44
225.98	15.56
226.215	14.56
226.449	11.56
226.683	20.56
226.918	31.56
227.152	51.56
227.387	34.56
227.621	43.56
227.856	49.56
228.09	52.56
228.324	48.56
228.559	58.56
228.793	55.56
229.027	64.56
229.262	61.56
229.496	71.56
229.73	69.56
229.964	73.56
230.199	74.56
230.433	69.56
230.667	82.56
230.901	81.56
231.136	80.56
231.37	80.56
231.604	89.56
231.838	72.56
232.072	99.56
232.306	87.56
232.541	80.56
232.775	83.56
233.009	82.56
233.243	72.56
233.477	84.56
233.711	68.56
233.945	75.56
234.179	78.56
234.413	81.56
234.647	91.56
234.881	79.56
235.115	79.56
235.349	75.56
235.583	91.56
235.817	78.56
236.051	86.56
236.285	61.56
236.519	89.56
236.753	90.56
236.987	75.56
237.221	81.56
237.455	73.56
237.689	73.56
237.922	77.56
238.156	95.56
238.39	82.56
238.624	58.56
238.858	75.56
239.091	81.56
239.325	75.56
239.559	85.56
239.793	84.56
240.027	73.56
240.26	69.56
240.494	75.56
240.728	77.56
240.961	72.56
241.195	78.56
241.429	86.56
241.662	85.56
241.896	82.56
242.13	77.56
242.363	78.56
242.597	79.56
242.83	82.56
243.064	66.56
243.298	75.56
243.531	71.56
243.765	70.56
243.998	81.56
244.232	79.56
244.465	80.56
244.699	77.56
244.932	78.56
245.166	79.56
245.399	74.56
245.633	67.56
245.866	79.56
246.099	69.56
246.333	71.56
246.566	87.56
246.8	85.56
247.033	96.56
247.266	80.56
247.5	82.56
247.733	85.56
247.966	73.56
248.2	76.56
248.433	75.56
248.666	69.56
248.899	61.56
249.133	80.56
249.366	86.56
249.599	79.56
249.832	81.56
250.066	87.56
250.299	79.56
250.532	75.56
250.765	78.56
250.998	78.56
251.231	84.56
251.465	72.56
251.698	82.56
251.931	90.56
252.164	81.56
252.397	76.56
252.63	79.56
252.863	79.56
253.096	83.56
253.329	86.56
253.562	85.56
253.795	81.56
254.028	85.56
254.261	87.56
254.494	95.56
254.727	83.56
254.96	77.56
255.193	51.56
255.426	73.56
255.659	81.56
255.892	90.56
256.124	87.56
256.357	69.56
256.59	66.56
256.823	69.56
257.056	86.56
257.289	87.56
257.521	83.56
257.754	75.56
257.987	66.56
258.22	94.56
258.452	74.56
258.685	73.56
258.918	82.56
259.151	87.56
259.383	69.56
259.616	68.56
259.849	77.56
260.081	87.56
260.314	94.56
260.547	92.56
260.779	75.56
261.012	79.56
261.244	95.56
261.477	80.56
261.71	99.56
261.942	87.56
262.175	96.56
262.407	97.56
262.64	86.56
262.872	89.56
263.105	89.56
263.337	83.56
263.57	71.56
263.802	73.56
264.035	76.56
264.267	78.56
264.499	83.56
264.732	85.56
264.964	95.56
265.197	84.56
265.429	80.56
265.661	73.56
265.894	92.56
266.126	92.56
266.358	73.56
266.591	91.56
266.823	76.56
267.055	70.56
267.287	87.56
267.52	69.56
267.752	71.56
267.984	92.56
268.216	80.56
268.448	80.56
268.681	88.56
268.913	95.56
269.145	85.56
269.377	85.56
269.609	94.56
269.841	87.56
270.073	79.56
270.306	86.56
270.538	74.56
270.77	94.56
271.002	89.56
271.234	84.56
271.466	91.56
271.698	83.56
271.93	71.56
272.162	83.56
272.394	74.56
272.626	80.56
272.858	89.56
273.09	77.56
273.322	70.56
273.553	73.56
273.785	78.56
274.017	83.56
274.249	80.56
274.481	92.56
274.713	63.56
274.945	79.56
275.176	84.56
275.408	86.56
275.64	76.56
275.872	71.56
276.104	83.56
276.335	83.56
276.567	81.56
276.799	91.56
277.031	84.56
277.262	91.56
277.494	72.56
277.726	80.56
277.957	81.56
278.189	82.56
278.421	92.56
278.652	84.56
278.884	83.56
279.115	88.56
279.347	95.56
279.579	80.56
279.81	86.56
280.042	92.56
280.273	86.56
280.505	80.56
280.736	85.56
280.968	86.56
281.199	91.56
281.431	92.56
281.662	93.56
281.894	80.56
282.125	97.56
282.356	98.56
282.588	81.56
282.819	81.56
283.051	82.56
283.282	61.56
283.513	90.56
283.745	93.56
283.976	95.56
284.207	71.56
284.439	81.56
284.67	73.56
284.901	83.56
285.132	87.56
285.364	83.56
285.595	90.56
285.826	75.56
286.057	71.56
286.288	88.56
286.52	80.56
286.751	71.56
286.982	85.56
287.213	91.56
287.444	90.56
287.675	90.56
287.906	81.56
288.138	82.56
288.369	90.56
288.6	77.56
288.831	85.56
289.062	88.56
289.293	94.56
289.524	86.56
289.755	75.56
289.986	79.56
290.217	79.56
290.448	88.56
290.679	88.56
290.91	91.56
291.141	68.56
291.371	95.56
291.602	75.56
291.833	83.56
292.064	87.56
292.295	95.56
292.526	82.56
292.757	91.56
292.987	85.56
293.218	73.56
293.449	81.56
293.68	81.56
293.91	81.56
294.141	91.56
294.372	75.56
294.603	80.56
294.833	83.56
295.064	87.56
295.295	90.56
295.525	85.56
295.756	99.56
295.987	83.56
296.217	82.56
296.448	81.56
296.679	76.56
296.909	91.56
297.14	102.56
297.37	89.56
297.601	95.56
297.831	83.56
298.062	98.56
298.292	85.56
298.523	92.56
298.753	79.56
298.984	77.56
299.214	100.56
299.445	88.56
299.675	86.56
299.905	84.56
300.136	89.56
300.366	93.56
300.597	89.56
300.827	81.56
301.057	89.56
301.288	83.56
301.518	92.56
301.748	82.56
301.979	98.56
302.209	88.56
302.439	81.56
302.669	75.56
302.9	76.56
303.13	89.56
303.36	75.56
303.59	75.56
303.82	93.56
304.051	72.56
304.281	78.56
304.511	83.56
304.741	80.56
304.971	83.56
305.201	98.56
305.431	83.56
305.661	79.56
305.891	99.56
306.121	85.56
306.352	87.56
306.582	75.56
306.812	87.56
307.042	71.56
307.272	92.56
307.502	85.56
307.731	85.56
307.961	114.56
308.191	108.56
308.421	117.56
308.651	106.56
308.881	104.56
309.111	109.56
309.341	123.56
309.571	116.56
309.8	78.56
310.03	83.56
310.26	92.56
310.49	90.56
310.72	90.56
310.949	76.56
311.179	87.56
311.409	74.56
311.639	85.56
311.868	101.56
312.098	83.56
312.328	78.56
312.557	87.56
312.787	85.56
313.017	95.56
313.246	95.56
313.476	77.56
313.706	87.56
313.935	88.56
314.165	84.56
314.394	77.56
314.624	83.56
314.853	84.56
315.083	80.56
315.312	74.56
315.542	93.56
315.771	85.56
316.001	91.56
316.23	74.56
316.46	94.56
316.689	82.56
316.919	81.56
317.148	93.56
317.377	89.56
317.607	82.56
317.836	89.56
318.065	93.56
318.295	79.56
318.524	85.56
318.753	81.56
318.983	62.56
319.212	84.56
319.441	88.56
319.67	97.56
319.9	71.56
320.129	90.56
320.358	90.56
320.587	84.56
320.816	93.56
321.046	88.56
321.275	79.56
321.504	79.56
321.733	91.56
321.962	64.56
322.191	95.56
322.42	81.56
322.649	87.56
322.878	96.56
323.108	75.56
323.337	87.56
323.566	92.56
323.795	88.56
324.024	84.56
324.253	81.56
324.482	80.56
324.71	82.56
324.939	72.56
325.168	96.56
325.397	81.56
325.626	101.56
325.855	85.56
326.084	88.56
326.313	82.56
326.542	85.56
326.77	96.56
326.999	82.56
327.228	77.56
327.457	76.56
327.686	80.56
327.914	85.56
328.143	83.56
328.372	82.56
328.6	81.56
328.829	73.56
329.058	92.56
329.287	92.56
329.515	99.56
329.744	84.56
329.972	95.56
330.201	86.56
330.43	96.56
330.658	88.56
330.887	84.56
331.115	81.56
331.344	92.56
331.572	84.56
331.801	73.56
332.03	89.56
332.258	94.56
332.486	92.56
332.715	89.56
332.943	81.56
333.172	82.56
333.4	82.56
333.629	84.56
333.857	78.56
334.085	90.56
334.314	99.56
334.542	89.56
334.771	85.56
334.999	80.56
335.227	83.56
335.455	80.56
335.684	86.56
335.912	79.56
336.14	83.56
336.369	80.56
336.597	97.56
336.825	81.56
337.053	77.56
337.281	85.56
337.51	86.56
337.738	92.56
337.966	79.56
338.194	76.56
338.422	90.56
338.65	81.56
338.878	80.56
339.106	84.56
339.334	88.56
339.562	78.56
339.79	100.56
340.018	88.56
340.246	76.56
340.474	81.56
340.702	79.56
340.93	88.56
341.158	93.56
341.386	90.56
341.614	65.56
341.842	89.56
342.07	89.56
342.298	88.56
342.526	88.56
342.754	95.56
342.981	92.56
343.209	89.56
343.437	84.56
343.665	79.56
343.893	79.56
344.12	83.56
344.348	79.56
344.576	85.56
344.804	91.56
345.031	103.56
345.259	84.56
345.487	73.56
345.714	83.56
345.942	85.56
346.17	98.56
346.397	88.56
346.625	91.56
346.853	89.56
347.08	88.56
347.308	88.56
347.535	83.56
347.763	95.56
347.99	93.56
348.218	105.56
348.445	82.56
348.673	85.56
348.9	91.56
349.128	100.56
349.355	91.56
349.583	82.56
349.81	77.56
350.037	77.56
350.265	84.56
350.492	88.56
350.72	77.56
350.947	76.56
351.174	76.56
351.402	83.56
351.629	79.56
351.856	86.56
352.083	71.56
352.311	89.56
352.538	81.56
352.765	85.56
352.992	108.56
353.22	100.56
353.447	81.56
353.674	95.56
353.901	73.56
354.128	84.56
354.355	95.56
354.583	77.56
354.81	89.56
355.037	93.56
355.264	79.56
355.491	77.56
355.718	80.56
355.945	93.56
356.172	99.56
356.399	85.56
356.626	88.56
356.853	76.56
357.08	86.56
357.307	88.56
357.534	90.56
357.761	82.56
357.988	78.56
358.215	96.56
358.441	86.56
358.668	86.56
358.895	97.56
359.122	81.56
359.349	79.56
359.576	97.56
359.802	91.56
360.029	86.56
360.256	91.56
360.483	82.56
360.709	79.56
360.936	102.56
361.163	88.56
361.39	91.56
361.616	92.56
361.843	73.56
362.07	79.56
362.296	80.56
362.523	77.56
362.749	79.56
362.976	82.56
363.203	83.56
363.429	81.56
363.656	99.56
363.882	75.56
364.109	99.56
364.335	72.56
364.562	95.56
364.788	91.56
365.015	88.56
365.241	83.56
365.468	89.56
365.694	79.56
365.92	78.56
366.147	76.56
366.373	92.56
366.599	78.56
366.826	77.56
367.052	91.56
367.278	88.56
367.505	83.56
367.731	85.56
367.957	89.56
368.184	93.56
368.41	90.56
368.636	91.56
368.862	91.56
369.089	75.56
369.315	86.56
369.541	95.56
369.767	91.56
369.993	96.56
370.219	81.56
370.445	86.56
370.672	83.56
370.898	83.56
371.124	83.56
371.35	84.56
371.576	81.56
371.802	96.56
372.028	84.56
372.254	86.56
372.48	85.56
372.706	73.56
372.932	85.56
373.158	93.56
373.384	85.56
373.61	83.56
373.835	107.56
374.061	76.56
374.287	86.56
374.513	85.56
374.739	101.56
374.965	89.56
375.191	96.56
375.416	99.56
375.642	86.56
375.868	89.56
376.094	84.56
376.319	87.56
376.545	103.56
376.771	92.56
376.997	90.56
377.222	76.56
377.448	95.56
377.674	89.56
377.899	95.56
378.125	102.56
378.35	87.56
378.576	85.56
378.802	78.56
379.027	78.56
379.253	97.56
379.478	95.56
379.704	79.56
379.929	88.56
380.155	95.56
380.38	81.56
380.606	98.56
380.831	96.56
381.057	93.56
381.282	93.56
381.507	100.56
381.733	100.56
381.958	86.56
382.184	79.56
382.409	79.56
382.634	101.56
382.86	95.56
383.085	107.56
383.31	82.56
383.535	107.56
383.761	89.56
383.986	99.56
384.211	69.56
384.436	78.56
384.662	86.56
384.887	78.56
385.112	77.56
385.337	91.56
385.562	99.56
385.787	92.56
386.013	96.56
386.238	77.56
386.463	82.56
386.688	98.56
386.913	79.56
387.138	103.56
387.363	95.56
387.588	87.56
387.813	93.56
388.038	93.56
388.263	92.56
388.488	93.56
388.713	96.56
388.938	79.56
389.163	85.56
389.387	80.56
389.612	89.56
389.837	83.56
390.062	95.56
390.287	95.56
390.512	97.56
390.736	97.56
390.961	95.56
391.186	89.56
391.411	83.56
391.636	90.56
391.86	101.56
392.085	91.56
392.31	85.56
392.534	96.56
392.759	103.56
392.984	86.56
393.208	88.56
393.433	85.56
393.658	91.56
393.882	92.56
394.107	121.56
394.331	185.56
394.556	183.56
394.78	131.56
395.005	112.56
395.229	97.56
395.454	94.56
395.678	111.56
395.903	167.56
396.127	221.56
396.352	231.56
396.576	128.56
396.801	102.56
397.025	105.56
397.249	85.56
397.474	109.56
397.698	100.56
397.922	90.56
398.147	89.56
398.371	101.56
398.595	110.56
398.82	106.56
399.044	104.56
399.268	101.56
399.492	85.56
399.717	95.56
399.941	99.56
400.165	99.56
400.389	80.56
400.613	95.56
400.837	94.56
401.062	94.56
401.286	99.56
401.51	93.56
401.734	98.56
401.958	114.56
402.182	107.56
402.406	108.56
402.63	98.56
402.854	101.56
403.078	80.56
403.302	99.56
403.526	99.56
403.75	103.56
403.974	104.56
404.198	109.56
404.422	112.56
404.645	110.56
404.869	100.56
405.093	105.56
405.317	87.56
405.541	96.56
405.765	101.56
405.988	106.56
406.212	91.56
406.436	93.56
406.66	114.56
406.883	98.56
407.107	104.56
407.331	105.56
407.555	124.56
407.778	94.56
408.002	89.56
408.226	102.56
408.449	103.56
408.673	93.56
408.896	99.56
409.12	107.56
409.344	105.56
409.567	102.56
409.791	101.56
410.014	103.56
410.238	114.56
410.461	107.56
410.685	101.56
410.908	103.56
411.132	100.56
411.355	91.56
411.578	93.56
411.802	82.56
412.025	99.56
412.249	106.56
412.472	107.56
412.695	108.56
412.919	93.56
413.142	98.56
413.365	96.56
413.589	101.56
413.812	109.56
414.035	104.56
414.258	105.56
414.482	104.56
414.705	113.56
414.928	94.56
415.151	94.56
415.374	106.56
415.597	92.56
415.821	107.56
416.044	88.56
416.267	91.56
416.49	97.56
416.713	102.56
416.936	88.56
417.159	111.56
417.382	96.56
417.605	91.56
417.828	97.56
418.051	95.56
418.274	93.56
418.497	112.56
418.72	96.56
418.943	104.56
419.166	99.56
419.389	123.56
419.611	74.56
419.834	102.56
420.057	90.56
420.28	109.56
420.503	97.56
420.726	100.56
420.948	86.56
421.171	95.56
421.394	106.56
421.617	96.56
421.839	101.56
422.062	101.56
422.285	96.56
422.507	113.56
422.73	104.56
422.953	105.56
423.175	100.56
423.398	100.56
423.621	106.56
423.843	105.56
424.066	104.56
424.288	99.56
424.511	106.56
424.733	99.56
424.956	99.56
425.178	97.56
425.401	101.56
425.623	103.56
425.846	92.56
426.068	95.56
426.291	91.56
426.513	93.56
426.735	105.56
426.958	94.56
427.18	107.56
427.402	93.56
427.625	112.56
427.847	108.56
428.069	108.56
428.292	116.56
428.514	108.56
428.736	105.56
428.958	109.56
429.181	105.56
429.403	114.56
429.625	109.56
429.847	104.56
430.069	117.56
430.292	110.56
430.514	105.56
430.736	116.56
430.958	107.56
431.18	102.56
431.402	96.56
431.624	85.56
431.846	74.56
432.068	77.56
432.29	88.56
432.512	99.56
432.734	104.56
432.956	101.56
433.178	127.56
433.4	109.56
433.622	104.56
433.844	100.56
434.066	93.56
434.287	85.56
434.509	89.56
434.731	101.56
434.953	102.56
435.175	121.56
435.397	109.56
435.618	95.56
435.84	98.56
436.062	97.56
436.284	102.56
436.505	86.56
436.727	107.56
436.949	97.56
437.17	92.56
437.392	107.56
437.614	98.56
437.835	97.56
438.057	89.56
438.278	85.56
438.5	91.56
438.721	108.56
438.943	105.56
439.165	125.56
439.386	110.56
439.608	107.56
439.829	115.56
440.05	95.56
440.272	115.56
440.493	119.56
440.715	111.56
440.936	111.56
441.158	108.56
441.379	113.56
441.6	106.56
441.822	94.56
442.043	100.56
442.264	105.56
442.486	107.56
442.707	112.56
442.928	104.56
443.149	107.56
443.371	108.56
443.592	124.56
443.813	107.56
444.034	120.56
444.255	108.56
444.476	111.56
444.698	105.56
444.919	114.56
445.14	165.56
445.361	141.56
445.582	122.56
445.803	101.56
446.024	100.56
446.245	109.56
446.466	109.56
446.687	107.56
446.908	104.56
447.129	109.56
447.35	111.56
447.571	96.56
447.792	105.56
448.013	112.56
448.234	109.56
448.455	109.56
448.675	98.56
448.896	95.56
449.117	107.56
449.338	109.56
449.559	110.56
449.779	95.56
450	105.56
450.221	108.56
450.442	110.56
450.662	106.56
450.883	112.56
451.104	100.56
451.324	96.56
451.545	99.56
451.766	103.56
451.986	98.56
452.207	107.56
452.428	101.56
452.648	111.56
452.869	112.56
453.089	107.56
453.31	99.56
453.53	85.56
453.751	99.56
453.971	91.56
454.192	65.56
454.412	79.56
454.633	99.56
454.853	82.56
455.073	98.56
455.294	96.56
455.514	103.56
455.734	109.56
455.955	96.56
456.175	78.56
456.395	96.56
456.616	90.56
456.836	85.56
457.056	99.56
457.276	94.56
457.497	106.56
457.717	107.56
457.937	93.56
458.157	108.56
458.377	89.56
458.598	87.56
458.818	82.56
459.038	85.56
459.258	89.56
459.478	100.56
459.698	94.56
459.918	101.56
460.138	89.56
460.358	75.56
460.578	82.56
460.798	83.56
461.018	80.56
461.238	100.56
461.458	104.56
461.678	101.56
461.898	104.56
462.118	101.56
462.338	93.56
462.558	103.56
462.777	96.56
462.997	96.56
463.217	80.56
463.437	88.56
463.657	84.56
463.876	80.56
464.096	84.56
464.316	91.56
464.536	95.56
464.755	103.56
464.975	114.56
465.195	107.56
465.414	105.56
465.634	95.56
465.854	80.56
466.073	89.56
466.293	100.56
466.512	98.56
466.732	116.56
466.951	120.56
467.171	123.56
467.391	129.56
467.61	124.56
467.829	101.56
468.049	104.56
468.268	124.56
468.488	109.56
468.707	121.56
468.927	111.56
469.146	111.56
469.365	122.56
469.585	110.56
469.804	101.56
470.023	123.56
470.243	105.56
470.462	106.56
470.681	112.56
470.901	121.56
471.12	108.56
471.339	110.56
471.558	116.56
471.777	105.56
471.997	111.56
472.216	79.56
472.435	101.56
472.654	108.56
472.873	72.56
473.092	95.56
473.311	102.56
473.53	126.56
473.749	123.56
473.968	107.56
474.187	102.56
474.406	87.56
474.625	92.56
474.844	113.56
475.063	111.56
475.282	99.56
475.501	98.56
475.72	101.56
475.939	96.56
476.158	96.56
476.377	95.56
476.596	99.56
476.814	104.56
477.033	107.56
477.252	89.56
477.471	97.56
477.69	105.56
477.908	103.56
478.127	103.56
478.346	106.56
478.564	110.56
478.783	101.56
479.002	108.56
479.22	104.56
479.439	110.56
479.658	110.56
479.876	100.56
480.095	100.56
480.313	99.56
480.532	106.56
480.751	93.56
480.969	87.56
481.188	70.56
481.406	75.56
481.624	89.56
481.843	84.56
482.061	93.56
482.28	95.56
482.498	84.56
482.717	101.56
482.935	103.56
483.153	105.56
483.372	107.56
483.59	109.56
483.808	106.56
484.027	95.56
484.245	103.56
484.463	87.56
484.681	106.56
484.9	109.56
485.118	105.56
485.336	104.56
485.554	100.56
485.772	90.56
485.99	74.56
486.209	102.56
486.427	104.56
486.645	98.56
486.863	103.56
487.081	94.56
487.299	108.56
487.517	108.56
487.735	115.56
487.953	114.56
488.171	119.56
488.389	110.56
488.607	106.56
488.825	90.56
489.043	97.56
489.261	91.56
489.479	110.56
489.696	97.56
489.914	104.56
490.132	111.56
490.35	103.56
490.568	120.56
490.786	115.56
491.003	131.56
491.221	124.56
491.439	140.56
491.657	139.56
491.874	147.56
492.092	135.56
492.31	142.56
492.527	134.56
492.745	142.56
492.963	140.56
493.18	141.56
493.398	133.56
493.615	126.56
493.833	148.56
494.05	139.56
494.268	126.56
494.485	135.56
494.703	123.56
494.92	127.56
495.138	123.56
495.355	127.56
495.573	127.56
495.79	123.56
496.008	132.56
496.225	132.56
496.442	130.56
496.66	130.56
496.877	104.56
497.094	111.56
497.312	111.56
497.529	109.56
497.746	105.56
497.963	92.56
498.181	99.56
498.398	92.56
498.615	98.56
498.832	113.56
499.049	115.56
499.267	96.56
499.484	101.56
499.701	103.56
499.918	117.56
500.135	121.56
500.352	106.56
500.569	103.56
500.786	108.56
501.003	96.56
501.22	114.56
501.437	109.56
501.654	115.56
501.871	104.56
502.088	93.56
502.305	107.56
502.522	105.56
502.739	112.56
502.956	97.56
503.172	101.56
503.389	92.56
503.606	101.56
503.823	101.56
504.04	104.56
504.256	107.56
504.473	87.56
504.69	101.56
504.907	116.56
505.123	109.56
505.34	90.56
505.557	105.56
505.773	105.56
505.99	81.56
506.207	99.56
506.423	94.56
506.64	97.56
506.856	111.56
507.073	111.56
507.289	85.56
507.506	99.56
507.722	78.56
507.939	93.56
508.155	86.56
508.372	99.56
508.588	85.56
508.805	91.56
509.021	90.56
509.238	105.56
509.454	98.56
509.67	93.56
509.887	80.56
510.103	93.56
510.319	94.56
510.536	90.56
510.752	88.56
510.968	86.56
511.184	84.56
511.401	81.56
511.617	88.56
511.833	85.56
512.049	97.56
512.265	87.56
512.481	93.56
512.698	104.56
512.914	97.56
513.13	92.56
513.346	96.56
513.562	93.56
513.778	96.56
513.994	91.56
514.21	90.56
514.426	72.56
514.642	90.56
514.858	101.56
515.074	86.56
