Data from Foil_1_HRD10591_00017.txt Node
Date: Wed Nov 05 16:15:29 EST 2025
User: Yrep
Spectrometer: HR+D1059
Trigger mode: 1
Integration Time (sec): 1.000000E-1
Scans to average: 1
Electric dark correction enabled: true
Nonlinearity correction enabled: false
Boxcar width: 0
XAxis mode: Wavelengths
Number of Pixels in Spectrum: 2048
>>>>>Begin Spectral Data<<<<<
223.165	-30.44
223.4	-30.44
223.635	-30.44
223.869	-24.44
224.104	-9.44
224.338	5.56
224.573	-22.44
224.808	-4.44
225.042	-1.44
225.277	-25.44
225.511	-0.44
225.746	-3.44
225.98	3.56
226.215	26.56
226.449	17.56
226.683	22.56
226.918	12.56
227.152	33.56
227.387	28.56
227.621	40.56
227.856	44.56
228.09	48.56
228.324	57.56
228.559	54.56
228.793	64.56
229.027	53.56
229.262	56.56
229.496	70.56
229.73	81.56
229.964	70.56
230.199	66.56
230.433	63.56
230.667	60.56
230.901	78.56
231.136	74.56
231.37	66.56
231.604	81.56
231.838	72.56
232.072	93.56
232.306	88.56
232.541	67.56
232.775	63.56
233.009	92.56
233.243	94.56
233.477	83.56
233.711	71.56
233.945	90.56
234.179	78.56
234.413	87.56
234.647	88.56
234.881	74.56
235.115	79.56
235.349	83.56
235.583	83.56
235.817	67.56
236.051	83.56
236.285	72.56
236.519	73.56
236.753	72.56
236.987	68.56
237.221	80.56
237.455	70.56
237.689	74.56
237.922	85.56
238.156	74.56
238.39	73.56
238.624	72.56
238.858	71.56
239.091	82.56
239.325	102.56
239.559	89.56
239.793	79.56
240.027	87.56
240.26	67.56
240.494	80.56
240.728	91.56
240.961	77.56
241.195	82.56
241.429	83.56
241.662	91.56
241.896	79.56
242.13	72.56
242.363	68.56
242.597	70.56
242.83	86.56
243.064	72.56
243.298	87.56
243.531	94.56
243.765	84.56
243.998	68.56
244.232	80.56
244.465	87.56
244.699	72.56
244.932	67.56
245.166	66.56
245.399	65.56
245.633	80.56
245.866	84.56
246.099	63.56
246.333	71.56
246.566	80.56
246.8	61.56
247.033	92.56
247.266	70.56
247.5	70.56
247.733	86.56
247.966	79.56
248.2	80.56
248.433	70.56
248.666	77.56
248.899	71.56
249.133	85.56
249.366	63.56
249.599	78.56
249.832	82.56
250.066	85.56
250.299	72.56
250.532	87.56
250.765	78.56
250.998	62.56
251.231	73.56
251.465	79.56
251.698	93.56
251.931	83.56
252.164	84.56
252.397	89.56
252.63	80.56
252.863	94.56
253.096	80.56
253.329	84.56
253.562	94.56
253.795	84.56
254.028	79.56
254.261	79.56
254.494	81.56
254.727	73.56
254.96	73.56
255.193	80.56
255.426	76.56
255.659	79.56
255.892	86.56
256.124	82.56
256.357	84.56
256.59	72.56
256.823	82.56
257.056	85.56
257.289	79.56
257.521	80.56
257.754	80.56
257.987	71.56
258.22	78.56
258.452	85.56
258.685	74.56
258.918	74.56
259.151	87.56
259.383	84.56
259.616	77.56
259.849	68.56
260.081	80.56
260.314	84.56
260.547	78.56
260.779	70.56
261.012	72.56
261.244	82.56
261.477	76.56
261.71	85.56
261.942	88.56
262.175	77.56
262.407	91.56
262.64	88.56
262.872	78.56
263.105	93.56
263.337	81.56
263.57	84.56
263.802	85.56
264.035	76.56
264.267	70.56
264.499	74.56
264.732	79.56
264.964	74.56
265.197	82.56
265.429	89.56
265.661	88.56
265.894	95.56
266.126	84.56
266.358	84.56
266.591	82.56
266.823	75.56
267.055	73.56
267.287	78.56
267.52	72.56
267.752	96.56
267.984	82.56
268.216	82.56
268.448	85.56
268.681	80.56
268.913	93.56
269.145	88.56
269.377	84.56
269.609	66.56
269.841	80.56
270.073	90.56
270.306	90.56
270.538	97.56
270.77	97.56
271.002	95.56
271.234	93.56
271.466	92.56
271.698	78.56
271.93	78.56
272.162	82.56
272.394	75.56
272.626	81.56
272.858	75.56
273.09	73.56
273.322	93.56
273.553	88.56
273.785	96.56
274.017	90.56
274.249	73.56
274.481	72.56
274.713	83.56
274.945	75.56
275.176	93.56
275.408	68.56
275.64	94.56
275.872	90.56
276.104	79.56
276.335	99.56
276.567	83.56
276.799	81.56
277.031	95.56
277.262	89.56
277.494	98.56
277.726	79.56
277.957	95.56
278.189	73.56
278.421	79.56
278.652	78.56
278.884	91.56
279.115	80.56
279.347	82.56
279.579	82.56
279.81	90.56
280.042	70.56
280.273	90.56
280.505	74.56
280.736	79.56
280.968	82.56
281.199	82.56
281.431	85.56
281.662	78.56
281.894	98.56
282.125	79.56
282.356	83.56
282.588	99.56
282.819	83.56
283.051	82.56
283.282	89.56
283.513	82.56
283.745	98.56
283.976	97.56
284.207	89.56
284.439	91.56
284.67	81.56
284.901	73.56
285.132	86.56
285.364	93.56
285.595	90.56
285.826	85.56
286.057	93.56
286.288	90.56
286.52	83.56
286.751	93.56
286.982	87.56
287.213	89.56
287.444	92.56
287.675	76.56
287.906	84.56
288.138	95.56
288.369	76.56
288.6	78.56
288.831	72.56
289.062	90.56
289.293	89.56
289.524	78.56
289.755	85.56
289.986	93.56
290.217	82.56
290.448	104.56
290.679	90.56
290.91	87.56
291.141	84.56
291.371	85.56
291.602	85.56
291.833	85.56
292.064	93.56
292.295	72.56
292.526	71.56
292.757	73.56
292.987	80.56
293.218	79.56
293.449	88.56
293.68	81.56
293.91	84.56
294.141	90.56
294.372	87.56
294.603	94.56
294.833	99.56
295.064	84.56
295.295	79.56
295.525	87.56
295.756	80.56
295.987	78.56
296.217	83.56
296.448	82.56
296.679	94.56
296.909	94.56
297.14	95.56
297.37	77.56
297.601	82.56
297.831	85.56
298.062	94.56
298.292	94.56
298.523	83.56
298.753	82.56
298.984	88.56
299.214	97.56
299.445	91.56
299.675	88.56
299.905	89.56
300.136	100.56
300.366	95.56
300.597	76.56
300.827	78.56
301.057	82.56
301.288	60.56
301.518	77.56
301.748	87.56
301.979	97.56
302.209	78.56
302.439	74.56
302.669	90.56
302.9	87.56
303.13	87.56
303.36	80.56
303.59	98.56
303.82	95.56
304.051	80.56
304.281	80.56
304.511	88.56
304.741	82.56
304.971	88.56
305.201	99.56
305.431	97.56
305.661	95.56
305.891	84.56
306.121	57.56
306.352	82.56
306.582	75.56
306.812	79.56
307.042	80.56
307.272	88.56
307.502	90.56
307.731	90.56
307.961	107.56
308.191	116.56
308.421	110.56
308.651	90.56
308.881	91.56
309.111	118.56
309.341	128.56
309.571	128.56
309.8	94.56
310.03	83.56
310.26	78.56
310.49	87.56
310.72	98.56
310.949	72.56
311.179	74.56
311.409	93.56
311.639	84.56
311.868	88.56
312.098	94.56
312.328	82.56
312.557	75.56
312.787	86.56
313.017	85.56
313.246	85.56
313.476	88.56
313.706	95.56
313.935	94.56
314.165	80.56
314.394	87.56
314.624	75.56
314.853	86.56
315.083	89.56
315.312	78.56
315.542	82.56
315.771	85.56
316.001	79.56
316.23	77.56
316.46	78.56
316.689	96.56
316.919	81.56
317.148	81.56
317.377	93.56
317.607	86.56
317.836	82.56
318.065	80.56
318.295	83.56
318.524	88.56
318.753	80.56
318.983	85.56
319.212	78.56
319.441	71.56
319.67	91.56
319.9	100.56
320.129	89.56
320.358	88.56
320.587	86.56
320.816	92.56
321.046	88.56
321.275	68.56
321.504	79.56
321.733	92.56
321.962	86.56
322.191	75.56
322.42	81.56
322.649	68.56
322.878	82.56
323.108	82.56
323.337	96.56
323.566	82.56
323.795	81.56
324.024	75.56
324.253	98.56
324.482	82.56
324.71	94.56
324.939	75.56
325.168	98.56
325.397	77.56
325.626	93.56
325.855	76.56
326.084	90.56
326.313	83.56
326.542	80.56
326.77	68.56
326.999	81.56
327.228	73.56
327.457	92.56
327.686	83.56
327.914	94.56
328.143	78.56
328.372	85.56
328.6	66.56
328.829	91.56
329.058	69.56
329.287	85.56
329.515	101.56
329.744	78.56
329.972	90.56
330.201	87.56
330.43	74.56
330.658	80.56
330.887	91.56
331.115	88.56
331.344	71.56
331.572	107.56
331.801	89.56
332.03	90.56
332.258	76.56
332.486	88.56
332.715	84.56
332.943	73.56
333.172	86.56
333.4	96.56
333.629	89.56
333.857	87.56
334.085	92.56
334.314	92.56
334.542	92.56
334.771	83.56
334.999	75.56
335.227	90.56
335.455	74.56
335.684	87.56
335.912	88.56
336.14	97.56
336.369	75.56
336.597	93.56
336.825	90.56
337.053	94.56
337.281	79.56
337.51	82.56
337.738	79.56
337.966	80.56
338.194	80.56
338.422	88.56
338.65	82.56
338.878	84.56
339.106	89.56
339.334	84.56
339.562	80.56
339.79	81.56
340.018	71.56
340.246	84.56
340.474	90.56
340.702	82.56
340.93	81.56
341.158	78.56
341.386	87.56
341.614	81.56
341.842	88.56
342.07	94.56
342.298	79.56
342.526	85.56
342.754	86.56
342.981	86.56
343.209	91.56
343.437	92.56
343.665	84.56
343.893	84.56
344.12	88.56
344.348	79.56
344.576	80.56
344.804	89.56
345.031	74.56
345.259	75.56
345.487	87.56
345.714	66.56
345.942	78.56
346.17	76.56
346.397	72.56
346.625	74.56
346.853	77.56
347.08	77.56
347.308	84.56
347.535	78.56
347.763	93.56
347.99	90.56
348.218	81.56
348.445	79.56
348.673	81.56
348.9	85.56
349.128	92.56
349.355	93.56
349.583	81.56
349.81	80.56
350.037	92.56
350.265	82.56
350.492	84.56
350.72	75.56
350.947	77.56
351.174	83.56
351.402	84.56
351.629	100.56
351.856	67.56
352.083	69.56
352.311	88.56
352.538	90.56
352.765	81.56
352.992	98.56
353.22	85.56
353.447	78.56
353.674	85.56
353.901	85.56
354.128	85.56
354.355	77.56
354.583	67.56
354.81	82.56
355.037	86.56
355.264	92.56
355.491	78.56
355.718	97.56
355.945	88.56
356.172	75.56
356.399	86.56
356.626	84.56
356.853	90.56
357.08	89.56
357.307	105.56
357.534	80.56
357.761	93.56
357.988	98.56
358.215	92.56
358.441	90.56
358.668	88.56
358.895	83.56
359.122	92.56
359.349	84.56
359.576	79.56
359.802	77.56
360.029	78.56
360.256	78.56
360.483	94.56
360.709	93.56
360.936	98.56
361.163	80.56
361.39	91.56
361.616	91.56
361.843	83.56
362.07	85.56
362.296	91.56
362.523	95.56
362.749	96.56
362.976	84.56
363.203	89.56
363.429	86.56
363.656	100.56
363.882	84.56
364.109	93.56
364.335	76.56
364.562	70.56
364.788	86.56
365.015	76.56
365.241	77.56
365.468	80.56
365.694	84.56
365.92	87.56
366.147	87.56
366.373	88.56
366.599	89.56
366.826	83.56
367.052	84.56
367.278	85.56
367.505	73.56
367.731	89.56
367.957	85.56
368.184	79.56
368.41	88.56
368.636	85.56
368.862	82.56
369.089	90.56
369.315	88.56
369.541	90.56
369.767	92.56
369.993	87.56
370.219	93.56
370.445	80.56
370.672	96.56
370.898	101.56
371.124	92.56
371.35	90.56
371.576	91.56
371.802	84.56
372.028	81.56
372.254	82.56
372.48	79.56
372.706	96.56
372.932	93.56
373.158	92.56
373.384	97.56
373.61	87.56
373.835	84.56
374.061	78.56
374.287	83.56
374.513	95.56
374.739	87.56
374.965	91.56
375.191	81.56
375.416	86.56
375.642	92.56
375.868	85.56
376.094	97.56
376.319	103.56
376.545	84.56
376.771	80.56
376.997	87.56
377.222	99.56
377.448	86.56
377.674	94.56
377.899	79.56
378.125	94.56
378.35	94.56
378.576	108.56
378.802	80.56
379.027	98.56
379.253	92.56
379.478	89.56
379.704	90.56
379.929	77.56
380.155	86.56
380.38	96.56
380.606	82.56
380.831	86.56
381.057	83.56
381.282	88.56
381.507	75.56
381.733	91.56
381.958	98.56
382.184	92.56
382.409	99.56
382.634	96.56
382.86	80.56
383.085	84.56
383.31	84.56
383.535	80.56
383.761	78.56
383.986	76.56
384.211	88.56
384.436	79.56
384.662	83.56
384.887	94.56
385.112	72.56
385.337	87.56
385.562	101.56
385.787	97.56
386.013	96.56
386.238	91.56
386.463	106.56
386.688	112.56
386.913	92.56
387.138	96.56
387.363	95.56
387.588	100.56
387.813	86.56
388.038	95.56
388.263	82.56
388.488	91.56
388.713	89.56
388.938	71.56
389.163	94.56
389.387	89.56
389.612	81.56
389.837	77.56
390.062	90.56
390.287	100.56
390.512	100.56
390.736	83.56
390.961	92.56
391.186	91.56
391.411	95.56
391.636	95.56
391.86	86.56
392.085	82.56
392.31	84.56
392.534	99.56
392.759	105.56
392.984	92.56
393.208	82.56
393.433	93.56
393.658	105.56
393.882	113.56
394.107	119.56
394.331	186.56
394.556	197.56
394.78	128.56
395.005	104.56
395.229	95.56
395.454	98.56
395.678	123.56
395.903	154.56
396.127	229.56
396.352	224.56
396.576	134.56
396.801	106.56
397.025	106.56
397.249	108.56
397.474	95.56
397.698	91.56
397.922	99.56
398.147	90.56
398.371	92.56
398.595	100.56
398.82	96.56
399.044	84.56
399.268	95.56
399.492	78.56
399.717	98.56
399.941	86.56
400.165	108.56
400.389	91.56
400.613	98.56
400.837	105.56
401.062	101.56
401.286	84.56
401.51	93.56
401.734	90.56
401.958	100.56
402.182	99.56
402.406	103.56
402.63	97.56
402.854	94.56
403.078	97.56
403.302	91.56
403.526	82.56
403.75	106.56
403.974	99.56
404.198	102.56
404.422	110.56
404.645	94.56
404.869	102.56
405.093	103.56
405.317	89.56
405.541	99.56
405.765	80.56
405.988	102.56
406.212	106.56
406.436	102.56
406.66	103.56
406.883	96.56
407.107	100.56
407.331	93.56
407.555	108.56
407.778	114.56
408.002	96.56
408.226	89.56
408.449	110.56
408.673	82.56
408.896	98.56
409.12	97.56
409.344	97.56
409.567	95.56
409.791	94.56
410.014	107.56
410.238	94.56
410.461	98.56
410.685	84.56
410.908	91.56
411.132	108.56
411.355	96.56
411.578	90.56
411.802	84.56
412.025	97.56
412.249	90.56
412.472	108.56
412.695	94.56
412.919	90.56
413.142	96.56
413.365	108.56
413.589	107.56
413.812	102.56
414.035	100.56
414.258	92.56
414.482	103.56
414.705	107.56
414.928	89.56
415.151	98.56
415.374	120.56
415.597	98.56
415.821	109.56
416.044	100.56
416.267	105.56
416.49	97.56
416.713	116.56
416.936	91.56
417.159	110.56
417.382	96.56
417.605	100.56
417.828	104.56
418.051	92.56
418.274	100.56
418.497	106.56
418.72	103.56
418.943	102.56
419.166	103.56
419.389	90.56
419.611	102.56
419.834	91.56
420.057	102.56
420.28	106.56
420.503	104.56
420.726	101.56
420.948	88.56
421.171	95.56
421.394	99.56
421.617	100.56
421.839	91.56
422.062	95.56
422.285	103.56
422.507	104.56
422.73	95.56
422.953	106.56
423.175	98.56
423.398	87.56
423.621	94.56
423.843	94.56
424.066	110.56
424.288	93.56
424.511	115.56
424.733	100.56
424.956	110.56
425.178	110.56
425.401	112.56
425.623	115.56
425.846	104.56
426.068	97.56
426.291	107.56
426.513	97.56
426.735	114.56
426.958	110.56
427.18	109.56
427.402	111.56
427.625	106.56
427.847	93.56
428.069	105.56
428.292	106.56
428.514	108.56
428.736	104.56
428.958	99.56
429.181	94.56
429.403	100.56
429.625	99.56
429.847	105.56
430.069	100.56
430.292	99.56
430.514	98.56
430.736	84.56
430.958	107.56
431.18	105.56
431.402	104.56
431.624	82.56
431.846	85.56
432.068	78.56
432.29	97.56
432.512	98.56
432.734	90.56
432.956	99.56
433.178	103.56
433.4	102.56
433.622	106.56
433.844	103.56
434.066	80.56
434.287	81.56
434.509	95.56
434.731	84.56
434.953	91.56
435.175	98.56
435.397	112.56
435.618	88.56
435.84	84.56
436.062	101.56
436.284	97.56
436.505	110.56
436.727	110.56
436.949	113.56
437.17	106.56
437.392	89.56
437.614	100.56
437.835	98.56
438.057	98.56
438.278	93.56
438.5	97.56
438.721	101.56
438.943	95.56
439.165	106.56
439.386	103.56
439.608	115.56
439.829	102.56
440.05	106.56
440.272	94.56
440.493	101.56
440.715	102.56
440.936	106.56
441.158	99.56
441.379	104.56
441.6	116.56
441.822	130.56
442.043	118.56
442.264	106.56
442.486	93.56
442.707	100.56
442.928	88.56
443.149	96.56
443.371	115.56
443.592	114.56
443.813	102.56
444.034	95.56
444.255	111.56
444.476	106.56
444.698	103.56
444.919	106.56
445.14	163.56
445.361	145.56
445.582	114.56
445.803	99.56
446.024	94.56
446.245	104.56
446.466	111.56
446.687	105.56
446.908	100.56
447.129	104.56
447.35	99.56
447.571	106.56
447.792	100.56
448.013	92.56
448.234	99.56
448.455	111.56
448.675	102.56
448.896	97.56
449.117	111.56
449.338	107.56
449.559	102.56
449.779	109.56
450	108.56
450.221	113.56
450.442	123.56
450.662	115.56
450.883	92.56
451.104	110.56
451.324	104.56
451.545	124.56
451.766	99.56
451.986	100.56
452.207	100.56
452.428	105.56
452.648	102.56
452.869	108.56
453.089	98.56
453.31	97.56
453.53	84.56
453.751	78.56
453.971	94.56
454.192	103.56
454.412	89.56
454.633	96.56
454.853	97.56
455.073	94.56
455.294	104.56
455.514	99.56
455.734	96.56
455.955	89.56
456.175	114.56
456.395	101.56
456.616	90.56
456.836	99.56
457.056	94.56
457.276	96.56
457.497	103.56
457.717	90.56
457.937	85.56
458.157	109.56
458.377	84.56
458.598	101.56
458.818	92.56
459.038	75.56
459.258	88.56
459.478	80.56
459.698	81.56
459.918	102.56
460.138	88.56
460.358	66.56
460.578	84.56
460.798	85.56
461.018	94.56
461.238	85.56
461.458	97.56
461.678	85.56
461.898	87.56
462.118	88.56
462.338	83.56
462.558	86.56
462.777	98.56
462.997	86.56
463.217	114.56
463.437	92.56
463.657	88.56
463.876	89.56
464.096	80.56
464.316	97.56
464.536	100.56
464.755	97.56
464.975	103.56
465.195	88.56
465.414	105.56
465.634	97.56
465.854	92.56
466.073	108.56
466.293	94.56
466.512	102.56
466.732	91.56
466.951	112.56
467.171	126.56
467.391	127.56
467.61	136.56
467.829	123.56
468.049	122.56
468.268	117.56
468.488	123.56
468.707	113.56
468.927	106.56
469.146	111.56
469.365	118.56
469.585	110.56
469.804	113.56
470.023	107.56
470.243	124.56
470.462	112.56
470.681	105.56
470.901	106.56
471.12	111.56
471.339	109.56
471.558	115.56
471.777	107.56
471.997	94.56
472.216	97.56
472.435	101.56
472.654	90.56
472.873	103.56
473.092	94.56
473.311	105.56
473.53	94.56
473.749	119.56
473.968	99.56
474.187	103.56
474.406	98.56
474.625	95.56
474.844	102.56
475.063	113.56
475.282	99.56
475.501	99.56
475.72	92.56
475.939	93.56
476.158	94.56
476.377	95.56
476.596	101.56
476.814	90.56
477.033	90.56
477.252	96.56
477.471	92.56
477.69	103.56
477.908	104.56
478.127	114.56
478.346	113.56
478.564	91.56
478.783	104.56
479.002	94.56
479.22	105.56
479.439	104.56
479.658	96.56
479.876	90.56
480.095	87.56
480.313	90.56
480.532	89.56
480.751	84.56
480.969	88.56
481.188	78.56
481.406	94.56
481.624	89.56
481.843	91.56
482.061	88.56
482.28	102.56
482.498	84.56
482.717	77.56
482.935	92.56
483.153	128.56
483.372	98.56
483.59	111.56
483.808	102.56
484.027	99.56
484.245	92.56
484.463	93.56
484.681	109.56
484.9	95.56
485.118	100.56
485.336	94.56
485.554	84.56
485.772	90.56
485.99	95.56
486.209	91.56
486.427	96.56
486.645	107.56
486.863	101.56
487.081	102.56
487.299	103.56
487.517	112.56
487.735	107.56
487.953	128.56
488.171	116.56
488.389	101.56
488.607	106.56
488.825	113.56
489.043	103.56
489.261	98.56
489.479	108.56
489.696	115.56
489.914	120.56
490.132	106.56
490.35	110.56
490.568	112.56
490.786	117.56
491.003	121.56
491.221	125.56
491.439	123.56
491.657	135.56
491.874	146.56
492.092	146.56
492.31	134.56
492.527	130.56
492.745	128.56
492.963	152.56
493.18	138.56
493.398	118.56
493.615	133.56
493.833	132.56
494.05	143.56
494.268	122.56
494.485	142.56
494.703	134.56
494.92	128.56
495.138	124.56
495.355	114.56
495.573	132.56
495.79	126.56
496.008	124.56
496.225	124.56
496.442	129.56
496.66	130.56
496.877	112.56
497.094	120.56
497.312	124.56
497.529	112.56
497.746	109.56
497.963	102.56
498.181	98.56
498.398	108.56
498.615	95.56
498.832	85.56
499.049	102.56
499.267	87.56
499.484	95.56
499.701	95.56
499.918	96.56
500.135	98.56
500.352	106.56
500.569	110.56
500.786	101.56
501.003	126.56
501.22	90.56
501.437	107.56
501.654	101.56
501.871	106.56
502.088	100.56
502.305	107.56
502.522	91.56
502.739	105.56
502.956	109.56
503.172	92.56
503.389	98.56
503.606	95.56
503.823	102.56
504.04	83.56
504.256	92.56
504.473	105.56
504.69	89.56
504.907	98.56
505.123	86.56
505.34	115.56
505.557	102.56
505.773	100.56
505.99	103.56
506.207	103.56
506.423	103.56
506.64	103.56
506.856	95.56
507.073	79.56
507.289	97.56
507.506	101.56
507.722	103.56
507.939	106.56
508.155	94.56
508.372	95.56
508.588	99.56
508.805	91.56
509.021	90.56
509.238	97.56
509.454	87.56
509.67	92.56
509.887	88.56
510.103	92.56
510.319	85.56
510.536	83.56
510.752	77.56
510.968	98.56
511.184	89.56
511.401	86.56
511.617	95.56
511.833	78.56
512.049	98.56
512.265	75.56
512.481	82.56
512.698	96.56
512.914	78.56
513.13	97.56
513.346	74.56
513.562	98.56
513.778	92.56
513.994	79.56
514.21	90.56
514.426	73.56
514.642	109.56
514.858	87.56
515.074	99.56
515.29	91.56
515.506	95.56
515.721	66.56
515.937	107.56
