Data from Foil_1_HRD10591_00011.txt Node
Date: Wed Nov 05 16:15:26 EST 2025
User: Yrep
Spectrometer: HR+D1059
Trigger mode: 1
Integration Time (sec): 1.000000E-1
Scans to average: 1
Electric dark correction enabled: true
Nonlinearity correction enabled: false
Boxcar width: 0
XAxis mode: Wavelengths
Number of Pixels in Spectrum: 2048
>>>>>Begin Spectral Data<<<<<
223.165	-20.62
223.4	-20.62
223.635	-20.62
223.869	-13.62
224.104	-6.62
224.338	-12.62
224.573	-5.62
224.808	-13.62
225.042	-10.62
225.277	5.38
225.511	-7.62
225.746	12.38
225.98	-0.62
226.215	10.38
226.449	18.38
226.683	7.38
226.918	15.38
227.152	22.38
227.387	35.38
227.621	40.38
227.856	42.38
228.09	31.38
228.324	55.38
228.559	59.38
228.793	58.38
229.027	58.38
229.262	73.38
229.496	55.38
229.73	53.38
229.964	82.38
230.199	61.38
230.433	63.38
230.667	70.38
230.901	90.38
231.136	79.38
231.37	81.38
231.604	79.38
231.838	83.38
232.072	79.38
232.306	87.38
232.541	80.38
232.775	64.38
233.009	73.38
233.243	88.38
233.477	79.38
233.711	89.38
233.945	77.38
234.179	70.38
234.413	83.38
234.647	84.38
234.881	80.38
235.115	71.38
235.349	62.38
235.583	77.38
235.817	69.38
236.051	77.38
236.285	78.38
236.519	69.38
236.753	89.38
236.987	63.38
237.221	75.38
237.455	78.38
237.689	83.38
237.922	85.38
238.156	69.38
238.39	87.38
238.624	65.38
238.858	73.38
239.091	75.38
239.325	70.38
239.559	72.38
239.793	89.38
240.027	62.38
240.26	77.38
240.494	70.38
240.728	75.38
240.961	70.38
241.195	59.38
241.429	75.38
241.662	60.38
241.896	65.38
242.13	83.38
242.363	89.38
242.597	69.38
242.83	67.38
243.064	76.38
243.298	79.38
243.531	62.38
243.765	73.38
243.998	82.38
244.232	68.38
244.465	66.38
244.699	71.38
244.932	64.38
245.166	73.38
245.399	68.38
245.633	77.38
245.866	84.38
246.099	73.38
246.333	77.38
246.566	68.38
246.8	75.38
247.033	79.38
247.266	66.38
247.5	77.38
247.733	67.38
247.966	76.38
248.2	80.38
248.433	77.38
248.666	82.38
248.899	77.38
249.133	74.38
249.366	73.38
249.599	86.38
249.832	69.38
250.066	88.38
250.299	73.38
250.532	69.38
250.765	75.38
250.998	76.38
251.231	84.38
251.465	64.38
251.698	82.38
251.931	81.38
252.164	77.38
252.397	81.38
252.63	74.38
252.863	77.38
253.096	77.38
253.329	79.38
253.562	71.38
253.795	70.38
254.028	65.38
254.261	66.38
254.494	66.38
254.727	77.38
254.96	76.38
255.193	87.38
255.426	83.38
255.659	69.38
255.892	82.38
256.124	75.38
256.357	84.38
256.59	81.38
256.823	82.38
257.056	72.38
257.289	77.38
257.521	74.38
257.754	85.38
257.987	78.38
258.22	85.38
258.452	91.38
258.685	91.38
258.918	69.38
259.151	77.38
259.383	77.38
259.616	76.38
259.849	75.38
260.081	85.38
260.314	91.38
260.547	81.38
260.779	61.38
261.012	85.38
261.244	92.38
261.477	80.38
261.71	75.38
261.942	74.38
262.175	72.38
262.407	75.38
262.64	100.38
262.872	71.38
263.105	85.38
263.337	87.38
263.57	72.38
263.802	68.38
264.035	87.38
264.267	90.38
264.499	80.38
264.732	93.38
264.964	93.38
265.197	76.38
265.429	80.38
265.661	71.38
265.894	81.38
266.126	93.38
266.358	52.38
266.591	73.38
266.823	76.38
267.055	69.38
267.287	77.38
267.52	76.38
267.752	92.38
267.984	65.38
268.216	83.38
268.448	69.38
268.681	53.38
268.913	75.38
269.145	80.38
269.377	88.38
269.609	73.38
269.841	86.38
270.073	70.38
270.306	85.38
270.538	73.38
270.77	77.38
271.002	91.38
271.234	67.38
271.466	80.38
271.698	73.38
271.93	81.38
272.162	70.38
272.394	75.38
272.626	60.38
272.858	76.38
273.09	86.38
273.322	71.38
273.553	71.38
273.785	72.38
274.017	81.38
274.249	70.38
274.481	74.38
274.713	72.38
274.945	86.38
275.176	92.38
275.408	75.38
275.64	77.38
275.872	89.38
276.104	77.38
276.335	75.38
276.567	66.38
276.799	78.38
277.031	84.38
277.262	88.38
277.494	74.38
277.726	85.38
277.957	89.38
278.189	93.38
278.421	72.38
278.652	81.38
278.884	77.38
279.115	85.38
279.347	92.38
279.579	80.38
279.81	91.38
280.042	87.38
280.273	77.38
280.505	91.38
280.736	91.38
280.968	69.38
281.199	77.38
281.431	93.38
281.662	77.38
281.894	86.38
282.125	79.38
282.356	73.38
282.588	85.38
282.819	71.38
283.051	91.38
283.282	77.38
283.513	90.38
283.745	87.38
283.976	75.38
284.207	75.38
284.439	89.38
284.67	83.38
284.901	79.38
285.132	87.38
285.364	94.38
285.595	78.38
285.826	88.38
286.057	77.38
286.288	77.38
286.52	74.38
286.751	72.38
286.982	91.38
287.213	83.38
287.444	90.38
287.675	83.38
287.906	93.38
288.138	84.38
288.369	84.38
288.6	79.38
288.831	84.38
289.062	85.38
289.293	73.38
289.524	82.38
289.755	83.38
289.986	79.38
290.217	75.38
290.448	96.38
290.679	84.38
290.91	78.38
291.141	91.38
291.371	70.38
291.602	77.38
291.833	93.38
292.064	81.38
292.295	74.38
292.526	81.38
292.757	84.38
292.987	78.38
293.218	70.38
293.449	70.38
293.68	79.38
293.91	69.38
294.141	94.38
294.372	77.38
294.603	77.38
294.833	67.38
295.064	79.38
295.295	81.38
295.525	69.38
295.756	79.38
295.987	84.38
296.217	85.38
296.448	90.38
296.679	91.38
296.909	82.38
297.14	93.38
297.37	77.38
297.601	71.38
297.831	85.38
298.062	85.38
298.292	78.38
298.523	91.38
298.753	69.38
298.984	73.38
299.214	84.38
299.445	77.38
299.675	84.38
299.905	89.38
300.136	82.38
300.366	86.38
300.597	79.38
300.827	74.38
301.057	87.38
301.288	94.38
301.518	94.38
301.748	76.38
301.979	91.38
302.209	90.38
302.439	90.38
302.669	101.38
302.9	83.38
303.13	83.38
303.36	80.38
303.59	64.38
303.82	75.38
304.051	91.38
304.281	78.38
304.511	88.38
304.741	91.38
304.971	74.38
305.201	85.38
305.431	89.38
305.661	82.38
305.891	69.38
306.121	86.38
306.352	71.38
306.582	65.38
306.812	86.38
307.042	74.38
307.272	72.38
307.502	78.38
307.731	90.38
307.961	101.38
308.191	110.38
308.421	109.38
308.651	100.38
308.881	98.38
309.111	107.38
309.341	121.38
309.571	131.38
309.8	105.38
310.03	92.38
310.26	84.38
310.49	80.38
310.72	78.38
310.949	85.38
311.179	85.38
311.409	70.38
311.639	78.38
311.868	93.38
312.098	72.38
312.328	86.38
312.557	86.38
312.787	87.38
313.017	83.38
313.246	87.38
313.476	83.38
313.706	86.38
313.935	80.38
314.165	88.38
314.394	81.38
314.624	83.38
314.853	88.38
315.083	81.38
315.312	96.38
315.542	69.38
315.771	74.38
316.001	82.38
316.23	78.38
316.46	78.38
316.689	82.38
316.919	78.38
317.148	90.38
317.377	96.38
317.607	74.38
317.836	74.38
318.065	90.38
318.295	81.38
318.524	82.38
318.753	69.38
318.983	90.38
319.212	91.38
319.441	78.38
319.67	79.38
319.9	75.38
320.129	78.38
320.358	87.38
320.587	86.38
320.816	76.38
321.046	87.38
321.275	94.38
321.504	94.38
321.733	74.38
321.962	101.38
322.191	77.38
322.42	87.38
322.649	67.38
322.878	85.38
323.108	80.38
323.337	92.38
323.566	78.38
323.795	94.38
324.024	87.38
324.253	79.38
324.482	97.38
324.71	89.38
324.939	66.38
325.168	80.38
325.397	85.38
325.626	85.38
325.855	86.38
326.084	92.38
326.313	78.38
326.542	76.38
326.77	89.38
326.999	82.38
327.228	85.38
327.457	95.38
327.686	79.38
327.914	77.38
328.143	77.38
328.372	73.38
328.6	84.38
328.829	77.38
329.058	67.38
329.287	70.38
329.515	70.38
329.744	89.38
329.972	85.38
330.201	86.38
330.43	79.38
330.658	93.38
330.887	75.38
331.115	74.38
331.344	84.38
331.572	87.38
331.801	67.38
332.03	82.38
332.258	76.38
332.486	77.38
332.715	84.38
332.943	69.38
333.172	87.38
333.4	86.38
333.629	88.38
333.857	89.38
334.085	87.38
334.314	77.38
334.542	79.38
334.771	92.38
334.999	84.38
335.227	79.38
335.455	81.38
335.684	95.38
335.912	82.38
336.14	94.38
336.369	87.38
336.597	65.38
336.825	79.38
337.053	67.38
337.281	67.38
337.51	72.38
337.738	84.38
337.966	74.38
338.194	68.38
338.422	79.38
338.65	80.38
338.878	94.38
339.106	80.38
339.334	99.38
339.562	77.38
339.79	89.38
340.018	76.38
340.246	83.38
340.474	94.38
340.702	74.38
340.93	79.38
341.158	79.38
341.386	88.38
341.614	89.38
341.842	85.38
342.07	77.38
342.298	95.38
342.526	93.38
342.754	82.38
342.981	69.38
343.209	72.38
343.437	68.38
343.665	91.38
343.893	83.38
344.12	98.38
344.348	77.38
344.576	78.38
344.804	75.38
345.031	83.38
345.259	82.38
345.487	65.38
345.714	65.38
345.942	75.38
346.17	79.38
346.397	79.38
346.625	80.38
346.853	80.38
347.08	73.38
347.308	86.38
347.535	91.38
347.763	97.38
347.99	92.38
348.218	87.38
348.445	85.38
348.673	84.38
348.9	86.38
349.128	93.38
349.355	86.38
349.583	91.38
349.81	79.38
350.037	78.38
350.265	78.38
350.492	81.38
350.72	71.38
350.947	74.38
351.174	80.38
351.402	74.38
351.629	96.38
351.856	79.38
352.083	79.38
352.311	83.38
352.538	81.38
352.765	87.38
352.992	95.38
353.22	94.38
353.447	74.38
353.674	89.38
353.901	95.38
354.128	78.38
354.355	102.38
354.583	79.38
354.81	92.38
355.037	83.38
355.264	94.38
355.491	90.38
355.718	85.38
355.945	87.38
356.172	74.38
356.399	71.38
356.626	81.38
356.853	74.38
357.08	85.38
357.307	83.38
357.534	89.38
357.761	79.38
357.988	81.38
358.215	94.38
358.441	87.38
358.668	83.38
358.895	86.38
359.122	94.38
359.349	89.38
359.576	90.38
359.802	77.38
360.029	82.38
360.256	65.38
360.483	85.38
360.709	77.38
360.936	93.38
361.163	77.38
361.39	84.38
361.616	84.38
361.843	91.38
362.07	81.38
362.296	76.38
362.523	85.38
362.749	75.38
362.976	80.38
363.203	83.38
363.429	72.38
363.656	86.38
363.882	73.38
364.109	87.38
364.335	77.38
364.562	93.38
364.788	82.38
365.015	87.38
365.241	94.38
365.468	89.38
365.694	87.38
365.92	103.38
366.147	75.38
366.373	79.38
366.599	81.38
366.826	73.38
367.052	74.38
367.278	79.38
367.505	86.38
367.731	87.38
367.957	84.38
368.184	86.38
368.41	82.38
368.636	81.38
368.862	84.38
369.089	80.38
369.315	90.38
369.541	82.38
369.767	85.38
369.993	86.38
370.219	86.38
370.445	72.38
370.672	85.38
370.898	67.38
371.124	75.38
371.35	85.38
371.576	99.38
371.802	93.38
372.028	93.38
372.254	79.38
372.48	73.38
372.706	82.38
372.932	83.38
373.158	89.38
373.384	73.38
373.61	99.38
373.835	97.38
374.061	102.38
374.287	87.38
374.513	78.38
374.739	71.38
374.965	69.38
375.191	79.38
375.416	70.38
375.642	79.38
375.868	82.38
376.094	67.38
376.319	88.38
376.545	73.38
376.771	84.38
376.997	84.38
377.222	78.38
377.448	83.38
377.674	86.38
377.899	78.38
378.125	80.38
378.35	80.38
378.576	100.38
378.802	100.38
379.027	97.38
379.253	80.38
379.478	79.38
379.704	71.38
379.929	85.38
380.155	89.38
380.38	93.38
380.606	104.38
380.831	88.38
381.057	86.38
381.282	89.38
381.507	84.38
381.733	93.38
381.958	87.38
382.184	70.38
382.409	87.38
382.634	78.38
382.86	89.38
383.085	67.38
383.31	77.38
383.535	67.38
383.761	89.38
383.986	85.38
384.211	85.38
384.436	77.38
384.662	76.38
384.887	94.38
385.112	78.38
385.337	90.38
385.562	91.38
385.787	87.38
386.013	104.38
386.238	97.38
386.463	87.38
386.688	94.38
386.913	89.38
387.138	83.38
387.363	89.38
387.588	85.38
387.813	89.38
388.038	90.38
388.263	97.38
388.488	82.38
388.713	83.38
388.938	80.38
389.163	91.38
389.387	76.38
389.612	85.38
389.837	78.38
390.062	85.38
390.287	89.38
390.512	78.38
390.736	85.38
390.961	89.38
391.186	95.38
391.411	86.38
391.636	101.38
391.86	102.38
392.085	97.38
392.31	90.38
392.534	77.38
392.759	101.38
392.984	78.38
393.208	89.38
393.433	95.38
393.658	89.38
393.882	109.38
394.107	119.38
394.331	181.38
394.556	203.38
394.78	101.38
395.005	106.38
395.229	97.38
395.454	108.38
395.678	102.38
395.903	150.38
396.127	209.38
396.352	227.38
396.576	123.38
396.801	105.38
397.025	101.38
397.249	103.38
397.474	102.38
397.698	114.38
397.922	78.38
398.147	93.38
398.371	95.38
398.595	93.38
398.82	94.38
399.044	85.38
399.268	84.38
399.492	89.38
399.717	90.38
399.941	76.38
400.165	84.38
400.389	78.38
400.613	86.38
400.837	90.38
401.062	91.38
401.286	95.38
401.51	75.38
401.734	98.38
401.958	104.38
402.182	94.38
402.406	109.38
402.63	105.38
402.854	100.38
403.078	89.38
403.302	93.38
403.526	94.38
403.75	102.38
403.974	93.38
404.198	83.38
404.422	88.38
404.645	84.38
404.869	86.38
405.093	108.38
405.317	103.38
405.541	92.38
405.765	107.38
405.988	110.38
406.212	102.38
406.436	103.38
406.66	101.38
406.883	96.38
407.107	93.38
407.331	97.38
407.555	90.38
407.778	93.38
408.002	86.38
408.226	93.38
408.449	94.38
408.673	99.38
408.896	103.38
409.12	107.38
409.344	106.38
409.567	95.38
409.791	83.38
410.014	98.38
410.238	93.38
410.461	86.38
410.685	102.38
410.908	104.38
411.132	95.38
411.355	85.38
411.578	104.38
411.802	91.38
412.025	89.38
412.249	84.38
412.472	99.38
412.695	91.38
412.919	106.38
413.142	97.38
413.365	92.38
413.589	101.38
413.812	92.38
414.035	113.38
414.258	85.38
414.482	75.38
414.705	110.38
414.928	97.38
415.151	92.38
415.374	97.38
415.597	91.38
415.821	91.38
416.044	95.38
416.267	102.38
416.49	93.38
416.713	110.38
416.936	93.38
417.159	111.38
417.382	102.38
417.605	98.38
417.828	89.38
418.051	115.38
418.274	102.38
418.497	92.38
418.72	97.38
418.943	109.38
419.166	99.38
419.389	98.38
419.611	107.38
419.834	86.38
420.057	98.38
420.28	94.38
420.503	106.38
420.726	109.38
420.948	100.38
421.171	93.38
421.394	94.38
421.617	99.38
421.839	93.38
422.062	85.38
422.285	103.38
422.507	91.38
422.73	85.38
422.953	105.38
423.175	107.38
423.398	84.38
423.621	108.38
423.843	107.38
424.066	103.38
424.288	94.38
424.511	119.38
424.733	103.38
424.956	96.38
425.178	96.38
425.401	109.38
425.623	107.38
425.846	113.38
426.068	101.38
426.291	93.38
426.513	94.38
426.735	90.38
426.958	101.38
427.18	93.38
427.402	100.38
427.625	105.38
427.847	95.38
428.069	97.38
428.292	96.38
428.514	110.38
428.736	95.38
428.958	77.38
429.181	102.38
429.403	105.38
429.625	94.38
429.847	92.38
430.069	93.38
430.292	100.38
430.514	105.38
430.736	94.38
430.958	109.38
431.18	117.38
431.402	96.38
431.624	89.38
431.846	85.38
432.068	88.38
432.29	91.38
432.512	89.38
432.734	83.38
432.956	106.38
433.178	107.38
433.4	93.38
433.622	94.38
433.844	88.38
434.066	82.38
434.287	80.38
434.509	79.38
434.731	75.38
434.953	102.38
435.175	96.38
435.397	105.38
435.618	106.38
435.84	80.38
436.062	98.38
436.284	76.38
436.505	94.38
436.727	102.38
436.949	110.38
437.17	112.38
437.392	96.38
437.614	85.38
437.835	92.38
438.057	98.38
438.278	81.38
438.5	94.38
438.721	109.38
438.943	96.38
439.165	117.38
439.386	111.38
439.608	110.38
439.829	112.38
440.05	103.38
440.272	85.38
440.493	101.38
440.715	105.38
440.936	101.38
441.158	110.38
441.379	104.38
441.6	101.38
441.822	117.38
442.043	101.38
442.264	104.38
442.486	102.38
442.707	112.38
442.928	91.38
443.149	98.38
443.371	96.38
443.592	94.38
443.813	106.38
444.034	93.38
444.255	105.38
444.476	107.38
444.698	95.38
444.919	96.38
445.14	177.38
445.361	117.38
445.582	98.38
445.803	112.38
446.024	116.38
446.245	97.38
446.466	110.38
446.687	118.38
446.908	110.38
447.129	97.38
447.35	95.38
447.571	109.38
447.792	90.38
448.013	97.38
448.234	92.38
448.455	95.38
448.675	97.38
448.896	89.38
449.117	93.38
449.338	107.38
449.559	104.38
449.779	116.38
450	118.38
450.221	104.38
450.442	115.38
450.662	97.38
450.883	87.38
451.104	93.38
451.324	115.38
451.545	85.38
451.766	99.38
451.986	107.38
452.207	96.38
452.428	104.38
452.648	85.38
452.869	90.38
453.089	78.38
453.31	96.38
453.53	76.38
453.751	87.38
453.971	82.38
454.192	91.38
454.412	103.38
454.633	105.38
454.853	89.38
455.073	102.38
455.294	104.38
455.514	98.38
455.734	84.38
455.955	93.38
456.175	95.38
456.395	88.38
456.616	85.38
456.836	94.38
457.056	108.38
457.276	90.38
457.497	77.38
457.717	100.38
457.937	98.38
458.157	92.38
458.377	91.38
458.598	73.38
458.818	70.38
459.038	89.38
459.258	81.38
459.478	101.38
459.698	71.38
459.918	82.38
460.138	99.38
460.358	78.38
460.578	98.38
460.798	79.38
461.018	100.38
461.238	93.38
461.458	95.38
461.678	102.38
461.898	97.38
462.118	90.38
462.338	100.38
462.558	103.38
462.777	97.38
462.997	92.38
463.217	103.38
463.437	99.38
463.657	97.38
463.876	86.38
464.096	78.38
464.316	79.38
464.536	87.38
464.755	96.38
464.975	89.38
465.195	93.38
465.414	101.38
465.634	92.38
465.854	91.38
466.073	96.38
466.293	106.38
466.512	90.38
466.732	105.38
466.951	97.38
467.171	118.38
467.391	123.38
467.61	126.38
467.829	122.38
468.049	111.38
468.268	99.38
468.488	110.38
468.707	102.38
468.927	120.38
469.146	102.38
469.365	106.38
469.585	119.38
469.804	103.38
470.023	93.38
470.243	113.38
470.462	85.38
470.681	117.38
470.901	122.38
471.12	112.38
471.339	101.38
471.558	100.38
471.777	103.38
471.997	112.38
472.216	95.38
472.435	86.38
472.654	97.38
472.873	110.38
473.092	101.38
473.311	101.38
473.53	117.38
473.749	114.38
473.968	115.38
474.187	90.38
474.406	96.38
474.625	118.38
474.844	116.38
475.063	100.38
475.282	101.38
475.501	89.38
475.72	101.38
475.939	100.38
476.158	106.38
476.377	99.38
476.596	97.38
476.814	97.38
477.033	87.38
477.252	88.38
477.471	75.38
477.69	97.38
477.908	108.38
478.127	113.38
478.346	91.38
478.564	94.38
478.783	98.38
479.002	107.38
479.22	104.38
479.439	101.38
479.658	93.38
479.876	97.38
480.095	93.38
480.313	94.38
480.532	92.38
480.751	79.38
480.969	87.38
481.188	80.38
481.406	91.38
481.624	80.38
481.843	81.38
482.061	73.38
482.28	80.38
482.498	90.38
482.717	82.38
482.935	109.38
483.153	105.38
483.372	102.38
483.59	89.38
483.808	96.38
484.027	91.38
484.245	85.38
484.463	92.38
484.681	101.38
484.9	110.38
485.118	94.38
485.336	97.38
485.554	97.38
485.772	78.38
485.99	76.38
486.209	77.38
486.427	92.38
486.645	97.38
486.863	98.38
487.081	105.38
487.299	95.38
487.517	102.38
487.735	104.38
487.953	105.38
488.171	118.38
488.389	113.38
488.607	111.38
488.825	83.38
489.043	100.38
489.261	103.38
489.479	113.38
489.696	103.38
489.914	97.38
490.132	99.38
490.35	113.38
490.568	117.38
490.786	126.38
491.003	126.38
491.221	120.38
491.439	117.38
491.657	141.38
491.874	134.38
492.092	138.38
492.31	136.38
492.527	123.38
492.745	117.38
492.963	133.38
493.18	114.38
493.398	133.38
493.615	139.38
493.833	121.38
494.05	119.38
494.268	116.38
494.485	145.38
494.703	131.38
494.92	119.38
495.138	127.38
495.355	126.38
495.573	126.38
495.79	129.38
496.008	115.38
496.225	131.38
496.442	110.38
496.66	117.38
496.877	127.38
497.094	101.38
497.312	104.38
497.529	93.38
497.746	111.38
497.963	97.38
498.181	108.38
498.398	105.38
498.615	101.38
498.832	89.38
499.049	93.38
499.267	112.38
499.484	101.38
499.701	106.38
499.918	97.38
500.135	102.38
500.352	101.38
500.569	106.38
500.786	95.38
501.003	108.38
501.22	110.38
501.437	101.38
501.654	106.38
501.871	103.38
502.088	117.38
502.305	91.38
502.522	107.38
502.739	94.38
502.956	97.38
503.172	91.38
503.389	91.38
503.606	106.38
503.823	103.38
504.04	106.38
504.256	98.38
504.473	89.38
504.69	87.38
504.907	109.38
505.123	99.38
505.34	97.38
505.557	106.38
505.773	102.38
505.99	104.38
506.207	105.38
506.423	101.38
506.64	107.38
506.856	116.38
507.073	93.38
507.289	93.38
507.506	98.38
507.722	100.38
507.939	95.38
508.155	93.38
508.372	94.38
508.588	88.38
508.805	89.38
509.021	96.38
509.238	87.38
509.454	88.38
509.67	74.38
509.887	91.38
510.103	77.38
510.319	84.38
510.536	91.38
510.752	75.38
510.968	83.38
511.184	85.38
511.401	75.38
511.617	76.38
511.833	90.38
512.049	71.38
512.265	93.38
512.481	100.38
512.698	85.38
512.914	92.38
513.13	86.38
513.346	75.38
513.562	88.38
513.778	87.38
513.994	79.38
514.21	84.38
514.426	86.38
514.642	79.38
514.858	85.38
515.074	75.38
515.29	105.38
515.506	90.38
515.721	84.38
515.937	90.38
516.153	83.38
516.369	92.38
