Data from Foil_1_HRD10591_00016.txt Node
Date: Wed Nov 05 16:15:28 EST 2025
User: Yrep
Spectrometer: HR+D1059
Trigger mode: 1
Integration Time (sec): 1.000000E-1
Scans to average: 1
Electric dark correction enabled: true
Nonlinearity correction enabled: false
Boxcar width: 0
XAxis mode: Wavelengths
Number of Pixels in Spectrum: 2048
>>>>>Begin Spectral Data<<<<<
223.165	-17.44
223.4	-17.44
223.635	-17.44
223.869	-24.44
224.104	-16.44
224.338	-4.44
224.573	-2.44
224.808	-17.44
225.042	-3.44
225.277	5.56
225.511	-7.44
225.746	-0.44
225.98	-4.44
226.215	5.56
226.449	12.56
226.683	24.56
226.918	24.56
227.152	25.56
227.387	35.56
227.621	37.56
227.856	53.56
228.09	46.56
228.324	67.56
228.559	60.56
228.793	61.56
229.027	56.56
229.262	69.56
229.496	67.56
229.73	61.56
229.964	71.56
230.199	63.56
230.433	78.56
230.667	68.56
230.901	65.56
231.136	65.56
231.37	82.56
231.604	78.56
231.838	87.56
232.072	72.56
232.306	76.56
232.541	96.56
232.775	69.56
233.009	69.56
233.243	79.56
233.477	76.56
233.711	75.56
233.945	69.56
234.179	91.56
234.413	79.56
234.647	82.56
234.881	76.56
235.115	78.56
235.349	68.56
235.583	72.56
235.817	91.56
236.051	57.56
236.285	66.56
236.519	81.56
236.753	74.56
236.987	66.56
237.221	69.56
237.455	74.56
237.689	77.56
237.922	65.56
238.156	70.56
238.39	75.56
238.624	89.56
238.858	76.56
239.091	66.56
239.325	77.56
239.559	69.56
239.793	71.56
240.027	80.56
240.26	76.56
240.494	77.56
240.728	60.56
240.961	80.56
241.195	71.56
241.429	71.56
241.662	66.56
241.896	81.56
242.13	81.56
242.363	65.56
242.597	88.56
242.83	82.56
243.064	76.56
243.298	63.56
243.531	80.56
243.765	71.56
243.998	72.56
244.232	87.56
244.465	89.56
244.699	86.56
244.932	81.56
245.166	86.56
245.399	95.56
245.633	81.56
245.866	91.56
246.099	73.56
246.333	74.56
246.566	79.56
246.8	88.56
247.033	68.56
247.266	71.56
247.5	76.56
247.733	76.56
247.966	63.56
248.2	65.56
248.433	59.56
248.666	80.56
248.899	75.56
249.133	70.56
249.366	74.56
249.599	79.56
249.832	81.56
250.066	78.56
250.299	75.56
250.532	73.56
250.765	89.56
250.998	65.56
251.231	87.56
251.465	68.56
251.698	68.56
251.931	81.56
252.164	83.56
252.397	79.56
252.63	87.56
252.863	75.56
253.096	70.56
253.329	76.56
253.562	81.56
253.795	67.56
254.028	86.56
254.261	78.56
254.494	66.56
254.727	88.56
254.96	78.56
255.193	81.56
255.426	77.56
255.659	79.56
255.892	67.56
256.124	76.56
256.357	78.56
256.59	75.56
256.823	90.56
257.056	81.56
257.289	71.56
257.521	80.56
257.754	100.56
257.987	78.56
258.22	80.56
258.452	79.56
258.685	87.56
258.918	84.56
259.151	74.56
259.383	85.56
259.616	82.56
259.849	90.56
260.081	67.56
260.314	70.56
260.547	82.56
260.779	67.56
261.012	76.56
261.244	65.56
261.477	83.56
261.71	81.56
261.942	89.56
262.175	67.56
262.407	77.56
262.64	73.56
262.872	76.56
263.105	87.56
263.337	89.56
263.57	77.56
263.802	81.56
264.035	92.56
264.267	91.56
264.499	80.56
264.732	73.56
264.964	82.56
265.197	85.56
265.429	69.56
265.661	78.56
265.894	87.56
266.126	83.56
266.358	89.56
266.591	79.56
266.823	75.56
267.055	78.56
267.287	86.56
267.52	83.56
267.752	72.56
267.984	83.56
268.216	84.56
268.448	94.56
268.681	88.56
268.913	77.56
269.145	89.56
269.377	82.56
269.609	80.56
269.841	81.56
270.073	75.56
270.306	84.56
270.538	78.56
270.77	81.56
271.002	81.56
271.234	78.56
271.466	70.56
271.698	103.56
271.93	96.56
272.162	71.56
272.394	102.56
272.626	94.56
272.858	80.56
273.09	86.56
273.322	79.56
273.553	86.56
273.785	90.56
274.017	77.56
274.249	78.56
274.481	77.56
274.713	76.56
274.945	95.56
275.176	69.56
275.408	67.56
275.64	90.56
275.872	79.56
276.104	77.56
276.335	92.56
276.567	68.56
276.799	79.56
277.031	83.56
277.262	84.56
277.494	97.56
277.726	98.56
277.957	85.56
278.189	88.56
278.421	80.56
278.652	89.56
278.884	76.56
279.115	94.56
279.347	72.56
279.579	73.56
279.81	78.56
280.042	83.56
280.273	80.56
280.505	83.56
280.736	92.56
280.968	88.56
281.199	88.56
281.431	77.56
281.662	87.56
281.894	85.56
282.125	74.56
282.356	84.56
282.588	80.56
282.819	80.56
283.051	78.56
283.282	81.56
283.513	85.56
283.745	90.56
283.976	82.56
284.207	101.56
284.439	87.56
284.67	79.56
284.901	92.56
285.132	88.56
285.364	84.56
285.595	78.56
285.826	84.56
286.057	96.56
286.288	86.56
286.52	90.56
286.751	85.56
286.982	83.56
287.213	80.56
287.444	88.56
287.675	96.56
287.906	90.56
288.138	83.56
288.369	96.56
288.6	83.56
288.831	79.56
289.062	85.56
289.293	76.56
289.524	68.56
289.755	76.56
289.986	86.56
290.217	78.56
290.448	73.56
290.679	80.56
290.91	93.56
291.141	91.56
291.371	81.56
291.602	72.56
291.833	73.56
292.064	74.56
292.295	89.56
292.526	75.56
292.757	81.56
292.987	80.56
293.218	72.56
293.449	90.56
293.68	88.56
293.91	90.56
294.141	80.56
294.372	73.56
294.603	82.56
294.833	96.56
295.064	97.56
295.295	87.56
295.525	86.56
295.756	90.56
295.987	69.56
296.217	86.56
296.448	79.56
296.679	80.56
296.909	91.56
297.14	72.56
297.37	93.56
297.601	89.56
297.831	86.56
298.062	75.56
298.292	93.56
298.523	98.56
298.753	85.56
298.984	71.56
299.214	83.56
299.445	90.56
299.675	73.56
299.905	72.56
300.136	91.56
300.366	77.56
300.597	82.56
300.827	86.56
301.057	74.56
301.288	92.56
301.518	88.56
301.748	81.56
301.979	92.56
302.209	82.56
302.439	92.56
302.669	67.56
302.9	93.56
303.13	73.56
303.36	74.56
303.59	87.56
303.82	97.56
304.051	92.56
304.281	92.56
304.511	94.56
304.741	95.56
304.971	76.56
305.201	97.56
305.431	92.56
305.661	72.56
305.891	77.56
306.121	78.56
306.352	78.56
306.582	91.56
306.812	83.56
307.042	91.56
307.272	78.56
307.502	78.56
307.731	97.56
307.961	100.56
308.191	99.56
308.421	98.56
308.651	102.56
308.881	94.56
309.111	104.56
309.341	122.56
309.571	108.56
309.8	83.56
310.03	95.56
310.26	84.56
310.49	80.56
310.72	89.56
310.949	64.56
311.179	90.56
311.409	81.56
311.639	94.56
311.868	88.56
312.098	97.56
312.328	97.56
312.557	76.56
312.787	77.56
313.017	95.56
313.246	82.56
313.476	72.56
313.706	84.56
313.935	85.56
314.165	88.56
314.394	92.56
314.624	85.56
314.853	88.56
315.083	70.56
315.312	83.56
315.542	72.56
315.771	77.56
316.001	96.56
316.23	83.56
316.46	80.56
316.689	82.56
316.919	69.56
317.148	103.56
317.377	89.56
317.607	86.56
317.836	72.56
318.065	87.56
318.295	79.56
318.524	100.56
318.753	93.56
318.983	83.56
319.212	83.56
319.441	104.56
319.67	83.56
319.9	85.56
320.129	78.56
320.358	87.56
320.587	89.56
320.816	91.56
321.046	92.56
321.275	88.56
321.504	72.56
321.733	83.56
321.962	69.56
322.191	96.56
322.42	89.56
322.649	88.56
322.878	79.56
323.108	96.56
323.337	88.56
323.566	85.56
323.795	72.56
324.024	88.56
324.253	80.56
324.482	75.56
324.71	75.56
324.939	99.56
325.168	74.56
325.397	77.56
325.626	81.56
325.855	78.56
326.084	79.56
326.313	76.56
326.542	81.56
326.77	85.56
326.999	83.56
327.228	83.56
327.457	88.56
327.686	78.56
327.914	80.56
328.143	90.56
328.372	98.56
328.6	80.56
328.829	70.56
329.058	72.56
329.287	82.56
329.515	88.56
329.744	89.56
329.972	97.56
330.201	80.56
330.43	87.56
330.658	87.56
330.887	78.56
331.115	97.56
331.344	112.56
331.572	80.56
331.801	78.56
332.03	86.56
332.258	85.56
332.486	89.56
332.715	89.56
332.943	89.56
333.172	96.56
333.4	76.56
333.629	74.56
333.857	90.56
334.085	93.56
334.314	92.56
334.542	94.56
334.771	82.56
334.999	89.56
335.227	81.56
335.455	84.56
335.684	98.56
335.912	86.56
336.14	80.56
336.369	88.56
336.597	80.56
336.825	77.56
337.053	74.56
337.281	76.56
337.51	92.56
337.738	89.56
337.966	69.56
338.194	78.56
338.422	77.56
338.65	99.56
338.878	98.56
339.106	99.56
339.334	86.56
339.562	88.56
339.79	81.56
340.018	84.56
340.246	81.56
340.474	82.56
340.702	71.56
340.93	70.56
341.158	74.56
341.386	76.56
341.614	89.56
341.842	76.56
342.07	88.56
342.298	84.56
342.526	75.56
342.754	80.56
342.981	99.56
343.209	74.56
343.437	100.56
343.665	93.56
343.893	89.56
344.12	71.56
344.348	87.56
344.576	78.56
344.804	97.56
345.031	82.56
345.259	65.56
345.487	81.56
345.714	101.56
345.942	88.56
346.17	79.56
346.397	61.56
346.625	91.56
346.853	86.56
347.08	96.56
347.308	82.56
347.535	83.56
347.763	86.56
347.99	86.56
348.218	88.56
348.445	87.56
348.673	93.56
348.9	94.56
349.128	88.56
349.355	81.56
349.583	81.56
349.81	92.56
350.037	106.56
350.265	66.56
350.492	80.56
350.72	88.56
350.947	81.56
351.174	80.56
351.402	91.56
351.629	76.56
351.856	82.56
352.083	76.56
352.311	92.56
352.538	74.56
352.765	85.56
352.992	95.56
353.22	71.56
353.447	92.56
353.674	60.56
353.901	69.56
354.128	69.56
354.355	95.56
354.583	72.56
354.81	83.56
355.037	82.56
355.264	88.56
355.491	79.56
355.718	87.56
355.945	83.56
356.172	87.56
356.399	87.56
356.626	80.56
356.853	79.56
357.08	93.56
357.307	82.56
357.534	82.56
357.761	79.56
357.988	92.56
358.215	76.56
358.441	81.56
358.668	86.56
358.895	92.56
359.122	86.56
359.349	64.56
359.576	84.56
359.802	82.56
360.029	82.56
360.256	88.56
360.483	82.56
360.709	83.56
360.936	77.56
361.163	76.56
361.39	77.56
361.616	79.56
361.843	82.56
362.07	79.56
362.296	82.56
362.523	80.56
362.749	92.56
362.976	86.56
363.203	109.56
363.429	91.56
363.656	90.56
363.882	92.56
364.109	89.56
364.335	92.56
364.562	78.56
364.788	96.56
365.015	86.56
365.241	87.56
365.468	82.56
365.694	76.56
365.92	76.56
366.147	94.56
366.373	88.56
366.599	68.56
366.826	77.56
367.052	68.56
367.278	90.56
367.505	83.56
367.731	82.56
367.957	70.56
368.184	92.56
368.41	88.56
368.636	81.56
368.862	83.56
369.089	90.56
369.315	80.56
369.541	78.56
369.767	85.56
369.993	85.56
370.219	91.56
370.445	92.56
370.672	77.56
370.898	96.56
371.124	88.56
371.35	94.56
371.576	92.56
371.802	89.56
372.028	74.56
372.254	78.56
372.48	78.56
372.706	77.56
372.932	90.56
373.158	86.56
373.384	94.56
373.61	86.56
373.835	86.56
374.061	92.56
374.287	97.56
374.513	77.56
374.739	84.56
374.965	85.56
375.191	76.56
375.416	90.56
375.642	82.56
375.868	88.56
376.094	90.56
376.319	85.56
376.545	91.56
376.771	82.56
376.997	92.56
377.222	90.56
377.448	70.56
377.674	82.56
377.899	78.56
378.125	88.56
378.35	88.56
378.576	92.56
378.802	90.56
379.027	94.56
379.253	93.56
379.478	80.56
379.704	92.56
379.929	91.56
380.155	90.56
380.38	95.56
380.606	88.56
380.831	89.56
381.057	101.56
381.282	95.56
381.507	79.56
381.733	89.56
381.958	94.56
382.184	90.56
382.409	88.56
382.634	105.56
382.86	82.56
383.085	95.56
383.31	80.56
383.535	84.56
383.761	95.56
383.986	80.56
384.211	93.56
384.436	92.56
384.662	94.56
384.887	96.56
385.112	96.56
385.337	101.56
385.562	88.56
385.787	107.56
386.013	96.56
386.238	98.56
386.463	94.56
386.688	102.56
386.913	88.56
387.138	90.56
387.363	79.56
387.588	90.56
387.813	93.56
388.038	111.56
388.263	95.56
388.488	90.56
388.713	92.56
388.938	105.56
389.163	95.56
389.387	86.56
389.612	92.56
389.837	90.56
390.062	99.56
390.287	86.56
390.512	81.56
390.736	83.56
390.961	83.56
391.186	82.56
391.411	94.56
391.636	93.56
391.86	89.56
392.085	95.56
392.31	93.56
392.534	92.56
392.759	88.56
392.984	90.56
393.208	93.56
393.433	106.56
393.658	88.56
393.882	108.56
394.107	126.56
394.331	190.56
394.556	198.56
394.78	119.56
395.005	98.56
395.229	110.56
395.454	93.56
395.678	127.56
395.903	166.56
396.127	233.56
396.352	226.56
396.576	124.56
396.801	110.56
397.025	104.56
397.249	108.56
397.474	80.56
397.698	106.56
397.922	94.56
398.147	92.56
398.371	79.56
398.595	92.56
398.82	96.56
399.044	97.56
399.268	86.56
399.492	84.56
399.717	93.56
399.941	97.56
400.165	103.56
400.389	111.56
400.613	91.56
400.837	91.56
401.062	92.56
401.286	102.56
401.51	97.56
401.734	104.56
401.958	100.56
402.182	88.56
402.406	98.56
402.63	96.56
402.854	95.56
403.078	92.56
403.302	102.56
403.526	95.56
403.75	86.56
403.974	84.56
404.198	92.56
404.422	94.56
404.645	81.56
404.869	87.56
405.093	88.56
405.317	106.56
405.541	96.56
405.765	100.56
405.988	95.56
406.212	102.56
406.436	94.56
406.66	116.56
406.883	92.56
407.107	111.56
407.331	108.56
407.555	93.56
407.778	105.56
408.002	97.56
408.226	100.56
408.449	108.56
408.673	89.56
408.896	83.56
409.12	100.56
409.344	95.56
409.567	76.56
409.791	92.56
410.014	101.56
410.238	99.56
410.461	104.56
410.685	92.56
410.908	109.56
411.132	94.56
411.355	93.56
411.578	87.56
411.802	94.56
412.025	98.56
412.249	86.56
412.472	83.56
412.695	97.56
412.919	95.56
413.142	116.56
413.365	101.56
413.589	100.56
413.812	103.56
414.035	114.56
414.258	89.56
414.482	118.56
414.705	118.56
414.928	96.56
415.151	114.56
415.374	100.56
415.597	105.56
415.821	104.56
416.044	104.56
416.267	95.56
416.49	89.56
416.713	95.56
416.936	106.56
417.159	94.56
417.382	107.56
417.605	92.56
417.828	97.56
418.051	94.56
418.274	93.56
418.497	99.56
418.72	108.56
418.943	106.56
419.166	118.56
419.389	108.56
419.611	100.56
419.834	81.56
420.057	95.56
420.28	101.56
420.503	112.56
420.726	96.56
420.948	101.56
421.171	98.56
421.394	92.56
421.617	100.56
421.839	100.56
422.062	100.56
422.285	93.56
422.507	113.56
422.73	94.56
422.953	96.56
423.175	96.56
423.398	90.56
423.621	100.56
423.843	107.56
424.066	108.56
424.288	103.56
424.511	93.56
424.733	108.56
424.956	101.56
425.178	96.56
425.401	92.56
425.623	101.56
425.846	88.56
426.068	80.56
426.291	94.56
426.513	103.56
426.735	100.56
426.958	100.56
427.18	95.56
427.402	111.56
427.625	107.56
427.847	106.56
428.069	100.56
428.292	100.56
428.514	114.56
428.736	100.56
428.958	104.56
429.181	101.56
429.403	104.56
429.625	100.56
429.847	103.56
430.069	99.56
430.292	102.56
430.514	99.56
430.736	107.56
430.958	91.56
431.18	95.56
431.402	101.56
431.624	88.56
431.846	83.56
432.068	74.56
432.29	82.56
432.512	102.56
432.734	90.56
432.956	86.56
433.178	108.56
433.4	98.56
433.622	99.56
433.844	98.56
434.066	94.56
434.287	93.56
434.509	82.56
434.731	61.56
434.953	87.56
435.175	93.56
435.397	97.56
435.618	85.56
435.84	85.56
436.062	89.56
436.284	91.56
436.505	93.56
436.727	105.56
436.949	104.56
437.17	94.56
437.392	112.56
437.614	87.56
437.835	89.56
438.057	93.56
438.278	82.56
438.5	105.56
438.721	85.56
438.943	117.56
439.165	100.56
439.386	102.56
439.608	102.56
439.829	108.56
440.05	109.56
440.272	104.56
440.493	97.56
440.715	115.56
440.936	100.56
441.158	107.56
441.379	96.56
441.6	99.56
441.822	102.56
442.043	123.56
442.264	108.56
442.486	94.56
442.707	93.56
442.928	105.56
443.149	106.56
443.371	106.56
443.592	105.56
443.813	94.56
444.034	102.56
444.255	116.56
444.476	102.56
444.698	101.56
444.919	109.56
445.14	171.56
445.361	138.56
445.582	116.56
445.803	96.56
446.024	106.56
446.245	117.56
446.466	105.56
446.687	96.56
446.908	97.56
447.129	97.56
447.35	97.56
447.571	99.56
447.792	116.56
448.013	111.56
448.234	92.56
448.455	98.56
448.675	99.56
448.896	100.56
449.117	105.56
449.338	110.56
449.559	111.56
449.779	103.56
450	116.56
450.221	107.56
450.442	116.56
450.662	97.56
450.883	102.56
451.104	96.56
451.324	104.56
451.545	100.56
451.766	107.56
451.986	81.56
452.207	101.56
452.428	107.56
452.648	102.56
452.869	81.56
453.089	83.56
453.31	99.56
453.53	92.56
453.751	77.56
453.971	96.56
454.192	88.56
454.412	91.56
454.633	102.56
454.853	96.56
455.073	100.56
455.294	96.56
455.514	93.56
455.734	82.56
455.955	83.56
456.175	96.56
456.395	83.56
456.616	79.56
456.836	98.56
457.056	100.56
457.276	87.56
457.497	88.56
457.717	97.56
457.937	91.56
458.157	88.56
458.377	76.56
458.598	78.56
458.818	90.56
459.038	83.56
459.258	88.56
459.478	97.56
459.698	82.56
459.918	95.56
460.138	98.56
460.358	80.56
460.578	88.56
460.798	82.56
461.018	100.56
461.238	97.56
461.458	98.56
461.678	104.56
461.898	107.56
462.118	98.56
462.338	85.56
462.558	90.56
462.777	83.56
462.997	102.56
463.217	87.56
463.437	79.56
463.657	86.56
463.876	105.56
464.096	88.56
464.316	94.56
464.536	91.56
464.755	90.56
464.975	66.56
465.195	104.56
465.414	92.56
465.634	97.56
465.854	100.56
466.073	78.56
466.293	91.56
466.512	83.56
466.732	105.56
466.951	125.56
467.171	135.56
467.391	105.56
467.61	114.56
467.829	125.56
468.049	115.56
468.268	128.56
468.488	99.56
468.707	110.56
468.927	111.56
469.146	107.56
469.365	106.56
469.585	98.56
469.804	119.56
470.023	107.56
470.243	98.56
470.462	103.56
470.681	118.56
470.901	110.56
471.12	108.56
471.339	108.56
471.558	129.56
471.777	112.56
471.997	108.56
472.216	95.56
472.435	94.56
472.654	90.56
472.873	99.56
473.092	94.56
473.311	106.56
473.53	103.56
473.749	104.56
473.968	119.56
474.187	106.56
474.406	91.56
474.625	100.56
474.844	110.56
475.063	93.56
475.282	100.56
475.501	95.56
475.72	99.56
475.939	97.56
476.158	100.56
476.377	99.56
476.596	112.56
476.814	88.56
477.033	97.56
477.252	100.56
477.471	98.56
477.69	106.56
477.908	115.56
478.127	105.56
478.346	91.56
478.564	101.56
478.783	95.56
479.002	111.56
479.22	93.56
479.439	116.56
479.658	113.56
479.876	94.56
480.095	102.56
480.313	99.56
480.532	86.56
480.751	90.56
480.969	77.56
481.188	80.56
481.406	87.56
481.624	77.56
481.843	82.56
482.061	79.56
482.28	85.56
482.498	99.56
482.717	104.56
482.935	87.56
483.153	108.56
483.372	103.56
483.59	104.56
483.808	95.56
484.027	92.56
484.245	91.56
484.463	81.56
484.681	112.56
484.9	94.56
485.118	108.56
485.336	97.56
485.554	93.56
485.772	74.56
485.99	88.56
486.209	95.56
486.427	101.56
486.645	89.56
486.863	120.56
487.081	93.56
487.299	106.56
487.517	110.56
487.735	108.56
487.953	123.56
488.171	126.56
488.389	111.56
488.607	111.56
488.825	96.56
489.043	93.56
489.261	89.56
489.479	95.56
489.696	98.56
489.914	112.56
490.132	127.56
490.35	113.56
490.568	119.56
490.786	119.56
491.003	133.56
491.221	137.56
491.439	133.56
491.657	130.56
491.874	138.56
492.092	133.56
492.31	129.56
492.527	133.56
492.745	140.56
492.963	142.56
493.18	139.56
493.398	132.56
493.615	135.56
493.833	127.56
494.05	136.56
494.268	136.56
494.485	133.56
494.703	122.56
494.92	131.56
495.138	120.56
495.355	116.56
495.573	134.56
495.79	109.56
496.008	117.56
496.225	112.56
496.442	103.56
496.66	121.56
496.877	121.56
497.094	121.56
497.312	117.56
497.529	113.56
497.746	88.56
497.963	86.56
498.181	106.56
498.398	111.56
498.615	106.56
498.832	88.56
499.049	92.56
499.267	96.56
499.484	84.56
499.701	106.56
499.918	97.56
500.135	104.56
500.352	105.56
500.569	101.56
500.786	96.56
501.003	112.56
501.22	112.56
501.437	100.56
501.654	92.56
501.871	107.56
502.088	108.56
502.305	118.56
502.522	106.56
502.739	89.56
502.956	102.56
503.172	100.56
503.389	112.56
503.606	95.56
503.823	89.56
504.04	89.56
504.256	97.56
504.473	100.56
504.69	96.56
504.907	98.56
505.123	105.56
505.34	99.56
505.557	89.56
505.773	99.56
505.99	100.56
506.207	107.56
506.423	102.56
506.64	84.56
506.856	91.56
507.073	92.56
507.289	102.56
507.506	87.56
507.722	92.56
507.939	94.56
508.155	92.56
508.372	89.56
508.588	86.56
508.805	87.56
509.021	86.56
509.238	89.56
509.454	94.56
509.67	86.56
509.887	90.56
510.103	93.56
510.319	87.56
510.536	95.56
510.752	92.56
510.968	97.56
511.184	85.56
511.401	77.56
511.617	80.56
511.833	81.56
512.049	79.56
512.265	94.56
512.481	84.56
512.698	72.56
512.914	85.56
513.13	85.56
513.346	89.56
513.562	100.56
513.778	82.56
513.994	82.56
514.21	74.56
514.426	81.56
514.642	93.56
514.858	95.56
515.074	83.56
515.29	87.56
515.506	106.56
515.721	78.56
515.937	94.56
516.153	70.56
