Data from Foil_1_HRD10591_00005.txt Node
Date: Wed Nov 05 16:15:23 EST 2025
User: Yrep
Spectrometer: HR+D1059
Trigger mode: 1
Integration Time (sec): 1.000000E-1
Scans to average: 1
Electric dark correction enabled: true
Nonlinearity correction enabled: false
Boxcar width: 0
XAxis mode: Wavelengths
Number of Pixels in Spectrum: 2048
>>>>>Begin Spectral Data<<<<<
223.165	-25.31
223.4	-25.31
223.635	-25.31
223.869	-18.31
224.104	-23.31
224.338	-20.31
224.573	-5.31
224.808	-12.31
225.042	-6.31
225.277	-13.31
225.511	-10.31
225.746	22.69
225.98	15.69
226.215	14.69
226.449	35.69
226.683	15.69
226.918	21.69
227.152	8.69
227.387	28.69
227.621	23.69
227.856	53.69
228.09	58.69
228.324	42.69
228.559	54.69
228.793	56.69
229.027	67.69
229.262	68.69
229.496	60.69
229.73	76.69
229.964	79.69
230.199	73.69
230.433	73.69
230.667	66.69
230.901	93.69
231.136	79.69
231.37	81.69
231.604	80.69
231.838	78.69
232.072	76.69
232.306	78.69
232.541	77.69
232.775	76.69
233.009	85.69
233.243	79.69
233.477	68.69
233.711	79.69
233.945	73.69
234.179	86.69
234.413	82.69
234.647	74.69
234.881	78.69
235.115	75.69
235.349	90.69
235.583	74.69
235.817	76.69
236.051	84.69
236.285	77.69
236.519	83.69
236.753	90.69
236.987	92.69
237.221	78.69
237.455	84.69
237.689	70.69
237.922	71.69
238.156	86.69
238.39	74.69
238.624	86.69
238.858	74.69
239.091	70.69
239.325	79.69
239.559	72.69
239.793	85.69
240.027	85.69
240.26	75.69
240.494	84.69
240.728	77.69
240.961	84.69
241.195	86.69
241.429	73.69
241.662	72.69
241.896	78.69
242.13	77.69
242.363	77.69
242.597	85.69
242.83	74.69
243.064	62.69
243.298	83.69
243.531	82.69
243.765	81.69
243.998	82.69
244.232	73.69
244.465	70.69
244.699	90.69
244.932	77.69
245.166	84.69
245.399	91.69
245.633	71.69
245.866	82.69
246.099	81.69
246.333	68.69
246.566	76.69
246.8	73.69
247.033	85.69
247.266	84.69
247.5	78.69
247.733	82.69
247.966	82.69
248.2	73.69
248.433	77.69
248.666	72.69
248.899	81.69
249.133	95.69
249.366	77.69
249.599	86.69
249.832	93.69
250.066	76.69
250.299	72.69
250.532	73.69
250.765	69.69
250.998	79.69
251.231	77.69
251.465	66.69
251.698	66.69
251.931	81.69
252.164	77.69
252.397	79.69
252.63	89.69
252.863	76.69
253.096	75.69
253.329	76.69
253.562	81.69
253.795	76.69
254.028	79.69
254.261	79.69
254.494	68.69
254.727	65.69
254.96	82.69
255.193	94.69
255.426	86.69
255.659	88.69
255.892	80.69
256.124	77.69
256.357	82.69
256.59	76.69
256.823	81.69
257.056	90.69
257.289	72.69
257.521	109.69
257.754	107.69
257.987	95.69
258.22	94.69
258.452	76.69
258.685	72.69
258.918	95.69
259.151	85.69
259.383	82.69
259.616	73.69
259.849	76.69
260.081	72.69
260.314	87.69
260.547	72.69
260.779	88.69
261.012	92.69
261.244	86.69
261.477	78.69
261.71	68.69
261.942	95.69
262.175	71.69
262.407	76.69
262.64	70.69
262.872	81.69
263.105	74.69
263.337	87.69
263.57	71.69
263.802	79.69
264.035	80.69
264.267	81.69
264.499	81.69
264.732	73.69
264.964	73.69
265.197	76.69
265.429	77.69
265.661	77.69
265.894	81.69
266.126	82.69
266.358	84.69
266.591	80.69
266.823	82.69
267.055	85.69
267.287	83.69
267.52	82.69
267.752	95.69
267.984	76.69
268.216	70.69
268.448	78.69
268.681	93.69
268.913	75.69
269.145	88.69
269.377	78.69
269.609	85.69
269.841	76.69
270.073	86.69
270.306	90.69
270.538	92.69
270.77	82.69
271.002	81.69
271.234	87.69
271.466	92.69
271.698	86.69
271.93	81.69
272.162	66.69
272.394	97.69
272.626	81.69
272.858	81.69
273.09	87.69
273.322	69.69
273.553	88.69
273.785	79.69
274.017	90.69
274.249	78.69
274.481	75.69
274.713	86.69
274.945	84.69
275.176	67.69
275.408	85.69
275.64	86.69
275.872	76.69
276.104	80.69
276.335	70.69
276.567	86.69
276.799	83.69
277.031	82.69
277.262	74.69
277.494	95.69
277.726	84.69
277.957	85.69
278.189	83.69
278.421	82.69
278.652	88.69
278.884	80.69
279.115	90.69
279.347	86.69
279.579	77.69
279.81	83.69
280.042	76.69
280.273	84.69
280.505	69.69
280.736	82.69
280.968	84.69
281.199	88.69
281.431	86.69
281.662	87.69
281.894	72.69
282.125	80.69
282.356	88.69
282.588	82.69
282.819	76.69
283.051	77.69
283.282	81.69
283.513	88.69
283.745	88.69
283.976	69.69
284.207	75.69
284.439	101.69
284.67	88.69
284.901	98.69
285.132	81.69
285.364	82.69
285.595	83.69
285.826	74.69
286.057	92.69
286.288	70.69
286.52	81.69
286.751	70.69
286.982	85.69
287.213	84.69
287.444	85.69
287.675	81.69
287.906	92.69
288.138	78.69
288.369	84.69
288.6	81.69
288.831	73.69
289.062	89.69
289.293	91.69
289.524	86.69
289.755	86.69
289.986	68.69
290.217	79.69
290.448	89.69
290.679	84.69
290.91	101.69
291.141	61.69
291.371	90.69
291.602	91.69
291.833	76.69
292.064	86.69
292.295	82.69
292.526	69.69
292.757	74.69
292.987	83.69
293.218	79.69
293.449	92.69
293.68	72.69
293.91	75.69
294.141	81.69
294.372	86.69
294.603	89.69
294.833	91.69
295.064	83.69
295.295	70.69
295.525	92.69
295.756	78.69
295.987	77.69
296.217	89.69
296.448	95.69
296.679	74.69
296.909	76.69
297.14	78.69
297.37	82.69
297.601	93.69
297.831	86.69
298.062	86.69
298.292	75.69
298.523	84.69
298.753	74.69
298.984	92.69
299.214	93.69
299.445	71.69
299.675	90.69
299.905	90.69
300.136	95.69
300.366	78.69
300.597	72.69
300.827	84.69
301.057	72.69
301.288	88.69
301.518	91.69
301.748	81.69
301.979	105.69
302.209	79.69
302.439	88.69
302.669	78.69
302.9	84.69
303.13	72.69
303.36	93.69
303.59	90.69
303.82	80.69
304.051	72.69
304.281	76.69
304.511	104.69
304.741	85.69
304.971	72.69
305.201	80.69
305.431	79.69
305.661	74.69
305.891	88.69
306.121	92.69
306.352	81.69
306.582	90.69
306.812	85.69
307.042	87.69
307.272	93.69
307.502	85.69
307.731	110.69
307.961	96.69
308.191	105.69
308.421	108.69
308.651	104.69
308.881	101.69
309.111	113.69
309.341	133.69
309.571	106.69
309.8	91.69
310.03	71.69
310.26	73.69
310.49	81.69
310.72	92.69
310.949	81.69
311.179	91.69
311.409	86.69
311.639	87.69
311.868	75.69
312.098	86.69
312.328	93.69
312.557	87.69
312.787	86.69
313.017	82.69
313.246	85.69
313.476	76.69
313.706	82.69
313.935	82.69
314.165	99.69
314.394	90.69
314.624	90.69
314.853	87.69
315.083	90.69
315.312	81.69
315.542	80.69
315.771	84.69
316.001	68.69
316.23	100.69
316.46	81.69
316.689	70.69
316.919	74.69
317.148	79.69
317.377	83.69
317.607	79.69
317.836	75.69
318.065	75.69
318.295	89.69
318.524	82.69
318.753	84.69
318.983	73.69
319.212	90.69
319.441	76.69
319.67	78.69
319.9	72.69
320.129	78.69
320.358	90.69
320.587	89.69
320.816	102.69
321.046	91.69
321.275	92.69
321.504	78.69
321.733	69.69
321.962	78.69
322.191	87.69
322.42	72.69
322.649	84.69
322.878	81.69
323.108	86.69
323.337	111.69
323.566	100.69
323.795	91.69
324.024	90.69
324.253	90.69
324.482	76.69
324.71	82.69
324.939	84.69
325.168	80.69
325.397	85.69
325.626	91.69
325.855	86.69
326.084	95.69
326.313	78.69
326.542	83.69
326.77	79.69
326.999	73.69
327.228	89.69
327.457	81.69
327.686	78.69
327.914	86.69
328.143	84.69
328.372	102.69
328.6	80.69
328.829	83.69
329.058	76.69
329.287	83.69
329.515	88.69
329.744	83.69
329.972	67.69
330.201	87.69
330.43	88.69
330.658	88.69
330.887	89.69
331.115	77.69
331.344	80.69
331.572	76.69
331.801	81.69
332.03	79.69
332.258	78.69
332.486	89.69
332.715	75.69
332.943	76.69
333.172	87.69
333.4	92.69
333.629	81.69
333.857	64.69
334.085	83.69
334.314	94.69
334.542	80.69
334.771	92.69
334.999	75.69
335.227	85.69
335.455	86.69
335.684	74.69
335.912	90.69
336.14	81.69
336.369	68.69
336.597	76.69
336.825	89.69
337.053	66.69
337.281	72.69
337.51	75.69
337.738	96.69
337.966	82.69
338.194	74.69
338.422	84.69
338.65	72.69
338.878	80.69
339.106	76.69
339.334	80.69
339.562	78.69
339.79	90.69
340.018	96.69
340.246	76.69
340.474	99.69
340.702	67.69
340.93	93.69
341.158	82.69
341.386	86.69
341.614	80.69
341.842	92.69
342.07	91.69
342.298	91.69
342.526	72.69
342.754	99.69
342.981	83.69
343.209	64.69
343.437	66.69
343.665	86.69
343.893	87.69
344.12	100.69
344.348	79.69
344.576	74.69
344.804	72.69
345.031	79.69
345.259	80.69
345.487	73.69
345.714	84.69
345.942	78.69
346.17	70.69
346.397	78.69
346.625	81.69
346.853	82.69
347.08	76.69
347.308	94.69
347.535	61.69
347.763	75.69
347.99	77.69
348.218	86.69
348.445	73.69
348.673	77.69
348.9	73.69
349.128	96.69
349.355	87.69
349.583	89.69
349.81	83.69
350.037	87.69
350.265	90.69
350.492	89.69
350.72	78.69
350.947	80.69
351.174	83.69
351.402	81.69
351.629	74.69
351.856	88.69
352.083	80.69
352.311	85.69
352.538	88.69
352.765	79.69
352.992	82.69
353.22	77.69
353.447	76.69
353.674	73.69
353.901	86.69
354.128	78.69
354.355	74.69
354.583	77.69
354.81	78.69
355.037	79.69
355.264	75.69
355.491	81.69
355.718	69.69
355.945	84.69
356.172	73.69
356.399	84.69
356.626	93.69
356.853	90.69
357.08	89.69
357.307	85.69
357.534	81.69
357.761	84.69
357.988	100.69
358.215	83.69
358.441	85.69
358.668	90.69
358.895	97.69
359.122	82.69
359.349	96.69
359.576	84.69
359.802	83.69
360.029	88.69
360.256	90.69
360.483	68.69
360.709	100.69
360.936	89.69
361.163	74.69
361.39	84.69
361.616	74.69
361.843	91.69
362.07	86.69
362.296	85.69
362.523	79.69
362.749	85.69
362.976	74.69
363.203	81.69
363.429	80.69
363.656	82.69
363.882	72.69
364.109	78.69
364.335	94.69
364.562	79.69
364.788	94.69
365.015	80.69
365.241	84.69
365.468	87.69
365.694	78.69
365.92	83.69
366.147	78.69
366.373	80.69
366.599	97.69
366.826	90.69
367.052	83.69
367.278	85.69
367.505	93.69
367.731	97.69
367.957	92.69
368.184	82.69
368.41	74.69
368.636	97.69
368.862	77.69
369.089	95.69
369.315	92.69
369.541	73.69
369.767	82.69
369.993	92.69
370.219	83.69
370.445	71.69
370.672	81.69
370.898	83.69
371.124	90.69
371.35	91.69
371.576	96.69
371.802	85.69
372.028	75.69
372.254	79.69
372.48	82.69
372.706	82.69
372.932	88.69
373.158	92.69
373.384	89.69
373.61	89.69
373.835	83.69
374.061	91.69
374.287	90.69
374.513	70.69
374.739	78.69
374.965	70.69
375.191	91.69
375.416	93.69
375.642	87.69
375.868	73.69
376.094	74.69
376.319	80.69
376.545	90.69
376.771	91.69
376.997	88.69
377.222	90.69
377.448	89.69
377.674	83.69
377.899	88.69
378.125	83.69
378.35	95.69
378.576	86.69
378.802	93.69
379.027	93.69
379.253	102.69
379.478	97.69
379.704	90.69
379.929	90.69
380.155	94.69
380.38	72.69
380.606	78.69
380.831	80.69
381.057	90.69
381.282	91.69
381.507	94.69
381.733	85.69
381.958	89.69
382.184	86.69
382.409	97.69
382.634	77.69
382.86	93.69
383.085	98.69
383.31	91.69
383.535	86.69
383.761	78.69
383.986	75.69
384.211	102.69
384.436	82.69
384.662	93.69
384.887	87.69
385.112	89.69
385.337	71.69
385.562	93.69
385.787	82.69
386.013	90.69
386.238	84.69
386.463	82.69
386.688	95.69
386.913	92.69
387.138	88.69
387.363	86.69
387.588	92.69
387.813	83.69
388.038	104.69
388.263	104.69
388.488	93.69
388.713	94.69
388.938	95.69
389.163	97.69
389.387	81.69
389.612	95.69
389.837	98.69
390.062	104.69
390.287	82.69
390.512	94.69
390.736	96.69
390.961	81.69
391.186	88.69
391.411	101.69
391.636	91.69
391.86	90.69
392.085	87.69
392.31	97.69
392.534	95.69
392.759	83.69
392.984	95.69
393.208	106.69
393.433	103.69
393.658	104.69
393.882	105.69
394.107	133.69
394.331	180.69
394.556	208.69
394.78	137.69
395.005	104.69
395.229	100.69
395.454	110.69
395.678	117.69
395.903	171.69
396.127	248.69
396.352	232.69
396.576	115.69
396.801	79.69
397.025	109.69
397.249	118.69
397.474	110.69
397.698	95.69
397.922	94.69
398.147	96.69
398.371	90.69
398.595	83.69
398.82	96.69
399.044	113.69
399.268	113.69
399.492	98.69
399.717	95.69
399.941	81.69
400.165	86.69
400.389	90.69
400.613	101.69
400.837	86.69
401.062	100.69
401.286	112.69
401.51	98.69
401.734	105.69
401.958	84.69
402.182	96.69
402.406	88.69
402.63	83.69
402.854	106.69
403.078	90.69
403.302	84.69
403.526	85.69
403.75	95.69
403.974	82.69
404.198	105.69
404.422	112.69
404.645	87.69
404.869	108.69
405.093	104.69
405.317	88.69
405.541	94.69
405.765	102.69
405.988	90.69
406.212	82.69
406.436	89.69
406.66	88.69
406.883	96.69
407.107	82.69
407.331	90.69
407.555	96.69
407.778	87.69
408.002	94.69
408.226	104.69
408.449	89.69
408.673	90.69
408.896	91.69
409.12	105.69
409.344	104.69
409.567	116.69
409.791	86.69
410.014	107.69
410.238	113.69
410.461	91.69
410.685	103.69
410.908	86.69
411.132	101.69
411.355	112.69
411.578	114.69
411.802	103.69
412.025	77.69
412.249	97.69
412.472	89.69
412.695	87.69
412.919	92.69
413.142	99.69
413.365	112.69
413.589	99.69
413.812	109.69
414.035	104.69
414.258	92.69
414.482	83.69
414.705	89.69
414.928	97.69
415.151	84.69
415.374	98.69
415.597	92.69
415.821	92.69
416.044	98.69
416.267	89.69
416.49	98.69
416.713	106.69
416.936	94.69
417.159	89.69
417.382	102.69
417.605	77.69
417.828	102.69
418.051	108.69
418.274	90.69
418.497	96.69
418.72	93.69
418.943	95.69
419.166	99.69
419.389	102.69
419.611	89.69
419.834	98.69
420.057	91.69
420.28	93.69
420.503	119.69
420.726	94.69
420.948	83.69
421.171	82.69
421.394	89.69
421.617	85.69
421.839	107.69
422.062	83.69
422.285	97.69
422.507	101.69
422.73	102.69
422.953	91.69
423.175	96.69
423.398	97.69
423.621	98.69
423.843	105.69
424.066	99.69
424.288	92.69
424.511	106.69
424.733	102.69
424.956	104.69
425.178	107.69
425.401	99.69
425.623	96.69
425.846	97.69
426.068	107.69
426.291	102.69
426.513	86.69
426.735	112.69
426.958	99.69
427.18	83.69
427.402	111.69
427.625	87.69
427.847	111.69
428.069	105.69
428.292	95.69
428.514	122.69
428.736	90.69
428.958	92.69
429.181	97.69
429.403	110.69
429.625	83.69
429.847	100.69
430.069	97.69
430.292	100.69
430.514	104.69
430.736	104.69
430.958	97.69
431.18	92.69
431.402	102.69
431.624	90.69
431.846	89.69
432.068	89.69
432.29	92.69
432.512	76.69
432.734	94.69
432.956	100.69
433.178	105.69
433.4	115.69
433.622	103.69
433.844	91.69
434.066	94.69
434.287	87.69
434.509	77.69
434.731	77.69
434.953	90.69
435.175	104.69
435.397	98.69
435.618	89.69
435.84	75.69
436.062	92.69
436.284	100.69
436.505	100.69
436.727	103.69
436.949	87.69
437.17	95.69
437.392	103.69
437.614	83.69
437.835	91.69
438.057	90.69
438.278	89.69
438.5	97.69
438.721	100.69
438.943	98.69
439.165	88.69
439.386	104.69
439.608	102.69
439.829	102.69
440.05	96.69
440.272	101.69
440.493	110.69
440.715	109.69
440.936	122.69
441.158	104.69
441.379	96.69
441.6	111.69
441.822	105.69
442.043	106.69
442.264	111.69
442.486	106.69
442.707	110.69
442.928	109.69
443.149	114.69
443.371	114.69
443.592	105.69
443.813	108.69
444.034	118.69
444.255	96.69
444.476	100.69
444.698	93.69
444.919	120.69
445.14	180.69
445.361	126.69
445.582	98.69
445.803	112.69
446.024	93.69
446.245	100.69
446.466	117.69
446.687	91.69
446.908	99.69
447.129	106.69
447.35	96.69
447.571	101.69
447.792	95.69
448.013	109.69
448.234	106.69
448.455	106.69
448.675	108.69
448.896	94.69
449.117	98.69
449.338	101.69
449.559	106.69
449.779	89.69
450	108.69
450.221	112.69
450.442	117.69
450.662	120.69
450.883	105.69
451.104	98.69
451.324	97.69
451.545	93.69
451.766	92.69
451.986	100.69
452.207	103.69
452.428	102.69
452.648	95.69
452.869	102.69
453.089	101.69
453.31	87.69
453.53	85.69
453.751	97.69
453.971	99.69
454.192	85.69
454.412	93.69
454.633	99.69
454.853	104.69
455.073	91.69
455.294	83.69
455.514	94.69
455.734	92.69
455.955	83.69
456.175	95.69
456.395	97.69
456.616	88.69
456.836	96.69
457.056	97.69
457.276	83.69
457.497	80.69
457.717	94.69
457.937	80.69
458.157	92.69
458.377	105.69
458.598	92.69
458.818	94.69
459.038	89.69
459.258	97.69
459.478	75.69
459.698	89.69
459.918	79.69
460.138	87.69
460.358	81.69
460.578	99.69
460.798	92.69
461.018	99.69
461.238	82.69
461.458	103.69
461.678	81.69
461.898	107.69
462.118	94.69
462.338	107.69
462.558	104.69
462.777	85.69
462.997	90.69
463.217	102.69
463.437	90.69
463.657	90.69
463.876	70.69
464.096	91.69
464.316	92.69
464.536	94.69
464.755	89.69
464.975	92.69
465.195	85.69
465.414	85.69
465.634	88.69
465.854	104.69
466.073	88.69
466.293	100.69
466.512	104.69
466.732	91.69
466.951	100.69
467.171	113.69
467.391	97.69
467.61	124.69
467.829	113.69
468.049	124.69
468.268	99.69
468.488	127.69
468.707	99.69
468.927	118.69
469.146	116.69
469.365	105.69
469.585	109.69
469.804	127.69
470.023	110.69
470.243	116.69
470.462	113.69
470.681	104.69
470.901	119.69
471.12	110.69
471.339	95.69
471.558	104.69
471.777	108.69
471.997	99.69
472.216	88.69
472.435	97.69
472.654	84.69
472.873	96.69
473.092	104.69
473.311	105.69
473.53	109.69
473.749	112.69
473.968	112.69
474.187	104.69
474.406	102.69
474.625	94.69
474.844	103.69
475.063	102.69
475.282	90.69
475.501	83.69
475.72	88.69
475.939	94.69
476.158	86.69
476.377	96.69
476.596	97.69
476.814	89.69
477.033	85.69
477.252	91.69
477.471	81.69
477.69	106.69
477.908	95.69
478.127	112.69
478.346	91.69
478.564	97.69
478.783	98.69
479.002	101.69
479.22	109.69
479.439	110.69
479.658	91.69
479.876	93.69
480.095	85.69
480.313	88.69
480.532	96.69
480.751	100.69
480.969	89.69
481.188	89.69
481.406	86.69
481.624	89.69
481.843	78.69
482.061	81.69
482.28	95.69
482.498	82.69
482.717	94.69
482.935	94.69
483.153	97.69
483.372	97.69
483.59	110.69
483.808	97.69
484.027	96.69
484.245	90.69
484.463	80.69
484.681	99.69
484.9	96.69
485.118	93.69
485.336	95.69
485.554	86.69
485.772	77.69
485.99	86.69
486.209	102.69
486.427	92.69
486.645	112.69
486.863	104.69
487.081	105.69
487.299	90.69
487.517	107.69
487.735	110.69
487.953	105.69
488.171	113.69
488.389	102.69
488.607	91.69
488.825	105.69
489.043	105.69
489.261	101.69
489.479	102.69
489.696	118.69
489.914	108.69
490.132	108.69
490.35	128.69
490.568	105.69
490.786	124.69
491.003	125.69
491.221	137.69
491.439	135.69
491.657	124.69
491.874	148.69
492.092	143.69
492.31	141.69
492.527	137.69
492.745	117.69
492.963	148.69
493.18	137.69
493.398	120.69
493.615	129.69
493.833	126.69
494.05	130.69
494.268	127.69
494.485	128.69
494.703	134.69
494.92	135.69
495.138	138.69
495.355	129.69
495.573	132.69
495.79	124.69
496.008	128.69
496.225	122.69
496.442	112.69
496.66	126.69
496.877	118.69
497.094	108.69
497.312	125.69
497.529	105.69
497.746	96.69
497.963	98.69
498.181	99.69
498.398	102.69
498.615	98.69
498.832	90.69
499.049	84.69
499.267	94.69
499.484	91.69
499.701	108.69
499.918	98.69
500.135	117.69
500.352	117.69
500.569	116.69
500.786	88.69
501.003	100.69
501.22	114.69
501.437	93.69
501.654	110.69
501.871	104.69
502.088	99.69
502.305	100.69
502.522	96.69
502.739	107.69
502.956	111.69
503.172	96.69
503.389	107.69
503.606	95.69
503.823	104.69
504.04	98.69
504.256	93.69
504.473	90.69
504.69	92.69
504.907	107.69
505.123	90.69
505.34	119.69
505.557	96.69
505.773	103.69
505.99	89.69
506.207	102.69
506.423	100.69
506.64	97.69
506.856	91.69
507.073	88.69
507.289	106.69
507.506	110.69
507.722	112.69
507.939	87.69
508.155	96.69
508.372	79.69
508.588	88.69
508.805	95.69
509.021	90.69
509.238	93.69
509.454	84.69
509.67	75.69
509.887	85.69
510.103	100.69
510.319	80.69
510.536	106.69
510.752	94.69
510.968	80.69
511.184	76.69
511.401	78.69
511.617	74.69
511.833	85.69
512.049	78.69
512.265	78.69
512.481	89.69
512.698	84.69
512.914	105.69
513.13	92.69
513.346	86.69
513.562	90.69
513.778	93.69
513.994	105.69
514.21	74.69
514.426	79.69
514.642	81.69
514.858	89.69
515.074	94.69
515.29	103.69
515.506	80.69
515.721	81.69
515.937	89.69
516.153	87.69
516.369	74.69
