Data from Foil_1_HRD10591_00007.txt Node
Date: Wed Nov 05 16:15:24 EST 2025
User: Yrep
Spectrometer: HR+D1059
Trigger mode: 1
Integration Time (sec): 1.000000E-1
Scans to average: 1
Electric dark correction enabled: true
Nonlinearity correction enabled: false
Boxcar width: 0
XAxis mode: Wavelengths
Number of Pixels in Spectrum: 2048
>>>>>Begin Spectral Data<<<<<
223.165	-23.06
223.4	-23.06
223.635	-23.06
223.869	-18.06
224.104	-34.06
224.338	-15.06
224.573	-13.06
224.808	-15.06
225.042	-9.06
225.277	-16.06
225.511	0.94
225.746	6.94
225.98	22.94
226.215	15.94
226.449	23.94
226.683	17.94
226.918	34.94
227.152	19.94
227.387	39.94
227.621	28.94
227.856	48.94
228.09	37.94
228.324	47.94
228.559	60.94
228.793	52.94
229.027	54.94
229.262	71.94
229.496	60.94
229.73	61.94
229.964	75.94
230.199	75.94
230.433	76.94
230.667	89.94
230.901	76.94
231.136	88.94
231.37	68.94
231.604	77.94
231.838	73.94
232.072	74.94
232.306	82.94
232.541	69.94
232.775	81.94
233.009	63.94
233.243	83.94
233.477	82.94
233.711	80.94
233.945	85.94
234.179	76.94
234.413	80.94
234.647	87.94
234.881	73.94
235.115	74.94
235.349	81.94
235.583	83.94
235.817	88.94
236.051	76.94
236.285	82.94
236.519	77.94
236.753	66.94
236.987	72.94
237.221	72.94
237.455	75.94
237.689	82.94
237.922	81.94
238.156	73.94
238.39	77.94
238.624	70.94
238.858	65.94
239.091	90.94
239.325	78.94
239.559	68.94
239.793	98.94
240.027	66.94
240.26	74.94
240.494	78.94
240.728	68.94
240.961	78.94
241.195	69.94
241.429	71.94
241.662	78.94
241.896	65.94
242.13	76.94
242.363	68.94
242.597	78.94
242.83	77.94
243.064	85.94
243.298	74.94
243.531	82.94
243.765	71.94
243.998	79.94
244.232	73.94
244.465	71.94
244.699	92.94
244.932	53.94
245.166	78.94
245.399	67.94
245.633	69.94
245.866	90.94
246.099	78.94
246.333	80.94
246.566	75.94
246.8	83.94
247.033	78.94
247.266	68.94
247.5	70.94
247.733	82.94
247.966	81.94
248.2	86.94
248.433	70.94
248.666	87.94
248.899	76.94
249.133	78.94
249.366	82.94
249.599	95.94
249.832	73.94
250.066	79.94
250.299	86.94
250.532	76.94
250.765	78.94
250.998	83.94
251.231	78.94
251.465	70.94
251.698	81.94
251.931	82.94
252.164	66.94
252.397	87.94
252.63	70.94
252.863	88.94
253.096	83.94
253.329	82.94
253.562	70.94
253.795	87.94
254.028	72.94
254.261	79.94
254.494	63.94
254.727	81.94
254.96	86.94
255.193	80.94
255.426	60.94
255.659	76.94
255.892	83.94
256.124	87.94
256.357	71.94
256.59	78.94
256.823	85.94
257.056	74.94
257.289	94.94
257.521	76.94
257.754	87.94
257.987	86.94
258.22	90.94
258.452	76.94
258.685	68.94
258.918	88.94
259.151	59.94
259.383	80.94
259.616	86.94
259.849	83.94
260.081	80.94
260.314	74.94
260.547	87.94
260.779	88.94
261.012	85.94
261.244	72.94
261.477	83.94
261.71	81.94
261.942	77.94
262.175	76.94
262.407	79.94
262.64	71.94
262.872	77.94
263.105	72.94
263.337	76.94
263.57	95.94
263.802	93.94
264.035	77.94
264.267	92.94
264.499	74.94
264.732	88.94
264.964	74.94
265.197	87.94
265.429	92.94
265.661	84.94
265.894	79.94
266.126	72.94
266.358	86.94
266.591	74.94
266.823	86.94
267.055	78.94
267.287	71.94
267.52	84.94
267.752	89.94
267.984	84.94
268.216	88.94
268.448	79.94
268.681	64.94
268.913	90.94
269.145	89.94
269.377	99.94
269.609	83.94
269.841	65.94
270.073	70.94
270.306	84.94
270.538	83.94
270.77	82.94
271.002	84.94
271.234	76.94
271.466	84.94
271.698	88.94
271.93	73.94
272.162	70.94
272.394	95.94
272.626	88.94
272.858	81.94
273.09	79.94
273.322	87.94
273.553	82.94
273.785	74.94
274.017	88.94
274.249	80.94
274.481	79.94
274.713	85.94
274.945	59.94
275.176	79.94
275.408	85.94
275.64	82.94
275.872	92.94
276.104	84.94
276.335	78.94
276.567	85.94
276.799	89.94
277.031	97.94
277.262	67.94
277.494	64.94
277.726	103.94
277.957	74.94
278.189	91.94
278.421	85.94
278.652	99.94
278.884	72.94
279.115	80.94
279.347	86.94
279.579	82.94
279.81	80.94
280.042	85.94
280.273	90.94
280.505	90.94
280.736	86.94
280.968	77.94
281.199	82.94
281.431	78.94
281.662	91.94
281.894	84.94
282.125	88.94
282.356	94.94
282.588	79.94
282.819	97.94
283.051	93.94
283.282	85.94
283.513	100.94
283.745	80.94
283.976	75.94
284.207	79.94
284.439	79.94
284.67	95.94
284.901	80.94
285.132	90.94
285.364	70.94
285.595	82.94
285.826	76.94
286.057	82.94
286.288	87.94
286.52	82.94
286.751	74.94
286.982	84.94
287.213	88.94
287.444	93.94
287.675	72.94
287.906	79.94
288.138	77.94
288.369	92.94
288.6	83.94
288.831	70.94
289.062	78.94
289.293	99.94
289.524	83.94
289.755	82.94
289.986	75.94
290.217	88.94
290.448	90.94
290.679	88.94
290.91	66.94
291.141	88.94
291.371	84.94
291.602	61.94
291.833	89.94
292.064	79.94
292.295	76.94
292.526	90.94
292.757	78.94
292.987	79.94
293.218	87.94
293.449	78.94
293.68	79.94
293.91	89.94
294.141	90.94
294.372	77.94
294.603	86.94
294.833	91.94
295.064	81.94
295.295	78.94
295.525	76.94
295.756	88.94
295.987	72.94
296.217	72.94
296.448	86.94
296.679	87.94
296.909	85.94
297.14	89.94
297.37	80.94
297.601	89.94
297.831	88.94
298.062	94.94
298.292	69.94
298.523	88.94
298.753	89.94
298.984	91.94
299.214	83.94
299.445	83.94
299.675	89.94
299.905	91.94
300.136	86.94
300.366	64.94
300.597	87.94
300.827	91.94
301.057	80.94
301.288	83.94
301.518	79.94
301.748	81.94
301.979	94.94
302.209	84.94
302.439	71.94
302.669	89.94
302.9	97.94
303.13	90.94
303.36	69.94
303.59	74.94
303.82	85.94
304.051	80.94
304.281	74.94
304.511	81.94
304.741	80.94
304.971	94.94
305.201	95.94
305.431	85.94
305.661	85.94
305.891	89.94
306.121	88.94
306.352	83.94
306.582	80.94
306.812	88.94
307.042	76.94
307.272	68.94
307.502	83.94
307.731	95.94
307.961	102.94
308.191	116.94
308.421	99.94
308.651	87.94
308.881	107.94
309.111	110.94
309.341	145.94
309.571	128.94
309.8	92.94
310.03	95.94
310.26	91.94
310.49	102.94
310.72	93.94
310.949	105.94
311.179	71.94
311.409	90.94
311.639	85.94
311.868	94.94
312.098	80.94
312.328	82.94
312.557	86.94
312.787	97.94
313.017	82.94
313.246	70.94
313.476	87.94
313.706	92.94
313.935	95.94
314.165	103.94
314.394	88.94
314.624	78.94
314.853	92.94
315.083	86.94
315.312	74.94
315.542	81.94
315.771	90.94
316.001	76.94
316.23	88.94
316.46	96.94
316.689	81.94
316.919	84.94
317.148	72.94
317.377	78.94
317.607	90.94
317.836	82.94
318.065	96.94
318.295	90.94
318.524	80.94
318.753	88.94
318.983	86.94
319.212	76.94
319.441	96.94
319.67	91.94
319.9	88.94
320.129	78.94
320.358	88.94
320.587	82.94
320.816	85.94
321.046	85.94
321.275	87.94
321.504	81.94
321.733	93.94
321.962	88.94
322.191	75.94
322.42	83.94
322.649	91.94
322.878	94.94
323.108	75.94
323.337	81.94
323.566	81.94
323.795	87.94
324.024	76.94
324.253	76.94
324.482	84.94
324.71	89.94
324.939	90.94
325.168	86.94
325.397	79.94
325.626	90.94
325.855	100.94
326.084	88.94
326.313	81.94
326.542	86.94
326.77	79.94
326.999	88.94
327.228	90.94
327.457	81.94
327.686	86.94
327.914	88.94
328.143	90.94
328.372	92.94
328.6	82.94
328.829	82.94
329.058	82.94
329.287	68.94
329.515	98.94
329.744	81.94
329.972	97.94
330.201	86.94
330.43	79.94
330.658	80.94
330.887	85.94
331.115	88.94
331.344	93.94
331.572	99.94
331.801	74.94
332.03	82.94
332.258	87.94
332.486	94.94
332.715	88.94
332.943	89.94
333.172	87.94
333.4	92.94
333.629	84.94
333.857	83.94
334.085	89.94
334.314	90.94
334.542	61.94
334.771	85.94
334.999	89.94
335.227	91.94
335.455	86.94
335.684	92.94
335.912	64.94
336.14	69.94
336.369	87.94
336.597	79.94
336.825	88.94
337.053	80.94
337.281	74.94
337.51	77.94
337.738	83.94
337.966	72.94
338.194	80.94
338.422	80.94
338.65	76.94
338.878	89.94
339.106	92.94
339.334	100.94
339.562	83.94
339.79	72.94
340.018	67.94
340.246	95.94
340.474	88.94
340.702	97.94
340.93	90.94
341.158	77.94
341.386	81.94
341.614	94.94
341.842	91.94
342.07	81.94
342.298	91.94
342.526	79.94
342.754	88.94
342.981	71.94
343.209	93.94
343.437	98.94
343.665	86.94
343.893	81.94
344.12	91.94
344.348	86.94
344.576	79.94
344.804	68.94
345.031	81.94
345.259	77.94
345.487	82.94
345.714	77.94
345.942	82.94
346.17	83.94
346.397	79.94
346.625	89.94
346.853	72.94
347.08	75.94
347.308	80.94
347.535	85.94
347.763	74.94
347.99	88.94
348.218	85.94
348.445	78.94
348.673	85.94
348.9	79.94
349.128	83.94
349.355	92.94
349.583	90.94
349.81	85.94
350.037	89.94
350.265	81.94
350.492	80.94
350.72	83.94
350.947	72.94
351.174	80.94
351.402	81.94
351.629	80.94
351.856	83.94
352.083	71.94
352.311	72.94
352.538	82.94
352.765	75.94
352.992	86.94
353.22	72.94
353.447	84.94
353.674	96.94
353.901	85.94
354.128	83.94
354.355	102.94
354.583	92.94
354.81	91.94
355.037	76.94
355.264	90.94
355.491	83.94
355.718	93.94
355.945	88.94
356.172	79.94
356.399	68.94
356.626	81.94
356.853	75.94
357.08	87.94
357.307	84.94
357.534	87.94
357.761	78.94
357.988	92.94
358.215	94.94
358.441	88.94
358.668	83.94
358.895	87.94
359.122	77.94
359.349	67.94
359.576	75.94
359.802	77.94
360.029	87.94
360.256	86.94
360.483	82.94
360.709	80.94
360.936	86.94
361.163	86.94
361.39	81.94
361.616	97.94
361.843	93.94
362.07	81.94
362.296	96.94
362.523	89.94
362.749	89.94
362.976	88.94
363.203	88.94
363.429	85.94
363.656	81.94
363.882	88.94
364.109	86.94
364.335	82.94
364.562	94.94
364.788	83.94
365.015	81.94
365.241	86.94
365.468	82.94
365.694	76.94
365.92	86.94
366.147	89.94
366.373	91.94
366.599	88.94
366.826	86.94
367.052	78.94
367.278	80.94
367.505	67.94
367.731	102.94
367.957	87.94
368.184	82.94
368.41	83.94
368.636	80.94
368.862	99.94
369.089	93.94
369.315	86.94
369.541	73.94
369.767	78.94
369.993	70.94
370.219	73.94
370.445	82.94
370.672	84.94
370.898	76.94
371.124	80.94
371.35	76.94
371.576	85.94
371.802	81.94
372.028	89.94
372.254	88.94
372.48	79.94
372.706	74.94
372.932	97.94
373.158	89.94
373.384	80.94
373.61	95.94
373.835	83.94
374.061	79.94
374.287	94.94
374.513	97.94
374.739	87.94
374.965	100.94
375.191	88.94
375.416	92.94
375.642	92.94
375.868	94.94
376.094	93.94
376.319	80.94
376.545	86.94
376.771	81.94
376.997	82.94
377.222	83.94
377.448	97.94
377.674	88.94
377.899	87.94
378.125	74.94
378.35	88.94
378.576	87.94
378.802	80.94
379.027	91.94
379.253	72.94
379.478	82.94
379.704	88.94
379.929	100.94
380.155	93.94
380.38	81.94
380.606	83.94
380.831	95.94
381.057	91.94
381.282	89.94
381.507	88.94
381.733	92.94
381.958	91.94
382.184	97.94
382.409	92.94
382.634	96.94
382.86	80.94
383.085	90.94
383.31	84.94
383.535	89.94
383.761	80.94
383.986	83.94
384.211	89.94
384.436	89.94
384.662	80.94
384.887	94.94
385.112	88.94
385.337	80.94
385.562	83.94
385.787	78.94
386.013	88.94
386.238	81.94
386.463	89.94
386.688	88.94
386.913	81.94
387.138	76.94
387.363	100.94
387.588	86.94
387.813	95.94
388.038	86.94
388.263	91.94
388.488	104.94
388.713	95.94
388.938	89.94
389.163	105.94
389.387	75.94
389.612	88.94
389.837	84.94
390.062	77.94
390.287	82.94
390.512	99.94
390.736	83.94
390.961	95.94
391.186	94.94
391.411	92.94
391.636	102.94
391.86	89.94
392.085	108.94
392.31	94.94
392.534	98.94
392.759	95.94
392.984	97.94
393.208	94.94
393.433	97.94
393.658	93.94
393.882	93.94
394.107	121.94
394.331	180.94
394.556	197.94
394.78	136.94
395.005	97.94
395.229	107.94
395.454	107.94
395.678	114.94
395.903	150.94
396.127	218.94
396.352	233.94
396.576	121.94
396.801	110.94
397.025	96.94
397.249	89.94
397.474	92.94
397.698	89.94
397.922	87.94
398.147	102.94
398.371	95.94
398.595	90.94
398.82	104.94
399.044	100.94
399.268	91.94
399.492	92.94
399.717	95.94
399.941	88.94
400.165	82.94
400.389	106.94
400.613	87.94
400.837	101.94
401.062	82.94
401.286	110.94
401.51	98.94
401.734	102.94
401.958	88.94
402.182	98.94
402.406	93.94
402.63	105.94
402.854	90.94
403.078	93.94
403.302	99.94
403.526	90.94
403.75	106.94
403.974	100.94
404.198	86.94
404.422	96.94
404.645	102.94
404.869	94.94
405.093	98.94
405.317	96.94
405.541	101.94
405.765	105.94
405.988	106.94
406.212	87.94
406.436	93.94
406.66	105.94
406.883	95.94
407.107	107.94
407.331	102.94
407.555	106.94
407.778	96.94
408.002	99.94
408.226	87.94
408.449	88.94
408.673	95.94
408.896	98.94
409.12	82.94
409.344	99.94
409.567	92.94
409.791	97.94
410.014	101.94
410.238	91.94
410.461	90.94
410.685	93.94
410.908	109.94
411.132	111.94
411.355	80.94
411.578	101.94
411.802	100.94
412.025	96.94
412.249	100.94
412.472	83.94
412.695	105.94
412.919	95.94
413.142	92.94
413.365	114.94
413.589	88.94
413.812	102.94
414.035	100.94
414.258	83.94
414.482	111.94
414.705	95.94
414.928	107.94
415.151	97.94
415.374	101.94
415.597	102.94
415.821	101.94
416.044	103.94
416.267	101.94
416.49	88.94
416.713	90.94
416.936	86.94
417.159	93.94
417.382	96.94
417.605	100.94
417.828	108.94
418.051	94.94
418.274	99.94
418.497	99.94
418.72	100.94
418.943	101.94
419.166	96.94
419.389	94.94
419.611	105.94
419.834	95.94
420.057	95.94
420.28	106.94
420.503	100.94
420.726	102.94
420.948	108.94
421.171	95.94
421.394	110.94
421.617	96.94
421.839	89.94
422.062	111.94
422.285	100.94
422.507	94.94
422.73	86.94
422.953	102.94
423.175	95.94
423.398	91.94
423.621	108.94
423.843	96.94
424.066	89.94
424.288	112.94
424.511	102.94
424.733	88.94
424.956	111.94
425.178	98.94
425.401	98.94
425.623	105.94
425.846	97.94
426.068	101.94
426.291	99.94
426.513	116.94
426.735	101.94
426.958	109.94
427.18	101.94
427.402	103.94
427.625	94.94
427.847	94.94
428.069	102.94
428.292	102.94
428.514	83.94
428.736	100.94
428.958	91.94
429.181	96.94
429.403	98.94
429.625	97.94
429.847	103.94
430.069	107.94
430.292	114.94
430.514	98.94
430.736	103.94
430.958	96.94
431.18	96.94
431.402	103.94
431.624	92.94
431.846	94.94
432.068	101.94
432.29	96.94
432.512	81.94
432.734	98.94
432.956	94.94
433.178	100.94
433.4	103.94
433.622	105.94
433.844	102.94
434.066	102.94
434.287	87.94
434.509	88.94
434.731	98.94
434.953	101.94
435.175	93.94
435.397	100.94
435.618	88.94
435.84	94.94
436.062	101.94
436.284	99.94
436.505	104.94
436.727	103.94
436.949	86.94
437.17	101.94
437.392	102.94
437.614	100.94
437.835	87.94
438.057	100.94
438.278	86.94
438.5	98.94
438.721	103.94
438.943	98.94
439.165	101.94
439.386	100.94
439.608	97.94
439.829	96.94
440.05	95.94
440.272	102.94
440.493	104.94
440.715	114.94
440.936	112.94
441.158	93.94
441.379	114.94
441.6	113.94
441.822	105.94
442.043	103.94
442.264	99.94
442.486	109.94
442.707	101.94
442.928	104.94
443.149	108.94
443.371	102.94
443.592	99.94
443.813	98.94
444.034	119.94
444.255	102.94
444.476	112.94
444.698	107.94
444.919	107.94
445.14	184.94
445.361	142.94
445.582	106.94
445.803	94.94
446.024	103.94
446.245	113.94
446.466	119.94
446.687	103.94
446.908	104.94
447.129	105.94
447.35	98.94
447.571	101.94
447.792	100.94
448.013	105.94
448.234	89.94
448.455	91.94
448.675	109.94
448.896	105.94
449.117	96.94
449.338	110.94
449.559	115.94
449.779	104.94
450	118.94
450.221	111.94
450.442	110.94
450.662	120.94
450.883	100.94
451.104	100.94
451.324	110.94
451.545	95.94
451.766	90.94
451.986	103.94
452.207	96.94
452.428	105.94
452.648	110.94
452.869	98.94
453.089	92.94
453.31	99.94
453.53	81.94
453.751	85.94
453.971	83.94
454.192	96.94
454.412	82.94
454.633	98.94
454.853	73.94
455.073	94.94
455.294	88.94
455.514	98.94
455.734	77.94
455.955	95.94
456.175	94.94
456.395	77.94
456.616	88.94
456.836	80.94
457.056	83.94
457.276	101.94
457.497	95.94
457.717	80.94
457.937	96.94
458.157	95.94
458.377	85.94
458.598	93.94
458.818	73.94
459.038	89.94
459.258	90.94
459.478	77.94
459.698	79.94
459.918	90.94
460.138	81.94
460.358	87.94
460.578	92.94
460.798	94.94
461.018	95.94
461.238	93.94
461.458	80.94
461.678	94.94
461.898	94.94
462.118	81.94
462.338	86.94
462.558	97.94
462.777	95.94
462.997	97.94
463.217	104.94
463.437	79.94
463.657	91.94
463.876	92.94
464.096	105.94
464.316	90.94
464.536	95.94
464.755	98.94
464.975	105.94
465.195	91.94
465.414	88.94
465.634	96.94
465.854	78.94
466.073	103.94
466.293	92.94
466.512	116.94
466.732	104.94
466.951	105.94
467.171	106.94
467.391	121.94
467.61	111.94
467.829	120.94
468.049	106.94
468.268	105.94
468.488	111.94
468.707	116.94
468.927	133.94
469.146	111.94
469.365	95.94
469.585	117.94
469.804	126.94
470.023	110.94
470.243	105.94
470.462	118.94
470.681	108.94
470.901	110.94
471.12	118.94
471.339	110.94
471.558	120.94
471.777	108.94
471.997	108.94
472.216	96.94
472.435	83.94
472.654	101.94
472.873	92.94
473.092	105.94
473.311	94.94
473.53	98.94
473.749	111.94
473.968	98.94
474.187	100.94
474.406	101.94
474.625	107.94
474.844	101.94
475.063	91.94
475.282	102.94
475.501	108.94
475.72	100.94
475.939	88.94
476.158	92.94
476.377	94.94
476.596	94.94
476.814	87.94
477.033	86.94
477.252	76.94
477.471	76.94
477.69	93.94
477.908	93.94
478.127	103.94
478.346	108.94
478.564	103.94
478.783	93.94
479.002	100.94
479.22	83.94
479.439	88.94
479.658	84.94
479.876	94.94
480.095	87.94
480.313	107.94
480.532	92.94
480.751	81.94
480.969	92.94
481.188	82.94
481.406	80.94
481.624	85.94
481.843	74.94
482.061	99.94
482.28	88.94
482.498	104.94
482.717	110.94
482.935	121.94
483.153	105.94
483.372	99.94
483.59	106.94
483.808	92.94
484.027	90.94
484.245	76.94
484.463	77.94
484.681	90.94
484.9	88.94
485.118	105.94
485.336	102.94
485.554	96.94
485.772	90.94
485.99	80.94
486.209	90.94
486.427	80.94
486.645	103.94
486.863	100.94
487.081	92.94
487.299	113.94
487.517	94.94
487.735	97.94
487.953	113.94
488.171	117.94
488.389	121.94
488.607	104.94
488.825	86.94
489.043	96.94
489.261	100.94
489.479	106.94
489.696	100.94
489.914	110.94
490.132	117.94
490.35	106.94
490.568	110.94
490.786	116.94
491.003	124.94
491.221	128.94
491.439	117.94
491.657	133.94
491.874	146.94
492.092	142.94
492.31	141.94
492.527	146.94
492.745	126.94
492.963	132.94
493.18	120.94
493.398	127.94
493.615	117.94
493.833	124.94
494.05	118.94
494.268	134.94
494.485	116.94
494.703	133.94
494.92	132.94
495.138	136.94
495.355	123.94
495.573	131.94
495.79	127.94
496.008	105.94
496.225	108.94
496.442	96.94
496.66	106.94
496.877	126.94
497.094	128.94
497.312	111.94
497.529	107.94
497.746	100.94
497.963	96.94
498.181	87.94
498.398	106.94
498.615	97.94
498.832	93.94
499.049	90.94
499.267	92.94
499.484	97.94
499.701	108.94
499.918	107.94
500.135	100.94
500.352	100.94
500.569	105.94
500.786	94.94
501.003	109.94
501.22	105.94
501.437	92.94
501.654	121.94
501.871	114.94
502.088	106.94
502.305	112.94
502.522	107.94
502.739	93.94
502.956	96.94
503.172	100.94
503.389	92.94
503.606	104.94
503.823	90.94
504.04	94.94
504.256	97.94
504.473	77.94
504.69	92.94
504.907	105.94
505.123	101.94
505.34	97.94
505.557	88.94
505.773	89.94
505.99	102.94
506.207	92.94
506.423	102.94
506.64	107.94
506.856	94.94
507.073	81.94
507.289	106.94
507.506	111.94
507.722	95.94
507.939	92.94
508.155	106.94
508.372	87.94
508.588	100.94
508.805	92.94
509.021	102.94
509.238	101.94
509.454	80.94
509.67	94.94
509.887	94.94
510.103	74.94
510.319	88.94
510.536	86.94
510.752	82.94
510.968	81.94
511.184	85.94
511.401	82.94
511.617	92.94
511.833	82.94
512.049	88.94
512.265	95.94
512.481	87.94
512.698	100.94
512.914	94.94
513.13	88.94
513.346	79.94
513.562	94.94
513.778	83.94
513.994	77.94
514.21	90.94
514.426	87.94
514.642	84.94
514.858	91.94
515.074	91.94
515.29	95.94
515.506	79.94
515.721	81.94
515.937	80.94
516.153	73.94
