Data from Foil_1_HRD10591_00001.txt Node
Date: Wed Nov 05 16:15:21 EST 2025
User: Yrep
Spectrometer: HR+D1059
Trigger mode: 1
Integration Time (sec): 1.000000E-1
Scans to average: 1
Electric dark correction enabled: true
Nonlinearity correction enabled: false
Boxcar width: 0
XAxis mode: Wavelengths
Number of Pixels in Spectrum: 2048
>>>>>Begin Spectral Data<<<<<
223.165	-14.56
223.4	-14.56
223.635	-14.56
223.869	-19.56
224.104	-24.56
224.338	-6.56
224.573	-12.56
224.808	-4.56
225.042	-18.56
225.277	-6.56
225.511	4.44
225.746	9.44
225.98	9.44
226.215	19.44
226.449	10.44
226.683	2.44
226.918	24.44
227.152	27.44
227.387	35.44
227.621	40.44
227.856	33.44
228.09	38.44
228.324	58.44
228.559	55.44
228.793	55.44
229.027	55.44
229.262	51.44
229.496	69.44
229.73	74.44
229.964	60.44
230.199	66.44
230.433	75.44
230.667	71.44
230.901	72.44
231.136	86.44
231.37	66.44
231.604	79.44
231.838	84.44
232.072	77.44
232.306	70.44
232.541	86.44
232.775	79.44
233.009	87.44
233.243	84.44
233.477	66.44
233.711	94.44
233.945	83.44
234.179	81.44
234.413	83.44
234.647	73.44
234.881	82.44
235.115	81.44
235.349	66.44
235.583	85.44
235.817	75.44
236.051	70.44
236.285	83.44
236.519	89.44
236.753	81.44
236.987	74.44
237.221	66.44
237.455	85.44
237.689	77.44
237.922	66.44
238.156	76.44
238.39	72.44
238.624	74.44
238.858	84.44
239.091	78.44
239.325	74.44
239.559	82.44
239.793	62.44
240.027	96.44
240.26	77.44
240.494	82.44
240.728	81.44
240.961	74.44
241.195	77.44
241.429	74.44
241.662	73.44
241.896	67.44
242.13	59.44
242.363	75.44
242.597	71.44
242.83	93.44
243.064	87.44
243.298	88.44
243.531	89.44
243.765	78.44
243.998	70.44
244.232	82.44
244.465	73.44
244.699	64.44
244.932	77.44
245.166	79.44
245.399	78.44
245.633	77.44
245.866	76.44
246.099	61.44
246.333	64.44
246.566	64.44
246.8	81.44
247.033	77.44
247.266	73.44
247.5	67.44
247.733	86.44
247.966	75.44
248.2	79.44
248.433	73.44
248.666	79.44
248.899	77.44
249.133	78.44
249.366	88.44
249.599	81.44
249.832	69.44
250.066	69.44
250.299	80.44
250.532	67.44
250.765	75.44
250.998	63.44
251.231	78.44
251.465	77.44
251.698	77.44
251.931	72.44
252.164	83.44
252.397	82.44
252.63	77.44
252.863	81.44
253.096	64.44
253.329	72.44
253.562	62.44
253.795	86.44
254.028	71.44
254.261	73.44
254.494	78.44
254.727	73.44
254.96	71.44
255.193	78.44
255.426	80.44
255.659	82.44
255.892	75.44
256.124	83.44
256.357	76.44
256.59	66.44
256.823	89.44
257.056	70.44
257.289	84.44
257.521	79.44
257.754	81.44
257.987	74.44
258.22	86.44
258.452	65.44
258.685	78.44
258.918	81.44
259.151	87.44
259.383	84.44
259.616	90.44
259.849	87.44
260.081	66.44
260.314	82.44
260.547	70.44
260.779	80.44
261.012	78.44
261.244	66.44
261.477	71.44
261.71	82.44
261.942	78.44
262.175	82.44
262.407	91.44
262.64	67.44
262.872	77.44
263.105	75.44
263.337	72.44
263.57	70.44
263.802	73.44
264.035	84.44
264.267	73.44
264.499	83.44
264.732	80.44
264.964	96.44
265.197	71.44
265.429	80.44
265.661	89.44
265.894	93.44
266.126	81.44
266.358	98.44
266.591	75.44
266.823	77.44
267.055	94.44
267.287	71.44
267.52	74.44
267.752	92.44
267.984	95.44
268.216	89.44
268.448	88.44
268.681	102.44
268.913	80.44
269.145	86.44
269.377	90.44
269.609	86.44
269.841	89.44
270.073	79.44
270.306	64.44
270.538	89.44
270.77	90.44
271.002	87.44
271.234	82.44
271.466	85.44
271.698	82.44
271.93	101.44
272.162	84.44
272.394	78.44
272.626	70.44
272.858	83.44
273.09	85.44
273.322	89.44
273.553	71.44
273.785	79.44
274.017	77.44
274.249	67.44
274.481	70.44
274.713	79.44
274.945	87.44
275.176	85.44
275.408	86.44
275.64	75.44
275.872	84.44
276.104	69.44
276.335	84.44
276.567	73.44
276.799	75.44
277.031	72.44
277.262	89.44
277.494	87.44
277.726	88.44
277.957	68.44
278.189	95.44
278.421	79.44
278.652	79.44
278.884	89.44
279.115	79.44
279.347	78.44
279.579	83.44
279.81	80.44
280.042	81.44
280.273	78.44
280.505	79.44
280.736	81.44
280.968	75.44
281.199	86.44
281.431	80.44
281.662	77.44
281.894	71.44
282.125	83.44
282.356	91.44
282.588	80.44
282.819	87.44
283.051	81.44
283.282	79.44
283.513	90.44
283.745	75.44
283.976	74.44
284.207	86.44
284.439	88.44
284.67	78.44
284.901	87.44
285.132	82.44
285.364	96.44
285.595	98.44
285.826	101.44
286.057	73.44
286.288	73.44
286.52	86.44
286.751	72.44
286.982	76.44
287.213	82.44
287.444	68.44
287.675	87.44
287.906	88.44
288.138	84.44
288.369	84.44
288.6	89.44
288.831	76.44
289.062	84.44
289.293	94.44
289.524	82.44
289.755	91.44
289.986	79.44
290.217	90.44
290.448	75.44
290.679	75.44
290.91	67.44
291.141	71.44
291.371	78.44
291.602	94.44
291.833	95.44
292.064	92.44
292.295	88.44
292.526	91.44
292.757	92.44
292.987	89.44
293.218	80.44
293.449	87.44
293.68	74.44
293.91	77.44
294.141	96.44
294.372	75.44
294.603	81.44
294.833	87.44
295.064	80.44
295.295	88.44
295.525	94.44
295.756	88.44
295.987	70.44
296.217	77.44
296.448	92.44
296.679	90.44
296.909	77.44
297.14	73.44
297.37	91.44
297.601	91.44
297.831	81.44
298.062	74.44
298.292	81.44
298.523	78.44
298.753	72.44
298.984	76.44
299.214	85.44
299.445	97.44
299.675	87.44
299.905	86.44
300.136	94.44
300.366	103.44
300.597	87.44
300.827	86.44
301.057	101.44
301.288	84.44
301.518	76.44
301.748	83.44
301.979	111.44
302.209	82.44
302.439	88.44
302.669	73.44
302.9	78.44
303.13	77.44
303.36	89.44
303.59	77.44
303.82	86.44
304.051	87.44
304.281	92.44
304.511	89.44
304.741	76.44
304.971	81.44
305.201	102.44
305.431	63.44
305.661	84.44
305.891	93.44
306.121	96.44
306.352	92.44
306.582	98.44
306.812	73.44
307.042	87.44
307.272	94.44
307.502	91.44
307.731	96.44
307.961	101.44
308.191	112.44
308.421	108.44
308.651	98.44
308.881	107.44
309.111	115.44
309.341	140.44
309.571	117.44
309.8	98.44
310.03	76.44
310.26	91.44
310.49	93.44
310.72	90.44
310.949	69.44
311.179	77.44
311.409	89.44
311.639	94.44
311.868	87.44
312.098	78.44
312.328	89.44
312.557	85.44
312.787	92.44
313.017	93.44
313.246	85.44
313.476	72.44
313.706	86.44
313.935	89.44
314.165	92.44
314.394	79.44
314.624	75.44
314.853	82.44
315.083	86.44
315.312	80.44
315.542	84.44
315.771	98.44
316.001	78.44
316.23	86.44
316.46	93.44
316.689	82.44
316.919	82.44
317.148	75.44
317.377	87.44
317.607	92.44
317.836	97.44
318.065	91.44
318.295	91.44
318.524	74.44
318.753	84.44
318.983	70.44
319.212	86.44
319.441	81.44
319.67	80.44
319.9	90.44
320.129	86.44
320.358	97.44
320.587	72.44
320.816	81.44
321.046	92.44
321.275	93.44
321.504	86.44
321.733	84.44
321.962	91.44
322.191	92.44
322.42	75.44
322.649	71.44
322.878	93.44
323.108	104.44
323.337	89.44
323.566	81.44
323.795	82.44
324.024	82.44
324.253	86.44
324.482	88.44
324.71	91.44
324.939	93.44
325.168	75.44
325.397	80.44
325.626	105.44
325.855	77.44
326.084	78.44
326.313	90.44
326.542	87.44
326.77	85.44
326.999	95.44
327.228	89.44
327.457	82.44
327.686	87.44
327.914	89.44
328.143	75.44
328.372	88.44
328.6	84.44
328.829	67.44
329.058	78.44
329.287	89.44
329.515	90.44
329.744	94.44
329.972	90.44
330.201	77.44
330.43	82.44
330.658	77.44
330.887	89.44
331.115	72.44
331.344	83.44
331.572	96.44
331.801	93.44
332.03	87.44
332.258	95.44
332.486	91.44
332.715	76.44
332.943	73.44
333.172	81.44
333.4	80.44
333.629	98.44
333.857	89.44
334.085	87.44
334.314	84.44
334.542	85.44
334.771	82.44
334.999	77.44
335.227	89.44
335.455	83.44
335.684	90.44
335.912	75.44
336.14	76.44
336.369	79.44
336.597	84.44
336.825	89.44
337.053	81.44
337.281	90.44
337.51	72.44
337.738	70.44
337.966	94.44
338.194	79.44
338.422	83.44
338.65	87.44
338.878	86.44
339.106	90.44
339.334	105.44
339.562	89.44
339.79	88.44
340.018	92.44
340.246	67.44
340.474	78.44
340.702	84.44
340.93	73.44
341.158	78.44
341.386	69.44
341.614	89.44
341.842	80.44
342.07	71.44
342.298	81.44
342.526	77.44
342.754	96.44
342.981	87.44
343.209	84.44
343.437	93.44
343.665	78.44
343.893	101.44
344.12	89.44
344.348	91.44
344.576	73.44
344.804	71.44
345.031	85.44
345.259	75.44
345.487	82.44
345.714	84.44
345.942	90.44
346.17	77.44
346.397	84.44
346.625	91.44
346.853	78.44
347.08	80.44
347.308	81.44
347.535	99.44
347.763	86.44
347.99	80.44
348.218	85.44
348.445	77.44
348.673	80.44
348.9	85.44
349.128	85.44
349.355	92.44
349.583	89.44
349.81	94.44
350.037	87.44
350.265	71.44
350.492	82.44
350.72	75.44
350.947	94.44
351.174	71.44
351.402	71.44
351.629	70.44
351.856	83.44
352.083	99.44
352.311	101.44
352.538	89.44
352.765	97.44
352.992	90.44
353.22	89.44
353.447	82.44
353.674	67.44
353.901	77.44
354.128	83.44
354.355	76.44
354.583	86.44
354.81	77.44
355.037	94.44
355.264	77.44
355.491	95.44
355.718	80.44
355.945	79.44
356.172	82.44
356.399	86.44
356.626	85.44
356.853	84.44
357.08	85.44
357.307	92.44
357.534	89.44
357.761	90.44
357.988	88.44
358.215	86.44
358.441	86.44
358.668	80.44
358.895	97.44
359.122	90.44
359.349	67.44
359.576	80.44
359.802	78.44
360.029	86.44
360.256	89.44
360.483	95.44
360.709	85.44
360.936	88.44
361.163	91.44
361.39	82.44
361.616	87.44
361.843	79.44
362.07	83.44
362.296	86.44
362.523	89.44
362.749	87.44
362.976	90.44
363.203	84.44
363.429	87.44
363.656	73.44
363.882	75.44
364.109	88.44
364.335	84.44
364.562	72.44
364.788	76.44
365.015	80.44
365.241	88.44
365.468	85.44
365.694	91.44
365.92	77.44
366.147	78.44
366.373	97.44
366.599	88.44
366.826	92.44
367.052	91.44
367.278	87.44
367.505	94.44
367.731	87.44
367.957	80.44
368.184	85.44
368.41	91.44
368.636	98.44
368.862	95.44
369.089	79.44
369.315	77.44
369.541	83.44
369.767	75.44
369.993	102.44
370.219	88.44
370.445	86.44
370.672	89.44
370.898	87.44
371.124	93.44
371.35	89.44
371.576	82.44
371.802	69.44
372.028	93.44
372.254	82.44
372.48	76.44
372.706	91.44
372.932	93.44
373.158	84.44
373.384	82.44
373.61	86.44
373.835	83.44
374.061	80.44
374.287	92.44
374.513	89.44
374.739	80.44
374.965	95.44
375.191	91.44
375.416	81.44
375.642	82.44
375.868	99.44
376.094	75.44
376.319	99.44
376.545	73.44
376.771	92.44
376.997	82.44
377.222	83.44
377.448	104.44
377.674	91.44
377.899	85.44
378.125	77.44
378.35	94.44
378.576	79.44
378.802	82.44
379.027	90.44
379.253	95.44
379.478	85.44
379.704	82.44
379.929	99.44
380.155	71.44
380.38	83.44
380.606	80.44
380.831	90.44
381.057	89.44
381.282	85.44
381.507	91.44
381.733	87.44
381.958	86.44
382.184	86.44
382.409	82.44
382.634	102.44
382.86	87.44
383.085	80.44
383.31	91.44
383.535	97.44
383.761	88.44
383.986	99.44
384.211	93.44
384.436	91.44
384.662	83.44
384.887	80.44
385.112	82.44
385.337	86.44
385.562	91.44
385.787	92.44
386.013	87.44
386.238	91.44
386.463	92.44
386.688	91.44
386.913	97.44
387.138	89.44
387.363	77.44
387.588	93.44
387.813	83.44
388.038	89.44
388.263	94.44
388.488	91.44
388.713	92.44
388.938	84.44
389.163	83.44
389.387	81.44
389.612	95.44
389.837	83.44
390.062	82.44
390.287	86.44
390.512	82.44
390.736	70.44
390.961	82.44
391.186	80.44
391.411	81.44
391.636	90.44
391.86	98.44
392.085	83.44
392.31	96.44
392.534	93.44
392.759	96.44
392.984	87.44
393.208	119.44
393.433	89.44
393.658	102.44
393.882	111.44
394.107	139.44
394.331	200.44
394.556	201.44
394.78	110.44
395.005	95.44
395.229	91.44
395.454	106.44
395.678	113.44
395.903	160.44
396.127	229.44
396.352	232.44
396.576	126.44
396.801	101.44
397.025	82.44
397.249	105.44
397.474	105.44
397.698	98.44
397.922	95.44
398.147	102.44
398.371	101.44
398.595	105.44
398.82	94.44
399.044	80.44
399.268	87.44
399.492	91.44
399.717	94.44
399.941	91.44
400.165	97.44
400.389	98.44
400.613	109.44
400.837	99.44
401.062	85.44
401.286	77.44
401.51	97.44
401.734	96.44
401.958	112.44
402.182	89.44
402.406	106.44
402.63	96.44
402.854	73.44
403.078	109.44
403.302	82.44
403.526	94.44
403.75	97.44
403.974	102.44
404.198	98.44
404.422	89.44
404.645	86.44
404.869	91.44
405.093	94.44
405.317	95.44
405.541	98.44
405.765	97.44
405.988	107.44
406.212	111.44
406.436	91.44
406.66	104.44
406.883	110.44
407.107	100.44
407.331	86.44
407.555	103.44
407.778	98.44
408.002	103.44
408.226	101.44
408.449	100.44
408.673	102.44
408.896	103.44
409.12	99.44
409.344	90.44
409.567	103.44
409.791	106.44
410.014	94.44
410.238	106.44
410.461	95.44
410.685	99.44
410.908	103.44
411.132	108.44
411.355	100.44
411.578	99.44
411.802	101.44
412.025	106.44
412.249	105.44
412.472	100.44
412.695	96.44
412.919	93.44
413.142	101.44
413.365	102.44
413.589	104.44
413.812	95.44
414.035	104.44
414.258	107.44
414.482	95.44
414.705	112.44
414.928	106.44
415.151	87.44
415.374	84.44
415.597	104.44
415.821	88.44
416.044	93.44
416.267	91.44
416.49	108.44
416.713	106.44
416.936	105.44
417.159	117.44
417.382	102.44
417.605	114.44
417.828	101.44
418.051	99.44
418.274	96.44
418.497	115.44
418.72	106.44
418.943	93.44
419.166	92.44
419.389	95.44
419.611	94.44
419.834	105.44
420.057	106.44
420.28	105.44
420.503	102.44
420.726	103.44
420.948	89.44
421.171	98.44
421.394	93.44
421.617	91.44
421.839	99.44
422.062	98.44
422.285	105.44
422.507	108.44
422.73	106.44
422.953	93.44
423.175	89.44
423.398	89.44
423.621	102.44
423.843	92.44
424.066	93.44
424.288	94.44
424.511	92.44
424.733	108.44
424.956	105.44
425.178	109.44
425.401	106.44
425.623	109.44
425.846	93.44
426.068	102.44
426.291	107.44
426.513	98.44
426.735	120.44
426.958	90.44
427.18	103.44
427.402	101.44
427.625	102.44
427.847	105.44
428.069	105.44
428.292	99.44
428.514	94.44
428.736	102.44
428.958	104.44
429.181	98.44
429.403	91.44
429.625	107.44
429.847	115.44
430.069	97.44
430.292	101.44
430.514	113.44
430.736	112.44
430.958	93.44
431.18	87.44
431.402	105.44
431.624	98.44
431.846	82.44
432.068	91.44
432.29	87.44
432.512	101.44
432.734	90.44
432.956	119.44
433.178	99.44
433.4	103.44
433.622	80.44
433.844	89.44
434.066	83.44
434.287	96.44
434.509	91.44
434.731	81.44
434.953	89.44
435.175	98.44
435.397	96.44
435.618	99.44
435.84	89.44
436.062	97.44
436.284	103.44
436.505	105.44
436.727	102.44
436.949	95.44
437.17	106.44
437.392	103.44
437.614	91.44
437.835	79.44
438.057	99.44
438.278	88.44
438.5	99.44
438.721	94.44
438.943	103.44
439.165	113.44
439.386	101.44
439.608	102.44
439.829	98.44
440.05	106.44
440.272	113.44
440.493	122.44
440.715	94.44
440.936	113.44
441.158	105.44
441.379	111.44
441.6	110.44
441.822	102.44
442.043	112.44
442.264	107.44
442.486	104.44
442.707	109.44
442.928	101.44
443.149	104.44
443.371	112.44
443.592	113.44
443.813	112.44
444.034	91.44
444.255	108.44
444.476	105.44
444.698	109.44
444.919	110.44
445.14	174.44
445.361	129.44
445.582	104.44
445.803	105.44
446.024	101.44
446.245	106.44
446.466	102.44
446.687	111.44
446.908	96.44
447.129	104.44
447.35	126.44
447.571	98.44
447.792	117.44
448.013	105.44
448.234	112.44
448.455	103.44
448.675	109.44
448.896	120.44
449.117	106.44
449.338	89.44
449.559	96.44
449.779	98.44
450	109.44
450.221	111.44
450.442	115.44
450.662	108.44
450.883	104.44
451.104	109.44
451.324	101.44
451.545	103.44
451.766	106.44
451.986	104.44
452.207	94.44
452.428	112.44
452.648	98.44
452.869	114.44
453.089	89.44
453.31	81.44
453.53	92.44
453.751	85.44
453.971	92.44
454.192	101.44
454.412	83.44
454.633	82.44
454.853	91.44
455.073	104.44
455.294	100.44
455.514	94.44
455.734	78.44
455.955	99.44
456.175	94.44
456.395	96.44
456.616	80.44
456.836	90.44
457.056	88.44
457.276	86.44
457.497	97.44
457.717	97.44
457.937	97.44
458.157	82.44
458.377	102.44
458.598	91.44
458.818	89.44
459.038	87.44
459.258	86.44
459.478	84.44
459.698	76.44
459.918	73.44
460.138	85.44
460.358	86.44
460.578	103.44
460.798	99.44
461.018	81.44
461.238	83.44
461.458	89.44
461.678	98.44
461.898	89.44
462.118	96.44
462.338	105.44
462.558	108.44
462.777	86.44
462.997	98.44
463.217	92.44
463.437	91.44
463.657	81.44
463.876	93.44
464.096	83.44
464.316	82.44
464.536	92.44
464.755	89.44
464.975	89.44
465.195	91.44
465.414	96.44
465.634	89.44
465.854	102.44
466.073	96.44
466.293	97.44
466.512	104.44
466.732	99.44
466.951	122.44
467.171	129.44
467.391	113.44
467.61	126.44
467.829	117.44
468.049	118.44
468.268	109.44
468.488	106.44
468.707	104.44
468.927	112.44
469.146	99.44
469.365	105.44
469.585	105.44
469.804	114.44
470.023	118.44
470.243	105.44
470.462	114.44
470.681	121.44
470.901	105.44
471.12	121.44
471.339	110.44
471.558	96.44
471.777	114.44
471.997	99.44
472.216	90.44
472.435	104.44
472.654	101.44
472.873	93.44
473.092	106.44
473.311	110.44
473.53	106.44
473.749	111.44
473.968	97.44
474.187	99.44
474.406	105.44
474.625	95.44
474.844	112.44
475.063	91.44
475.282	85.44
475.501	91.44
475.72	100.44
475.939	94.44
476.158	106.44
476.377	110.44
476.596	89.44
476.814	92.44
477.033	85.44
477.252	85.44
477.471	81.44
477.69	97.44
477.908	102.44
478.127	101.44
478.346	90.44
478.564	98.44
478.783	121.44
479.002	111.44
479.22	100.44
479.439	101.44
479.658	97.44
479.876	97.44
480.095	86.44
480.313	87.44
480.532	93.44
480.751	80.44
480.969	87.44
481.188	76.44
481.406	91.44
481.624	96.44
481.843	66.44
482.061	80.44
482.28	81.44
482.498	99.44
482.717	93.44
482.935	100.44
483.153	116.44
483.372	111.44
483.59	104.44
483.808	101.44
484.027	110.44
484.245	113.44
484.463	99.44
484.681	111.44
484.9	106.44
485.118	97.44
485.336	81.44
485.554	80.44
485.772	86.44
485.99	96.44
486.209	85.44
486.427	100.44
486.645	93.44
486.863	93.44
487.081	90.44
487.299	89.44
487.517	103.44
487.735	123.44
487.953	110.44
488.171	119.44
488.389	102.44
488.607	95.44
488.825	98.44
489.043	91.44
489.261	97.44
489.479	119.44
489.696	89.44
489.914	116.44
490.132	115.44
490.35	113.44
490.568	125.44
490.786	130.44
491.003	126.44
491.221	117.44
491.439	138.44
491.657	126.44
491.874	152.44
492.092	147.44
492.31	143.44
492.527	132.44
492.745	139.44
492.963	114.44
493.18	121.44
493.398	131.44
493.615	135.44
493.833	130.44
494.05	136.44
494.268	121.44
494.485	122.44
494.703	111.44
494.92	126.44
495.138	129.44
495.355	127.44
495.573	120.44
495.79	121.44
496.008	142.44
496.225	121.44
496.442	124.44
496.66	115.44
496.877	120.44
497.094	112.44
497.312	105.44
497.529	105.44
497.746	97.44
497.963	115.44
498.181	91.44
498.398	86.44
498.615	89.44
498.832	96.44
499.049	93.44
499.267	102.44
499.484	99.44
499.701	103.44
499.918	110.44
500.135	106.44
500.352	114.44
500.569	104.44
500.786	118.44
501.003	103.44
501.22	93.44
501.437	90.44
501.654	105.44
501.871	103.44
502.088	93.44
502.305	90.44
502.522	88.44
502.739	108.44
502.956	112.44
503.172	109.44
503.389	98.44
503.606	95.44
503.823	100.44
504.04	100.44
504.256	111.44
504.473	106.44
504.69	89.44
504.907	97.44
505.123	101.44
505.34	102.44
505.557	110.44
505.773	114.44
505.99	95.44
506.207	99.44
506.423	98.44
506.64	102.44
506.856	100.44
507.073	94.44
507.289	99.44
507.506	97.44
507.722	94.44
507.939	89.44
508.155	97.44
508.372	87.44
508.588	95.44
508.805	83.44
509.021	92.44
509.238	98.44
509.454	97.44
509.67	79.44
509.887	76.44
510.103	90.44
510.319	88.44
510.536	83.44
510.752	87.44
510.968	78.44
511.184	97.44
511.401	91.44
511.617	90.44
511.833	94.44
512.049	94.44
512.265	95.44
512.481	98.44
512.698	94.44
512.914	87.44
513.13	104.44
513.346	95.44
513.562	95.44
513.778	78.44
513.994	71.44
514.21	92.44
514.426	94.44
514.642	81.44
514.858	83.44
515.074	81.44
515.29	98.44
515.506	82.44
515.721	82.44
515.937	78.44
