Data from Foil_1_HRD10591_00019.txt Node
Date: Wed Nov 05 16:15:30 EST 2025
User: Yrep
Spectrometer: HR+D1059
Trigger mode: 1
Integration Time (sec): 1.000000E-1
Scans to average: 1
Electric dark correction enabled: true
Nonlinearity correction enabled: false
Boxcar width: 0
XAxis mode: Wavelengths
Number of Pixels in Spectrum: 2048
>>>>>Begin Spectral Data<<<<<
223.165	-12.56
223.4	-12.56
223.635	-12.56
223.869	-29.56
224.104	-11.56
224.338	-17.56
224.573	-18.56
224.808	-9.56
225.042	-1.56
225.277	-10.56
225.511	-11.56
225.746	3.44
225.98	7.44
226.215	21.44
226.449	11.44
226.683	32.44
226.918	22.44
227.152	24.44
227.387	31.44
227.621	33.44
227.856	51.44
228.09	45.44
228.324	45.44
228.559	57.44
228.793	42.44
229.027	78.44
229.262	77.44
229.496	72.44
229.73	73.44
229.964	70.44
230.199	70.44
230.433	83.44
230.667	61.44
230.901	81.44
231.136	73.44
231.37	76.44
231.604	70.44
231.838	81.44
232.072	84.44
232.306	77.44
232.541	81.44
232.775	84.44
233.009	77.44
233.243	83.44
233.477	76.44
233.711	77.44
233.945	70.44
234.179	86.44
234.413	75.44
234.647	84.44
234.881	68.44
235.115	80.44
235.349	63.44
235.583	82.44
235.817	75.44
236.051	70.44
236.285	72.44
236.519	58.44
236.753	82.44
236.987	87.44
237.221	76.44
237.455	78.44
237.689	76.44
237.922	64.44
238.156	63.44
238.39	83.44
238.624	57.44
238.858	68.44
239.091	78.44
239.325	78.44
239.559	87.44
239.793	76.44
240.027	78.44
240.26	69.44
240.494	80.44
240.728	78.44
240.961	68.44
241.195	70.44
241.429	79.44
241.662	77.44
241.896	68.44
242.13	72.44
242.363	75.44
242.597	74.44
242.83	89.44
243.064	70.44
243.298	66.44
243.531	78.44
243.765	67.44
243.998	76.44
244.232	86.44
244.465	66.44
244.699	65.44
244.932	74.44
245.166	81.44
245.399	72.44
245.633	86.44
245.866	74.44
246.099	94.44
246.333	69.44
246.566	64.44
246.8	76.44
247.033	86.44
247.266	76.44
247.5	63.44
247.733	64.44
247.966	77.44
248.2	79.44
248.433	78.44
248.666	61.44
248.899	89.44
249.133	72.44
249.366	75.44
249.599	74.44
249.832	81.44
250.066	77.44
250.299	72.44
250.532	95.44
250.765	81.44
250.998	78.44
251.231	76.44
251.465	79.44
251.698	72.44
251.931	68.44
252.164	71.44
252.397	62.44
252.63	90.44
252.863	79.44
253.096	72.44
253.329	91.44
253.562	72.44
253.795	80.44
254.028	84.44
254.261	66.44
254.494	74.44
254.727	74.44
254.96	75.44
255.193	62.44
255.426	75.44
255.659	80.44
255.892	67.44
256.124	71.44
256.357	75.44
256.59	77.44
256.823	88.44
257.056	82.44
257.289	75.44
257.521	76.44
257.754	76.44
257.987	71.44
258.22	76.44
258.452	74.44
258.685	73.44
258.918	73.44
259.151	77.44
259.383	86.44
259.616	74.44
259.849	84.44
260.081	84.44
260.314	76.44
260.547	72.44
260.779	68.44
261.012	83.44
261.244	74.44
261.477	79.44
261.71	73.44
261.942	94.44
262.175	72.44
262.407	80.44
262.64	86.44
262.872	90.44
263.105	86.44
263.337	86.44
263.57	77.44
263.802	99.44
264.035	101.44
264.267	77.44
264.499	74.44
264.732	84.44
264.964	78.44
265.197	79.44
265.429	92.44
265.661	94.44
265.894	93.44
266.126	79.44
266.358	84.44
266.591	66.44
266.823	77.44
267.055	72.44
267.287	98.44
267.52	74.44
267.752	81.44
267.984	84.44
268.216	80.44
268.448	77.44
268.681	67.44
268.913	89.44
269.145	91.44
269.377	87.44
269.609	88.44
269.841	88.44
270.073	100.44
270.306	75.44
270.538	70.44
270.77	91.44
271.002	81.44
271.234	76.44
271.466	78.44
271.698	88.44
271.93	96.44
272.162	75.44
272.394	79.44
272.626	91.44
272.858	77.44
273.09	98.44
273.322	80.44
273.553	88.44
273.785	83.44
274.017	80.44
274.249	86.44
274.481	98.44
274.713	81.44
274.945	92.44
275.176	67.44
275.408	85.44
275.64	82.44
275.872	79.44
276.104	88.44
276.335	86.44
276.567	92.44
276.799	79.44
277.031	88.44
277.262	85.44
277.494	78.44
277.726	81.44
277.957	86.44
278.189	90.44
278.421	76.44
278.652	95.44
278.884	77.44
279.115	78.44
279.347	74.44
279.579	84.44
279.81	84.44
280.042	95.44
280.273	88.44
280.505	80.44
280.736	86.44
280.968	76.44
281.199	94.44
281.431	81.44
281.662	79.44
281.894	82.44
282.125	103.44
282.356	81.44
282.588	94.44
282.819	84.44
283.051	80.44
283.282	79.44
283.513	84.44
283.745	75.44
283.976	76.44
284.207	67.44
284.439	80.44
284.67	76.44
284.901	86.44
285.132	84.44
285.364	70.44
285.595	68.44
285.826	78.44
286.057	87.44
286.288	92.44
286.52	79.44
286.751	88.44
286.982	95.44
287.213	79.44
287.444	88.44
287.675	88.44
287.906	68.44
288.138	94.44
288.369	78.44
288.6	87.44
288.831	90.44
289.062	86.44
289.293	81.44
289.524	81.44
289.755	78.44
289.986	80.44
290.217	87.44
290.448	74.44
290.679	86.44
290.91	77.44
291.141	84.44
291.371	78.44
291.602	79.44
291.833	87.44
292.064	78.44
292.295	79.44
292.526	80.44
292.757	95.44
292.987	81.44
293.218	80.44
293.449	77.44
293.68	82.44
293.91	92.44
294.141	83.44
294.372	73.44
294.603	86.44
294.833	86.44
295.064	71.44
295.295	81.44
295.525	80.44
295.756	68.44
295.987	74.44
296.217	81.44
296.448	71.44
296.679	89.44
296.909	79.44
297.14	85.44
297.37	88.44
297.601	88.44
297.831	78.44
298.062	85.44
298.292	80.44
298.523	78.44
298.753	76.44
298.984	82.44
299.214	86.44
299.445	79.44
299.675	72.44
299.905	102.44
300.136	80.44
300.366	68.44
300.597	76.44
300.827	88.44
301.057	82.44
301.288	87.44
301.518	80.44
301.748	74.44
301.979	91.44
302.209	86.44
302.439	82.44
302.669	86.44
302.9	88.44
303.13	93.44
303.36	78.44
303.59	87.44
303.82	72.44
304.051	66.44
304.281	81.44
304.511	90.44
304.741	80.44
304.971	84.44
305.201	79.44
305.431	87.44
305.661	80.44
305.891	88.44
306.121	86.44
306.352	76.44
306.582	78.44
306.812	77.44
307.042	82.44
307.272	80.44
307.502	85.44
307.731	105.44
307.961	99.44
308.191	119.44
308.421	108.44
308.651	91.44
308.881	102.44
309.111	111.44
309.341	117.44
309.571	119.44
309.8	91.44
310.03	90.44
310.26	75.44
310.49	69.44
310.72	77.44
310.949	79.44
311.179	81.44
311.409	91.44
311.639	86.44
311.868	90.44
312.098	88.44
312.328	86.44
312.557	83.44
312.787	86.44
313.017	83.44
313.246	84.44
313.476	88.44
313.706	91.44
313.935	77.44
314.165	84.44
314.394	87.44
314.624	75.44
314.853	77.44
315.083	89.44
315.312	86.44
315.542	84.44
315.771	98.44
316.001	76.44
316.23	75.44
316.46	88.44
316.689	73.44
316.919	75.44
317.148	82.44
317.377	76.44
317.607	74.44
317.836	74.44
318.065	94.44
318.295	66.44
318.524	96.44
318.753	83.44
318.983	86.44
319.212	81.44
319.441	80.44
319.67	91.44
319.9	83.44
320.129	77.44
320.358	88.44
320.587	85.44
320.816	78.44
321.046	84.44
321.275	88.44
321.504	99.44
321.733	76.44
321.962	93.44
322.191	89.44
322.42	76.44
322.649	89.44
322.878	84.44
323.108	77.44
323.337	82.44
323.566	72.44
323.795	94.44
324.024	86.44
324.253	96.44
324.482	84.44
324.71	84.44
324.939	67.44
325.168	77.44
325.397	88.44
325.626	80.44
325.855	88.44
326.084	71.44
326.313	89.44
326.542	87.44
326.77	82.44
326.999	77.44
327.228	80.44
327.457	75.44
327.686	74.44
327.914	90.44
328.143	97.44
328.372	78.44
328.6	74.44
328.829	83.44
329.058	85.44
329.287	68.44
329.515	91.44
329.744	69.44
329.972	73.44
330.201	86.44
330.43	86.44
330.658	81.44
330.887	86.44
331.115	79.44
331.344	71.44
331.572	91.44
331.801	96.44
332.03	88.44
332.258	102.44
332.486	74.44
332.715	89.44
332.943	92.44
333.172	84.44
333.4	82.44
333.629	90.44
333.857	83.44
334.085	82.44
334.314	80.44
334.542	86.44
334.771	79.44
334.999	89.44
335.227	82.44
335.455	89.44
335.684	84.44
335.912	79.44
336.14	82.44
336.369	81.44
336.597	82.44
336.825	90.44
337.053	87.44
337.281	79.44
337.51	86.44
337.738	86.44
337.966	70.44
338.194	62.44
338.422	88.44
338.65	87.44
338.878	74.44
339.106	77.44
339.334	98.44
339.562	84.44
339.79	78.44
340.018	64.44
340.246	77.44
340.474	73.44
340.702	80.44
340.93	86.44
341.158	86.44
341.386	80.44
341.614	78.44
341.842	92.44
342.07	70.44
342.298	82.44
342.526	82.44
342.754	75.44
342.981	79.44
343.209	99.44
343.437	93.44
343.665	84.44
343.893	68.44
344.12	91.44
344.348	88.44
344.576	94.44
344.804	72.44
345.031	86.44
345.259	90.44
345.487	81.44
345.714	94.44
345.942	79.44
346.17	86.44
346.397	87.44
346.625	79.44
346.853	87.44
347.08	84.44
347.308	72.44
347.535	77.44
347.763	83.44
347.99	89.44
348.218	92.44
348.445	81.44
348.673	74.44
348.9	66.44
349.128	91.44
349.355	83.44
349.583	78.44
349.81	81.44
350.037	83.44
350.265	78.44
350.492	95.44
350.72	65.44
350.947	76.44
351.174	92.44
351.402	89.44
351.629	73.44
351.856	74.44
352.083	88.44
352.311	94.44
352.538	80.44
352.765	83.44
352.992	87.44
353.22	79.44
353.447	72.44
353.674	71.44
353.901	78.44
354.128	73.44
354.355	75.44
354.583	74.44
354.81	79.44
355.037	88.44
355.264	83.44
355.491	90.44
355.718	70.44
355.945	79.44
356.172	68.44
356.399	80.44
356.626	92.44
356.853	84.44
357.08	83.44
357.307	77.44
357.534	83.44
357.761	74.44
357.988	94.44
358.215	95.44
358.441	75.44
358.668	80.44
358.895	86.44
359.122	86.44
359.349	86.44
359.576	71.44
359.802	84.44
360.029	88.44
360.256	85.44
360.483	99.44
360.709	91.44
360.936	90.44
361.163	90.44
361.39	90.44
361.616	74.44
361.843	72.44
362.07	79.44
362.296	80.44
362.523	76.44
362.749	91.44
362.976	75.44
363.203	74.44
363.429	77.44
363.656	77.44
363.882	79.44
364.109	88.44
364.335	86.44
364.562	78.44
364.788	78.44
365.015	88.44
365.241	97.44
365.468	90.44
365.694	85.44
365.92	76.44
366.147	81.44
366.373	86.44
366.599	77.44
366.826	87.44
367.052	83.44
367.278	82.44
367.505	86.44
367.731	87.44
367.957	81.44
368.184	92.44
368.41	82.44
368.636	94.44
368.862	80.44
369.089	73.44
369.315	87.44
369.541	74.44
369.767	78.44
369.993	93.44
370.219	84.44
370.445	91.44
370.672	90.44
370.898	70.44
371.124	72.44
371.35	86.44
371.576	88.44
371.802	100.44
372.028	90.44
372.254	75.44
372.48	92.44
372.706	83.44
372.932	82.44
373.158	85.44
373.384	88.44
373.61	72.44
373.835	86.44
374.061	90.44
374.287	79.44
374.513	92.44
374.739	88.44
374.965	91.44
375.191	85.44
375.416	78.44
375.642	72.44
375.868	86.44
376.094	95.44
376.319	79.44
376.545	88.44
376.771	68.44
376.997	103.44
377.222	88.44
377.448	93.44
377.674	86.44
377.899	84.44
378.125	80.44
378.35	88.44
378.576	82.44
378.802	78.44
379.027	88.44
379.253	100.44
379.478	85.44
379.704	95.44
379.929	91.44
380.155	89.44
380.38	80.44
380.606	92.44
380.831	79.44
381.057	96.44
381.282	72.44
381.507	84.44
381.733	96.44
381.958	92.44
382.184	91.44
382.409	98.44
382.634	94.44
382.86	93.44
383.085	86.44
383.31	81.44
383.535	83.44
383.761	94.44
383.986	93.44
384.211	90.44
384.436	76.44
384.662	92.44
384.887	86.44
385.112	87.44
385.337	64.44
385.562	100.44
385.787	97.44
386.013	83.44
386.238	90.44
386.463	88.44
386.688	90.44
386.913	85.44
387.138	83.44
387.363	78.44
387.588	94.44
387.813	104.44
388.038	72.44
388.263	89.44
388.488	86.44
388.713	84.44
388.938	75.44
389.163	78.44
389.387	86.44
389.612	86.44
389.837	89.44
390.062	87.44
390.287	84.44
390.512	100.44
390.736	85.44
390.961	86.44
391.186	99.44
391.411	93.44
391.636	94.44
391.86	93.44
392.085	89.44
392.31	84.44
392.534	111.44
392.759	97.44
392.984	98.44
393.208	93.44
393.433	87.44
393.658	100.44
393.882	98.44
394.107	119.44
394.331	174.44
394.556	182.44
394.78	124.44
395.005	98.44
395.229	89.44
395.454	99.44
395.678	101.44
395.903	132.44
396.127	208.44
396.352	218.44
396.576	122.44
396.801	107.44
397.025	96.44
397.249	96.44
397.474	93.44
397.698	82.44
397.922	82.44
398.147	102.44
398.371	87.44
398.595	100.44
398.82	85.44
399.044	99.44
399.268	97.44
399.492	99.44
399.717	96.44
399.941	83.44
400.165	87.44
400.389	96.44
400.613	93.44
400.837	89.44
401.062	104.44
401.286	85.44
401.51	95.44
401.734	98.44
401.958	84.44
402.182	90.44
402.406	84.44
402.63	107.44
402.854	79.44
403.078	107.44
403.302	93.44
403.526	94.44
403.75	99.44
403.974	95.44
404.198	81.44
404.422	86.44
404.645	94.44
404.869	111.44
405.093	90.44
405.317	104.44
405.541	90.44
405.765	102.44
405.988	92.44
406.212	96.44
406.436	94.44
406.66	97.44
406.883	104.44
407.107	88.44
407.331	94.44
407.555	90.44
407.778	91.44
408.002	95.44
408.226	98.44
408.449	100.44
408.673	96.44
408.896	89.44
409.12	106.44
409.344	102.44
409.567	84.44
409.791	100.44
410.014	105.44
410.238	99.44
410.461	102.44
410.685	112.44
410.908	105.44
411.132	111.44
411.355	96.44
411.578	102.44
411.802	104.44
412.025	91.44
412.249	98.44
412.472	86.44
412.695	106.44
412.919	88.44
413.142	88.44
413.365	107.44
413.589	93.44
413.812	109.44
414.035	105.44
414.258	101.44
414.482	91.44
414.705	106.44
414.928	92.44
415.151	94.44
415.374	90.44
415.597	96.44
415.821	95.44
416.044	103.44
416.267	105.44
416.49	106.44
416.713	89.44
416.936	101.44
417.159	94.44
417.382	108.44
417.605	103.44
417.828	103.44
418.051	99.44
418.274	92.44
418.497	111.44
418.72	97.44
418.943	91.44
419.166	104.44
419.389	107.44
419.611	102.44
419.834	102.44
420.057	98.44
420.28	102.44
420.503	107.44
420.726	99.44
420.948	102.44
421.171	103.44
421.394	99.44
421.617	115.44
421.839	96.44
422.062	95.44
422.285	93.44
422.507	99.44
422.73	91.44
422.953	96.44
423.175	89.44
423.398	104.44
423.621	88.44
423.843	99.44
424.066	94.44
424.288	93.44
424.511	108.44
424.733	102.44
424.956	99.44
425.178	94.44
425.401	94.44
425.623	94.44
425.846	85.44
426.068	88.44
426.291	106.44
426.513	105.44
426.735	101.44
426.958	110.44
427.18	106.44
427.402	97.44
427.625	96.44
427.847	109.44
428.069	102.44
428.292	94.44
428.514	82.44
428.736	98.44
428.958	119.44
429.181	110.44
429.403	110.44
429.625	95.44
429.847	105.44
430.069	111.44
430.292	112.44
430.514	88.44
430.736	100.44
430.958	93.44
431.18	102.44
431.402	94.44
431.624	75.44
431.846	100.44
432.068	92.44
432.29	86.44
432.512	77.44
432.734	107.44
432.956	95.44
433.178	115.44
433.4	98.44
433.622	114.44
433.844	106.44
434.066	104.44
434.287	84.44
434.509	77.44
434.731	106.44
434.953	89.44
435.175	96.44
435.397	84.44
435.618	76.44
435.84	93.44
436.062	79.44
436.284	95.44
436.505	108.44
436.727	98.44
436.949	102.44
437.17	89.44
437.392	88.44
437.614	107.44
437.835	90.44
438.057	87.44
438.278	94.44
438.5	101.44
438.721	105.44
438.943	114.44
439.165	104.44
439.386	109.44
439.608	118.44
439.829	104.44
440.05	103.44
440.272	98.44
440.493	92.44
440.715	95.44
440.936	102.44
441.158	114.44
441.379	110.44
441.6	112.44
441.822	100.44
442.043	119.44
442.264	98.44
442.486	108.44
442.707	97.44
442.928	103.44
443.149	102.44
443.371	106.44
443.592	88.44
443.813	107.44
444.034	106.44
444.255	94.44
444.476	91.44
444.698	104.44
444.919	117.44
445.14	180.44
445.361	137.44
445.582	96.44
445.803	88.44
446.024	90.44
446.245	110.44
446.466	108.44
446.687	104.44
446.908	109.44
447.129	100.44
447.35	118.44
447.571	100.44
447.792	108.44
448.013	98.44
448.234	108.44
448.455	109.44
448.675	95.44
448.896	94.44
449.117	105.44
449.338	108.44
449.559	115.44
449.779	101.44
450	111.44
450.221	127.44
450.442	103.44
450.662	103.44
450.883	105.44
451.104	101.44
451.324	98.44
451.545	111.44
451.766	93.44
451.986	107.44
452.207	98.44
452.428	90.44
452.648	110.44
452.869	90.44
453.089	94.44
453.31	93.44
453.53	74.44
453.751	91.44
453.971	103.44
454.192	105.44
454.412	89.44
454.633	83.44
454.853	101.44
455.073	98.44
455.294	98.44
455.514	95.44
455.734	98.44
455.955	108.44
456.175	90.44
456.395	95.44
456.616	90.44
456.836	76.44
457.056	87.44
457.276	89.44
457.497	100.44
457.717	90.44
457.937	88.44
458.157	85.44
458.377	89.44
458.598	70.44
458.818	76.44
459.038	75.44
459.258	81.44
459.478	101.44
459.698	82.44
459.918	100.44
460.138	88.44
460.358	94.44
460.578	93.44
460.798	90.44
461.018	106.44
461.238	107.44
461.458	88.44
461.678	93.44
461.898	87.44
462.118	96.44
462.338	92.44
462.558	84.44
462.777	79.44
462.997	81.44
463.217	88.44
463.437	88.44
463.657	97.44
463.876	75.44
464.096	69.44
464.316	93.44
464.536	102.44
464.755	85.44
464.975	81.44
465.195	92.44
465.414	101.44
465.634	94.44
465.854	98.44
466.073	100.44
466.293	105.44
466.512	104.44
466.732	104.44
466.951	112.44
467.171	93.44
467.391	126.44
467.61	119.44
467.829	122.44
468.049	122.44
468.268	104.44
468.488	122.44
468.707	106.44
468.927	99.44
469.146	108.44
469.365	98.44
469.585	110.44
469.804	107.44
470.023	111.44
470.243	112.44
470.462	106.44
470.681	108.44
470.901	118.44
471.12	106.44
471.339	108.44
471.558	114.44
471.777	90.44
471.997	101.44
472.216	91.44
472.435	90.44
472.654	77.44
472.873	100.44
473.092	105.44
473.311	109.44
473.53	116.44
473.749	111.44
473.968	92.44
474.187	100.44
474.406	101.44
474.625	98.44
474.844	112.44
475.063	107.44
475.282	96.44
475.501	102.44
475.72	105.44
475.939	78.44
476.158	102.44
476.377	105.44
476.596	98.44
476.814	80.44
477.033	84.44
477.252	81.44
477.471	94.44
477.69	116.44
477.908	108.44
478.127	105.44
478.346	98.44
478.564	94.44
478.783	95.44
479.002	105.44
479.22	98.44
479.439	102.44
479.658	98.44
479.876	95.44
480.095	93.44
480.313	95.44
480.532	94.44
480.751	80.44
480.969	83.44
481.188	88.44
481.406	84.44
481.624	79.44
481.843	81.44
482.061	87.44
482.28	89.44
482.498	90.44
482.717	103.44
482.935	87.44
483.153	123.44
483.372	122.44
483.59	106.44
483.808	107.44
484.027	93.44
484.245	89.44
484.463	89.44
484.681	93.44
484.9	91.44
485.118	103.44
485.336	87.44
485.554	98.44
485.772	91.44
485.99	101.44
486.209	106.44
486.427	86.44
486.645	90.44
486.863	98.44
487.081	91.44
487.299	93.44
487.517	86.44
487.735	96.44
487.953	123.44
488.171	110.44
488.389	86.44
488.607	98.44
488.825	98.44
489.043	89.44
489.261	95.44
489.479	102.44
489.696	101.44
489.914	101.44
490.132	121.44
490.35	110.44
490.568	98.44
490.786	130.44
491.003	133.44
491.221	137.44
491.439	122.44
491.657	128.44
491.874	150.44
492.092	156.44
492.31	118.44
492.527	153.44
492.745	125.44
492.963	134.44
493.18	122.44
493.398	119.44
493.615	112.44
493.833	117.44
494.05	107.44
494.268	134.44
494.485	139.44
494.703	133.44
494.92	130.44
495.138	116.44
495.355	139.44
495.573	118.44
495.79	120.44
496.008	117.44
496.225	120.44
496.442	111.44
496.66	122.44
496.877	120.44
497.094	115.44
497.312	94.44
497.529	111.44
497.746	104.44
497.963	86.44
498.181	91.44
498.398	83.44
498.615	88.44
498.832	103.44
499.049	103.44
499.267	88.44
499.484	115.44
499.701	88.44
499.918	107.44
500.135	104.44
500.352	116.44
500.569	103.44
500.786	110.44
501.003	105.44
501.22	115.44
501.437	100.44
501.654	103.44
501.871	102.44
502.088	94.44
502.305	92.44
502.522	86.44
502.739	96.44
502.956	98.44
503.172	101.44
503.389	118.44
503.606	104.44
503.823	104.44
504.04	97.44
504.256	90.44
504.473	100.44
504.69	99.44
504.907	104.44
505.123	88.44
505.34	101.44
505.557	98.44
505.773	95.44
505.99	87.44
506.207	102.44
506.423	91.44
506.64	101.44
506.856	77.44
507.073	86.44
507.289	79.44
507.506	88.44
507.722	98.44
507.939	93.44
508.155	98.44
508.372	91.44
508.588	109.44
508.805	70.44
509.021	84.44
509.238	88.44
509.454	91.44
509.67	86.44
509.887	84.44
510.103	87.44
510.319	88.44
510.536	86.44
510.752	92.44
510.968	80.44
511.184	65.44
511.401	79.44
511.617	86.44
511.833	88.44
512.049	84.44
512.265	87.44
512.481	79.44
512.698	95.44
512.914	95.44
513.13	93.44
513.346	91.44
513.562	78.44
513.778	86.44
513.994	86.44
514.21	87.44
514.426	92.44
514.642	76.44
514.858	79.44
515.074	77.44
515.29	91.44
515.506	88.44
515.721	85.44
515.937	86.44
516.153	87.44
516.369	72.44
