Data from Foil_1_HRD10591_00012.txt Node
Date: Wed Nov 05 16:15:26 EST 2025
User: Yrep
Spectrometer: HR+D1059
Trigger mode: 1
Integration Time (sec): 1.000000E-1
Scans to average: 1
Electric dark correction enabled: true
Nonlinearity correction enabled: false
Boxcar width: 0
XAxis mode: Wavelengths
Number of Pixels in Spectrum: 2048
>>>>>Begin Spectral Data<<<<<
223.165	-11.75
223.4	-11.75
223.635	-11.75
223.869	-15.75
224.104	-21.75
224.338	-20.75
224.573	-16.75
224.808	-16.75
225.042	-4.75
225.277	1.25
225.511	-19.75
225.746	3.25
225.98	13.25
226.215	23.25
226.449	16.25
226.683	17.25
226.918	29.25
227.152	24.25
227.387	33.25
227.621	57.25
227.856	47.25
228.09	48.25
228.324	52.25
228.559	52.25
228.793	71.25
229.027	68.25
229.262	60.25
229.496	64.25
229.73	50.25
229.964	57.25
230.199	75.25
230.433	74.25
230.667	79.25
230.901	69.25
231.136	83.25
231.37	90.25
231.604	91.25
231.838	67.25
232.072	92.25
232.306	86.25
232.541	78.25
232.775	92.25
233.009	89.25
233.243	74.25
233.477	97.25
233.711	84.25
233.945	91.25
234.179	90.25
234.413	94.25
234.647	87.25
234.881	92.25
235.115	95.25
235.349	66.25
235.583	79.25
235.817	75.25
236.051	89.25
236.285	81.25
236.519	93.25
236.753	81.25
236.987	71.25
237.221	95.25
237.455	75.25
237.689	91.25
237.922	81.25
238.156	71.25
238.39	86.25
238.624	91.25
238.858	77.25
239.091	89.25
239.325	89.25
239.559	74.25
239.793	86.25
240.027	75.25
240.26	78.25
240.494	72.25
240.728	76.25
240.961	73.25
241.195	75.25
241.429	75.25
241.662	81.25
241.896	100.25
242.13	84.25
242.363	66.25
242.597	84.25
242.83	80.25
243.064	73.25
243.298	80.25
243.531	65.25
243.765	76.25
243.998	86.25
244.232	89.25
244.465	99.25
244.699	84.25
244.932	81.25
245.166	86.25
245.399	81.25
245.633	83.25
245.866	65.25
246.099	98.25
246.333	81.25
246.566	78.25
246.8	78.25
247.033	91.25
247.266	72.25
247.5	76.25
247.733	80.25
247.966	78.25
248.2	82.25
248.433	69.25
248.666	85.25
248.899	69.25
249.133	84.25
249.366	83.25
249.599	80.25
249.832	80.25
250.066	94.25
250.299	92.25
250.532	88.25
250.765	89.25
250.998	85.25
251.231	80.25
251.465	88.25
251.698	87.25
251.931	75.25
252.164	78.25
252.397	89.25
252.63	79.25
252.863	71.25
253.096	84.25
253.329	95.25
253.562	89.25
253.795	86.25
254.028	87.25
254.261	77.25
254.494	75.25
254.727	78.25
254.96	89.25
255.193	83.25
255.426	76.25
255.659	74.25
255.892	75.25
256.124	87.25
256.357	76.25
256.59	84.25
256.823	98.25
257.056	83.25
257.289	81.25
257.521	95.25
257.754	73.25
257.987	83.25
258.22	91.25
258.452	77.25
258.685	77.25
258.918	67.25
259.151	73.25
259.383	87.25
259.616	85.25
259.849	75.25
260.081	87.25
260.314	97.25
260.547	73.25
260.779	80.25
261.012	83.25
261.244	83.25
261.477	82.25
261.71	76.25
261.942	81.25
262.175	81.25
262.407	91.25
262.64	73.25
262.872	91.25
263.105	93.25
263.337	91.25
263.57	89.25
263.802	80.25
264.035	91.25
264.267	73.25
264.499	78.25
264.732	96.25
264.964	79.25
265.197	104.25
265.429	81.25
265.661	79.25
265.894	75.25
266.126	79.25
266.358	83.25
266.591	84.25
266.823	85.25
267.055	84.25
267.287	86.25
267.52	85.25
267.752	75.25
267.984	79.25
268.216	80.25
268.448	79.25
268.681	89.25
268.913	91.25
269.145	86.25
269.377	99.25
269.609	89.25
269.841	88.25
270.073	86.25
270.306	99.25
270.538	85.25
270.77	73.25
271.002	84.25
271.234	82.25
271.466	92.25
271.698	93.25
271.93	87.25
272.162	79.25
272.394	95.25
272.626	77.25
272.858	76.25
273.09	84.25
273.322	76.25
273.553	94.25
273.785	88.25
274.017	85.25
274.249	99.25
274.481	80.25
274.713	66.25
274.945	82.25
275.176	97.25
275.408	98.25
275.64	77.25
275.872	87.25
276.104	81.25
276.335	91.25
276.567	79.25
276.799	83.25
277.031	71.25
277.262	91.25
277.494	78.25
277.726	77.25
277.957	84.25
278.189	89.25
278.421	92.25
278.652	91.25
278.884	83.25
279.115	73.25
279.347	90.25
279.579	89.25
279.81	83.25
280.042	84.25
280.273	78.25
280.505	94.25
280.736	92.25
280.968	80.25
281.199	77.25
281.431	85.25
281.662	92.25
281.894	85.25
282.125	85.25
282.356	92.25
282.588	79.25
282.819	86.25
283.051	77.25
283.282	87.25
283.513	87.25
283.745	84.25
283.976	80.25
284.207	95.25
284.439	100.25
284.67	97.25
284.901	81.25
285.132	85.25
285.364	92.25
285.595	87.25
285.826	85.25
286.057	92.25
286.288	68.25
286.52	102.25
286.751	93.25
286.982	76.25
287.213	82.25
287.444	101.25
287.675	93.25
287.906	93.25
288.138	101.25
288.369	90.25
288.6	85.25
288.831	83.25
289.062	89.25
289.293	83.25
289.524	86.25
289.755	84.25
289.986	81.25
290.217	83.25
290.448	106.25
290.679	88.25
290.91	93.25
291.141	84.25
291.371	105.25
291.602	110.25
291.833	81.25
292.064	78.25
292.295	89.25
292.526	105.25
292.757	100.25
292.987	95.25
293.218	89.25
293.449	82.25
293.68	87.25
293.91	89.25
294.141	95.25
294.372	87.25
294.603	101.25
294.833	93.25
295.064	85.25
295.295	83.25
295.525	78.25
295.756	78.25
295.987	86.25
296.217	80.25
296.448	93.25
296.679	94.25
296.909	83.25
297.14	93.25
297.37	84.25
297.601	86.25
297.831	89.25
298.062	91.25
298.292	81.25
298.523	92.25
298.753	91.25
298.984	78.25
299.214	89.25
299.445	86.25
299.675	67.25
299.905	75.25
300.136	87.25
300.366	77.25
300.597	97.25
300.827	90.25
301.057	81.25
301.288	101.25
301.518	78.25
301.748	83.25
301.979	95.25
302.209	96.25
302.439	94.25
302.669	86.25
302.9	105.25
303.13	86.25
303.36	91.25
303.59	93.25
303.82	88.25
304.051	91.25
304.281	83.25
304.511	92.25
304.741	83.25
304.971	80.25
305.201	94.25
305.431	88.25
305.661	93.25
305.891	73.25
306.121	96.25
306.352	81.25
306.582	84.25
306.812	93.25
307.042	94.25
307.272	95.25
307.502	98.25
307.731	93.25
307.961	103.25
308.191	127.25
308.421	119.25
308.651	106.25
308.881	98.25
309.111	121.25
309.341	139.25
309.571	121.25
309.8	101.25
310.03	85.25
310.26	93.25
310.49	72.25
310.72	85.25
310.949	79.25
311.179	90.25
311.409	100.25
311.639	81.25
311.868	85.25
312.098	86.25
312.328	94.25
312.557	86.25
312.787	85.25
313.017	99.25
313.246	94.25
313.476	73.25
313.706	83.25
313.935	79.25
314.165	85.25
314.394	84.25
314.624	96.25
314.853	93.25
315.083	92.25
315.312	73.25
315.542	85.25
315.771	84.25
316.001	92.25
316.23	96.25
316.46	93.25
316.689	88.25
316.919	105.25
317.148	91.25
317.377	91.25
317.607	91.25
317.836	81.25
318.065	91.25
318.295	85.25
318.524	98.25
318.753	89.25
318.983	92.25
319.212	90.25
319.441	93.25
319.67	88.25
319.9	100.25
320.129	79.25
320.358	91.25
320.587	84.25
320.816	85.25
321.046	90.25
321.275	97.25
321.504	92.25
321.733	90.25
321.962	98.25
322.191	85.25
322.42	83.25
322.649	93.25
322.878	92.25
323.108	100.25
323.337	90.25
323.566	88.25
323.795	80.25
324.024	109.25
324.253	92.25
324.482	97.25
324.71	86.25
324.939	106.25
325.168	85.25
325.397	91.25
325.626	89.25
325.855	89.25
326.084	77.25
326.313	91.25
326.542	74.25
326.77	82.25
326.999	84.25
327.228	85.25
327.457	77.25
327.686	94.25
327.914	94.25
328.143	88.25
328.372	89.25
328.6	88.25
328.829	91.25
329.058	87.25
329.287	91.25
329.515	76.25
329.744	80.25
329.972	89.25
330.201	88.25
330.43	91.25
330.658	97.25
330.887	85.25
331.115	78.25
331.344	89.25
331.572	85.25
331.801	85.25
332.03	98.25
332.258	83.25
332.486	83.25
332.715	92.25
332.943	74.25
333.172	91.25
333.4	96.25
333.629	95.25
333.857	89.25
334.085	89.25
334.314	94.25
334.542	73.25
334.771	85.25
334.999	93.25
335.227	87.25
335.455	84.25
335.684	77.25
335.912	81.25
336.14	85.25
336.369	79.25
336.597	93.25
336.825	95.25
337.053	85.25
337.281	94.25
337.51	91.25
337.738	94.25
337.966	76.25
338.194	100.25
338.422	101.25
338.65	80.25
338.878	86.25
339.106	83.25
339.334	81.25
339.562	79.25
339.79	93.25
340.018	88.25
340.246	87.25
340.474	69.25
340.702	88.25
340.93	90.25
341.158	84.25
341.386	91.25
341.614	84.25
341.842	86.25
342.07	78.25
342.298	72.25
342.526	76.25
342.754	94.25
342.981	94.25
343.209	101.25
343.437	99.25
343.665	107.25
343.893	103.25
344.12	91.25
344.348	95.25
344.576	85.25
344.804	79.25
345.031	88.25
345.259	85.25
345.487	83.25
345.714	85.25
345.942	99.25
346.17	91.25
346.397	87.25
346.625	93.25
346.853	86.25
347.08	75.25
347.308	89.25
347.535	86.25
347.763	85.25
347.99	79.25
348.218	85.25
348.445	89.25
348.673	84.25
348.9	90.25
349.128	81.25
349.355	95.25
349.583	94.25
349.81	80.25
350.037	94.25
350.265	78.25
350.492	92.25
350.72	91.25
350.947	86.25
351.174	96.25
351.402	94.25
351.629	92.25
351.856	79.25
352.083	84.25
352.311	73.25
352.538	93.25
352.765	97.25
352.992	99.25
353.22	101.25
353.447	100.25
353.674	82.25
353.901	93.25
354.128	84.25
354.355	83.25
354.583	82.25
354.81	82.25
355.037	92.25
355.264	101.25
355.491	97.25
355.718	85.25
355.945	85.25
356.172	85.25
356.399	83.25
356.626	80.25
356.853	94.25
357.08	87.25
357.307	95.25
357.534	91.25
357.761	85.25
357.988	98.25
358.215	91.25
358.441	86.25
358.668	88.25
358.895	86.25
359.122	91.25
359.349	93.25
359.576	96.25
359.802	97.25
360.029	88.25
360.256	75.25
360.483	81.25
360.709	98.25
360.936	97.25
361.163	84.25
361.39	93.25
361.616	100.25
361.843	86.25
362.07	79.25
362.296	77.25
362.523	77.25
362.749	92.25
362.976	96.25
363.203	101.25
363.429	74.25
363.656	91.25
363.882	76.25
364.109	100.25
364.335	93.25
364.562	88.25
364.788	83.25
365.015	93.25
365.241	90.25
365.468	94.25
365.694	94.25
365.92	96.25
366.147	80.25
366.373	83.25
366.599	99.25
366.826	74.25
367.052	88.25
367.278	93.25
367.505	81.25
367.731	91.25
367.957	83.25
368.184	80.25
368.41	92.25
368.636	91.25
368.862	83.25
369.089	91.25
369.315	97.25
369.541	98.25
369.767	85.25
369.993	71.25
370.219	75.25
370.445	97.25
370.672	77.25
370.898	91.25
371.124	105.25
371.35	99.25
371.576	93.25
371.802	99.25
372.028	84.25
372.254	97.25
372.48	86.25
372.706	85.25
372.932	95.25
373.158	91.25
373.384	89.25
373.61	97.25
373.835	93.25
374.061	94.25
374.287	101.25
374.513	93.25
374.739	78.25
374.965	87.25
375.191	93.25
375.416	97.25
375.642	98.25
375.868	99.25
376.094	101.25
376.319	86.25
376.545	105.25
376.771	79.25
376.997	93.25
377.222	87.25
377.448	87.25
377.674	92.25
377.899	77.25
378.125	83.25
378.35	90.25
378.576	84.25
378.802	101.25
379.027	94.25
379.253	84.25
379.478	95.25
379.704	79.25
379.929	91.25
380.155	93.25
380.38	96.25
380.606	81.25
380.831	94.25
381.057	96.25
381.282	87.25
381.507	93.25
381.733	92.25
381.958	90.25
382.184	91.25
382.409	96.25
382.634	102.25
382.86	91.25
383.085	84.25
383.31	84.25
383.535	104.25
383.761	91.25
383.986	89.25
384.211	107.25
384.436	97.25
384.662	88.25
384.887	95.25
385.112	92.25
385.337	80.25
385.562	95.25
385.787	97.25
386.013	91.25
386.238	94.25
386.463	97.25
386.688	96.25
386.913	97.25
387.138	89.25
387.363	85.25
387.588	95.25
387.813	103.25
388.038	95.25
388.263	94.25
388.488	93.25
388.713	96.25
388.938	104.25
389.163	99.25
389.387	103.25
389.612	89.25
389.837	103.25
390.062	102.25
390.287	92.25
390.512	95.25
390.736	97.25
390.961	105.25
391.186	88.25
391.411	90.25
391.636	115.25
391.86	92.25
392.085	80.25
392.31	95.25
392.534	98.25
392.759	100.25
392.984	102.25
393.208	85.25
393.433	107.25
393.658	113.25
393.882	116.25
394.107	127.25
394.331	173.25
394.556	209.25
394.78	122.25
395.005	113.25
395.229	98.25
395.454	115.25
395.678	106.25
395.903	158.25
396.127	242.25
396.352	223.25
396.576	136.25
396.801	99.25
397.025	103.25
397.249	102.25
397.474	102.25
397.698	93.25
397.922	108.25
398.147	103.25
398.371	96.25
398.595	95.25
398.82	89.25
399.044	95.25
399.268	83.25
399.492	96.25
399.717	93.25
399.941	95.25
400.165	91.25
400.389	97.25
400.613	102.25
400.837	109.25
401.062	98.25
401.286	90.25
401.51	93.25
401.734	107.25
401.958	96.25
402.182	105.25
402.406	96.25
402.63	105.25
402.854	107.25
403.078	97.25
403.302	96.25
403.526	106.25
403.75	91.25
403.974	96.25
404.198	119.25
404.422	105.25
404.645	107.25
404.869	93.25
405.093	107.25
405.317	88.25
405.541	101.25
405.765	92.25
405.988	98.25
406.212	107.25
406.436	102.25
406.66	103.25
406.883	96.25
407.107	76.25
407.331	97.25
407.555	100.25
407.778	100.25
408.002	98.25
408.226	108.25
408.449	94.25
408.673	114.25
408.896	109.25
409.12	90.25
409.344	110.25
409.567	107.25
409.791	102.25
410.014	105.25
410.238	111.25
410.461	98.25
410.685	100.25
410.908	108.25
411.132	107.25
411.355	96.25
411.578	117.25
411.802	97.25
412.025	101.25
412.249	116.25
412.472	95.25
412.695	123.25
412.919	112.25
413.142	103.25
413.365	95.25
413.589	116.25
413.812	100.25
414.035	109.25
414.258	121.25
414.482	104.25
414.705	98.25
414.928	92.25
415.151	97.25
415.374	109.25
415.597	102.25
415.821	104.25
416.044	104.25
416.267	107.25
416.49	105.25
416.713	103.25
416.936	97.25
417.159	96.25
417.382	104.25
417.605	101.25
417.828	103.25
418.051	106.25
418.274	112.25
418.497	115.25
418.72	102.25
418.943	112.25
419.166	121.25
419.389	113.25
419.611	93.25
419.834	83.25
420.057	94.25
420.28	94.25
420.503	101.25
420.726	112.25
420.948	95.25
421.171	98.25
421.394	91.25
421.617	108.25
421.839	91.25
422.062	91.25
422.285	90.25
422.507	108.25
422.73	103.25
422.953	112.25
423.175	104.25
423.398	101.25
423.621	105.25
423.843	107.25
424.066	123.25
424.288	100.25
424.511	105.25
424.733	103.25
424.956	88.25
425.178	116.25
425.401	101.25
425.623	109.25
425.846	108.25
426.068	110.25
426.291	120.25
426.513	95.25
426.735	105.25
426.958	100.25
427.18	116.25
427.402	98.25
427.625	93.25
427.847	91.25
428.069	92.25
428.292	105.25
428.514	103.25
428.736	106.25
428.958	101.25
429.181	95.25
429.403	105.25
429.625	111.25
429.847	100.25
430.069	119.25
430.292	98.25
430.514	120.25
430.736	112.25
430.958	93.25
431.18	109.25
431.402	91.25
431.624	92.25
431.846	76.25
432.068	89.25
432.29	100.25
432.512	100.25
432.734	96.25
432.956	112.25
433.178	110.25
433.4	101.25
433.622	105.25
433.844	103.25
434.066	85.25
434.287	85.25
434.509	99.25
434.731	85.25
434.953	97.25
435.175	114.25
435.397	116.25
435.618	100.25
435.84	103.25
436.062	108.25
436.284	91.25
436.505	109.25
436.727	95.25
436.949	97.25
437.17	96.25
437.392	112.25
437.614	103.25
437.835	78.25
438.057	101.25
438.278	98.25
438.5	111.25
438.721	91.25
438.943	107.25
439.165	110.25
439.386	124.25
439.608	103.25
439.829	123.25
440.05	107.25
440.272	92.25
440.493	110.25
440.715	99.25
440.936	105.25
441.158	91.25
441.379	107.25
441.6	105.25
441.822	121.25
442.043	112.25
442.264	98.25
442.486	117.25
442.707	114.25
442.928	104.25
443.149	109.25
443.371	112.25
443.592	115.25
443.813	109.25
444.034	120.25
444.255	107.25
444.476	105.25
444.698	111.25
444.919	112.25
445.14	170.25
445.361	141.25
445.582	104.25
445.803	111.25
446.024	112.25
446.245	111.25
446.466	109.25
446.687	125.25
446.908	119.25
447.129	119.25
447.35	99.25
447.571	112.25
447.792	105.25
448.013	103.25
448.234	112.25
448.455	91.25
448.675	101.25
448.896	121.25
449.117	107.25
449.338	98.25
449.559	107.25
449.779	113.25
450	113.25
450.221	109.25
450.442	104.25
450.662	109.25
450.883	112.25
451.104	100.25
451.324	99.25
451.545	112.25
451.766	103.25
451.986	121.25
452.207	123.25
452.428	103.25
452.648	113.25
452.869	103.25
453.089	97.25
453.31	95.25
453.53	103.25
453.751	85.25
453.971	88.25
454.192	87.25
454.412	93.25
454.633	91.25
454.853	108.25
455.073	98.25
455.294	109.25
455.514	114.25
455.734	95.25
455.955	117.25
456.175	95.25
456.395	93.25
456.616	92.25
456.836	103.25
457.056	96.25
457.276	100.25
457.497	110.25
457.717	85.25
457.937	100.25
458.157	85.25
458.377	91.25
458.598	98.25
458.818	92.25
459.038	81.25
459.258	95.25
459.478	80.25
459.698	91.25
459.918	95.25
460.138	91.25
460.358	97.25
460.578	89.25
460.798	82.25
461.018	99.25
461.238	112.25
461.458	97.25
461.678	97.25
461.898	84.25
462.118	81.25
462.338	97.25
462.558	116.25
462.777	97.25
462.997	89.25
463.217	89.25
463.437	100.25
463.657	106.25
463.876	91.25
464.096	99.25
464.316	95.25
464.536	100.25
464.755	94.25
464.975	103.25
465.195	92.25
465.414	98.25
465.634	90.25
465.854	89.25
466.073	103.25
466.293	98.25
466.512	108.25
466.732	106.25
466.951	120.25
467.171	113.25
467.391	116.25
467.61	115.25
467.829	122.25
468.049	116.25
468.268	116.25
468.488	113.25
468.707	112.25
468.927	112.25
469.146	134.25
469.365	120.25
469.585	123.25
469.804	119.25
470.023	123.25
470.243	114.25
470.462	107.25
470.681	128.25
470.901	125.25
471.12	115.25
471.339	115.25
471.558	106.25
471.777	101.25
471.997	106.25
472.216	99.25
472.435	99.25
472.654	98.25
472.873	102.25
473.092	103.25
473.311	119.25
473.53	125.25
473.749	100.25
473.968	103.25
474.187	111.25
474.406	77.25
474.625	98.25
474.844	115.25
475.063	116.25
475.282	110.25
475.501	93.25
475.72	101.25
475.939	102.25
476.158	133.25
476.377	99.25
476.596	100.25
476.814	85.25
477.033	106.25
477.252	95.25
477.471	103.25
477.69	85.25
477.908	105.25
478.127	106.25
478.346	102.25
478.564	95.25
478.783	101.25
479.002	96.25
479.22	120.25
479.439	108.25
479.658	109.25
479.876	86.25
480.095	103.25
480.313	103.25
480.532	95.25
480.751	82.25
480.969	78.25
481.188	80.25
481.406	99.25
481.624	75.25
481.843	91.25
482.061	73.25
482.28	91.25
482.498	92.25
482.717	99.25
482.935	84.25
483.153	107.25
483.372	116.25
483.59	120.25
483.808	83.25
484.027	105.25
484.245	93.25
484.463	99.25
484.681	103.25
484.9	87.25
485.118	116.25
485.336	87.25
485.554	95.25
485.772	97.25
485.99	92.25
486.209	73.25
486.427	94.25
486.645	85.25
486.863	121.25
487.081	96.25
487.299	103.25
487.517	101.25
487.735	133.25
487.953	123.25
488.171	115.25
488.389	112.25
488.607	105.25
488.825	101.25
489.043	100.25
489.261	88.25
489.479	109.25
489.696	107.25
489.914	125.25
490.132	112.25
490.35	129.25
490.568	138.25
490.786	135.25
491.003	124.25
491.221	121.25
491.439	115.25
491.657	147.25
491.874	163.25
492.092	135.25
492.31	141.25
492.527	139.25
492.745	144.25
492.963	149.25
493.18	139.25
493.398	134.25
493.615	138.25
493.833	134.25
494.05	124.25
494.268	122.25
494.485	131.25
494.703	121.25
494.92	119.25
495.138	120.25
495.355	129.25
495.573	121.25
495.79	128.25
496.008	117.25
496.225	124.25
496.442	115.25
496.66	116.25
496.877	102.25
497.094	123.25
497.312	109.25
497.529	125.25
497.746	108.25
497.963	100.25
498.181	91.25
498.398	103.25
498.615	83.25
498.832	91.25
499.049	91.25
499.267	100.25
499.484	110.25
499.701	103.25
499.918	101.25
500.135	108.25
500.352	97.25
500.569	111.25
500.786	97.25
501.003	99.25
501.22	103.25
501.437	104.25
501.654	103.25
501.871	105.25
502.088	100.25
502.305	104.25
502.522	102.25
502.739	123.25
502.956	108.25
503.172	94.25
503.389	107.25
503.606	110.25
503.823	94.25
504.04	98.25
504.256	104.25
504.473	95.25
504.69	110.25
504.907	111.25
505.123	94.25
505.34	107.25
505.557	99.25
505.773	92.25
505.99	105.25
506.207	107.25
506.423	99.25
506.64	94.25
506.856	94.25
507.073	106.25
507.289	94.25
507.506	95.25
507.722	77.25
507.939	83.25
508.155	97.25
508.372	85.25
508.588	111.25
508.805	99.25
509.021	100.25
509.238	96.25
509.454	86.25
509.67	100.25
509.887	87.25
510.103	84.25
510.319	98.25
510.536	92.25
510.752	99.25
510.968	91.25
511.184	87.25
511.401	95.25
511.617	83.25
511.833	90.25
512.049	86.25
512.265	92.25
512.481	99.25
512.698	86.25
512.914	86.25
513.13	104.25
513.346	85.25
513.562	101.25
513.778	95.25
513.994	99.25
514.21	103.25
514.426	96.25
514.642	85.25
