Data from Foil_1_HRD10591_00010.txt Node
Date: Wed Nov 05 16:15:25 EST 2025
User: Yrep
Spectrometer: HR+D1059
Trigger mode: 1
Integration Time (sec): 1.000000E-1
Scans to average: 1
Electric dark correction enabled: true
Nonlinearity correction enabled: false
Boxcar width: 0
XAxis mode: Wavelengths
Number of Pixels in Spectrum: 2048
>>>>>Begin Spectral Data<<<<<
223.165	-4
223.4	-4
223.635	-4
223.869	-33
224.104	-23
224.338	-19
224.573	-23
224.808	-5
225.042	-18
225.277	-7
225.511	5
225.746	12
225.98	1
226.215	12
226.449	26
226.683	26
226.918	25
227.152	25
227.387	32
227.621	29
227.856	46
228.09	38
228.324	53
228.559	59
228.793	71
229.027	65
229.262	64
229.496	68
229.73	69
229.964	68
230.199	77
230.433	82
230.667	71
230.901	76
231.136	71
231.37	83
231.604	79
231.838	90
232.072	91
232.306	93
232.541	85
232.775	69
233.009	90
233.243	65
233.477	77
233.711	88
233.945	79
234.179	63
234.413	72
234.647	73
234.881	67
235.115	72
235.349	77
235.583	84
235.817	77
236.051	71
236.285	77
236.519	80
236.753	67
236.987	79
237.221	78
237.455	74
237.689	77
237.922	71
238.156	68
238.39	71
238.624	75
238.858	76
239.091	78
239.325	77
239.559	72
239.793	72
240.027	67
240.26	65
240.494	73
240.728	67
240.961	80
241.195	83
241.429	91
241.662	71
241.896	74
242.13	71
242.363	72
242.597	71
242.83	85
243.064	63
243.298	87
243.531	84
243.765	76
243.998	79
244.232	56
244.465	79
244.699	67
244.932	73
245.166	84
245.399	79
245.633	63
245.866	69
246.099	81
246.333	85
246.566	79
246.8	80
247.033	88
247.266	72
247.5	78
247.733	72
247.966	77
248.2	94
248.433	67
248.666	81
248.899	79
249.133	86
249.366	81
249.599	74
249.832	74
250.066	80
250.299	77
250.532	70
250.765	65
250.998	70
251.231	77
251.465	87
251.698	86
251.931	82
252.164	79
252.397	66
252.63	61
252.863	75
253.096	71
253.329	80
253.562	84
253.795	75
254.028	81
254.261	87
254.494	81
254.727	87
254.96	88
255.193	78
255.426	76
255.659	72
255.892	89
256.124	83
256.357	83
256.59	82
256.823	73
257.056	78
257.289	74
257.521	87
257.754	86
257.987	88
258.22	84
258.452	91
258.685	74
258.918	79
259.151	80
259.383	81
259.616	79
259.849	85
260.081	67
260.314	71
260.547	77
260.779	96
261.012	85
261.244	67
261.477	75
261.71	75
261.942	77
262.175	85
262.407	76
262.64	79
262.872	88
263.105	67
263.337	77
263.57	75
263.802	81
264.035	81
264.267	91
264.499	75
264.732	84
264.964	71
265.197	93
265.429	85
265.661	76
265.894	89
266.126	91
266.358	88
266.591	91
266.823	72
267.055	85
267.287	87
267.52	85
267.752	86
267.984	87
268.216	80
268.448	85
268.681	83
268.913	90
269.145	70
269.377	73
269.609	85
269.841	76
270.073	81
270.306	77
270.538	81
270.77	86
271.002	82
271.234	77
271.466	80
271.698	80
271.93	79
272.162	85
272.394	88
272.626	91
272.858	90
273.09	79
273.322	68
273.553	81
273.785	81
274.017	77
274.249	86
274.481	82
274.713	78
274.945	86
275.176	78
275.408	85
275.64	87
275.872	80
276.104	61
276.335	73
276.567	87
276.799	77
277.031	83
277.262	77
277.494	99
277.726	79
277.957	92
278.189	80
278.421	76
278.652	89
278.884	94
279.115	97
279.347	69
279.579	81
279.81	94
280.042	87
280.273	78
280.505	88
280.736	82
280.968	90
281.199	90
281.431	88
281.662	80
281.894	89
282.125	85
282.356	68
282.588	86
282.819	94
283.051	82
283.282	86
283.513	84
283.745	90
283.976	93
284.207	83
284.439	95
284.67	81
284.901	86
285.132	92
285.364	72
285.595	87
285.826	93
286.057	73
286.288	101
286.52	86
286.751	85
286.982	67
287.213	77
287.444	81
287.675	91
287.906	99
288.138	87
288.369	91
288.6	71
288.831	82
289.062	85
289.293	87
289.524	91
289.755	95
289.986	78
290.217	70
290.448	87
290.679	92
290.91	91
291.141	73
291.371	93
291.602	77
291.833	85
292.064	88
292.295	80
292.526	79
292.757	77
292.987	85
293.218	87
293.449	92
293.68	93
293.91	84
294.141	81
294.372	85
294.603	87
294.833	81
295.064	81
295.295	78
295.525	97
295.756	69
295.987	93
296.217	89
296.448	83
296.679	84
296.909	79
297.14	87
297.37	85
297.601	72
297.831	92
298.062	80
298.292	86
298.523	95
298.753	101
298.984	85
299.214	81
299.445	81
299.675	79
299.905	75
300.136	91
300.366	80
300.597	79
300.827	91
301.057	79
301.288	87
301.518	83
301.748	73
301.979	96
302.209	80
302.439	78
302.669	81
302.9	89
303.13	88
303.36	86
303.59	91
303.82	89
304.051	88
304.281	82
304.511	90
304.741	86
304.971	81
305.201	87
305.431	90
305.661	90
305.891	83
306.121	85
306.352	84
306.582	88
306.812	80
307.042	91
307.272	86
307.502	87
307.731	89
307.961	89
308.191	98
308.421	110
308.651	109
308.881	107
309.111	103
309.341	123
309.571	110
309.8	85
310.03	81
310.26	69
310.49	88
310.72	92
310.949	82
311.179	79
311.409	83
311.639	94
311.868	91
312.098	74
312.328	85
312.557	96
312.787	101
313.017	91
313.246	79
313.476	93
313.706	68
313.935	79
314.165	96
314.394	86
314.624	94
314.853	84
315.083	79
315.312	78
315.542	88
315.771	81
316.001	79
316.23	91
316.46	91
316.689	86
316.919	79
317.148	87
317.377	82
317.607	89
317.836	98
318.065	89
318.295	94
318.524	85
318.753	88
318.983	90
319.212	73
319.441	85
319.67	95
319.9	70
320.129	72
320.358	78
320.587	89
320.816	79
321.046	80
321.275	90
321.504	98
321.733	81
321.962	87
322.191	87
322.42	87
322.649	91
322.878	90
323.108	86
323.337	89
323.566	91
323.795	85
324.024	95
324.253	85
324.482	81
324.71	87
324.939	96
325.168	88
325.397	96
325.626	81
325.855	100
326.084	75
326.313	93
326.542	72
326.77	85
326.999	77
327.228	80
327.457	84
327.686	90
327.914	78
328.143	94
328.372	69
328.6	83
328.829	90
329.058	86
329.287	89
329.515	88
329.744	94
329.972	78
330.201	91
330.43	71
330.658	91
330.887	78
331.115	98
331.344	76
331.572	87
331.801	73
332.03	95
332.258	81
332.486	74
332.715	87
332.943	80
333.172	71
333.4	92
333.629	92
333.857	68
334.085	76
334.314	100
334.542	80
334.771	79
334.999	79
335.227	73
335.455	82
335.684	87
335.912	80
336.14	87
336.369	81
336.597	83
336.825	86
337.053	91
337.281	82
337.51	66
337.738	82
337.966	75
338.194	71
338.422	77
338.65	100
338.878	96
339.106	90
339.334	82
339.562	70
339.79	71
340.018	87
340.246	79
340.474	87
340.702	77
340.93	85
341.158	83
341.386	80
341.614	75
341.842	85
342.07	74
342.298	91
342.526	83
342.754	85
342.981	81
343.209	80
343.437	92
343.665	77
343.893	79
344.12	81
344.348	96
344.576	76
344.804	83
345.031	80
345.259	88
345.487	83
345.714	82
345.942	83
346.17	103
346.397	97
346.625	88
346.853	80
347.08	78
347.308	76
347.535	86
347.763	79
347.99	93
348.218	94
348.445	89
348.673	89
348.9	96
349.128	99
349.355	71
349.583	95
349.81	94
350.037	83
350.265	92
350.492	89
350.72	90
350.947	85
351.174	85
351.402	80
351.629	81
351.856	88
352.083	83
352.311	82
352.538	85
352.765	81
352.992	94
353.22	86
353.447	84
353.674	77
353.901	102
354.128	78
354.355	77
354.583	87
354.81	84
355.037	82
355.264	64
355.491	87
355.718	80
355.945	89
356.172	75
356.399	86
356.626	77
356.853	80
357.08	86
357.307	78
357.534	83
357.761	87
357.988	97
358.215	84
358.441	76
358.668	90
358.895	79
359.122	93
359.349	77
359.576	90
359.802	87
360.029	89
360.256	86
360.483	77
360.709	87
360.936	101
361.163	93
361.39	88
361.616	85
361.843	88
362.07	73
362.296	81
362.523	87
362.749	67
362.976	85
363.203	82
363.429	85
363.656	80
363.882	81
364.109	80
364.335	82
364.562	85
364.788	78
365.015	83
365.241	78
365.468	86
365.694	96
365.92	86
366.147	77
366.373	79
366.599	77
366.826	80
367.052	85
367.278	99
367.505	80
367.731	88
367.957	87
368.184	76
368.41	87
368.636	85
368.862	82
369.089	95
369.315	81
369.541	101
369.767	80
369.993	90
370.219	84
370.445	71
370.672	80
370.898	89
371.124	92
371.35	75
371.576	89
371.802	75
372.028	82
372.254	65
372.48	101
372.706	78
372.932	88
373.158	80
373.384	87
373.61	78
373.835	87
374.061	93
374.287	79
374.513	70
374.739	86
374.965	96
375.191	93
375.416	89
375.642	85
375.868	97
376.094	103
376.319	100
376.545	99
376.771	94
376.997	94
377.222	84
377.448	92
377.674	84
377.899	91
378.125	91
378.35	81
378.576	98
378.802	74
379.027	90
379.253	90
379.478	72
379.704	88
379.929	88
380.155	84
380.38	94
380.606	83
380.831	75
381.057	89
381.282	91
381.507	87
381.733	82
381.958	82
382.184	91
382.409	89
382.634	98
382.86	94
383.085	90
383.31	68
383.535	96
383.761	80
383.986	85
384.211	90
384.436	87
384.662	81
384.887	78
385.112	82
385.337	85
385.562	96
385.787	92
386.013	79
386.238	87
386.463	92
386.688	91
386.913	89
387.138	88
387.363	91
387.588	86
387.813	85
388.038	85
388.263	100
388.488	90
388.713	92
388.938	84
389.163	92
389.387	83
389.612	92
389.837	87
390.062	90
390.287	81
390.512	93
390.736	86
390.961	80
391.186	106
391.411	77
391.636	90
391.86	94
392.085	110
392.31	104
392.534	101
392.759	99
392.984	94
393.208	87
393.433	94
393.658	96
393.882	105
394.107	121
394.331	183
394.556	197
394.78	136
395.005	103
395.229	101
395.454	121
395.678	119
395.903	153
396.127	238
396.352	247
396.576	129
396.801	91
397.025	103
397.249	92
397.474	97
397.698	93
397.922	96
398.147	90
398.371	101
398.595	78
398.82	103
399.044	92
399.268	80
399.492	98
399.717	91
399.941	86
400.165	89
400.389	105
400.613	101
400.837	92
401.062	90
401.286	86
401.51	94
401.734	95
401.958	100
402.182	93
402.406	95
402.63	92
402.854	107
403.078	99
403.302	101
403.526	101
403.75	91
403.974	110
404.198	91
404.422	96
404.645	98
404.869	96
405.093	74
405.317	89
405.541	82
405.765	100
405.988	91
406.212	99
406.436	95
406.66	95
406.883	93
407.107	94
407.331	95
407.555	98
407.778	81
408.002	93
408.226	95
408.449	107
408.673	91
408.896	99
409.12	108
409.344	103
409.567	101
409.791	93
410.014	98
410.238	83
410.461	85
410.685	111
410.908	110
411.132	91
411.355	97
411.578	102
411.802	99
412.025	100
412.249	116
412.472	95
412.695	103
412.919	103
413.142	122
413.365	113
413.589	101
413.812	88
414.035	109
414.258	102
414.482	99
414.705	96
414.928	97
415.151	98
415.374	91
415.597	87
415.821	82
416.044	101
416.267	98
416.49	116
416.713	97
416.936	96
417.159	101
417.382	101
417.605	98
417.828	98
418.051	111
418.274	101
418.497	96
418.72	97
418.943	98
419.166	95
419.389	104
419.611	87
419.834	103
420.057	94
420.28	100
420.503	93
420.726	92
420.948	100
421.171	97
421.394	101
421.617	93
421.839	104
422.062	96
422.285	95
422.507	87
422.73	91
422.953	103
423.175	111
423.398	92
423.621	89
423.843	99
424.066	92
424.288	117
424.511	104
424.733	105
424.956	85
425.178	98
425.401	101
425.623	108
425.846	109
426.068	106
426.291	99
426.513	106
426.735	109
426.958	100
427.18	86
427.402	111
427.625	83
427.847	104
428.069	109
428.292	117
428.514	107
428.736	107
428.958	110
429.181	105
429.403	95
429.625	98
429.847	109
430.069	97
430.292	93
430.514	85
430.736	94
430.958	88
431.18	103
431.402	88
431.624	85
431.846	99
432.068	80
432.29	85
432.512	103
432.734	100
432.956	108
433.178	107
433.4	112
433.622	104
433.844	89
434.066	95
434.287	95
434.509	82
434.731	80
434.953	83
435.175	105
435.397	100
435.618	96
435.84	95
436.062	97
436.284	85
436.505	97
436.727	107
436.949	103
437.17	108
437.392	95
437.614	97
437.835	67
438.057	83
438.278	95
438.5	98
438.721	98
438.943	110
439.165	106
439.386	94
439.608	83
439.829	108
440.05	115
440.272	105
440.493	109
440.715	113
440.936	125
441.158	110
441.379	103
441.6	102
441.822	99
442.043	92
442.264	107
442.486	123
442.707	106
442.928	104
443.149	111
443.371	107
443.592	105
443.813	91
444.034	100
444.255	104
444.476	112
444.698	92
444.919	121
445.14	176
445.361	131
445.582	102
445.803	123
446.024	113
446.245	103
446.466	111
446.687	95
446.908	98
447.129	112
447.35	106
447.571	105
447.792	100
448.013	91
448.234	89
448.455	92
448.675	103
448.896	102
449.117	121
449.338	104
449.559	115
449.779	101
450	108
450.221	111
450.442	112
450.662	94
450.883	120
451.104	97
451.324	119
451.545	108
451.766	112
451.986	113
452.207	87
452.428	91
452.648	95
452.869	87
453.089	105
453.31	103
453.53	88
453.751	93
453.971	89
454.192	91
454.412	99
454.633	95
454.853	110
455.073	106
455.294	93
455.514	99
455.734	83
455.955	96
456.175	91
456.395	84
456.616	101
456.836	90
457.056	91
457.276	82
457.497	86
457.717	91
457.937	96
458.157	91
458.377	76
458.598	93
458.818	95
459.038	91
459.258	80
459.478	90
459.698	93
459.918	74
460.138	79
460.358	85
460.578	98
460.798	83
461.018	97
461.238	87
461.458	101
461.678	97
461.898	100
462.118	91
462.338	103
462.558	91
462.777	93
462.997	101
463.217	93
463.437	100
463.657	103
463.876	95
464.096	104
464.316	82
464.536	86
464.755	89
464.975	97
465.195	88
465.414	101
465.634	101
465.854	77
466.073	104
466.293	109
466.512	97
466.732	108
466.951	112
467.171	109
467.391	110
467.61	123
467.829	106
468.049	125
468.268	105
468.488	108
468.707	115
468.927	122
469.146	105
469.365	127
469.585	108
469.804	96
470.023	93
470.243	105
470.462	133
470.681	121
470.901	112
471.12	93
471.339	113
471.558	99
471.777	102
471.997	104
472.216	104
472.435	97
472.654	88
472.873	87
473.092	91
473.311	102
473.53	104
473.749	113
473.968	116
474.187	112
474.406	100
474.625	109
474.844	112
475.063	95
475.282	111
475.501	93
475.72	94
475.939	96
476.158	104
476.377	104
476.596	94
476.814	103
477.033	97
477.252	95
477.471	93
477.69	100
477.908	104
478.127	82
478.346	95
478.564	102
478.783	86
479.002	96
479.22	112
479.439	111
479.658	93
479.876	87
480.095	93
480.313	91
480.532	99
480.751	87
480.969	73
481.188	81
481.406	84
481.624	89
481.843	85
482.061	107
482.28	92
482.498	84
482.717	79
482.935	93
483.153	100
483.372	113
483.59	108
483.808	111
484.027	90
484.245	94
484.463	84
484.681	102
484.9	110
485.118	108
485.336	89
485.554	81
485.772	96
485.99	93
486.209	94
486.427	96
486.645	95
486.863	97
487.081	105
487.299	100
487.517	110
487.735	111
487.953	117
488.171	109
488.389	119
488.607	99
488.825	96
489.043	104
489.261	114
489.479	90
489.696	109
489.914	111
490.132	96
490.35	120
490.568	111
490.786	121
491.003	108
491.221	116
491.439	137
491.657	142
491.874	141
492.092	135
492.31	136
492.527	144
492.745	134
492.963	142
493.18	127
493.398	129
493.615	134
493.833	129
494.05	135
494.268	130
494.485	143
494.703	113
494.92	119
495.138	132
495.355	122
495.573	136
495.79	117
496.008	126
496.225	118
496.442	127
496.66	127
496.877	127
497.094	112
497.312	108
497.529	125
497.746	110
497.963	99
498.181	87
498.398	97
498.615	98
498.832	95
499.049	97
499.267	101
499.484	112
499.701	95
499.918	117
500.135	99
500.352	108
500.569	100
500.786	111
501.003	110
501.22	97
501.437	110
501.654	101
501.871	100
502.088	95
502.305	107
502.522	90
502.739	104
502.956	96
503.172	107
503.389	95
503.606	91
503.823	104
504.04	89
504.256	91
504.473	95
504.69	94
504.907	92
505.123	104
505.34	96
505.557	82
505.773	92
505.99	103
506.207	87
506.423	88
506.64	93
506.856	113
507.073	97
507.289	93
507.506	82
507.722	104
507.939	85
508.155	95
508.372	92
508.588	97
508.805	90
509.021	90
509.238	103
509.454	77
509.67	93
509.887	105
510.103	89
510.319	106
510.536	92
510.752	91
510.968	81
511.184	79
511.401	82
511.617	87
511.833	83
512.049	100
512.265	90
512.481	94
512.698	91
512.914	87
513.13	92
513.346	88
513.562	87
513.778	85
513.994	93
514.21	102
514.426	87
514.642	95
514.858	85
515.074	81
515.29	83
515.506	87
515.721	82
515.937	94
516.153	92
516.369	71
516.585	82
516.801	92
517.016	85
517.232	89
517.448	79
517.664	82
517.879	93
518.095	84
518.311	85
518.527	86
518.742	83
518.958	86
519.173	99
519.389	89
519.605	86
519.82	98
520.036	105
520.251	99
520.467	95
520.682	85
520.898	93
521.113	86
521.329	82
521.544	81
521.76	85
521.975	93
522.19	85
522.406	93
522.621	98
522.836	82
523.052	94
523.267	100
523.482	81
523.698	108
523.913	101
524.128	103
524.343	96
524.559	90
524.774	96
524.989	93
525.204	95
525.419	84
525.634	89
525.849	102
526.064	78
526.28	89
526.495	79
526.71	69
526.925	90
527.14	91
527.355	83
527.57	85
527.785	73
527.999	80
528.214	93
528.429	96
528.644	102
528.859	110
529.074	102
529.289	101
529.503	87
529.718	89
529.933	87
530.148	87
530.363	94
530.577	66
530.792	65
531.007	93
531.221	77
531.436	101
531.651	100
531.865	75
532.08	78
532.295	92
532.509	87
532.724	80
532.938	87
533.153	73
533.367	91
533.582	83
533.796	89
534.011	101
534.225	82
534.44	80
534.654	93
534.868	106
535.083	85
535.297	85
535.511	90
535.726	79
535.94	99
536.154	88
536.369	93
536.583	93
536.797	96
537.011	82
537.225	83
537.44	84
537.654	82
537.868	90
538.082	88
538.296	81
538.51	94
538.724	95
538.938	88
539.153	95
539.367	99
539.581	90
539.795	85
540.009	86
540.222	92
540.436	94
540.65	103
540.864	123
541.078	94
541.292	104
541.506	101
541.72	119
541.934	107
542.147	101
542.361	111
542.575	115
542.789	111
543.002	87
543.216	81
543.43	91
543.644	99
543.857	112
544.071	117
544.285	129
544.498	124
544.712	125
544.925	124
545.139	124
545.352	140
545.566	134
545.779	118
545.993	132
546.206	121
546.42	115
546.633	117
546.847	131
547.06	130
547.274	134
547.487	130
547.7	117
547.914	125
548.127	123
548.34	129
548.554	117
548.767	127
548.98	120
549.193	123
549.407	116
549.62	106
549.833	116
550.046	105
550.259	125
550.473	121
550.686	121
550.899	112
551.112	119
551.325	98
551.538	104
551.751	105
551.964	108
552.177	104
552.39	120
552.603	105
552.816	140
553.029	123
553.242	107
553.455	117
553.667	124
553.88	110
554.093	110
554.306	118
554.519	127
554.732	125
554.944	120
555.157	123
555.37	118
555.583	119
555.795	118
556.008	91
556.221	117
556.433	115
556.646	107
556.859	119
557.071	110
557.284	113
557.496	125
557.709	100
557.921	125
558.134	112
558.346	108
558.559	108
558.771	98
558.984	102
559.196	109
559.409	96
559.621	113
559.833	110
560.046	104
560.258	112
560.47	124
560.683	106
560.895	115
561.107	117
561.32	111
561.532	103
561.744	111
561.956	123
562.168	105
562.381	99
562.593	101
562.805	100
563.017	114
563.229	109
563.441	109
563.653	101
563.865	102
564.077	110
564.289	103
564.501	104
564.713	101
564.925	95
565.137	116
565.349	101
565.561	106
565.773	110
565.985	95
566.197	87
566.408	99
566.62	81
566.832	92
567.044	97
567.255	102
567.467	90
567.679	88
567.891	103
568.102	93
568.314	85
568.526	81
568.737	100
568.949	91
569.161	79
569.372	77
569.584	96
569.795	83
570.007	96
570.218	92
570.43	90
570.641	87
570.853	97
571.064	96
571.276	95
571.487	94
571.698	87
571.91	79
572.121	93
572.333	89
572.544	82
572.755	91
572.966	91
573.178	86
573.389	88
573.6	71
573.811	79
574.023	87
574.234	83
574.445	85
574.656	91
574.867	87
575.078	88
575.289	90
575.501	90
575.712	89
575.923	82
576.134	85
576.345	81
576.556	93
576.767	89
576.978	92
577.188	87
577.399	75
577.61	93
577.821	79
578.032	81
578.243	96
578.454	83
578.665	89
578.875	77
579.086	89
579.297	85
579.508	84
579.718	86
579.929	93
580.14	85
580.35	97
580.561	91
580.772	84
580.982	71
581.193	97
581.403	89
581.614	85
581.825	89
582.035	95
582.246	100
582.456	87
582.667	71
582.877	94
583.087	85
583.298	77
583.508	81
583.719	84
583.929	85
