Data from Circ_2012_H10_HRD10591_00089.txt Node
Date: Wed Jan 03 10:06:08 EST 2024
User: Yrep
Spectrometer: HR+D1059
Trigger mode: 1
Integration Time (sec): 1.000000E-1
Scans to average: 1
Electric dark correction enabled: true
Nonlinearity correction enabled: false
Boxcar width: 0
XAxis mode: Wavelengths
Number of Pixels in Spectrum: 2048
>>>>>Begin Spectral Data<<<<<
223.165	-21.56
223.4	-21.56
223.635	-21.56
223.869	-24.56
224.104	-11.56
224.338	-20.56
224.573	-1.56
224.808	-9.56
225.042	-5.56
225.277	-0.56
225.511	-2.56
225.746	0.44
225.98	-11.56
226.215	13.44
226.449	4.44
226.683	24.44
226.918	23.44
227.152	43.44
227.387	46.44
227.621	48.44
227.856	62.44
228.09	49.44
228.324	61.44
228.559	59.44
228.793	63.44
229.027	58.44
229.262	60.44
229.496	85.44
229.73	82.44
229.964	83.44
230.199	75.44
230.433	88.44
230.667	83.44
230.901	81.44
231.136	86.44
231.37	88.44
231.604	73.44
231.838	71.44
232.072	78.44
232.306	81.44
232.541	79.44
232.775	91.44
233.009	88.44
233.243	81.44
233.477	79.44
233.711	73.44
233.945	84.44
234.179	85.44
234.413	87.44
234.647	71.44
234.881	71.44
235.115	74.44
235.349	76.44
235.583	66.44
235.817	94.44
236.051	71.44
236.285	77.44
236.519	89.44
236.753	73.44
236.987	85.44
237.221	92.44
237.455	85.44
237.689	78.44
237.922	83.44
238.156	73.44
238.39	65.44
238.624	61.44
238.858	75.44
239.091	83.44
239.325	87.44
239.559	90.44
239.793	81.44
240.027	81.44
240.26	79.44
240.494	87.44
240.728	76.44
240.961	81.44
241.195	69.44
241.429	86.44
241.662	79.44
241.896	82.44
242.13	75.44
242.363	67.44
242.597	74.44
242.83	79.44
243.064	84.44
243.298	77.44
243.531	80.44
243.765	72.44
243.998	75.44
244.232	85.44
244.465	80.44
244.699	92.44
244.932	85.44
245.166	81.44
245.399	78.44
245.633	71.44
245.866	78.44
246.099	77.44
246.333	75.44
246.566	79.44
246.8	89.44
247.033	67.44
247.266	78.44
247.5	75.44
247.733	80.44
247.966	77.44
248.2	101.44
248.433	81.44
248.666	77.44
248.899	79.44
249.133	74.44
249.366	88.44
249.599	92.44
249.832	91.44
250.066	87.44
250.299	95.44
250.532	104.44
250.765	92.44
250.998	71.44
251.231	91.44
251.465	91.44
251.698	80.44
251.931	79.44
252.164	78.44
252.397	75.44
252.63	83.44
252.863	70.44
253.096	83.44
253.329	70.44
253.562	74.44
253.795	76.44
254.028	80.44
254.261	94.44
254.494	74.44
254.727	91.44
254.96	77.44
255.193	93.44
255.426	97.44
255.659	66.44
255.892	78.44
256.124	87.44
256.357	80.44
256.59	76.44
256.823	86.44
257.056	87.44
257.289	90.44
257.521	79.44
257.754	84.44
257.987	72.44
258.22	91.44
258.452	86.44
258.685	79.44
258.918	90.44
259.151	76.44
259.383	79.44
259.616	91.44
259.849	93.44
260.081	91.44
260.314	91.44
260.547	90.44
260.779	84.44
261.012	89.44
261.244	79.44
261.477	92.44
261.71	86.44
261.942	98.44
262.175	96.44
262.407	85.44
262.64	80.44
262.872	88.44
263.105	88.44
263.337	86.44
263.57	94.44
263.802	96.44
264.035	83.44
264.267	87.44
264.499	81.44
264.732	80.44
264.964	56.44
265.197	87.44
265.429	85.44
265.661	97.44
265.894	68.44
266.126	86.44
266.358	91.44
266.591	94.44
266.823	93.44
267.055	80.44
267.287	92.44
267.52	80.44
267.752	74.44
267.984	72.44
268.216	76.44
268.448	74.44
268.681	73.44
268.913	84.44
269.145	87.44
269.377	75.44
269.609	98.44
269.841	76.44
270.073	79.44
270.306	95.44
270.538	84.44
270.77	87.44
271.002	85.44
271.234	92.44
271.466	80.44
271.698	89.44
271.93	85.44
272.162	92.44
272.394	88.44
272.626	91.44
272.858	77.44
273.09	77.44
273.322	83.44
273.553	73.44
273.785	100.44
274.017	79.44
274.249	83.44
274.481	93.44
274.713	100.44
274.945	103.44
275.176	88.44
275.408	95.44
275.64	79.44
275.872	96.44
276.104	82.44
276.335	87.44
276.567	95.44
276.799	124.44
277.031	93.44
277.262	97.44
277.494	90.44
277.726	83.44
277.957	86.44
278.189	81.44
278.421	95.44
278.652	88.44
278.884	89.44
279.115	93.44
279.347	88.44
279.579	84.44
279.81	87.44
280.042	95.44
280.273	91.44
280.505	79.44
280.736	91.44
280.968	90.44
281.199	73.44
281.431	103.44
281.662	81.44
281.894	88.44
282.125	95.44
282.356	121.44
282.588	135.44
282.819	103.44
283.051	85.44
283.282	85.44
283.513	95.44
283.745	78.44
283.976	81.44
284.207	85.44
284.439	83.44
284.67	78.44
284.901	96.44
285.132	96.44
285.364	98.44
285.595	94.44
285.826	87.44
286.057	85.44
286.288	94.44
286.52	77.44
286.751	87.44
286.982	86.44
287.213	81.44
287.444	94.44
287.675	88.44
287.906	93.44
288.138	100.44
288.369	91.44
288.6	101.44
288.831	85.44
289.062	83.44
289.293	93.44
289.524	87.44
289.755	92.44
289.986	87.44
290.217	90.44
290.448	92.44
290.679	91.44
290.91	97.44
291.141	92.44
291.371	87.44
291.602	91.44
291.833	82.44
292.064	91.44
292.295	83.44
292.526	92.44
292.757	87.44
292.987	92.44
293.218	93.44
293.449	98.44
293.68	92.44
293.91	100.44
294.141	84.44
294.372	95.44
294.603	74.44
294.833	90.44
295.064	85.44
295.295	93.44
295.525	102.44
295.756	96.44
295.987	109.44
296.217	133.44
296.448	107.44
296.679	90.44
296.909	90.44
297.14	96.44
297.37	94.44
297.601	97.44
297.831	91.44
298.062	69.44
298.292	87.44
298.523	93.44
298.753	83.44
298.984	77.44
299.214	99.44
299.445	92.44
299.675	82.44
299.905	93.44
300.136	109.44
300.366	93.44
300.597	106.44
300.827	99.44
301.057	92.44
301.288	91.44
301.518	97.44
301.748	94.44
301.979	96.44
302.209	91.44
302.439	101.44
302.669	95.44
302.9	98.44
303.13	89.44
303.36	87.44
303.59	87.44
303.82	101.44
304.051	94.44
304.281	87.44
304.511	98.44
304.741	84.44
304.971	85.44
305.201	96.44
305.431	98.44
305.661	76.44
305.891	92.44
306.121	87.44
306.352	87.44
306.582	111.44
306.812	95.44
307.042	105.44
307.272	91.44
307.502	93.44
307.731	101.44
307.961	84.44
308.191	86.44
308.421	92.44
308.651	98.44
308.881	100.44
309.111	94.44
309.341	102.44
309.571	95.44
309.8	89.44
310.03	91.44
310.26	108.44
310.49	92.44
310.72	101.44
310.949	101.44
311.179	109.44
311.409	88.44
311.639	91.44
311.868	100.44
312.098	85.44
312.328	103.44
312.557	100.44
312.787	93.44
313.017	95.44
313.246	99.44
313.476	94.44
313.706	91.44
313.935	92.44
314.165	83.44
314.394	93.44
314.624	96.44
314.853	98.44
315.083	91.44
315.312	96.44
315.542	87.44
315.771	98.44
316.001	84.44
316.23	80.44
316.46	98.44
316.689	72.44
316.919	87.44
317.148	99.44
317.377	91.44
317.607	94.44
317.836	100.44
318.065	106.44
318.295	103.44
318.524	86.44
318.753	95.44
318.983	100.44
319.212	93.44
319.441	100.44
319.67	100.44
319.9	84.44
320.129	87.44
320.358	102.44
320.587	96.44
320.816	100.44
321.046	104.44
321.275	102.44
321.504	91.44
321.733	81.44
321.962	94.44
322.191	106.44
322.42	104.44
322.649	104.44
322.878	111.44
323.108	115.44
323.337	131.44
323.566	132.44
323.795	151.44
324.024	198.44
324.253	376.44
324.482	777.44
324.71	1606.44
324.939	2076.44
325.168	763.44
325.397	231.44
325.626	135.44
325.855	131.44
326.084	119.44
326.313	123.44
326.542	158.44
326.77	229.44
326.999	439.44
327.228	889.44
327.457	1621.44
327.686	1295.44
327.914	366.44
328.143	184.44
328.372	159.44
328.6	139.44
328.829	116.44
329.058	128.44
329.287	115.44
329.515	108.44
329.744	87.44
329.972	111.44
330.201	150.44
330.43	166.44
330.658	140.44
330.887	138.44
331.115	124.44
331.344	89.44
331.572	100.44
331.801	98.44
332.03	89.44
332.258	93.44
332.486	92.44
332.715	100.44
332.943	104.44
333.172	102.44
333.4	94.44
333.629	100.44
333.857	109.44
334.085	124.44
334.314	135.44
334.542	193.44
334.771	187.44
334.999	123.44
335.227	98.44
335.455	102.44
335.684	99.44
335.912	83.44
336.14	103.44
336.369	83.44
336.597	93.44
336.825	111.44
337.053	91.44
337.281	102.44
337.51	75.44
337.738	80.44
337.966	93.44
338.194	101.44
338.422	97.44
338.65	97.44
338.878	88.44
339.106	100.44
339.334	81.44
339.562	96.44
339.79	75.44
340.018	81.44
340.246	89.44
340.474	84.44
340.702	101.44
340.93	90.44
341.158	85.44
341.386	87.44
341.614	84.44
341.842	93.44
342.07	90.44
342.298	107.44
342.526	86.44
342.754	92.44
342.981	102.44
343.209	95.44
343.437	105.44
343.665	100.44
343.893	87.44
344.12	95.44
344.348	83.44
344.576	102.44
344.804	85.44
345.031	90.44
345.259	90.44
345.487	80.44
345.714	98.44
345.942	76.44
346.17	93.44
346.397	94.44
346.625	99.44
346.853	79.44
347.08	79.44
347.308	99.44
347.535	91.44
347.763	85.44
347.99	92.44
348.218	89.44
348.445	112.44
348.673	97.44
348.9	103.44
349.128	108.44
349.355	91.44
349.583	88.44
349.81	100.44
350.037	85.44
350.265	90.44
350.492	90.44
350.72	93.44
350.947	85.44
351.174	116.44
351.402	93.44
351.629	97.44
351.856	104.44
352.083	91.44
352.311	84.44
352.538	112.44
352.765	112.44
352.992	119.44
353.22	109.44
353.447	104.44
353.674	110.44
353.901	88.44
354.128	83.44
354.355	96.44
354.583	99.44
354.81	88.44
355.037	106.44
355.264	93.44
355.491	99.44
355.718	80.44
355.945	96.44
356.172	87.44
356.399	95.44
356.626	80.44
356.853	95.44
357.08	84.44
357.307	89.44
357.534	86.44
357.761	97.44
357.988	87.44
358.215	89.44
358.441	88.44
358.668	79.44
358.895	91.44
359.122	85.44
359.349	93.44
359.576	99.44
359.802	88.44
360.029	95.44
360.256	115.44
360.483	85.44
360.709	77.44
360.936	97.44
361.163	93.44
361.39	101.44
361.616	84.44
361.843	87.44
362.07	93.44
362.296	95.44
362.523	108.44
362.749	107.44
362.976	102.44
363.203	96.44
363.429	72.44
363.656	97.44
363.882	81.44
364.109	105.44
364.335	91.44
364.562	86.44
364.788	85.44
365.015	96.44
365.241	105.44
365.468	104.44
365.694	110.44
365.92	115.44
366.147	79.44
366.373	88.44
366.599	83.44
366.826	82.44
367.052	87.44
367.278	101.44
367.505	102.44
367.731	88.44
367.957	90.44
368.184	98.44
368.41	104.44
368.636	111.44
368.862	118.44
369.089	92.44
369.315	89.44
369.541	91.44
369.767	92.44
369.993	80.44
370.219	78.44
370.445	75.44
370.672	96.44
370.898	92.44
371.124	91.44
371.35	77.44
371.576	86.44
371.802	86.44
372.028	85.44
372.254	86.44
372.48	87.44
372.706	108.44
372.932	94.44
373.158	76.44
373.384	93.44
373.61	96.44
373.835	95.44
374.061	83.44
374.287	108.44
374.513	79.44
374.739	87.44
374.965	89.44
375.191	76.44
375.416	71.44
375.642	101.44
375.868	93.44
376.094	97.44
376.319	93.44
376.545	78.44
376.771	84.44
376.997	91.44
377.222	91.44
377.448	80.44
377.674	92.44
377.899	91.44
378.125	96.44
378.35	72.44
378.576	77.44
378.802	91.44
379.027	76.44
379.253	91.44
379.478	84.44
379.704	94.44
379.929	88.44
380.155	78.44
380.38	102.44
380.606	91.44
380.831	94.44
381.057	107.44
381.282	100.44
381.507	99.44
381.733	105.44
381.958	90.44
382.184	86.44
382.409	96.44
382.634	103.44
382.86	102.44
383.085	80.44
383.31	99.44
383.535	84.44
383.761	91.44
383.986	92.44
384.211	91.44
384.436	99.44
384.662	96.44
384.887	107.44
385.112	98.44
385.337	98.44
385.562	95.44
385.787	94.44
386.013	107.44
386.238	103.44
386.463	93.44
386.688	104.44
386.913	111.44
387.138	87.44
387.363	96.44
387.588	86.44
387.813	105.44
388.038	102.44
388.263	104.44
388.488	93.44
388.713	83.44
388.938	93.44
389.163	86.44
389.387	87.44
389.612	87.44
389.837	98.44
390.062	95.44
390.287	92.44
390.512	78.44
390.736	94.44
390.961	91.44
391.186	95.44
391.411	84.44
391.636	93.44
391.86	81.44
392.085	95.44
392.31	93.44
392.534	81.44
392.759	86.44
392.984	85.44
393.208	85.44
393.433	91.44
393.658	92.44
393.882	88.44
394.107	78.44
394.331	82.44
394.556	82.44
394.78	89.44
395.005	93.44
395.229	80.44
395.454	81.44
395.678	88.44
395.903	91.44
396.127	81.44
396.352	79.44
396.576	89.44
396.801	80.44
397.025	85.44
397.249	97.44
397.474	93.44
397.698	90.44
397.922	80.44
398.147	77.44
398.371	91.44
398.595	89.44
398.82	92.44
399.044	88.44
399.268	72.44
399.492	95.44
399.717	96.44
399.941	77.44
400.165	92.44
400.389	85.44
400.613	88.44
400.837	90.44
401.062	88.44
401.286	88.44
401.51	83.44
401.734	100.44
401.958	111.44
402.182	105.44
402.406	150.44
402.63	123.44
402.854	94.44
403.078	78.44
403.302	88.44
403.526	80.44
403.75	73.44
403.974	93.44
404.198	90.44
404.422	90.44
404.645	87.44
404.869	97.44
405.093	87.44
405.317	102.44
405.541	98.44
405.765	94.44
405.988	120.44
406.212	158.44
406.436	214.44
406.66	137.44
406.883	101.44
407.107	97.44
407.331	102.44
407.555	108.44
407.778	94.44
408.002	81.44
408.226	90.44
408.449	100.44
408.673	82.44
408.896	74.44
409.12	90.44
409.344	95.44
409.567	88.44
409.791	87.44
410.014	97.44
410.238	98.44
410.461	94.44
410.685	91.44
410.908	111.44
411.132	98.44
411.355	88.44
411.578	97.44
411.802	89.44
412.025	87.44
412.249	95.44
412.472	89.44
412.695	98.44
412.919	99.44
413.142	105.44
413.365	77.44
413.589	95.44
413.812	84.44
414.035	94.44
414.258	96.44
414.482	97.44
414.705	89.44
414.928	84.44
415.151	90.44
415.374	96.44
415.597	108.44
415.821	89.44
416.044	91.44
416.267	94.44
416.49	97.44
416.713	89.44
416.936	87.44
417.159	91.44
417.382	82.44
417.605	96.44
417.828	96.44
418.051	92.44
418.274	105.44
418.497	97.44
418.72	71.44
418.943	81.44
419.166	76.44
419.389	83.44
419.611	88.44
419.834	92.44
420.057	99.44
420.28	75.44
420.503	80.44
420.726	89.44
420.948	99.44
421.171	99.44
421.394	88.44
421.617	87.44
421.839	98.44
422.062	92.44
422.285	77.44
422.507	95.44
422.73	98.44
422.953	84.44
423.175	92.44
423.398	89.44
423.621	85.44
423.843	95.44
424.066	82.44
424.288	84.44
424.511	86.44
424.733	93.44
424.956	98.44
425.178	92.44
425.401	98.44
425.623	95.44
425.846	78.44
426.068	85.44
426.291	100.44
426.513	87.44
426.735	83.44
426.958	85.44
427.18	91.44
427.402	122.44
427.625	162.44
427.847	116.44
428.069	117.44
428.292	94.44
428.514	80.44
428.736	92.44
428.958	93.44
429.181	96.44
429.403	83.44
429.625	89.44
429.847	98.44
430.069	103.44
430.292	98.44
430.514	76.44
430.736	88.44
430.958	96.44
431.18	96.44
431.402	106.44
431.624	79.44
431.846	79.44
432.068	92.44
432.29	71.44
432.512	81.44
432.734	92.44
432.956	87.44
433.178	93.44
433.4	96.44
433.622	78.44
433.844	87.44
434.066	92.44
434.287	91.44
434.509	98.44
434.731	95.44
434.953	77.44
435.175	97.44
435.397	80.44
435.618	90.44
435.84	91.44
436.062	118.44
436.284	119.44
436.505	95.44
436.727	96.44
436.949	103.44
437.17	93.44
437.392	93.44
437.614	77.44
437.835	102.44
438.057	102.44
438.278	110.44
438.5	103.44
438.721	138.44
438.943	114.44
439.165	96.44
439.386	80.44
439.608	73.44
439.829	100.44
440.05	106.44
440.272	128.44
440.493	108.44
440.715	84.44
440.936	88.44
441.158	92.44
441.379	81.44
441.6	85.44
441.822	87.44
442.043	91.44
442.264	111.44
442.486	96.44
442.707	102.44
442.928	106.44
443.149	110.44
443.371	100.44
443.592	102.44
443.813	107.44
444.034	100.44
444.255	104.44
444.476	91.44
444.698	91.44
444.919	98.44
445.14	123.44
445.361	125.44
445.582	100.44
445.803	136.44
446.024	108.44
446.245	117.44
446.466	113.44
446.687	100.44
446.908	84.44
447.129	94.44
447.35	86.44
447.571	88.44
447.792	86.44
448.013	97.44
448.234	117.44
448.455	89.44
448.675	110.44
448.896	115.44
449.117	108.44
449.338	100.44
449.559	106.44
449.779	133.44
450	87.44
450.221	87.44
450.442	84.44
450.662	103.44
450.883	97.44
451.104	97.44
451.324	93.44
451.545	76.44
451.766	80.44
451.986	93.44
452.207	90.44
452.428	100.44
452.648	110.44
452.869	94.44
453.089	104.44
453.31	112.44
453.53	101.44
453.751	89.44
453.971	89.44
454.192	103.44
454.412	84.44
454.633	78.44
454.853	89.44
455.073	78.44
455.294	93.44
455.514	87.44
455.734	99.44
455.955	87.44
456.175	86.44
456.395	87.44
456.616	93.44
456.836	77.44
457.056	85.44
457.276	84.44
457.497	75.44
457.717	92.44
457.937	80.44
458.157	71.44
458.377	83.44
458.598	104.44
458.818	134.44
459.038	155.44
459.258	103.44
459.478	90.44
459.698	80.44
459.918	99.44
460.138	99.44
460.358	82.44
460.578	79.44
460.798	88.44
461.018	88.44
461.238	94.44
461.458	88.44
461.678	87.44
461.898	94.44
462.118	95.44
462.338	80.44
462.558	85.44
462.777	95.44
462.997	87.44
463.217	89.44
463.437	88.44
463.657	84.44
463.876	101.44
464.096	85.44
464.316	91.44
464.536	102.44
464.755	101.44
464.975	93.44
465.195	135.44
465.414	155.44
465.634	107.44
465.854	87.44
466.073	78.44
466.293	92.44
466.512	84.44
466.732	95.44
466.951	80.44
467.171	85.44
467.391	96.44
467.61	96.44
467.829	116.44
468.049	117.44
468.268	125.44
468.488	99.44
468.707	99.44
468.927	71.44
469.146	84.44
469.365	88.44
469.585	103.44
469.804	91.44
470.023	99.44
470.243	87.44
470.462	106.44
470.681	103.44
470.901	71.44
471.12	90.44
471.339	87.44
471.558	88.44
471.777	81.44
471.997	99.44
472.216	145.44
472.435	219.44
472.654	107.44
472.873	92.44
473.092	87.44
473.311	98.44
473.53	91.44
473.749	95.44
473.968	103.44
474.187	99.44
474.406	93.44
474.625	78.44
474.844	95.44
475.063	82.44
475.282	105.44
475.501	80.44
475.72	92.44
475.939	87.44
476.158	87.44
476.377	94.44
476.596	90.44
476.814	103.44
477.033	95.44
477.252	85.44
477.471	88.44
477.69	94.44
477.908	79.44
478.127	89.44
478.346	78.44
478.564	87.44
478.783	99.44
479.002	103.44
479.22	90.44
479.439	101.44
479.658	96.44
479.876	102.44
480.095	115.44
480.313	95.44
480.532	94.44
480.751	109.44
480.969	155.44
481.188	318.44
481.406	226.44
481.624	102.44
481.843	92.44
482.061	92.44
482.28	94.44
482.498	90.44
482.717	97.44
482.935	96.44
483.153	85.44
483.372	86.44
483.59	80.44
483.808	79.44
484.027	105.44
484.245	104.44
484.463	95.44
484.681	97.44
484.9	95.44
485.118	85.44
485.336	104.44
485.554	92.44
485.772	106.44
485.99	109.44
486.209	94.44
486.427	93.44
486.645	99.44
486.863	86.44
487.081	93.44
487.299	94.44
487.517	83.44
487.735	102.44
487.953	78.44
488.171	108.44
488.389	93.44
488.607	103.44
488.825	81.44
489.043	91.44
489.261	103.44
489.479	92.44
489.696	78.44
489.914	84.44
490.132	79.44
490.35	88.44
490.568	84.44
490.786	95.44
491.003	93.44
491.221	90.44
491.439	77.44
491.657	108.44
491.874	101.44
492.092	100.44
492.31	83.44
492.527	82.44
492.745	79.44
492.963	110.44
493.18	80.44
493.398	101.44
493.615	117.44
493.833	108.44
494.05	89.44
494.268	87.44
494.485	90.44
494.703	104.44
494.92	87.44
495.138	98.44
495.355	93.44
495.573	93.44
495.79	99.44
496.008	102.44
496.225	96.44
496.442	98.44
496.66	81.44
496.877	84.44
497.094	97.44
497.312	77.44
497.529	95.44
497.746	96.44
497.963	95.44
498.181	92.44
498.398	95.44
498.615	107.44
498.832	105.44
499.049	96.44
499.267	97.44
499.484	81.44
499.701	101.44
499.918	64.44
500.135	84.44
500.352	79.44
500.569	90.44
500.786	90.44
501.003	87.44
501.22	79.44
501.437	85.44
501.654	105.44
501.871	105.44
502.088	96.44
502.305	106.44
502.522	96.44
502.739	92.44
502.956	96.44
503.172	94.44
503.389	86.44
503.606	104.44
503.823	95.44
504.04	95.44
504.256	92.44
504.473	80.44
504.69	100.44
504.907	102.44
505.123	90.44
505.34	86.44
505.557	97.44
505.773	89.44
505.99	100.44
506.207	97.44
506.423	98.44
506.64	93.44
506.856	91.44
507.073	93.44
507.289	98.44
507.506	96.44
507.722	94.44
507.939	103.44
508.155	98.44
508.372	105.44
508.588	104.44
508.805	95.44
509.021	105.44
509.238	111.44
509.454	99.44
509.67	106.44
509.887	121.44
510.103	119.44
510.319	205.44
510.536	703.44
510.752	2286.44
510.968	659.44
511.184	151.44
511.401	111.44
511.617	98.44
511.833	93.44
512.049	107.44
512.265	87.44
512.481	93.44
512.698	95.44
512.914	87.44
513.13	85.44
513.346	96.44
513.562	94.44
513.778	94.44
513.994	103.44
514.21	106.44
514.426	123.44
514.642	128.44
514.858	124.44
515.074	155.44
515.29	387.44
515.506	1321.44
515.721	511.44
