Data from Circ_2012_H10_HRD10591_00073.txt Node
Date: Wed Jan 03 10:06:05 EST 2024
User: Yrep
Spectrometer: HR+D1059
Trigger mode: 1
Integration Time (sec): 1.000000E-1
Scans to average: 1
Electric dark correction enabled: true
Nonlinearity correction enabled: false
Boxcar width: 0
XAxis mode: Wavelengths
Number of Pixels in Spectrum: 2048
>>>>>Begin Spectral Data<<<<<
223.165	-16.69
223.4	-16.69
223.635	-16.69
223.869	-15.69
224.104	-24.69
224.338	-13.69
224.573	-4.69
224.808	-13.69
225.042	-11.69
225.277	-3.69
225.511	8.31
225.746	3.31
225.98	-0.69
226.215	14.31
226.449	12.31
226.683	21.31
226.918	30.31
227.152	15.31
227.387	46.31
227.621	48.31
227.856	37.31
228.09	47.31
228.324	44.31
228.559	63.31
228.793	58.31
229.027	59.31
229.262	62.31
229.496	77.31
229.73	76.31
229.964	75.31
230.199	70.31
230.433	68.31
230.667	79.31
230.901	83.31
231.136	80.31
231.37	81.31
231.604	79.31
231.838	91.31
232.072	80.31
232.306	102.31
232.541	70.31
232.775	69.31
233.009	72.31
233.243	71.31
233.477	78.31
233.711	89.31
233.945	81.31
234.179	84.31
234.413	75.31
234.647	94.31
234.881	74.31
235.115	81.31
235.349	82.31
235.583	80.31
235.817	86.31
236.051	82.31
236.285	77.31
236.519	87.31
236.753	85.31
236.987	70.31
237.221	69.31
237.455	83.31
237.689	71.31
237.922	81.31
238.156	79.31
238.39	80.31
238.624	78.31
238.858	79.31
239.091	88.31
239.325	79.31
239.559	89.31
239.793	91.31
240.027	70.31
240.26	81.31
240.494	88.31
240.728	75.31
240.961	88.31
241.195	87.31
241.429	67.31
241.662	81.31
241.896	81.31
242.13	86.31
242.363	77.31
242.597	77.31
242.83	76.31
243.064	79.31
243.298	75.31
243.531	65.31
243.765	73.31
243.998	97.31
244.232	62.31
244.465	80.31
244.699	96.31
244.932	84.31
245.166	76.31
245.399	83.31
245.633	83.31
245.866	84.31
246.099	95.31
246.333	93.31
246.566	83.31
246.8	79.31
247.033	82.31
247.266	87.31
247.5	87.31
247.733	72.31
247.966	71.31
248.2	77.31
248.433	79.31
248.666	76.31
248.899	82.31
249.133	98.31
249.366	91.31
249.599	105.31
249.832	88.31
250.066	93.31
250.299	83.31
250.532	80.31
250.765	94.31
250.998	76.31
251.231	65.31
251.465	87.31
251.698	80.31
251.931	65.31
252.164	72.31
252.397	90.31
252.63	91.31
252.863	90.31
253.096	80.31
253.329	71.31
253.562	81.31
253.795	72.31
254.028	91.31
254.261	85.31
254.494	83.31
254.727	76.31
254.96	87.31
255.193	76.31
255.426	78.31
255.659	93.31
255.892	85.31
256.124	78.31
256.357	83.31
256.59	91.31
256.823	87.31
257.056	83.31
257.289	79.31
257.521	78.31
257.754	75.31
257.987	71.31
258.22	79.31
258.452	95.31
258.685	84.31
258.918	92.31
259.151	82.31
259.383	81.31
259.616	73.31
259.849	77.31
260.081	68.31
260.314	96.31
260.547	95.31
260.779	88.31
261.012	85.31
261.244	80.31
261.477	77.31
261.71	94.31
261.942	104.31
262.175	105.31
262.407	96.31
262.64	85.31
262.872	78.31
263.105	84.31
263.337	88.31
263.57	92.31
263.802	78.31
264.035	89.31
264.267	69.31
264.499	79.31
264.732	89.31
264.964	90.31
265.197	68.31
265.429	86.31
265.661	81.31
265.894	71.31
266.126	89.31
266.358	87.31
266.591	76.31
266.823	79.31
267.055	81.31
267.287	82.31
267.52	80.31
267.752	82.31
267.984	81.31
268.216	87.31
268.448	94.31
268.681	75.31
268.913	84.31
269.145	82.31
269.377	84.31
269.609	76.31
269.841	89.31
270.073	91.31
270.306	78.31
270.538	85.31
270.77	87.31
271.002	79.31
271.234	92.31
271.466	95.31
271.698	78.31
271.93	82.31
272.162	81.31
272.394	96.31
272.626	82.31
272.858	85.31
273.09	83.31
273.322	93.31
273.553	84.31
273.785	88.31
274.017	82.31
274.249	76.31
274.481	94.31
274.713	89.31
274.945	91.31
275.176	79.31
275.408	99.31
275.64	94.31
275.872	96.31
276.104	88.31
276.335	92.31
276.567	102.31
276.799	103.31
277.031	90.31
277.262	79.31
277.494	95.31
277.726	78.31
277.957	91.31
278.189	78.31
278.421	87.31
278.652	86.31
278.884	85.31
279.115	99.31
279.347	92.31
279.579	96.31
279.81	96.31
280.042	90.31
280.273	94.31
280.505	105.31
280.736	92.31
280.968	85.31
281.199	79.31
281.431	90.31
281.662	86.31
281.894	88.31
282.125	105.31
282.356	118.31
282.588	151.31
282.819	112.31
283.051	87.31
283.282	94.31
283.513	80.31
283.745	83.31
283.976	77.31
284.207	85.31
284.439	83.31
284.67	92.31
284.901	81.31
285.132	65.31
285.364	89.31
285.595	91.31
285.826	94.31
286.057	88.31
286.288	80.31
286.52	78.31
286.751	80.31
286.982	79.31
287.213	93.31
287.444	83.31
287.675	74.31
287.906	88.31
288.138	83.31
288.369	83.31
288.6	88.31
288.831	69.31
289.062	104.31
289.293	86.31
289.524	90.31
289.755	82.31
289.986	98.31
290.217	93.31
290.448	92.31
290.679	93.31
290.91	80.31
291.141	84.31
291.371	88.31
291.602	91.31
291.833	83.31
292.064	106.31
292.295	91.31
292.526	85.31
292.757	80.31
292.987	81.31
293.218	94.31
293.449	92.31
293.68	86.31
293.91	90.31
294.141	88.31
294.372	88.31
294.603	87.31
294.833	84.31
295.064	80.31
295.295	87.31
295.525	94.31
295.756	117.31
295.987	96.31
296.217	141.31
296.448	125.31
296.679	103.31
296.909	77.31
297.14	102.31
297.37	94.31
297.601	85.31
297.831	88.31
298.062	85.31
298.292	93.31
298.523	97.31
298.753	86.31
298.984	86.31
299.214	81.31
299.445	91.31
299.675	110.31
299.905	96.31
300.136	106.31
300.366	82.31
300.597	85.31
300.827	105.31
301.057	101.31
301.288	93.31
301.518	98.31
301.748	88.31
301.979	106.31
302.209	90.31
302.439	104.31
302.669	85.31
302.9	102.31
303.13	88.31
303.36	96.31
303.59	96.31
303.82	92.31
304.051	94.31
304.281	85.31
304.511	81.31
304.741	105.31
304.971	91.31
305.201	85.31
305.431	89.31
305.661	92.31
305.891	95.31
306.121	104.31
306.352	102.31
306.582	104.31
306.812	100.31
307.042	99.31
307.272	91.31
307.502	92.31
307.731	95.31
307.961	88.31
308.191	102.31
308.421	88.31
308.651	84.31
308.881	89.31
309.111	88.31
309.341	94.31
309.571	97.31
309.8	108.31
310.03	87.31
310.26	106.31
310.49	103.31
310.72	104.31
310.949	81.31
311.179	85.31
311.409	105.31
311.639	103.31
311.868	100.31
312.098	100.31
312.328	94.31
312.557	90.31
312.787	87.31
313.017	96.31
313.246	88.31
313.476	99.31
313.706	102.31
313.935	106.31
314.165	95.31
314.394	99.31
314.624	93.31
314.853	98.31
315.083	107.31
315.312	104.31
315.542	104.31
315.771	86.31
316.001	97.31
316.23	96.31
316.46	88.31
316.689	92.31
316.919	91.31
317.148	110.31
317.377	112.31
317.607	90.31
317.836	84.31
318.065	94.31
318.295	91.31
318.524	96.31
318.753	98.31
318.983	97.31
319.212	108.31
319.441	132.31
319.67	118.31
319.9	87.31
320.129	88.31
320.358	87.31
320.587	106.31
320.816	99.31
321.046	97.31
321.275	108.31
321.504	94.31
321.733	95.31
321.962	104.31
322.191	109.31
322.42	104.31
322.649	110.31
322.878	104.31
323.108	114.31
323.337	121.31
323.566	130.31
323.795	147.31
324.024	206.31
324.253	345.31
324.482	719.31
324.71	1506.31
324.939	1960.31
325.168	724.31
325.397	228.31
325.626	134.31
325.855	133.31
326.084	126.31
326.313	128.31
326.542	149.31
326.77	206.31
326.999	434.31
327.228	859.31
327.457	1485.31
327.686	1188.31
327.914	350.31
328.143	203.31
328.372	169.31
328.6	123.31
328.829	109.31
329.058	119.31
329.287	131.31
329.515	112.31
329.744	108.31
329.972	120.31
330.201	144.31
330.43	146.31
330.658	117.31
330.887	127.31
331.115	131.31
331.344	107.31
331.572	99.31
331.801	103.31
332.03	108.31
332.258	89.31
332.486	75.31
332.715	96.31
332.943	81.31
333.172	106.31
333.4	101.31
333.629	112.31
333.857	109.31
334.085	120.31
334.314	148.31
334.542	170.31
334.771	174.31
334.999	122.31
335.227	88.31
335.455	98.31
335.684	92.31
335.912	85.31
336.14	90.31
336.369	85.31
336.597	99.31
336.825	86.31
337.053	85.31
337.281	99.31
337.51	102.31
337.738	98.31
337.966	90.31
338.194	97.31
338.422	97.31
338.65	92.31
338.878	103.31
339.106	98.31
339.334	90.31
339.562	97.31
339.79	90.31
340.018	100.31
340.246	89.31
340.474	102.31
340.702	102.31
340.93	93.31
341.158	93.31
341.386	97.31
341.614	92.31
341.842	93.31
342.07	90.31
342.298	99.31
342.526	89.31
342.754	97.31
342.981	83.31
343.209	107.31
343.437	107.31
343.665	91.31
343.893	90.31
344.12	100.31
344.348	90.31
344.576	91.31
344.804	91.31
345.031	92.31
345.259	98.31
345.487	82.31
345.714	85.31
345.942	94.31
346.17	92.31
346.397	78.31
346.625	104.31
346.853	94.31
347.08	96.31
347.308	98.31
347.535	100.31
347.763	102.31
347.99	95.31
348.218	98.31
348.445	101.31
348.673	102.31
348.9	97.31
349.128	100.31
349.355	91.31
349.583	101.31
349.81	100.31
350.037	98.31
350.265	90.31
350.492	108.31
350.72	83.31
350.947	96.31
351.174	117.31
351.402	120.31
351.629	94.31
351.856	91.31
352.083	82.31
352.311	96.31
352.538	93.31
352.765	91.31
352.992	112.31
353.22	92.31
353.447	107.31
353.674	115.31
353.901	108.31
354.128	88.31
354.355	95.31
354.583	107.31
354.81	102.31
355.037	89.31
355.264	97.31
355.491	90.31
355.718	78.31
355.945	94.31
356.172	81.31
356.399	97.31
356.626	103.31
356.853	92.31
357.08	116.31
357.307	94.31
357.534	103.31
357.761	101.31
357.988	82.31
358.215	97.31
358.441	90.31
358.668	99.31
358.895	86.31
359.122	85.31
359.349	90.31
359.576	86.31
359.802	90.31
360.029	100.31
360.256	95.31
360.483	89.31
360.709	88.31
360.936	85.31
361.163	95.31
361.39	93.31
361.616	96.31
361.843	71.31
362.07	94.31
362.296	95.31
362.523	103.31
362.749	81.31
362.976	83.31
363.203	88.31
363.429	70.31
363.656	89.31
363.882	87.31
364.109	108.31
364.335	95.31
364.562	92.31
364.788	87.31
365.015	100.31
365.241	99.31
365.468	97.31
365.694	93.31
365.92	94.31
366.147	97.31
366.373	98.31
366.599	85.31
366.826	81.31
367.052	85.31
367.278	83.31
367.505	85.31
367.731	93.31
367.957	87.31
368.184	95.31
368.41	94.31
368.636	122.31
368.862	109.31
369.089	98.31
369.315	95.31
369.541	97.31
369.767	91.31
369.993	95.31
370.219	102.31
370.445	89.31
370.672	88.31
370.898	90.31
371.124	68.31
371.35	91.31
371.576	70.31
371.802	88.31
372.028	88.31
372.254	78.31
372.48	81.31
372.706	88.31
372.932	80.31
373.158	88.31
373.384	90.31
373.61	83.31
373.835	99.31
374.061	92.31
374.287	92.31
374.513	82.31
374.739	92.31
374.965	81.31
375.191	97.31
375.416	84.31
375.642	103.31
375.868	102.31
376.094	83.31
376.319	85.31
376.545	93.31
376.771	100.31
376.997	95.31
377.222	79.31
377.448	80.31
377.674	84.31
377.899	97.31
378.125	95.31
378.35	82.31
378.576	92.31
378.802	79.31
379.027	81.31
379.253	91.31
379.478	94.31
379.704	100.31
379.929	99.31
380.155	98.31
380.38	89.31
380.606	91.31
380.831	76.31
381.057	83.31
381.282	76.31
381.507	95.31
381.733	82.31
381.958	92.31
382.184	94.31
382.409	108.31
382.634	102.31
382.86	99.31
383.085	104.31
383.31	96.31
383.535	99.31
383.761	99.31
383.986	84.31
384.211	71.31
384.436	102.31
384.662	111.31
384.887	104.31
385.112	110.31
385.337	92.31
385.562	93.31
385.787	103.31
386.013	105.31
386.238	110.31
386.463	88.31
386.688	106.31
386.913	102.31
387.138	94.31
387.363	96.31
387.588	101.31
387.813	115.31
388.038	91.31
388.263	96.31
388.488	109.31
388.713	99.31
388.938	100.31
389.163	92.31
389.387	96.31
389.612	89.31
389.837	105.31
390.062	101.31
390.287	92.31
390.512	95.31
390.736	94.31
390.961	81.31
391.186	96.31
391.411	93.31
391.636	92.31
391.86	84.31
392.085	93.31
392.31	94.31
392.534	81.31
392.759	99.31
392.984	71.31
393.208	80.31
393.433	86.31
393.658	77.31
393.882	80.31
394.107	98.31
394.331	87.31
394.556	87.31
394.78	90.31
395.005	94.31
395.229	78.31
395.454	74.31
395.678	77.31
395.903	101.31
396.127	85.31
396.352	84.31
396.576	75.31
396.801	80.31
397.025	86.31
397.249	88.31
397.474	92.31
397.698	72.31
397.922	88.31
398.147	82.31
398.371	77.31
398.595	80.31
398.82	94.31
399.044	95.31
399.268	91.31
399.492	93.31
399.717	78.31
399.941	112.31
400.165	91.31
400.389	95.31
400.613	95.31
400.837	65.31
401.062	79.31
401.286	85.31
401.51	89.31
401.734	90.31
401.958	91.31
402.182	111.31
402.406	145.31
402.63	104.31
402.854	96.31
403.078	97.31
403.302	89.31
403.526	87.31
403.75	89.31
403.974	78.31
404.198	79.31
404.422	91.31
404.645	91.31
404.869	100.31
405.093	89.31
405.317	85.31
405.541	93.31
405.765	101.31
405.988	115.31
406.212	166.31
406.436	213.31
406.66	149.31
406.883	116.31
407.107	97.31
407.331	98.31
407.555	84.31
407.778	96.31
408.002	85.31
408.226	94.31
408.449	89.31
408.673	88.31
408.896	86.31
409.12	101.31
409.344	98.31
409.567	92.31
409.791	81.31
410.014	95.31
410.238	85.31
410.461	89.31
410.685	92.31
410.908	111.31
411.132	103.31
411.355	91.31
411.578	99.31
411.802	76.31
412.025	84.31
412.249	76.31
412.472	90.31
412.695	94.31
412.919	92.31
413.142	86.31
413.365	88.31
413.589	88.31
413.812	88.31
414.035	94.31
414.258	88.31
414.482	88.31
414.705	82.31
414.928	89.31
415.151	91.31
415.374	96.31
415.597	91.31
415.821	86.31
416.044	90.31
416.267	78.31
416.49	84.31
416.713	92.31
416.936	78.31
417.159	91.31
417.382	89.31
417.605	90.31
417.828	101.31
418.051	87.31
418.274	98.31
418.497	77.31
418.72	86.31
418.943	81.31
419.166	107.31
419.389	89.31
419.611	92.31
419.834	95.31
420.057	76.31
420.28	80.31
420.503	89.31
420.726	95.31
420.948	84.31
421.171	99.31
421.394	83.31
421.617	95.31
421.839	94.31
422.062	85.31
422.285	81.31
422.507	86.31
422.73	92.31
422.953	93.31
423.175	87.31
423.398	94.31
423.621	88.31
423.843	86.31
424.066	80.31
424.288	95.31
424.511	95.31
424.733	92.31
424.956	99.31
425.178	106.31
425.401	93.31
425.623	99.31
425.846	97.31
426.068	93.31
426.291	89.31
426.513	96.31
426.735	82.31
426.958	100.31
427.18	86.31
427.402	129.31
427.625	142.31
427.847	127.31
428.069	111.31
428.292	89.31
428.514	94.31
428.736	74.31
428.958	90.31
429.181	94.31
429.403	80.31
429.625	81.31
429.847	98.31
430.069	87.31
430.292	93.31
430.514	87.31
430.736	71.31
430.958	89.31
431.18	67.31
431.402	80.31
431.624	101.31
431.846	88.31
432.068	93.31
432.29	77.31
432.512	79.31
432.734	92.31
432.956	97.31
433.178	88.31
433.4	101.31
433.622	96.31
433.844	99.31
434.066	86.31
434.287	102.31
434.509	87.31
434.731	73.31
434.953	88.31
435.175	95.31
435.397	83.31
435.618	90.31
435.84	96.31
436.062	119.31
436.284	112.31
436.505	107.31
436.727	99.31
436.949	91.31
437.17	82.31
437.392	92.31
437.614	91.31
437.835	111.31
438.057	102.31
438.278	113.31
438.5	89.31
438.721	116.31
438.943	92.31
439.165	97.31
439.386	92.31
439.608	96.31
439.829	89.31
440.05	123.31
440.272	133.31
440.493	104.31
440.715	93.31
440.936	93.31
441.158	88.31
441.379	88.31
441.6	87.31
441.822	103.31
442.043	89.31
442.264	96.31
442.486	78.31
442.707	95.31
442.928	99.31
443.149	118.31
443.371	131.31
443.592	109.31
443.813	105.31
444.034	98.31
444.255	104.31
444.476	71.31
444.698	90.31
444.919	79.31
445.14	131.31
445.361	118.31
445.582	106.31
445.803	128.31
446.024	129.31
446.245	127.31
446.466	115.31
446.687	92.31
446.908	100.31
447.129	92.31
447.35	101.31
447.571	106.31
447.792	88.31
448.013	88.31
448.234	96.31
448.455	105.31
448.675	111.31
448.896	99.31
449.117	101.31
449.338	102.31
449.559	119.31
449.779	131.31
450	91.31
450.221	93.31
450.442	79.31
450.662	87.31
450.883	95.31
451.104	109.31
451.324	99.31
451.545	87.31
451.766	75.31
451.986	73.31
452.207	102.31
452.428	96.31
452.648	105.31
452.869	91.31
453.089	111.31
453.31	120.31
453.53	108.31
453.751	89.31
453.971	107.31
454.192	116.31
454.412	82.31
454.633	82.31
454.853	87.31
455.073	81.31
455.294	85.31
455.514	92.31
455.734	86.31
455.955	74.31
456.175	87.31
456.395	88.31
456.616	88.31
456.836	73.31
457.056	85.31
457.276	93.31
457.497	81.31
457.717	65.31
457.937	93.31
458.157	86.31
458.377	87.31
458.598	99.31
458.818	145.31
459.038	141.31
459.258	112.31
459.478	97.31
459.698	92.31
459.918	78.31
460.138	78.31
460.358	77.31
460.578	87.31
460.798	84.31
461.018	88.31
461.238	90.31
461.458	89.31
461.678	86.31
461.898	94.31
462.118	99.31
462.338	82.31
462.558	84.31
462.777	82.31
462.997	87.31
463.217	78.31
463.437	94.31
463.657	83.31
463.876	98.31
464.096	83.31
464.316	92.31
464.536	104.31
464.755	96.31
464.975	110.31
465.195	159.31
465.414	149.31
465.634	79.31
465.854	89.31
466.073	90.31
466.293	86.31
466.512	89.31
466.732	85.31
466.951	91.31
467.171	96.31
467.391	102.31
467.61	87.31
467.829	106.31
468.049	109.31
468.268	116.31
468.488	72.31
468.707	86.31
468.927	78.31
469.146	75.31
469.365	93.31
469.585	84.31
469.804	86.31
470.023	90.31
470.243	85.31
470.462	93.31
470.681	107.31
470.901	81.31
471.12	104.31
471.339	94.31
471.558	102.31
471.777	93.31
471.997	100.31
472.216	145.31
472.435	195.31
472.654	103.31
472.873	85.31
473.092	86.31
473.311	88.31
473.53	90.31
473.749	93.31
473.968	92.31
474.187	103.31
474.406	93.31
474.625	98.31
474.844	86.31
475.063	93.31
475.282	77.31
475.501	96.31
475.72	84.31
475.939	88.31
476.158	87.31
476.377	97.31
476.596	84.31
476.814	105.31
477.033	95.31
477.252	77.31
477.471	88.31
477.69	104.31
477.908	88.31
478.127	87.31
478.346	79.31
478.564	89.31
478.783	95.31
479.002	98.31
479.22	87.31
479.439	95.31
479.658	94.31
479.876	102.31
480.095	96.31
480.313	99.31
480.532	88.31
480.751	93.31
480.969	138.31
481.188	289.31
481.406	223.31
481.624	96.31
481.843	85.31
482.061	90.31
482.28	95.31
482.498	87.31
482.717	94.31
482.935	98.31
483.153	89.31
483.372	86.31
483.59	92.31
483.808	101.31
484.027	81.31
484.245	84.31
484.463	78.31
484.681	96.31
484.9	95.31
485.118	80.31
485.336	104.31
485.554	95.31
485.772	102.31
485.99	95.31
486.209	106.31
486.427	111.31
486.645	115.31
486.863	119.31
487.081	97.31
487.299	86.31
487.517	96.31
487.735	68.31
487.953	76.31
488.171	83.31
488.389	97.31
488.607	106.31
488.825	88.31
489.043	73.31
489.261	79.31
489.479	81.31
489.696	99.31
489.914	84.31
490.132	85.31
490.35	87.31
490.568	81.31
490.786	106.31
491.003	94.31
491.221	79.31
491.439	90.31
491.657	81.31
491.874	94.31
492.092	79.31
492.31	92.31
492.527	91.31
492.745	95.31
492.963	95.31
493.18	84.31
493.398	84.31
493.615	94.31
493.833	92.31
494.05	90.31
494.268	89.31
494.485	80.31
494.703	98.31
494.92	91.31
495.138	88.31
495.355	93.31
495.573	104.31
495.79	88.31
496.008	87.31
496.225	94.31
496.442	80.31
496.66	87.31
496.877	93.31
497.094	85.31
497.312	94.31
497.529	87.31
497.746	85.31
497.963	79.31
498.181	86.31
498.398	99.31
498.615	108.31
498.832	90.31
499.049	93.31
499.267	81.31
499.484	83.31
499.701	96.31
499.918	96.31
500.135	97.31
500.352	104.31
500.569	96.31
500.786	93.31
501.003	89.31
501.22	103.31
501.437	98.31
501.654	91.31
501.871	104.31
502.088	98.31
502.305	95.31
502.522	84.31
502.739	93.31
502.956	93.31
503.172	84.31
503.389	88.31
503.606	90.31
503.823	97.31
504.04	92.31
504.256	88.31
504.473	95.31
504.69	93.31
504.907	109.31
505.123	82.31
505.34	98.31
505.557	98.31
505.773	99.31
505.99	86.31
506.207	96.31
506.423	78.31
506.64	83.31
506.856	99.31
507.073	85.31
507.289	101.31
507.506	96.31
507.722	101.31
507.939	110.31
508.155	99.31
508.372	85.31
508.588	92.31
508.805	86.31
509.021	96.31
509.238	98.31
509.454	88.31
509.67	109.31
509.887	103.31
510.103	135.31
510.319	211.31
510.536	727.31
510.752	2327.31
510.968	665.31
511.184	159.31
511.401	106.31
511.617	88.31
511.833	89.31
512.049	108.31
512.265	87.31
512.481	90.31
512.698	87.31
512.914	87.31
513.13	96.31
513.346	82.31
513.562	103.31
513.778	96.31
513.994	97.31
514.21	96.31
514.426	106.31
514.642	122.31
514.858	131.31
515.074	152.31
515.29	425.31
515.506	1364.31
515.721	528.31
515.937	158.31
