Data from Circ_2012_H10_HRD10591_00062.txt Node
Date: Wed Jan 03 10:06:02 EST 2024
User: Yrep
Spectrometer: HR+D1059
Trigger mode: 1
Integration Time (sec): 1.000000E-1
Scans to average: 1
Electric dark correction enabled: true
Nonlinearity correction enabled: false
Boxcar width: 0
XAxis mode: Wavelengths
Number of Pixels in Spectrum: 2048
>>>>>Begin Spectral Data<<<<<
223.165	-14.12
223.4	-14.12
223.635	-14.12
223.869	-14.12
224.104	-19.12
224.338	-14.12
224.573	-3.12
224.808	-13.12
225.042	-8.12
225.277	-10.12
225.511	-17.12
225.746	-3.12
225.98	8.88
226.215	7.88
226.449	16.88
226.683	27.88
226.918	30.88
227.152	23.88
227.387	46.88
227.621	37.88
227.856	55.88
228.09	50.88
228.324	40.88
228.559	56.88
228.793	55.88
229.027	71.88
229.262	61.88
229.496	77.88
229.73	79.88
229.964	76.88
230.199	69.88
230.433	83.88
230.667	75.88
230.901	86.88
231.136	82.88
231.37	84.88
231.604	76.88
231.838	91.88
232.072	69.88
232.306	85.88
232.541	83.88
232.775	76.88
233.009	76.88
233.243	80.88
233.477	94.88
233.711	84.88
233.945	73.88
234.179	76.88
234.413	81.88
234.647	87.88
234.881	84.88
235.115	84.88
235.349	79.88
235.583	77.88
235.817	79.88
236.051	79.88
236.285	92.88
236.519	87.88
236.753	87.88
236.987	73.88
237.221	72.88
237.455	74.88
237.689	85.88
237.922	94.88
238.156	72.88
238.39	79.88
238.624	85.88
238.858	75.88
239.091	62.88
239.325	74.88
239.559	83.88
239.793	89.88
240.027	77.88
240.26	86.88
240.494	84.88
240.728	65.88
240.961	74.88
241.195	70.88
241.429	74.88
241.662	68.88
241.896	92.88
242.13	75.88
242.363	71.88
242.597	75.88
242.83	74.88
243.064	82.88
243.298	69.88
243.531	77.88
243.765	66.88
243.998	87.88
244.232	78.88
244.465	75.88
244.699	72.88
244.932	82.88
245.166	71.88
245.399	83.88
245.633	81.88
245.866	80.88
246.099	76.88
246.333	85.88
246.566	69.88
246.8	78.88
247.033	71.88
247.266	81.88
247.5	75.88
247.733	85.88
247.966	78.88
248.2	78.88
248.433	84.88
248.666	72.88
248.899	79.88
249.133	83.88
249.366	93.88
249.599	88.88
249.832	93.88
250.066	68.88
250.299	84.88
250.532	74.88
250.765	74.88
250.998	80.88
251.231	86.88
251.465	77.88
251.698	67.88
251.931	84.88
252.164	82.88
252.397	72.88
252.63	101.88
252.863	88.88
253.096	81.88
253.329	89.88
253.562	86.88
253.795	90.88
254.028	89.88
254.261	66.88
254.494	88.88
254.727	76.88
254.96	80.88
255.193	83.88
255.426	86.88
255.659	94.88
255.892	89.88
256.124	93.88
256.357	93.88
256.59	80.88
256.823	75.88
257.056	80.88
257.289	85.88
257.521	76.88
257.754	88.88
257.987	71.88
258.22	67.88
258.452	88.88
258.685	91.88
258.918	93.88
259.151	91.88
259.383	80.88
259.616	80.88
259.849	79.88
260.081	82.88
260.314	86.88
260.547	77.88
260.779	86.88
261.012	72.88
261.244	88.88
261.477	90.88
261.71	88.88
261.942	102.88
262.175	105.88
262.407	75.88
262.64	85.88
262.872	81.88
263.105	92.88
263.337	101.88
263.57	96.88
263.802	72.88
264.035	71.88
264.267	80.88
264.499	72.88
264.732	72.88
264.964	84.88
265.197	79.88
265.429	82.88
265.661	91.88
265.894	91.88
266.126	74.88
266.358	78.88
266.591	66.88
266.823	102.88
267.055	83.88
267.287	93.88
267.52	86.88
267.752	86.88
267.984	75.88
268.216	80.88
268.448	79.88
268.681	94.88
268.913	81.88
269.145	78.88
269.377	72.88
269.609	94.88
269.841	95.88
270.073	71.88
270.306	83.88
270.538	88.88
270.77	86.88
271.002	73.88
271.234	95.88
271.466	89.88
271.698	78.88
271.93	84.88
272.162	85.88
272.394	90.88
272.626	86.88
272.858	89.88
273.09	88.88
273.322	84.88
273.553	87.88
273.785	75.88
274.017	69.88
274.249	70.88
274.481	85.88
274.713	88.88
274.945	91.88
275.176	81.88
275.408	91.88
275.64	91.88
275.872	91.88
276.104	78.88
276.335	90.88
276.567	98.88
276.799	105.88
277.031	97.88
277.262	88.88
277.494	96.88
277.726	94.88
277.957	77.88
278.189	74.88
278.421	91.88
278.652	78.88
278.884	89.88
279.115	91.88
279.347	80.88
279.579	80.88
279.81	83.88
280.042	81.88
280.273	94.88
280.505	78.88
280.736	98.88
280.968	93.88
281.199	92.88
281.431	83.88
281.662	77.88
281.894	101.88
282.125	99.88
282.356	108.88
282.588	146.88
282.819	119.88
283.051	88.88
283.282	87.88
283.513	96.88
283.745	89.88
283.976	86.88
284.207	93.88
284.439	85.88
284.67	92.88
284.901	78.88
285.132	82.88
285.364	83.88
285.595	97.88
285.826	84.88
286.057	87.88
286.288	94.88
286.52	94.88
286.751	85.88
286.982	89.88
287.213	96.88
287.444	81.88
287.675	82.88
287.906	73.88
288.138	73.88
288.369	100.88
288.6	88.88
288.831	87.88
289.062	82.88
289.293	98.88
289.524	84.88
289.755	79.88
289.986	80.88
290.217	76.88
290.448	83.88
290.679	91.88
290.91	93.88
291.141	90.88
291.371	73.88
291.602	99.88
291.833	84.88
292.064	99.88
292.295	103.88
292.526	89.88
292.757	87.88
292.987	79.88
293.218	90.88
293.449	96.88
293.68	79.88
293.91	94.88
294.141	95.88
294.372	80.88
294.603	79.88
294.833	93.88
295.064	81.88
295.295	107.88
295.525	101.88
295.756	99.88
295.987	99.88
296.217	142.88
296.448	131.88
296.679	99.88
296.909	98.88
297.14	103.88
297.37	91.88
297.601	91.88
297.831	103.88
298.062	93.88
298.292	75.88
298.523	99.88
298.753	88.88
298.984	80.88
299.214	88.88
299.445	92.88
299.675	108.88
299.905	94.88
300.136	81.88
300.366	87.88
300.597	77.88
300.827	86.88
301.057	86.88
301.288	98.88
301.518	93.88
301.748	94.88
301.979	107.88
302.209	100.88
302.439	84.88
302.669	93.88
302.9	91.88
303.13	113.88
303.36	98.88
303.59	85.88
303.82	98.88
304.051	91.88
304.281	84.88
304.511	98.88
304.741	78.88
304.971	103.88
305.201	83.88
305.431	79.88
305.661	90.88
305.891	90.88
306.121	104.88
306.352	91.88
306.582	91.88
306.812	102.88
307.042	93.88
307.272	99.88
307.502	106.88
307.731	93.88
307.961	93.88
308.191	99.88
308.421	94.88
308.651	89.88
308.881	103.88
309.111	86.88
309.341	80.88
309.571	94.88
309.8	98.88
310.03	99.88
310.26	98.88
310.49	102.88
310.72	92.88
310.949	107.88
311.179	103.88
311.409	96.88
311.639	93.88
311.868	90.88
312.098	86.88
312.328	85.88
312.557	102.88
312.787	106.88
313.017	102.88
313.246	85.88
313.476	101.88
313.706	85.88
313.935	86.88
314.165	103.88
314.394	98.88
314.624	102.88
314.853	96.88
315.083	92.88
315.312	79.88
315.542	92.88
315.771	83.88
316.001	89.88
316.23	90.88
316.46	102.88
316.689	96.88
316.919	98.88
317.148	86.88
317.377	89.88
317.607	94.88
317.836	87.88
318.065	83.88
318.295	85.88
318.524	77.88
318.753	104.88
318.983	86.88
319.212	114.88
319.441	102.88
319.67	120.88
319.9	98.88
320.129	98.88
320.358	80.88
320.587	97.88
320.816	94.88
321.046	94.88
321.275	96.88
321.504	79.88
321.733	91.88
321.962	91.88
322.191	100.88
322.42	98.88
322.649	91.88
322.878	113.88
323.108	107.88
323.337	108.88
323.566	110.88
323.795	136.88
324.024	201.88
324.253	349.88
324.482	727.88
324.71	1454.88
324.939	1922.88
325.168	728.88
325.397	242.88
325.626	148.88
325.855	120.88
326.084	133.88
326.313	134.88
326.542	138.88
326.77	202.88
326.999	405.88
327.228	843.88
327.457	1495.88
327.686	1170.88
327.914	328.88
328.143	188.88
328.372	137.88
328.6	130.88
328.829	114.88
329.058	121.88
329.287	128.88
329.515	98.88
329.744	100.88
329.972	112.88
330.201	146.88
330.43	146.88
330.658	128.88
330.887	122.88
331.115	120.88
331.344	100.88
331.572	85.88
331.801	94.88
332.03	90.88
332.258	94.88
332.486	93.88
332.715	88.88
332.943	93.88
333.172	99.88
333.4	111.88
333.629	106.88
333.857	125.88
334.085	132.88
334.314	129.88
334.542	167.88
334.771	156.88
334.999	111.88
335.227	104.88
335.455	100.88
335.684	102.88
335.912	103.88
336.14	92.88
336.369	93.88
336.597	100.88
336.825	104.88
337.053	95.88
337.281	90.88
337.51	72.88
337.738	90.88
337.966	90.88
338.194	99.88
338.422	100.88
338.65	95.88
338.878	84.88
339.106	87.88
339.334	102.88
339.562	99.88
339.79	84.88
340.018	89.88
340.246	93.88
340.474	93.88
340.702	86.88
340.93	97.88
341.158	96.88
341.386	87.88
341.614	93.88
341.842	101.88
342.07	104.88
342.298	92.88
342.526	99.88
342.754	98.88
342.981	88.88
343.209	90.88
343.437	98.88
343.665	91.88
343.893	88.88
344.12	92.88
344.348	99.88
344.576	104.88
344.804	83.88
345.031	109.88
345.259	101.88
345.487	97.88
345.714	102.88
345.942	87.88
346.17	87.88
346.397	95.88
346.625	91.88
346.853	100.88
347.08	98.88
347.308	91.88
347.535	106.88
347.763	80.88
347.99	101.88
348.218	89.88
348.445	109.88
348.673	77.88
348.9	102.88
349.128	98.88
349.355	91.88
349.583	99.88
349.81	88.88
350.037	88.88
350.265	100.88
350.492	83.88
350.72	102.88
350.947	102.88
351.174	108.88
351.402	107.88
351.629	120.88
351.856	104.88
352.083	111.88
352.311	108.88
352.538	100.88
352.765	94.88
352.992	110.88
353.22	108.88
353.447	103.88
353.674	87.88
353.901	81.88
354.128	106.88
354.355	101.88
354.583	96.88
354.81	104.88
355.037	102.88
355.264	95.88
355.491	106.88
355.718	87.88
355.945	99.88
356.172	80.88
356.399	91.88
356.626	112.88
356.853	90.88
357.08	93.88
357.307	98.88
357.534	96.88
357.761	101.88
357.988	89.88
358.215	72.88
358.441	82.88
358.668	95.88
358.895	73.88
359.122	77.88
359.349	98.88
359.576	101.88
359.802	100.88
360.029	105.88
360.256	104.88
360.483	87.88
360.709	98.88
360.936	91.88
361.163	74.88
361.39	87.88
361.616	99.88
361.843	92.88
362.07	95.88
362.296	101.88
362.523	91.88
362.749	89.88
362.976	83.88
363.203	97.88
363.429	92.88
363.656	98.88
363.882	92.88
364.109	92.88
364.335	80.88
364.562	106.88
364.788	91.88
365.015	101.88
365.241	88.88
365.468	111.88
365.694	106.88
365.92	100.88
366.147	86.88
366.373	75.88
366.599	87.88
366.826	74.88
367.052	92.88
367.278	80.88
367.505	91.88
367.731	103.88
367.957	95.88
368.184	100.88
368.41	90.88
368.636	93.88
368.862	101.88
369.089	112.88
369.315	76.88
369.541	98.88
369.767	91.88
369.993	91.88
370.219	95.88
370.445	96.88
370.672	95.88
370.898	90.88
371.124	91.88
371.35	94.88
371.576	86.88
371.802	90.88
372.028	86.88
372.254	80.88
372.48	84.88
372.706	80.88
372.932	96.88
373.158	97.88
373.384	94.88
373.61	84.88
373.835	94.88
374.061	79.88
374.287	96.88
374.513	93.88
374.739	84.88
374.965	91.88
375.191	86.88
375.416	79.88
375.642	92.88
375.868	95.88
376.094	89.88
376.319	85.88
376.545	83.88
376.771	74.88
376.997	86.88
377.222	98.88
377.448	82.88
377.674	83.88
377.899	93.88
378.125	91.88
378.35	87.88
378.576	75.88
378.802	93.88
379.027	77.88
379.253	86.88
379.478	104.88
379.704	90.88
379.929	89.88
380.155	90.88
380.38	90.88
380.606	97.88
380.831	89.88
381.057	96.88
381.282	92.88
381.507	103.88
381.733	87.88
381.958	88.88
382.184	111.88
382.409	91.88
382.634	99.88
382.86	108.88
383.085	98.88
383.31	96.88
383.535	104.88
383.761	113.88
383.986	107.88
384.211	99.88
384.436	92.88
384.662	94.88
384.887	92.88
385.112	104.88
385.337	103.88
385.562	108.88
385.787	97.88
386.013	115.88
386.238	113.88
386.463	107.88
386.688	100.88
386.913	96.88
387.138	103.88
387.363	94.88
387.588	93.88
387.813	119.88
388.038	100.88
388.263	107.88
388.488	109.88
388.713	92.88
388.938	94.88
389.163	98.88
389.387	107.88
389.612	93.88
389.837	99.88
390.062	97.88
390.287	94.88
390.512	91.88
390.736	86.88
390.961	99.88
391.186	92.88
391.411	81.88
391.636	80.88
391.86	99.88
392.085	90.88
392.31	86.88
392.534	87.88
392.759	88.88
392.984	77.88
393.208	95.88
393.433	103.88
393.658	87.88
393.882	95.88
394.107	80.88
394.331	89.88
394.556	88.88
394.78	87.88
395.005	90.88
395.229	107.88
395.454	96.88
395.678	95.88
395.903	98.88
396.127	95.88
396.352	88.88
396.576	85.88
396.801	87.88
397.025	85.88
397.249	70.88
397.474	82.88
397.698	89.88
397.922	96.88
398.147	103.88
398.371	93.88
398.595	85.88
398.82	94.88
399.044	82.88
399.268	93.88
399.492	77.88
399.717	84.88
399.941	82.88
400.165	99.88
400.389	96.88
400.613	90.88
400.837	92.88
401.062	90.88
401.286	68.88
401.51	95.88
401.734	93.88
401.958	83.88
402.182	123.88
402.406	154.88
402.63	118.88
402.854	96.88
403.078	97.88
403.302	99.88
403.526	99.88
403.75	85.88
403.974	87.88
404.198	87.88
404.422	93.88
404.645	92.88
404.869	78.88
405.093	100.88
405.317	99.88
405.541	101.88
405.765	107.88
405.988	109.88
406.212	157.88
406.436	200.88
406.66	122.88
406.883	97.88
407.107	93.88
407.331	96.88
407.555	97.88
407.778	94.88
408.002	71.88
408.226	83.88
408.449	96.88
408.673	97.88
408.896	104.88
409.12	98.88
409.344	94.88
409.567	80.88
409.791	89.88
410.014	90.88
410.238	99.88
410.461	100.88
410.685	91.88
410.908	93.88
411.132	109.88
411.355	86.88
411.578	82.88
411.802	91.88
412.025	84.88
412.249	74.88
412.472	93.88
412.695	95.88
412.919	91.88
413.142	99.88
413.365	88.88
413.589	91.88
413.812	92.88
414.035	90.88
414.258	84.88
414.482	92.88
414.705	99.88
414.928	91.88
415.151	99.88
415.374	89.88
415.597	84.88
415.821	90.88
416.044	97.88
416.267	86.88
416.49	90.88
416.713	86.88
416.936	79.88
417.159	88.88
417.382	80.88
417.605	102.88
417.828	85.88
418.051	99.88
418.274	98.88
418.497	85.88
418.72	80.88
418.943	90.88
419.166	86.88
419.389	93.88
419.611	81.88
419.834	87.88
420.057	87.88
420.28	83.88
420.503	72.88
420.726	102.88
420.948	90.88
421.171	91.88
421.394	103.88
421.617	98.88
421.839	91.88
422.062	84.88
422.285	94.88
422.507	95.88
422.73	96.88
422.953	105.88
423.175	93.88
423.398	96.88
423.621	98.88
423.843	94.88
424.066	98.88
424.288	87.88
424.511	77.88
424.733	90.88
424.956	111.88
425.178	96.88
425.401	105.88
425.623	102.88
425.846	86.88
426.068	75.88
426.291	75.88
426.513	90.88
426.735	89.88
426.958	97.88
427.18	98.88
427.402	100.88
427.625	150.88
427.847	136.88
428.069	119.88
428.292	87.88
428.514	86.88
428.736	76.88
428.958	96.88
429.181	84.88
429.403	86.88
429.625	94.88
429.847	93.88
430.069	92.88
430.292	90.88
430.514	83.88
430.736	83.88
430.958	78.88
431.18	68.88
431.402	84.88
431.624	71.88
431.846	95.88
432.068	91.88
432.29	101.88
432.512	99.88
432.734	80.88
432.956	83.88
433.178	101.88
433.4	90.88
433.622	100.88
433.844	87.88
434.066	84.88
434.287	105.88
434.509	85.88
434.731	95.88
434.953	97.88
435.175	86.88
435.397	86.88
435.618	84.88
435.84	106.88
436.062	109.88
436.284	111.88
436.505	103.88
436.727	96.88
436.949	91.88
437.17	86.88
437.392	78.88
437.614	95.88
437.835	107.88
438.057	120.88
438.278	108.88
438.5	97.88
438.721	113.88
438.943	98.88
439.165	97.88
439.386	76.88
439.608	75.88
439.829	93.88
440.05	109.88
440.272	124.88
440.493	92.88
440.715	86.88
440.936	86.88
441.158	82.88
441.379	77.88
441.6	97.88
441.822	96.88
442.043	90.88
442.264	98.88
442.486	98.88
442.707	95.88
442.928	94.88
443.149	123.88
443.371	128.88
443.592	106.88
443.813	103.88
444.034	107.88
444.255	99.88
444.476	106.88
444.698	90.88
444.919	81.88
445.14	131.88
445.361	135.88
445.582	114.88
445.803	128.88
446.024	112.88
446.245	121.88
446.466	105.88
446.687	94.88
446.908	85.88
447.129	97.88
447.35	102.88
447.571	83.88
447.792	99.88
448.013	108.88
448.234	100.88
448.455	96.88
448.675	112.88
448.896	114.88
449.117	100.88
449.338	95.88
449.559	106.88
449.779	115.88
450	102.88
450.221	98.88
450.442	82.88
450.662	91.88
450.883	89.88
451.104	99.88
451.324	91.88
451.545	85.88
451.766	85.88
451.986	87.88
452.207	90.88
452.428	90.88
452.648	102.88
452.869	115.88
453.089	114.88
453.31	126.88
453.53	115.88
453.751	84.88
453.971	95.88
454.192	95.88
454.412	105.88
454.633	87.88
454.853	76.88
455.073	91.88
455.294	96.88
455.514	106.88
455.734	93.88
455.955	75.88
456.175	93.88
456.395	89.88
456.616	86.88
456.836	64.88
457.056	87.88
457.276	76.88
457.497	83.88
457.717	84.88
457.937	84.88
458.157	78.88
458.377	87.88
458.598	101.88
458.818	140.88
459.038	152.88
459.258	130.88
459.478	89.88
459.698	101.88
459.918	84.88
460.138	78.88
460.358	86.88
460.578	96.88
460.798	81.88
461.018	83.88
461.238	84.88
461.458	76.88
461.678	91.88
461.898	81.88
462.118	88.88
462.338	80.88
462.558	87.88
462.777	83.88
462.997	97.88
463.217	85.88
463.437	92.88
463.657	95.88
463.876	75.88
464.096	94.88
464.316	78.88
464.536	96.88
464.755	85.88
464.975	83.88
465.195	161.88
465.414	153.88
465.634	101.88
465.854	90.88
466.073	85.88
466.293	97.88
466.512	91.88
466.732	74.88
466.951	81.88
467.171	95.88
467.391	110.88
467.61	110.88
467.829	93.88
468.049	110.88
468.268	116.88
468.488	103.88
468.707	90.88
468.927	94.88
469.146	66.88
469.365	89.88
469.585	86.88
469.804	96.88
470.023	90.88
470.243	88.88
470.462	99.88
470.681	105.88
470.901	100.88
471.12	92.88
471.339	84.88
471.558	86.88
471.777	89.88
471.997	97.88
472.216	149.88
472.435	171.88
472.654	109.88
472.873	103.88
473.092	95.88
473.311	96.88
473.53	84.88
473.749	104.88
473.968	91.88
474.187	95.88
474.406	100.88
474.625	91.88
474.844	85.88
475.063	89.88
475.282	77.88
475.501	78.88
475.72	82.88
475.939	93.88
476.158	63.88
476.377	79.88
476.596	86.88
476.814	102.88
477.033	92.88
477.252	71.88
477.471	90.88
477.69	90.88
477.908	74.88
478.127	87.88
478.346	89.88
478.564	83.88
478.783	96.88
479.002	99.88
479.22	74.88
479.439	97.88
479.658	96.88
479.876	110.88
480.095	96.88
480.313	95.88
480.532	91.88
480.751	107.88
480.969	139.88
481.188	286.88
481.406	203.88
481.624	104.88
481.843	101.88
482.061	97.88
482.28	102.88
482.498	82.88
482.717	78.88
482.935	79.88
483.153	78.88
483.372	80.88
483.59	99.88
483.808	82.88
484.027	94.88
484.245	91.88
484.463	87.88
484.681	91.88
484.9	102.88
485.118	101.88
485.336	103.88
485.554	110.88
485.772	98.88
485.99	98.88
486.209	108.88
486.427	104.88
486.645	107.88
486.863	119.88
487.081	111.88
487.299	88.88
487.517	108.88
487.735	91.88
487.953	94.88
488.171	77.88
488.389	82.88
488.607	84.88
488.825	99.88
489.043	88.88
489.261	80.88
489.479	79.88
489.696	92.88
489.914	98.88
490.132	98.88
490.35	95.88
490.568	100.88
490.786	86.88
491.003	74.88
491.221	74.88
491.439	85.88
491.657	98.88
491.874	104.88
492.092	100.88
492.31	80.88
492.527	91.88
492.745	91.88
492.963	105.88
493.18	91.88
493.398	93.88
493.615	104.88
493.833	101.88
494.05	98.88
494.268	104.88
494.485	95.88
494.703	86.88
494.92	89.88
495.138	88.88
495.355	87.88
495.573	100.88
495.79	88.88
496.008	87.88
496.225	109.88
496.442	89.88
496.66	88.88
496.877	103.88
497.094	103.88
497.312	96.88
497.529	65.88
497.746	94.88
497.963	101.88
498.181	87.88
498.398	105.88
498.615	103.88
498.832	103.88
499.049	94.88
499.267	95.88
499.484	90.88
499.701	79.88
499.918	84.88
500.135	91.88
500.352	84.88
500.569	87.88
500.786	89.88
501.003	93.88
501.22	105.88
501.437	88.88
501.654	90.88
501.871	102.88
502.088	97.88
502.305	90.88
502.522	83.88
502.739	96.88
502.956	88.88
503.172	94.88
503.389	93.88
503.606	103.88
503.823	98.88
504.04	97.88
504.256	95.88
504.473	79.88
504.69	100.88
504.907	101.88
505.123	80.88
505.34	103.88
505.557	86.88
505.773	82.88
505.99	104.88
506.207	91.88
506.423	87.88
506.64	99.88
506.856	79.88
507.073	89.88
507.289	101.88
507.506	90.88
507.722	109.88
507.939	103.88
508.155	106.88
508.372	85.88
508.588	95.88
508.805	98.88
509.021	99.88
509.238	93.88
509.454	94.88
509.67	97.88
509.887	93.88
510.103	118.88
510.319	199.88
510.536	719.88
510.752	2366.88
510.968	680.88
511.184	154.88
511.401	107.88
511.617	100.88
511.833	93.88
512.049	92.88
512.265	91.88
512.481	103.88
512.698	87.88
512.914	92.88
513.13	90.88
513.346	105.88
513.562	77.88
513.778	94.88
513.994	114.88
514.21	98.88
514.426	115.88
514.642	147.88
514.858	126.88
515.074	162.88
515.29	435.88
515.506	1428.88
