Data from Circ_2012_H10_HRD10591_00003.txt Node
Date: Wed Jan 03 10:05:51 EST 2024
User: Yrep
Spectrometer: HR+D1059
Trigger mode: 1
Integration Time (sec): 1.000000E-1
Scans to average: 1
Electric dark correction enabled: true
Nonlinearity correction enabled: false
Boxcar width: 0
XAxis mode: Wavelengths
Number of Pixels in Spectrum: 2048
>>>>>Begin Spectral Data<<<<<
223.165	-27.25
223.4	-27.25
223.635	-27.25
223.869	-9.25
224.104	-11.25
224.338	-29.25
224.573	-7.25
224.808	-21.25
225.042	-13.25
225.277	-7.25
225.511	5.75
225.746	-10.25
225.98	8.75
226.215	21.75
226.449	19.75
226.683	15.75
226.918	29.75
227.152	34.75
227.387	48.75
227.621	52.75
227.856	47.75
228.09	38.75
228.324	46.75
228.559	56.75
228.793	54.75
229.027	50.75
229.262	68.75
229.496	74.75
229.73	78.75
229.964	86.75
230.199	74.75
230.433	67.75
230.667	82.75
230.901	80.75
231.136	72.75
231.37	70.75
231.604	71.75
231.838	71.75
232.072	78.75
232.306	84.75
232.541	90.75
232.775	72.75
233.009	77.75
233.243	76.75
233.477	97.75
233.711	80.75
233.945	96.75
234.179	83.75
234.413	86.75
234.647	78.75
234.881	92.75
235.115	92.75
235.349	76.75
235.583	74.75
235.817	75.75
236.051	88.75
236.285	76.75
236.519	80.75
236.753	75.75
236.987	86.75
237.221	66.75
237.455	90.75
237.689	85.75
237.922	85.75
238.156	71.75
238.39	71.75
238.624	68.75
238.858	79.75
239.091	81.75
239.325	83.75
239.559	89.75
239.793	79.75
240.027	77.75
240.26	74.75
240.494	55.75
240.728	84.75
240.961	91.75
241.195	70.75
241.429	78.75
241.662	89.75
241.896	67.75
242.13	79.75
242.363	69.75
242.597	85.75
242.83	63.75
243.064	67.75
243.298	71.75
243.531	75.75
243.765	77.75
243.998	95.75
244.232	71.75
244.465	99.75
244.699	83.75
244.932	87.75
245.166	66.75
245.399	73.75
245.633	80.75
245.866	80.75
246.099	66.75
246.333	74.75
246.566	73.75
246.8	72.75
247.033	78.75
247.266	66.75
247.5	76.75
247.733	93.75
247.966	79.75
248.2	88.75
248.433	76.75
248.666	77.75
248.899	92.75
249.133	85.75
249.366	96.75
249.599	99.75
249.832	79.75
250.066	74.75
250.299	75.75
250.532	89.75
250.765	68.75
250.998	77.75
251.231	82.75
251.465	86.75
251.698	63.75
251.931	77.75
252.164	89.75
252.397	78.75
252.63	84.75
252.863	87.75
253.096	71.75
253.329	82.75
253.562	77.75
253.795	95.75
254.028	78.75
254.261	72.75
254.494	83.75
254.727	79.75
254.96	73.75
255.193	81.75
255.426	86.75
255.659	70.75
255.892	82.75
256.124	87.75
256.357	83.75
256.59	76.75
256.823	83.75
257.056	80.75
257.289	90.75
257.521	80.75
257.754	74.75
257.987	89.75
258.22	83.75
258.452	72.75
258.685	70.75
258.918	87.75
259.151	69.75
259.383	84.75
259.616	83.75
259.849	83.75
260.081	80.75
260.314	78.75
260.547	83.75
260.779	70.75
261.012	87.75
261.244	99.75
261.477	87.75
261.71	92.75
261.942	134.75
262.175	142.75
262.407	95.75
262.64	85.75
262.872	78.75
263.105	100.75
263.337	83.75
263.57	77.75
263.802	98.75
264.035	94.75
264.267	89.75
264.499	78.75
264.732	99.75
264.964	88.75
265.197	98.75
265.429	85.75
265.661	94.75
265.894	83.75
266.126	89.75
266.358	77.75
266.591	76.75
266.823	92.75
267.055	70.75
267.287	99.75
267.52	84.75
267.752	88.75
267.984	81.75
268.216	97.75
268.448	93.75
268.681	74.75
268.913	87.75
269.145	86.75
269.377	92.75
269.609	86.75
269.841	82.75
270.073	86.75
270.306	80.75
270.538	85.75
270.77	80.75
271.002	85.75
271.234	80.75
271.466	84.75
271.698	88.75
271.93	72.75
272.162	85.75
272.394	91.75
272.626	85.75
272.858	72.75
273.09	79.75
273.322	96.75
273.553	95.75
273.785	82.75
274.017	91.75
274.249	76.75
274.481	85.75
274.713	76.75
274.945	75.75
275.176	89.75
275.408	98.75
275.64	106.75
275.872	86.75
276.104	89.75
276.335	100.75
276.567	117.75
276.799	135.75
277.031	104.75
277.262	108.75
277.494	87.75
277.726	99.75
277.957	98.75
278.189	92.75
278.421	89.75
278.652	81.75
278.884	91.75
279.115	91.75
279.347	96.75
279.579	105.75
279.81	85.75
280.042	86.75
280.273	80.75
280.505	92.75
280.736	88.75
280.968	93.75
281.199	93.75
281.431	83.75
281.662	88.75
281.894	93.75
282.125	109.75
282.356	138.75
282.588	175.75
282.819	138.75
283.051	99.75
283.282	80.75
283.513	100.75
283.745	88.75
283.976	88.75
284.207	80.75
284.439	81.75
284.67	94.75
284.901	72.75
285.132	83.75
285.364	86.75
285.595	80.75
285.826	88.75
286.057	87.75
286.288	92.75
286.52	95.75
286.751	91.75
286.982	80.75
287.213	77.75
287.444	85.75
287.675	89.75
287.906	89.75
288.138	94.75
288.369	107.75
288.6	96.75
288.831	88.75
289.062	86.75
289.293	86.75
289.524	102.75
289.755	94.75
289.986	89.75
290.217	75.75
290.448	93.75
290.679	95.75
290.91	95.75
291.141	94.75
291.371	92.75
291.602	97.75
291.833	89.75
292.064	92.75
292.295	88.75
292.526	102.75
292.757	88.75
292.987	98.75
293.218	91.75
293.449	77.75
293.68	89.75
293.91	93.75
294.141	89.75
294.372	93.75
294.603	99.75
294.833	77.75
295.064	90.75
295.295	98.75
295.525	111.75
295.756	112.75
295.987	139.75
296.217	170.75
296.448	150.75
296.679	100.75
296.909	110.75
297.14	88.75
297.37	87.75
297.601	91.75
297.831	88.75
298.062	90.75
298.292	97.75
298.523	85.75
298.753	91.75
298.984	90.75
299.214	89.75
299.445	97.75
299.675	110.75
299.905	106.75
300.136	84.75
300.366	94.75
300.597	94.75
300.827	99.75
301.057	100.75
301.288	109.75
301.518	92.75
301.748	89.75
301.979	95.75
302.209	80.75
302.439	98.75
302.669	96.75
302.9	92.75
303.13	103.75
303.36	99.75
303.59	108.75
303.82	114.75
304.051	107.75
304.281	87.75
304.511	82.75
304.741	103.75
304.971	83.75
305.201	76.75
305.431	89.75
305.661	100.75
305.891	99.75
306.121	91.75
306.352	116.75
306.582	125.75
306.812	83.75
307.042	82.75
307.272	84.75
307.502	104.75
307.731	102.75
307.961	93.75
308.191	84.75
308.421	91.75
308.651	97.75
308.881	98.75
309.111	92.75
309.341	92.75
309.571	110.75
309.8	102.75
310.03	95.75
310.26	97.75
310.49	111.75
310.72	104.75
310.949	124.75
311.179	109.75
311.409	83.75
311.639	99.75
311.868	109.75
312.098	92.75
312.328	102.75
312.557	102.75
312.787	103.75
313.017	120.75
313.246	110.75
313.476	100.75
313.706	114.75
313.935	103.75
314.165	121.75
314.394	117.75
314.624	112.75
314.853	96.75
315.083	107.75
315.312	90.75
315.542	85.75
315.771	106.75
316.001	93.75
316.23	81.75
316.46	88.75
316.689	94.75
316.919	102.75
317.148	107.75
317.377	100.75
317.607	99.75
317.836	105.75
318.065	99.75
318.295	94.75
318.524	95.75
318.753	106.75
318.983	96.75
319.212	106.75
319.441	120.75
319.67	128.75
319.9	100.75
320.129	107.75
320.358	118.75
320.587	97.75
320.816	102.75
321.046	125.75
321.275	97.75
321.504	107.75
321.733	105.75
321.962	103.75
322.191	89.75
322.42	115.75
322.649	138.75
322.878	123.75
323.108	134.75
323.337	150.75
323.566	155.75
323.795	189.75
324.024	270.75
324.253	553.75
324.482	1242.75
324.71	2480.75
324.939	3335.75
325.168	1194.75
325.397	333.75
325.626	184.75
325.855	153.75
326.084	152.75
326.313	162.75
326.542	180.75
326.77	289.75
326.999	589.75
327.228	1318.75
327.457	2415.75
327.686	1890.75
327.914	509.75
328.143	253.75
328.372	184.75
328.6	144.75
328.829	145.75
329.058	162.75
329.287	170.75
329.515	133.75
329.744	110.75
329.972	101.75
330.201	106.75
330.43	132.75
330.658	157.75
330.887	191.75
331.115	136.75
331.344	106.75
331.572	111.75
331.801	115.75
332.03	114.75
332.258	96.75
332.486	97.75
332.715	94.75
332.943	94.75
333.172	94.75
333.4	102.75
333.629	121.75
333.857	119.75
334.085	132.75
334.314	109.75
334.542	108.75
334.771	117.75
334.999	108.75
335.227	95.75
335.455	92.75
335.684	94.75
335.912	110.75
336.14	109.75
336.369	114.75
336.597	107.75
336.825	95.75
337.053	93.75
337.281	91.75
337.51	93.75
337.738	91.75
337.966	95.75
338.194	107.75
338.422	98.75
338.65	108.75
338.878	91.75
339.106	85.75
339.334	94.75
339.562	95.75
339.79	93.75
340.018	91.75
340.246	107.75
340.474	117.75
340.702	97.75
340.93	97.75
341.158	90.75
341.386	98.75
341.614	103.75
341.842	89.75
342.07	102.75
342.298	97.75
342.526	97.75
342.754	97.75
342.981	85.75
343.209	101.75
343.437	99.75
343.665	79.75
343.893	79.75
344.12	93.75
344.348	88.75
344.576	87.75
344.804	104.75
345.031	99.75
345.259	114.75
345.487	100.75
345.714	106.75
345.942	104.75
346.17	108.75
346.397	95.75
346.625	99.75
346.853	91.75
347.08	84.75
347.308	91.75
347.535	106.75
347.763	111.75
347.99	115.75
348.218	111.75
348.445	115.75
348.673	107.75
348.9	98.75
349.128	107.75
349.355	87.75
349.583	85.75
349.81	88.75
350.037	107.75
350.265	102.75
350.492	86.75
350.72	94.75
350.947	108.75
351.174	120.75
351.402	115.75
351.629	111.75
351.856	126.75
352.083	117.75
352.311	100.75
352.538	138.75
352.765	127.75
352.992	128.75
353.22	133.75
353.447	84.75
353.674	98.75
353.901	97.75
354.128	106.75
354.355	99.75
354.583	106.75
354.81	104.75
355.037	92.75
355.264	104.75
355.491	85.75
355.718	102.75
355.945	87.75
356.172	91.75
356.399	90.75
356.626	94.75
356.853	98.75
357.08	92.75
357.307	104.75
357.534	100.75
357.761	88.75
357.988	99.75
358.215	107.75
358.441	105.75
358.668	95.75
358.895	84.75
359.122	82.75
359.349	89.75
359.576	107.75
359.802	113.75
360.029	145.75
360.256	135.75
360.483	90.75
360.709	99.75
360.936	109.75
361.163	109.75
361.39	102.75
361.616	104.75
361.843	95.75
362.07	101.75
362.296	87.75
362.523	110.75
362.749	109.75
362.976	86.75
363.203	92.75
363.429	96.75
363.656	96.75
363.882	86.75
364.109	88.75
364.335	91.75
364.562	86.75
364.788	80.75
365.015	96.75
365.241	106.75
365.468	120.75
365.694	126.75
365.92	102.75
366.147	88.75
366.373	88.75
366.599	98.75
366.826	94.75
367.052	94.75
367.278	92.75
367.505	93.75
367.731	93.75
367.957	91.75
368.184	87.75
368.41	117.75
368.636	133.75
368.862	135.75
369.089	122.75
369.315	100.75
369.541	93.75
369.767	95.75
369.993	104.75
370.219	90.75
370.445	103.75
370.672	94.75
370.898	78.75
371.124	87.75
371.35	96.75
371.576	91.75
371.802	94.75
372.028	101.75
372.254	79.75
372.48	95.75
372.706	100.75
372.932	86.75
373.158	93.75
373.384	100.75
373.61	102.75
373.835	85.75
374.061	108.75
374.287	86.75
374.513	99.75
374.739	90.75
374.965	85.75
375.191	98.75
375.416	96.75
375.642	88.75
375.868	114.75
376.094	102.75
376.319	99.75
376.545	114.75
376.771	94.75
376.997	90.75
377.222	91.75
377.448	84.75
377.674	87.75
377.899	86.75
378.125	94.75
378.35	90.75
378.576	99.75
378.802	102.75
379.027	111.75
379.253	96.75
379.478	90.75
379.704	106.75
379.929	89.75
380.155	88.75
380.38	90.75
380.606	93.75
380.831	92.75
381.057	101.75
381.282	103.75
381.507	96.75
381.733	101.75
381.958	98.75
382.184	111.75
382.409	93.75
382.634	107.75
382.86	97.75
383.085	105.75
383.31	98.75
383.535	102.75
383.761	108.75
383.986	96.75
384.211	103.75
384.436	104.75
384.662	92.75
384.887	95.75
385.112	115.75
385.337	107.75
385.562	114.75
385.787	120.75
386.013	112.75
386.238	119.75
386.463	112.75
386.688	100.75
386.913	102.75
387.138	107.75
387.363	110.75
387.588	105.75
387.813	110.75
388.038	120.75
388.263	115.75
388.488	121.75
388.713	108.75
388.938	99.75
389.163	95.75
389.387	92.75
389.612	96.75
389.837	93.75
390.062	97.75
390.287	94.75
390.512	90.75
390.736	103.75
390.961	96.75
391.186	96.75
391.411	96.75
391.636	103.75
391.86	80.75
392.085	78.75
392.31	100.75
392.534	88.75
392.759	91.75
392.984	93.75
393.208	77.75
393.433	108.75
393.658	78.75
393.882	91.75
394.107	87.75
394.331	74.75
394.556	99.75
394.78	94.75
395.005	84.75
395.229	85.75
395.454	76.75
395.678	90.75
395.903	79.75
396.127	86.75
396.352	96.75
396.576	86.75
396.801	94.75
397.025	94.75
397.249	95.75
397.474	89.75
397.698	86.75
397.922	83.75
398.147	83.75
398.371	83.75
398.595	78.75
398.82	78.75
399.044	82.75
399.268	78.75
399.492	91.75
399.717	105.75
399.941	90.75
400.165	102.75
400.389	68.75
400.613	97.75
400.837	100.75
401.062	92.75
401.286	104.75
401.51	90.75
401.734	90.75
401.958	107.75
402.182	170.75
402.406	192.75
402.63	150.75
402.854	93.75
403.078	92.75
403.302	92.75
403.526	84.75
403.75	104.75
403.974	89.75
404.198	88.75
404.422	91.75
404.645	90.75
404.869	95.75
405.093	104.75
405.317	110.75
405.541	95.75
405.765	109.75
405.988	143.75
406.212	224.75
406.436	324.75
406.66	206.75
406.883	128.75
407.107	97.75
407.331	96.75
407.555	89.75
407.778	98.75
408.002	99.75
408.226	104.75
408.449	91.75
408.673	80.75
408.896	79.75
409.12	105.75
409.344	90.75
409.567	79.75
409.791	93.75
410.014	87.75
410.238	105.75
410.461	79.75
410.685	98.75
410.908	98.75
411.132	88.75
411.355	81.75
411.578	96.75
411.802	86.75
412.025	93.75
412.249	102.75
412.472	104.75
412.695	95.75
412.919	102.75
413.142	76.75
413.365	85.75
413.589	102.75
413.812	85.75
414.035	74.75
414.258	84.75
414.482	86.75
414.705	92.75
414.928	86.75
415.151	81.75
415.374	88.75
415.597	96.75
415.821	84.75
416.044	96.75
416.267	98.75
416.49	83.75
416.713	79.75
416.936	90.75
417.159	86.75
417.382	84.75
417.605	77.75
417.828	81.75
418.051	103.75
418.274	92.75
418.497	76.75
418.72	83.75
418.943	98.75
419.166	93.75
419.389	76.75
419.611	89.75
419.834	86.75
420.057	83.75
420.28	84.75
420.503	83.75
420.726	82.75
420.948	92.75
421.171	100.75
421.394	88.75
421.617	86.75
421.839	83.75
422.062	103.75
422.285	94.75
422.507	95.75
422.73	111.75
422.953	102.75
423.175	78.75
423.398	97.75
423.621	92.75
423.843	79.75
424.066	91.75
424.288	80.75
424.511	88.75
424.733	103.75
424.956	115.75
425.178	99.75
425.401	111.75
425.623	110.75
425.846	95.75
426.068	96.75
426.291	106.75
426.513	92.75
426.735	99.75
426.958	96.75
427.18	122.75
427.402	159.75
427.625	203.75
427.847	154.75
428.069	116.75
428.292	98.75
428.514	102.75
428.736	94.75
428.958	83.75
429.181	75.75
429.403	76.75
429.625	80.75
429.847	82.75
430.069	96.75
430.292	94.75
430.514	71.75
430.736	85.75
430.958	80.75
431.18	88.75
431.402	80.75
431.624	114.75
431.846	85.75
432.068	69.75
432.29	76.75
432.512	81.75
432.734	90.75
432.956	80.75
433.178	106.75
433.4	105.75
433.622	92.75
433.844	103.75
434.066	92.75
434.287	91.75
434.509	100.75
434.731	105.75
434.953	73.75
435.175	102.75
435.397	95.75
435.618	101.75
435.84	93.75
436.062	134.75
436.284	99.75
436.505	100.75
436.727	110.75
436.949	86.75
437.17	87.75
437.392	89.75
437.614	91.75
437.835	124.75
438.057	144.75
438.278	106.75
438.5	102.75
438.721	125.75
438.943	88.75
439.165	88.75
439.386	83.75
439.608	91.75
439.829	109.75
440.05	144.75
440.272	160.75
440.493	105.75
440.715	90.75
440.936	97.75
441.158	96.75
441.379	95.75
441.6	95.75
441.822	103.75
442.043	109.75
442.264	108.75
442.486	105.75
442.707	93.75
442.928	118.75
443.149	152.75
443.371	163.75
443.592	122.75
443.813	119.75
444.034	111.75
444.255	99.75
444.476	86.75
444.698	96.75
444.919	103.75
445.14	124.75
445.361	134.75
445.582	136.75
445.803	160.75
446.024	161.75
446.245	162.75
446.466	122.75
446.687	95.75
446.908	92.75
447.129	80.75
447.35	88.75
447.571	93.75
447.792	100.75
448.013	122.75
448.234	123.75
448.455	110.75
448.675	124.75
448.896	130.75
449.117	107.75
449.338	111.75
449.559	130.75
449.779	148.75
450	97.75
450.221	96.75
450.442	93.75
450.662	97.75
450.883	136.75
451.104	130.75
451.324	95.75
451.545	78.75
451.766	99.75
451.986	83.75
452.207	92.75
452.428	91.75
452.648	115.75
452.869	134.75
453.089	142.75
453.31	147.75
453.53	110.75
453.751	102.75
453.971	119.75
454.192	130.75
454.412	87.75
454.633	85.75
454.853	85.75
455.073	73.75
455.294	82.75
455.514	116.75
455.734	96.75
455.955	73.75
456.175	91.75
456.395	102.75
456.616	95.75
456.836	89.75
457.056	83.75
457.276	84.75
457.497	90.75
457.717	83.75
457.937	75.75
458.157	88.75
458.377	75.75
458.598	134.75
458.818	209.75
459.038	223.75
459.258	139.75
459.478	110.75
459.698	98.75
459.918	92.75
460.138	89.75
460.358	97.75
460.578	96.75
460.798	82.75
461.018	92.75
461.238	100.75
461.458	85.75
461.678	71.75
461.898	92.75
462.118	90.75
462.338	79.75
462.558	101.75
462.777	74.75
462.997	86.75
463.217	74.75
463.437	94.75
463.657	98.75
463.876	84.75
464.096	94.75
464.316	89.75
464.536	96.75
464.755	96.75
464.975	121.75
465.195	222.75
465.414	239.75
465.634	100.75
465.854	84.75
466.073	95.75
466.293	77.75
466.512	98.75
466.732	85.75
466.951	96.75
467.171	87.75
467.391	92.75
467.61	99.75
467.829	106.75
468.049	99.75
468.268	92.75
468.488	79.75
468.707	89.75
468.927	77.75
469.146	78.75
469.365	81.75
469.585	92.75
469.804	102.75
470.023	96.75
470.243	84.75
470.462	103.75
470.681	137.75
470.901	81.75
471.12	90.75
471.339	92.75
471.558	85.75
471.777	72.75
471.997	95.75
472.216	100.75
472.435	96.75
472.654	93.75
472.873	92.75
473.092	93.75
473.311	90.75
473.53	80.75
473.749	98.75
473.968	94.75
474.187	104.75
474.406	109.75
474.625	89.75
474.844	96.75
475.063	79.75
475.282	89.75
475.501	75.75
475.72	102.75
475.939	91.75
476.158	88.75
476.377	76.75
476.596	80.75
476.814	83.75
477.033	90.75
477.252	88.75
477.471	87.75
477.69	96.75
477.908	103.75
478.127	89.75
478.346	95.75
478.564	95.75
478.783	106.75
479.002	111.75
479.22	100.75
479.439	111.75
479.658	100.75
479.876	88.75
480.095	87.75
480.313	88.75
480.532	99.75
480.751	84.75
480.969	99.75
481.188	116.75
481.406	109.75
481.624	85.75
481.843	94.75
482.061	96.75
482.28	97.75
482.498	88.75
482.717	79.75
482.935	90.75
483.153	86.75
483.372	101.75
483.59	84.75
483.808	83.75
484.027	100.75
484.245	92.75
484.463	91.75
484.681	110.75
484.9	92.75
485.118	93.75
485.336	95.75
485.554	92.75
485.772	88.75
485.99	80.75
486.209	89.75
486.427	81.75
486.645	118.75
486.863	112.75
487.081	95.75
487.299	86.75
487.517	103.75
487.735	89.75
487.953	106.75
488.171	87.75
488.389	78.75
488.607	104.75
488.825	103.75
489.043	79.75
489.261	90.75
489.479	99.75
489.696	89.75
489.914	98.75
490.132	79.75
490.35	101.75
490.568	103.75
490.786	90.75
491.003	84.75
491.221	86.75
491.439	104.75
491.657	99.75
491.874	79.75
492.092	98.75
492.31	99.75
492.527	76.75
492.745	98.75
492.963	73.75
493.18	72.75
493.398	83.75
493.615	103.75
493.833	90.75
494.05	105.75
494.268	88.75
494.485	86.75
494.703	84.75
494.92	80.75
495.138	78.75
495.355	87.75
495.573	76.75
495.79	98.75
496.008	90.75
496.225	77.75
496.442	88.75
496.66	87.75
496.877	82.75
497.094	95.75
497.312	82.75
497.529	93.75
497.746	104.75
497.963	83.75
498.181	97.75
498.398	90.75
498.615	105.75
498.832	120.75
499.049	76.75
499.267	95.75
499.484	88.75
499.701	73.75
499.918	80.75
500.135	84.75
500.352	99.75
500.569	95.75
500.786	90.75
501.003	79.75
501.22	80.75
501.437	83.75
501.654	96.75
501.871	117.75
502.088	108.75
502.305	94.75
502.522	86.75
502.739	86.75
502.956	93.75
503.172	90.75
503.389	102.75
503.606	120.75
503.823	99.75
504.04	107.75
504.256	84.75
504.473	91.75
504.69	92.75
504.907	85.75
505.123	81.75
505.34	96.75
505.557	88.75
505.773	83.75
505.99	99.75
506.207	93.75
506.423	103.75
506.64	86.75
506.856	78.75
507.073	83.75
507.289	89.75
507.506	95.75
507.722	141.75
507.939	130.75
508.155	94.75
508.372	88.75
508.588	96.75
508.805	86.75
509.021	91.75
509.238	109.75
509.454	97.75
509.67	104.75
509.887	100.75
510.103	156.75
510.319	284.75
510.536	1034.75
510.752	3722.75
510.968	1032.75
511.184	202.75
511.401	125.75
511.617	110.75
511.833	96.75
512.049	96.75
512.265	88.75
512.481	108.75
512.698	88.75
512.914	85.75
513.13	99.75
513.346	92.75
513.562	101.75
513.778	95.75
513.994	119.75
514.21	116.75
