Data from Circ_2012_H10_HRD10591_00018.txt Node
Date: Wed Jan 03 10:05:54 EST 2024
User: Yrep
Spectrometer: HR+D1059
Trigger mode: 1
Integration Time (sec): 1.000000E-1
Scans to average: 1
Electric dark correction enabled: true
Nonlinearity correction enabled: false
Boxcar width: 0
XAxis mode: Wavelengths
Number of Pixels in Spectrum: 2048
>>>>>Begin Spectral Data<<<<<
223.165	2.06
223.4	2.06
223.635	2.06
223.869	-3.94
224.104	-20.94
224.338	-18.94
224.573	-16.94
224.808	-8.94
225.042	2.06
225.277	-8.94
225.511	-6.94
225.746	5.06
225.98	-0.94
226.215	5.06
226.449	11.06
226.683	18.06
226.918	11.06
227.152	32.06
227.387	27.06
227.621	36.06
227.856	43.06
228.09	53.06
228.324	65.06
228.559	49.06
228.793	66.06
229.027	51.06
229.262	72.06
229.496	73.06
229.73	75.06
229.964	87.06
230.199	81.06
230.433	84.06
230.667	82.06
230.901	74.06
231.136	77.06
231.37	78.06
231.604	87.06
231.838	90.06
232.072	82.06
232.306	76.06
232.541	89.06
232.775	70.06
233.009	93.06
233.243	78.06
233.477	98.06
233.711	75.06
233.945	66.06
234.179	76.06
234.413	81.06
234.647	77.06
234.881	78.06
235.115	76.06
235.349	76.06
235.583	77.06
235.817	80.06
236.051	90.06
236.285	72.06
236.519	86.06
236.753	75.06
236.987	76.06
237.221	73.06
237.455	83.06
237.689	80.06
237.922	70.06
238.156	61.06
238.39	89.06
238.624	77.06
238.858	85.06
239.091	85.06
239.325	86.06
239.559	87.06
239.793	93.06
240.027	82.06
240.26	69.06
240.494	67.06
240.728	78.06
240.961	58.06
241.195	65.06
241.429	81.06
241.662	65.06
241.896	73.06
242.13	68.06
242.363	69.06
242.597	66.06
242.83	87.06
243.064	73.06
243.298	83.06
243.531	73.06
243.765	62.06
243.998	65.06
244.232	93.06
244.465	83.06
244.699	87.06
244.932	73.06
245.166	75.06
245.399	77.06
245.633	84.06
245.866	69.06
246.099	78.06
246.333	87.06
246.566	65.06
246.8	89.06
247.033	79.06
247.266	77.06
247.5	86.06
247.733	83.06
247.966	79.06
248.2	95.06
248.433	79.06
248.666	83.06
248.899	76.06
249.133	81.06
249.366	99.06
249.599	91.06
249.832	89.06
250.066	58.06
250.299	75.06
250.532	87.06
250.765	75.06
250.998	82.06
251.231	80.06
251.465	83.06
251.698	67.06
251.931	95.06
252.164	70.06
252.397	81.06
252.63	67.06
252.863	80.06
253.096	80.06
253.329	76.06
253.562	87.06
253.795	79.06
254.028	85.06
254.261	77.06
254.494	83.06
254.727	83.06
254.96	74.06
255.193	70.06
255.426	83.06
255.659	72.06
255.892	69.06
256.124	83.06
256.357	88.06
256.59	84.06
256.823	92.06
257.056	76.06
257.289	80.06
257.521	95.06
257.754	83.06
257.987	82.06
258.22	67.06
258.452	88.06
258.685	90.06
258.918	85.06
259.151	77.06
259.383	79.06
259.616	75.06
259.849	85.06
260.081	70.06
260.314	86.06
260.547	73.06
260.779	88.06
261.012	77.06
261.244	86.06
261.477	90.06
261.71	89.06
261.942	116.06
262.175	127.06
262.407	85.06
262.64	87.06
262.872	87.06
263.105	77.06
263.337	80.06
263.57	98.06
263.802	92.06
264.035	84.06
264.267	74.06
264.499	88.06
264.732	83.06
264.964	94.06
265.197	82.06
265.429	85.06
265.661	83.06
265.894	92.06
266.126	89.06
266.358	87.06
266.591	87.06
266.823	78.06
267.055	85.06
267.287	85.06
267.52	69.06
267.752	79.06
267.984	88.06
268.216	89.06
268.448	93.06
268.681	88.06
268.913	73.06
269.145	65.06
269.377	82.06
269.609	71.06
269.841	77.06
270.073	84.06
270.306	67.06
270.538	87.06
270.77	88.06
271.002	82.06
271.234	90.06
271.466	79.06
271.698	78.06
271.93	90.06
272.162	99.06
272.394	89.06
272.626	82.06
272.858	74.06
273.09	90.06
273.322	93.06
273.553	90.06
273.785	87.06
274.017	90.06
274.249	80.06
274.481	85.06
274.713	85.06
274.945	89.06
275.176	95.06
275.408	76.06
275.64	82.06
275.872	76.06
276.104	90.06
276.335	102.06
276.567	107.06
276.799	112.06
277.031	92.06
277.262	93.06
277.494	81.06
277.726	65.06
277.957	92.06
278.189	81.06
278.421	91.06
278.652	93.06
278.884	93.06
279.115	69.06
279.347	78.06
279.579	84.06
279.81	77.06
280.042	80.06
280.273	84.06
280.505	76.06
280.736	87.06
280.968	93.06
281.199	87.06
281.431	84.06
281.662	90.06
281.894	93.06
282.125	105.06
282.356	115.06
282.588	146.06
282.819	121.06
283.051	98.06
283.282	89.06
283.513	89.06
283.745	81.06
283.976	93.06
284.207	88.06
284.439	94.06
284.67	99.06
284.901	89.06
285.132	83.06
285.364	74.06
285.595	76.06
285.826	76.06
286.057	92.06
286.288	85.06
286.52	86.06
286.751	79.06
286.982	69.06
287.213	87.06
287.444	70.06
287.675	91.06
287.906	94.06
288.138	84.06
288.369	105.06
288.6	86.06
288.831	96.06
289.062	78.06
289.293	89.06
289.524	86.06
289.755	85.06
289.986	76.06
290.217	101.06
290.448	85.06
290.679	89.06
290.91	83.06
291.141	88.06
291.371	87.06
291.602	95.06
291.833	78.06
292.064	91.06
292.295	82.06
292.526	79.06
292.757	83.06
292.987	97.06
293.218	90.06
293.449	103.06
293.68	85.06
293.91	88.06
294.141	92.06
294.372	95.06
294.603	80.06
294.833	83.06
295.064	100.06
295.295	89.06
295.525	78.06
295.756	108.06
295.987	129.06
296.217	140.06
296.448	147.06
296.679	93.06
296.909	99.06
297.14	82.06
297.37	83.06
297.601	88.06
297.831	84.06
298.062	86.06
298.292	92.06
298.523	84.06
298.753	83.06
298.984	72.06
299.214	92.06
299.445	100.06
299.675	95.06
299.905	102.06
300.136	109.06
300.366	94.06
300.597	83.06
300.827	104.06
301.057	113.06
301.288	118.06
301.518	92.06
301.748	97.06
301.979	91.06
302.209	88.06
302.439	83.06
302.669	86.06
302.9	81.06
303.13	94.06
303.36	89.06
303.59	114.06
303.82	97.06
304.051	88.06
304.281	82.06
304.511	92.06
304.741	92.06
304.971	79.06
305.201	89.06
305.431	75.06
305.661	94.06
305.891	93.06
306.121	94.06
306.352	100.06
306.582	102.06
306.812	95.06
307.042	85.06
307.272	94.06
307.502	92.06
307.731	98.06
307.961	91.06
308.191	94.06
308.421	99.06
308.651	88.06
308.881	89.06
309.111	99.06
309.341	97.06
309.571	115.06
309.8	107.06
310.03	99.06
310.26	90.06
310.49	82.06
310.72	91.06
310.949	105.06
311.179	100.06
311.409	74.06
311.639	96.06
311.868	109.06
312.098	98.06
312.328	91.06
312.557	103.06
312.787	100.06
313.017	102.06
313.246	98.06
313.476	98.06
313.706	102.06
313.935	88.06
314.165	93.06
314.394	88.06
314.624	96.06
314.853	94.06
315.083	94.06
315.312	85.06
315.542	94.06
315.771	83.06
316.001	86.06
316.23	83.06
316.46	89.06
316.689	85.06
316.919	92.06
317.148	91.06
317.377	90.06
317.607	100.06
317.836	89.06
318.065	87.06
318.295	87.06
318.524	88.06
318.753	79.06
318.983	95.06
319.212	99.06
319.441	100.06
319.67	110.06
319.9	94.06
320.129	84.06
320.358	75.06
320.587	88.06
320.816	91.06
321.046	89.06
321.275	102.06
321.504	84.06
321.733	90.06
321.962	102.06
322.191	110.06
322.42	120.06
322.649	102.06
322.878	113.06
323.108	122.06
323.337	137.06
323.566	126.06
323.795	165.06
324.024	222.06
324.253	445.06
324.482	939.06
324.71	1942.06
324.939	2554.06
325.168	949.06
325.397	271.06
325.626	166.06
325.855	144.06
326.084	135.06
326.313	118.06
326.542	161.06
326.77	257.06
326.999	516.06
327.228	1040.06
327.457	1905.06
327.686	1537.06
327.914	435.06
328.143	225.06
328.372	159.06
328.6	125.06
328.829	103.06
329.058	143.06
329.287	157.06
329.515	121.06
329.744	102.06
329.972	103.06
330.201	102.06
330.43	125.06
330.658	133.06
330.887	140.06
331.115	138.06
331.344	90.06
331.572	95.06
331.801	113.06
332.03	105.06
332.258	94.06
332.486	102.06
332.715	98.06
332.943	88.06
333.172	94.06
333.4	106.06
333.629	119.06
333.857	121.06
334.085	106.06
334.314	101.06
334.542	104.06
334.771	113.06
334.999	112.06
335.227	95.06
335.455	94.06
335.684	90.06
335.912	95.06
336.14	103.06
336.369	102.06
336.597	110.06
336.825	102.06
337.053	85.06
337.281	100.06
337.51	92.06
337.738	115.06
337.966	95.06
338.194	104.06
338.422	95.06
338.65	86.06
338.878	102.06
339.106	102.06
339.334	85.06
339.562	95.06
339.79	90.06
340.018	77.06
340.246	106.06
340.474	103.06
340.702	89.06
340.93	104.06
341.158	96.06
341.386	96.06
341.614	103.06
341.842	107.06
342.07	91.06
342.298	103.06
342.526	105.06
342.754	87.06
342.981	92.06
343.209	92.06
343.437	102.06
343.665	84.06
343.893	89.06
344.12	90.06
344.348	93.06
344.576	75.06
344.804	92.06
345.031	90.06
345.259	89.06
345.487	97.06
345.714	97.06
345.942	88.06
346.17	85.06
346.397	87.06
346.625	95.06
346.853	92.06
347.08	93.06
347.308	95.06
347.535	85.06
347.763	98.06
347.99	97.06
348.218	108.06
348.445	97.06
348.673	100.06
348.9	99.06
349.128	104.06
349.355	89.06
349.583	84.06
349.81	97.06
350.037	96.06
350.265	98.06
350.492	87.06
350.72	108.06
350.947	115.06
351.174	119.06
351.402	110.06
351.629	99.06
351.856	109.06
352.083	107.06
352.311	103.06
352.538	129.06
352.765	122.06
352.992	104.06
353.22	112.06
353.447	106.06
353.674	92.06
353.901	74.06
354.128	92.06
354.355	115.06
354.583	90.06
354.81	86.06
355.037	97.06
355.264	87.06
355.491	89.06
355.718	96.06
355.945	104.06
356.172	97.06
356.399	92.06
356.626	94.06
356.853	86.06
357.08	90.06
357.307	81.06
357.534	82.06
357.761	93.06
357.988	88.06
358.215	94.06
358.441	80.06
358.668	91.06
358.895	91.06
359.122	109.06
359.349	96.06
359.576	89.06
359.802	117.06
360.029	124.06
360.256	109.06
360.483	110.06
360.709	85.06
360.936	103.06
361.163	99.06
361.39	101.06
361.616	99.06
361.843	91.06
362.07	90.06
362.296	90.06
362.523	93.06
362.749	97.06
362.976	97.06
363.203	99.06
363.429	97.06
363.656	87.06
363.882	79.06
364.109	87.06
364.335	99.06
364.562	98.06
364.788	99.06
365.015	89.06
365.241	100.06
365.468	115.06
365.694	107.06
365.92	98.06
366.147	72.06
366.373	81.06
366.599	78.06
366.826	93.06
367.052	78.06
367.278	82.06
367.505	93.06
367.731	102.06
367.957	96.06
368.184	86.06
368.41	101.06
368.636	113.06
368.862	125.06
369.089	105.06
369.315	83.06
369.541	84.06
369.767	82.06
369.993	106.06
370.219	98.06
370.445	89.06
370.672	92.06
370.898	93.06
371.124	82.06
371.35	72.06
371.576	87.06
371.802	75.06
372.028	78.06
372.254	93.06
372.48	84.06
372.706	78.06
372.932	85.06
373.158	86.06
373.384	97.06
373.61	96.06
373.835	94.06
374.061	95.06
374.287	97.06
374.513	99.06
374.739	85.06
374.965	83.06
375.191	89.06
375.416	81.06
375.642	88.06
375.868	98.06
376.094	101.06
376.319	89.06
376.545	103.06
376.771	96.06
376.997	93.06
377.222	80.06
377.448	87.06
377.674	92.06
377.899	87.06
378.125	94.06
378.35	87.06
378.576	90.06
378.802	94.06
379.027	82.06
379.253	87.06
379.478	102.06
379.704	92.06
379.929	81.06
380.155	91.06
380.38	89.06
380.606	97.06
380.831	84.06
381.057	85.06
381.282	94.06
381.507	101.06
381.733	98.06
381.958	110.06
382.184	115.06
382.409	118.06
382.634	100.06
382.86	91.06
383.085	87.06
383.31	97.06
383.535	95.06
383.761	97.06
383.986	102.06
384.211	100.06
384.436	93.06
384.662	105.06
384.887	104.06
385.112	97.06
385.337	90.06
385.562	102.06
385.787	98.06
386.013	104.06
386.238	129.06
386.463	85.06
386.688	106.06
386.913	97.06
387.138	114.06
387.363	101.06
387.588	101.06
387.813	97.06
388.038	105.06
388.263	126.06
388.488	104.06
388.713	89.06
388.938	82.06
389.163	95.06
389.387	98.06
389.612	107.06
389.837	87.06
390.062	82.06
390.287	103.06
390.512	89.06
390.736	76.06
390.961	87.06
391.186	113.06
391.411	100.06
391.636	83.06
391.86	78.06
392.085	92.06
392.31	89.06
392.534	92.06
392.759	81.06
392.984	94.06
393.208	91.06
393.433	100.06
393.658	83.06
393.882	94.06
394.107	80.06
394.331	95.06
394.556	92.06
394.78	88.06
395.005	62.06
395.229	77.06
395.454	79.06
395.678	78.06
395.903	89.06
396.127	95.06
396.352	96.06
396.576	87.06
396.801	95.06
397.025	82.06
397.249	82.06
397.474	85.06
397.698	90.06
397.922	83.06
398.147	93.06
398.371	82.06
398.595	82.06
398.82	77.06
399.044	75.06
399.268	84.06
399.492	90.06
399.717	78.06
399.941	93.06
400.165	99.06
400.389	80.06
400.613	95.06
400.837	88.06
401.062	74.06
401.286	90.06
401.51	91.06
401.734	97.06
401.958	104.06
402.182	123.06
402.406	161.06
402.63	131.06
402.854	105.06
403.078	83.06
403.302	93.06
403.526	96.06
403.75	84.06
403.974	81.06
404.198	105.06
404.422	96.06
404.645	75.06
404.869	98.06
405.093	89.06
405.317	97.06
405.541	106.06
405.765	94.06
405.988	113.06
406.212	191.06
406.436	283.06
406.66	156.06
406.883	117.06
407.107	95.06
407.331	101.06
407.555	93.06
407.778	91.06
408.002	89.06
408.226	99.06
408.449	91.06
408.673	89.06
408.896	88.06
409.12	93.06
409.344	78.06
409.567	77.06
409.791	84.06
410.014	86.06
410.238	94.06
410.461	87.06
410.685	96.06
410.908	110.06
411.132	107.06
411.355	113.06
411.578	75.06
411.802	84.06
412.025	78.06
412.249	110.06
412.472	112.06
412.695	95.06
412.919	86.06
413.142	88.06
413.365	89.06
413.589	87.06
413.812	86.06
414.035	83.06
414.258	92.06
414.482	85.06
414.705	91.06
414.928	85.06
415.151	77.06
415.374	90.06
415.597	94.06
415.821	90.06
416.044	86.06
416.267	86.06
416.49	93.06
416.713	86.06
416.936	97.06
417.159	81.06
417.382	86.06
417.605	97.06
417.828	80.06
418.051	84.06
418.274	97.06
418.497	85.06
418.72	86.06
418.943	84.06
419.166	85.06
419.389	70.06
419.611	84.06
419.834	91.06
420.057	115.06
420.28	97.06
420.503	86.06
420.726	81.06
420.948	76.06
421.171	102.06
421.394	93.06
421.617	81.06
421.839	89.06
422.062	92.06
422.285	73.06
422.507	102.06
422.73	102.06
422.953	105.06
423.175	98.06
423.398	93.06
423.621	94.06
423.843	94.06
424.066	87.06
424.288	102.06
424.511	85.06
424.733	97.06
424.956	100.06
425.178	100.06
425.401	110.06
425.623	96.06
425.846	72.06
426.068	84.06
426.291	79.06
426.513	86.06
426.735	81.06
426.958	86.06
427.18	95.06
427.402	137.06
427.625	173.06
427.847	146.06
428.069	113.06
428.292	103.06
428.514	89.06
428.736	88.06
428.958	81.06
429.181	91.06
429.403	85.06
429.625	86.06
429.847	84.06
430.069	115.06
430.292	96.06
430.514	97.06
430.736	85.06
430.958	100.06
431.18	81.06
431.402	102.06
431.624	90.06
431.846	76.06
432.068	97.06
432.29	94.06
432.512	78.06
432.734	90.06
432.956	95.06
433.178	101.06
433.4	92.06
433.622	80.06
433.844	80.06
434.066	97.06
434.287	89.06
434.509	92.06
434.731	78.06
434.953	92.06
435.175	85.06
435.397	84.06
435.618	77.06
435.84	102.06
436.062	114.06
436.284	127.06
436.505	103.06
436.727	103.06
436.949	93.06
437.17	73.06
437.392	83.06
437.614	82.06
437.835	105.06
438.057	120.06
438.278	102.06
438.5	100.06
438.721	120.06
438.943	110.06
439.165	100.06
439.386	84.06
439.608	90.06
439.829	101.06
440.05	127.06
440.272	147.06
440.493	114.06
440.715	80.06
440.936	78.06
441.158	72.06
441.379	84.06
441.6	98.06
441.822	111.06
442.043	93.06
442.264	120.06
442.486	109.06
442.707	82.06
442.928	105.06
443.149	152.06
443.371	142.06
443.592	108.06
443.813	100.06
444.034	109.06
444.255	86.06
444.476	83.06
444.698	96.06
444.919	89.06
445.14	107.06
445.361	120.06
445.582	111.06
445.803	141.06
446.024	138.06
446.245	131.06
446.466	110.06
446.687	110.06
446.908	87.06
447.129	98.06
447.35	87.06
447.571	96.06
447.792	103.06
448.013	100.06
448.234	111.06
448.455	101.06
448.675	116.06
448.896	113.06
449.117	101.06
449.338	107.06
449.559	126.06
449.779	138.06
450	95.06
450.221	79.06
450.442	85.06
450.662	96.06
450.883	116.06
451.104	123.06
451.324	100.06
451.545	82.06
451.766	91.06
451.986	78.06
452.207	77.06
452.428	91.06
452.648	114.06
452.869	118.06
453.089	132.06
453.31	139.06
453.53	81.06
453.751	83.06
453.971	107.06
454.192	120.06
454.412	91.06
454.633	92.06
454.853	89.06
455.073	87.06
455.294	87.06
455.514	90.06
455.734	85.06
455.955	88.06
456.175	82.06
456.395	84.06
456.616	89.06
456.836	85.06
457.056	93.06
457.276	76.06
457.497	99.06
457.717	72.06
457.937	78.06
458.157	88.06
458.377	91.06
458.598	114.06
458.818	168.06
459.038	172.06
459.258	130.06
459.478	89.06
459.698	107.06
459.918	87.06
460.138	91.06
460.358	92.06
460.578	90.06
460.798	91.06
461.018	92.06
461.238	94.06
461.458	79.06
461.678	86.06
461.898	91.06
462.118	84.06
462.338	72.06
462.558	74.06
462.777	76.06
462.997	83.06
463.217	78.06
463.437	73.06
463.657	82.06
463.876	83.06
464.096	88.06
464.316	93.06
464.536	94.06
464.755	97.06
464.975	125.06
465.195	184.06
465.414	179.06
465.634	105.06
465.854	93.06
466.073	83.06
466.293	93.06
466.512	89.06
466.732	89.06
466.951	74.06
467.171	86.06
467.391	84.06
467.61	101.06
467.829	99.06
468.049	91.06
468.268	92.06
468.488	76.06
468.707	73.06
468.927	84.06
469.146	90.06
469.365	80.06
469.585	82.06
469.804	113.06
470.023	102.06
470.243	89.06
470.462	102.06
470.681	118.06
470.901	96.06
471.12	67.06
471.339	78.06
471.558	83.06
471.777	86.06
471.997	85.06
472.216	104.06
472.435	129.06
472.654	89.06
472.873	91.06
473.092	87.06
473.311	97.06
473.53	106.06
473.749	107.06
473.968	97.06
474.187	107.06
474.406	99.06
474.625	95.06
474.844	87.06
475.063	77.06
475.282	81.06
475.501	77.06
475.72	90.06
475.939	81.06
476.158	74.06
476.377	93.06
476.596	77.06
476.814	96.06
477.033	87.06
477.252	93.06
477.471	85.06
477.69	79.06
477.908	84.06
478.127	85.06
478.346	94.06
478.564	79.06
478.783	96.06
479.002	93.06
479.22	106.06
479.439	111.06
479.658	121.06
479.876	106.06
480.095	97.06
480.313	102.06
480.532	79.06
480.751	100.06
480.969	107.06
481.188	154.06
481.406	137.06
481.624	97.06
481.843	92.06
482.061	87.06
482.28	89.06
482.498	76.06
482.717	83.06
482.935	82.06
483.153	96.06
483.372	93.06
483.59	79.06
483.808	67.06
484.027	104.06
484.245	92.06
484.463	90.06
484.681	92.06
484.9	100.06
485.118	94.06
485.336	90.06
485.554	85.06
485.772	111.06
485.99	99.06
486.209	105.06
486.427	98.06
486.645	94.06
486.863	113.06
487.081	94.06
487.299	92.06
487.517	102.06
487.735	99.06
487.953	104.06
488.171	100.06
488.389	97.06
488.607	106.06
488.825	91.06
489.043	79.06
489.261	86.06
489.479	99.06
489.696	104.06
489.914	90.06
490.132	78.06
490.35	86.06
490.568	91.06
490.786	92.06
491.003	98.06
491.221	97.06
491.439	99.06
491.657	100.06
491.874	95.06
492.092	98.06
492.31	100.06
492.527	85.06
492.745	99.06
492.963	82.06
493.18	86.06
493.398	76.06
493.615	87.06
493.833	93.06
494.05	77.06
494.268	101.06
494.485	89.06
494.703	95.06
494.92	90.06
495.138	87.06
495.355	77.06
495.573	91.06
495.79	101.06
496.008	89.06
496.225	90.06
496.442	100.06
496.66	90.06
496.877	87.06
497.094	86.06
497.312	91.06
497.529	86.06
497.746	77.06
497.963	94.06
498.181	85.06
498.398	106.06
498.615	97.06
498.832	111.06
499.049	95.06
499.267	89.06
499.484	85.06
499.701	98.06
499.918	86.06
500.135	77.06
500.352	98.06
500.569	110.06
500.786	88.06
501.003	85.06
501.22	105.06
501.437	88.06
501.654	94.06
501.871	109.06
502.088	97.06
502.305	91.06
502.522	90.06
502.739	99.06
502.956	81.06
503.172	95.06
503.389	105.06
503.606	104.06
503.823	99.06
504.04	85.06
504.256	80.06
504.473	70.06
504.69	89.06
504.907	104.06
505.123	93.06
505.34	84.06
505.557	91.06
505.773	94.06
505.99	94.06
506.207	101.06
506.423	84.06
506.64	90.06
506.856	87.06
507.073	83.06
507.289	111.06
507.506	82.06
507.722	119.06
507.939	111.06
508.155	104.06
508.372	94.06
508.588	93.06
508.805	99.06
509.021	99.06
509.238	104.06
509.454	103.06
509.67	119.06
509.887	123.06
510.103	146.06
510.319	235.06
510.536	918.06
510.752	3135.06
510.968	877.06
511.184	180.06
511.401	130.06
511.617	100.06
511.833	104.06
512.049	85.06
512.265	93.06
512.481	74.06
512.698	90.06
512.914	85.06
513.13	92.06
513.346	90.06
513.562	95.06
513.778	86.06
513.994	114.06
514.21	102.06
514.426	129.06
514.642	146.06
514.858	136.06
515.074	180.06
515.29	588.06
515.506	2020.06
