Data from Circ_2012_H10_HRD10591_00034.txt Node
Date: Wed Jan 03 10:05:57 EST 2024
User: Yrep
Spectrometer: HR+D1059
Trigger mode: 1
Integration Time (sec): 1.000000E-1
Scans to average: 1
Electric dark correction enabled: true
Nonlinearity correction enabled: false
Boxcar width: 0
XAxis mode: Wavelengths
Number of Pixels in Spectrum: 2048
>>>>>Begin Spectral Data<<<<<
223.165	-2.31
223.4	-2.31
223.635	-2.31
223.869	-25.31
224.104	-20.31
224.338	-22.31
224.573	-11.31
224.808	3.69
225.042	-3.31
225.277	-9.31
225.511	2.69
225.746	-6.31
225.98	-10.31
226.215	6.69
226.449	13.69
226.683	14.69
226.918	30.69
227.152	38.69
227.387	29.69
227.621	38.69
227.856	24.69
228.09	40.69
228.324	62.69
228.559	66.69
228.793	56.69
229.027	62.69
229.262	57.69
229.496	74.69
229.73	97.69
229.964	80.69
230.199	79.69
230.433	61.69
230.667	84.69
230.901	90.69
231.136	78.69
231.37	75.69
231.604	77.69
231.838	68.69
232.072	63.69
232.306	73.69
232.541	77.69
232.775	87.69
233.009	79.69
233.243	83.69
233.477	81.69
233.711	86.69
233.945	77.69
234.179	79.69
234.413	82.69
234.647	77.69
234.881	69.69
235.115	80.69
235.349	79.69
235.583	78.69
235.817	68.69
236.051	87.69
236.285	87.69
236.519	58.69
236.753	92.69
236.987	89.69
237.221	84.69
237.455	88.69
237.689	79.69
237.922	68.69
238.156	79.69
238.39	74.69
238.624	77.69
238.858	82.69
239.091	67.69
239.325	74.69
239.559	79.69
239.793	75.69
240.027	69.69
240.26	79.69
240.494	80.69
240.728	87.69
240.961	66.69
241.195	87.69
241.429	77.69
241.662	71.69
241.896	83.69
242.13	86.69
242.363	89.69
242.597	69.69
242.83	83.69
243.064	73.69
243.298	79.69
243.531	79.69
243.765	75.69
243.998	86.69
244.232	76.69
244.465	78.69
244.699	87.69
244.932	79.69
245.166	65.69
245.399	77.69
245.633	82.69
245.866	78.69
246.099	93.69
246.333	72.69
246.566	69.69
246.8	83.69
247.033	70.69
247.266	78.69
247.5	81.69
247.733	74.69
247.966	65.69
248.2	61.69
248.433	80.69
248.666	85.69
248.899	76.69
249.133	82.69
249.366	87.69
249.599	102.69
249.832	82.69
250.066	76.69
250.299	82.69
250.532	83.69
250.765	89.69
250.998	81.69
251.231	68.69
251.465	85.69
251.698	87.69
251.931	91.69
252.164	78.69
252.397	72.69
252.63	80.69
252.863	78.69
253.096	85.69
253.329	85.69
253.562	83.69
253.795	76.69
254.028	81.69
254.261	83.69
254.494	85.69
254.727	89.69
254.96	90.69
255.193	76.69
255.426	80.69
255.659	75.69
255.892	89.69
256.124	73.69
256.357	80.69
256.59	89.69
256.823	82.69
257.056	86.69
257.289	90.69
257.521	89.69
257.754	90.69
257.987	74.69
258.22	85.69
258.452	75.69
258.685	88.69
258.918	73.69
259.151	82.69
259.383	79.69
259.616	82.69
259.849	81.69
260.081	82.69
260.314	83.69
260.547	78.69
260.779	98.69
261.012	100.69
261.244	81.69
261.477	85.69
261.71	90.69
261.942	110.69
262.175	116.69
262.407	90.69
262.64	78.69
262.872	88.69
263.105	72.69
263.337	85.69
263.57	75.69
263.802	74.69
264.035	90.69
264.267	88.69
264.499	67.69
264.732	72.69
264.964	84.69
265.197	81.69
265.429	97.69
265.661	89.69
265.894	80.69
266.126	88.69
266.358	84.69
266.591	96.69
266.823	90.69
267.055	75.69
267.287	93.69
267.52	86.69
267.752	92.69
267.984	65.69
268.216	72.69
268.448	75.69
268.681	80.69
268.913	97.69
269.145	88.69
269.377	78.69
269.609	85.69
269.841	82.69
270.073	86.69
270.306	78.69
270.538	79.69
270.77	84.69
271.002	91.69
271.234	74.69
271.466	93.69
271.698	70.69
271.93	104.69
272.162	79.69
272.394	92.69
272.626	85.69
272.858	86.69
273.09	78.69
273.322	91.69
273.553	90.69
273.785	89.69
274.017	88.69
274.249	90.69
274.481	77.69
274.713	95.69
274.945	93.69
275.176	83.69
275.408	94.69
275.64	83.69
275.872	77.69
276.104	87.69
276.335	87.69
276.567	85.69
276.799	100.69
277.031	89.69
277.262	83.69
277.494	79.69
277.726	74.69
277.957	70.69
278.189	68.69
278.421	79.69
278.652	80.69
278.884	91.69
279.115	93.69
279.347	77.69
279.579	77.69
279.81	74.69
280.042	91.69
280.273	88.69
280.505	116.69
280.736	89.69
280.968	101.69
281.199	88.69
281.431	90.69
281.662	96.69
281.894	96.69
282.125	95.69
282.356	114.69
282.588	152.69
282.819	125.69
283.051	109.69
283.282	77.69
283.513	83.69
283.745	86.69
283.976	86.69
284.207	84.69
284.439	99.69
284.67	88.69
284.901	66.69
285.132	95.69
285.364	98.69
285.595	83.69
285.826	74.69
286.057	87.69
286.288	84.69
286.52	69.69
286.751	99.69
286.982	84.69
287.213	87.69
287.444	80.69
287.675	91.69
287.906	81.69
288.138	93.69
288.369	88.69
288.6	85.69
288.831	84.69
289.062	88.69
289.293	85.69
289.524	88.69
289.755	91.69
289.986	75.69
290.217	102.69
290.448	83.69
290.679	96.69
290.91	78.69
291.141	91.69
291.371	83.69
291.602	89.69
291.833	78.69
292.064	97.69
292.295	90.69
292.526	94.69
292.757	90.69
292.987	81.69
293.218	106.69
293.449	89.69
293.68	98.69
293.91	94.69
294.141	88.69
294.372	91.69
294.603	83.69
294.833	82.69
295.064	88.69
295.295	78.69
295.525	83.69
295.756	89.69
295.987	119.69
296.217	131.69
296.448	132.69
296.679	99.69
296.909	114.69
297.14	86.69
297.37	90.69
297.601	74.69
297.831	77.69
298.062	84.69
298.292	91.69
298.523	101.69
298.753	110.69
298.984	94.69
299.214	93.69
299.445	99.69
299.675	91.69
299.905	86.69
300.136	86.69
300.366	96.69
300.597	103.69
300.827	108.69
301.057	97.69
301.288	94.69
301.518	89.69
301.748	92.69
301.979	96.69
302.209	93.69
302.439	78.69
302.669	90.69
302.9	79.69
303.13	86.69
303.36	87.69
303.59	92.69
303.82	104.69
304.051	100.69
304.281	94.69
304.511	94.69
304.741	83.69
304.971	88.69
305.201	87.69
305.431	102.69
305.661	91.69
305.891	89.69
306.121	84.69
306.352	97.69
306.582	105.69
306.812	89.69
307.042	106.69
307.272	97.69
307.502	77.69
307.731	75.69
307.961	88.69
308.191	83.69
308.421	94.69
308.651	90.69
308.881	93.69
309.111	91.69
309.341	89.69
309.571	88.69
309.8	87.69
310.03	112.69
310.26	91.69
310.49	97.69
310.72	99.69
310.949	105.69
311.179	98.69
311.409	87.69
311.639	89.69
311.868	91.69
312.098	94.69
312.328	86.69
312.557	91.69
312.787	97.69
313.017	103.69
313.246	85.69
313.476	89.69
313.706	93.69
313.935	99.69
314.165	102.69
314.394	106.69
314.624	99.69
314.853	92.69
315.083	103.69
315.312	86.69
315.542	80.69
315.771	94.69
316.001	90.69
316.23	91.69
316.46	95.69
316.689	91.69
316.919	88.69
317.148	94.69
317.377	87.69
317.607	90.69
317.836	86.69
318.065	87.69
318.295	83.69
318.524	107.69
318.753	103.69
318.983	89.69
319.212	99.69
319.441	120.69
319.67	98.69
319.9	103.69
320.129	100.69
320.358	88.69
320.587	88.69
320.816	99.69
321.046	108.69
321.275	79.69
321.504	90.69
321.733	87.69
321.962	100.69
322.191	98.69
322.42	104.69
322.649	105.69
322.878	121.69
323.108	117.69
323.337	133.69
323.566	140.69
323.795	153.69
324.024	205.69
324.253	408.69
324.482	878.69
324.71	1797.69
324.939	2426.69
325.168	889.69
325.397	269.69
325.626	150.69
325.855	133.69
326.084	128.69
326.313	114.69
326.542	162.69
326.77	235.69
326.999	473.69
327.228	1021.69
327.457	1824.69
327.686	1445.69
327.914	395.69
328.143	196.69
328.372	155.69
328.6	133.69
328.829	126.69
329.058	117.69
329.287	146.69
329.515	111.69
329.744	94.69
329.972	104.69
330.201	114.69
330.43	135.69
330.658	131.69
330.887	133.69
331.115	113.69
331.344	92.69
331.572	102.69
331.801	101.69
332.03	98.69
332.258	99.69
332.486	100.69
332.715	109.69
332.943	91.69
333.172	100.69
333.4	92.69
333.629	107.69
333.857	125.69
334.085	112.69
334.314	116.69
334.542	121.69
334.771	129.69
334.999	116.69
335.227	106.69
335.455	89.69
335.684	101.69
335.912	79.69
336.14	99.69
336.369	98.69
336.597	103.69
336.825	103.69
337.053	99.69
337.281	94.69
337.51	89.69
337.738	92.69
337.966	95.69
338.194	99.69
338.422	105.69
338.65	91.69
338.878	105.69
339.106	88.69
339.334	83.69
339.562	90.69
339.79	76.69
340.018	83.69
340.246	85.69
340.474	81.69
340.702	85.69
340.93	85.69
341.158	105.69
341.386	109.69
341.614	99.69
341.842	95.69
342.07	98.69
342.298	94.69
342.526	82.69
342.754	85.69
342.981	74.69
343.209	90.69
343.437	82.69
343.665	105.69
343.893	101.69
344.12	95.69
344.348	81.69
344.576	86.69
344.804	95.69
345.031	99.69
345.259	108.69
345.487	86.69
345.714	86.69
345.942	87.69
346.17	90.69
346.397	91.69
346.625	100.69
346.853	100.69
347.08	87.69
347.308	92.69
347.535	94.69
347.763	79.69
347.99	106.69
348.218	108.69
348.445	91.69
348.673	91.69
348.9	95.69
349.128	88.69
349.355	89.69
349.583	101.69
349.81	89.69
350.037	96.69
350.265	89.69
350.492	96.69
350.72	90.69
350.947	99.69
351.174	117.69
351.402	101.69
351.629	97.69
351.856	104.69
352.083	101.69
352.311	113.69
352.538	108.69
352.765	85.69
352.992	103.69
353.22	93.69
353.447	108.69
353.674	104.69
353.901	96.69
354.128	101.69
354.355	97.69
354.583	95.69
354.81	94.69
355.037	96.69
355.264	90.69
355.491	92.69
355.718	78.69
355.945	97.69
356.172	109.69
356.399	98.69
356.626	83.69
356.853	90.69
357.08	83.69
357.307	82.69
357.534	100.69
357.761	83.69
357.988	98.69
358.215	95.69
358.441	81.69
358.668	86.69
358.895	91.69
359.122	91.69
359.349	77.69
359.576	97.69
359.802	101.69
360.029	103.69
360.256	101.69
360.483	94.69
360.709	98.69
360.936	107.69
361.163	108.69
361.39	106.69
361.616	93.69
361.843	101.69
362.07	83.69
362.296	89.69
362.523	75.69
362.749	87.69
362.976	90.69
363.203	81.69
363.429	96.69
363.656	86.69
363.882	82.69
364.109	101.69
364.335	99.69
364.562	92.69
364.788	84.69
365.015	87.69
365.241	95.69
365.468	113.69
365.694	107.69
365.92	84.69
366.147	103.69
366.373	89.69
366.599	84.69
366.826	87.69
367.052	89.69
367.278	89.69
367.505	86.69
367.731	95.69
367.957	85.69
368.184	90.69
368.41	97.69
368.636	100.69
368.862	121.69
369.089	113.69
369.315	82.69
369.541	95.69
369.767	96.69
369.993	91.69
370.219	97.69
370.445	76.69
370.672	87.69
370.898	98.69
371.124	83.69
371.35	88.69
371.576	111.69
371.802	92.69
372.028	88.69
372.254	76.69
372.48	84.69
372.706	106.69
372.932	83.69
373.158	89.69
373.384	99.69
373.61	89.69
373.835	90.69
374.061	86.69
374.287	97.69
374.513	87.69
374.739	87.69
374.965	89.69
375.191	85.69
375.416	91.69
375.642	102.69
375.868	95.69
376.094	85.69
376.319	92.69
376.545	91.69
376.771	86.69
376.997	90.69
377.222	91.69
377.448	83.69
377.674	85.69
377.899	85.69
378.125	81.69
378.35	88.69
378.576	78.69
378.802	82.69
379.027	89.69
379.253	93.69
379.478	99.69
379.704	107.69
379.929	86.69
380.155	114.69
380.38	93.69
380.606	90.69
380.831	107.69
381.057	102.69
381.282	98.69
381.507	105.69
381.733	90.69
381.958	79.69
382.184	84.69
382.409	101.69
382.634	91.69
382.86	98.69
383.085	92.69
383.31	98.69
383.535	103.69
383.761	100.69
383.986	90.69
384.211	87.69
384.436	93.69
384.662	90.69
384.887	79.69
385.112	116.69
385.337	104.69
385.562	99.69
385.787	109.69
386.013	118.69
386.238	106.69
386.463	117.69
386.688	98.69
386.913	101.69
387.138	102.69
387.363	99.69
387.588	96.69
387.813	98.69
388.038	105.69
388.263	120.69
388.488	121.69
388.713	97.69
388.938	86.69
389.163	93.69
389.387	97.69
389.612	94.69
389.837	105.69
390.062	110.69
390.287	99.69
390.512	96.69
390.736	97.69
390.961	98.69
391.186	101.69
391.411	89.69
391.636	94.69
391.86	80.69
392.085	96.69
392.31	105.69
392.534	94.69
392.759	86.69
392.984	92.69
393.208	91.69
393.433	93.69
393.658	94.69
393.882	75.69
394.107	90.69
394.331	85.69
394.556	90.69
394.78	96.69
395.005	94.69
395.229	83.69
395.454	89.69
395.678	78.69
395.903	81.69
396.127	87.69
396.352	81.69
396.576	90.69
396.801	89.69
397.025	95.69
397.249	98.69
397.474	92.69
397.698	90.69
397.922	84.69
398.147	94.69
398.371	90.69
398.595	80.69
398.82	88.69
399.044	99.69
399.268	90.69
399.492	79.69
399.717	87.69
399.941	76.69
400.165	94.69
400.389	87.69
400.613	88.69
400.837	91.69
401.062	89.69
401.286	85.69
401.51	84.69
401.734	92.69
401.958	100.69
402.182	122.69
402.406	161.69
402.63	117.69
402.854	83.69
403.078	90.69
403.302	84.69
403.526	85.69
403.75	76.69
403.974	102.69
404.198	101.69
404.422	77.69
404.645	89.69
404.869	88.69
405.093	91.69
405.317	96.69
405.541	92.69
405.765	106.69
405.988	118.69
406.212	187.69
406.436	247.69
406.66	148.69
406.883	107.69
407.107	108.69
407.331	97.69
407.555	91.69
407.778	92.69
408.002	87.69
408.226	91.69
408.449	106.69
408.673	85.69
408.896	86.69
409.12	95.69
409.344	84.69
409.567	95.69
409.791	96.69
410.014	87.69
410.238	87.69
410.461	95.69
410.685	103.69
410.908	89.69
411.132	102.69
411.355	89.69
411.578	89.69
411.802	89.69
412.025	95.69
412.249	88.69
412.472	92.69
412.695	94.69
412.919	84.69
413.142	91.69
413.365	84.69
413.589	84.69
413.812	77.69
414.035	85.69
414.258	83.69
414.482	84.69
414.705	86.69
414.928	87.69
415.151	94.69
415.374	94.69
415.597	96.69
415.821	97.69
416.044	91.69
416.267	89.69
416.49	89.69
416.713	97.69
416.936	84.69
417.159	78.69
417.382	79.69
417.605	90.69
417.828	98.69
418.051	91.69
418.274	88.69
418.497	96.69
418.72	81.69
418.943	103.69
419.166	84.69
419.389	89.69
419.611	86.69
419.834	103.69
420.057	94.69
420.28	102.69
420.503	100.69
420.726	81.69
420.948	88.69
421.171	88.69
421.394	104.69
421.617	101.69
421.839	85.69
422.062	77.69
422.285	94.69
422.507	76.69
422.73	87.69
422.953	87.69
423.175	76.69
423.398	92.69
423.621	83.69
423.843	83.69
424.066	88.69
424.288	89.69
424.511	90.69
424.733	96.69
424.956	107.69
425.178	91.69
425.401	88.69
425.623	102.69
425.846	98.69
426.068	86.69
426.291	107.69
426.513	90.69
426.735	88.69
426.958	85.69
427.18	111.69
427.402	131.69
427.625	178.69
427.847	125.69
428.069	121.69
428.292	82.69
428.514	86.69
428.736	95.69
428.958	75.69
429.181	88.69
429.403	69.69
429.625	75.69
429.847	72.69
430.069	91.69
430.292	87.69
430.514	77.69
430.736	92.69
430.958	85.69
431.18	82.69
431.402	74.69
431.624	80.69
431.846	80.69
432.068	87.69
432.29	85.69
432.512	75.69
432.734	82.69
432.956	102.69
433.178	107.69
433.4	92.69
433.622	91.69
433.844	76.69
434.066	78.69
434.287	85.69
434.509	97.69
434.731	100.69
434.953	107.69
435.175	90.69
435.397	86.69
435.618	86.69
435.84	100.69
436.062	112.69
436.284	104.69
436.505	97.69
436.727	92.69
436.949	100.69
437.17	98.69
437.392	102.69
437.614	89.69
437.835	99.69
438.057	128.69
438.278	112.69
438.5	105.69
438.721	130.69
438.943	112.69
439.165	76.69
439.386	95.69
439.608	80.69
439.829	90.69
440.05	123.69
440.272	145.69
440.493	104.69
440.715	87.69
440.936	92.69
441.158	94.69
441.379	90.69
441.6	97.69
441.822	107.69
442.043	91.69
442.264	85.69
442.486	105.69
442.707	89.69
442.928	84.69
443.149	121.69
443.371	136.69
443.592	99.69
443.813	104.69
444.034	108.69
444.255	92.69
444.476	94.69
444.698	95.69
444.919	85.69
445.14	129.69
445.361	122.69
445.582	104.69
445.803	136.69
446.024	144.69
446.245	126.69
446.466	93.69
446.687	97.69
446.908	84.69
447.129	85.69
447.35	94.69
447.571	103.69
447.792	85.69
448.013	91.69
448.234	97.69
448.455	103.69
448.675	106.69
448.896	111.69
449.117	91.69
449.338	105.69
449.559	115.69
449.779	119.69
450	83.69
450.221	81.69
450.442	99.69
450.662	93.69
450.883	117.69
451.104	102.69
451.324	89.69
451.545	83.69
451.766	87.69
451.986	82.69
452.207	76.69
452.428	101.69
452.648	108.69
452.869	111.69
453.089	107.69
453.31	122.69
453.53	87.69
453.751	85.69
453.971	110.69
454.192	95.69
454.412	88.69
454.633	71.69
454.853	93.69
455.073	77.69
455.294	82.69
455.514	97.69
455.734	92.69
455.955	87.69
456.175	75.69
456.395	83.69
456.616	94.69
456.836	91.69
457.056	91.69
457.276	73.69
457.497	87.69
457.717	83.69
457.937	94.69
458.157	82.69
458.377	86.69
458.598	98.69
458.818	150.69
459.038	156.69
459.258	116.69
459.478	97.69
459.698	91.69
459.918	89.69
460.138	89.69
460.358	76.69
460.578	75.69
460.798	86.69
461.018	91.69
461.238	102.69
461.458	89.69
461.678	91.69
461.898	101.69
462.118	87.69
462.338	81.69
462.558	86.69
462.777	78.69
462.997	92.69
463.217	96.69
463.437	89.69
463.657	80.69
463.876	92.69
464.096	90.69
464.316	86.69
464.536	103.69
464.755	91.69
464.975	109.69
465.195	161.69
465.414	163.69
465.634	104.69
465.854	94.69
466.073	78.69
466.293	74.69
466.512	79.69
466.732	79.69
466.951	95.69
467.171	93.69
467.391	81.69
467.61	94.69
467.829	95.69
468.049	98.69
468.268	93.69
468.488	86.69
468.707	73.69
468.927	88.69
469.146	97.69
469.365	79.69
469.585	88.69
469.804	106.69
470.023	85.69
470.243	97.69
470.462	100.69
470.681	108.69
470.901	91.69
471.12	71.69
471.339	84.69
471.558	87.69
471.777	87.69
471.997	87.69
472.216	119.69
472.435	160.69
472.654	105.69
472.873	99.69
473.092	82.69
473.311	93.69
473.53	84.69
473.749	92.69
473.968	93.69
474.187	97.69
474.406	78.69
474.625	91.69
474.844	89.69
475.063	76.69
475.282	88.69
475.501	81.69
475.72	89.69
475.939	84.69
476.158	87.69
476.377	86.69
476.596	83.69
476.814	86.69
477.033	86.69
477.252	87.69
477.471	74.69
477.69	82.69
477.908	84.69
478.127	82.69
478.346	88.69
478.564	99.69
478.783	104.69
479.002	92.69
479.22	97.69
479.439	82.69
479.658	108.69
479.876	100.69
480.095	84.69
480.313	90.69
480.532	89.69
480.751	97.69
480.969	124.69
481.188	201.69
481.406	170.69
481.624	98.69
481.843	92.69
482.061	103.69
482.28	83.69
482.498	79.69
482.717	75.69
482.935	76.69
483.153	79.69
483.372	73.69
483.59	87.69
483.808	96.69
484.027	86.69
484.245	89.69
484.463	69.69
484.681	88.69
484.9	95.69
485.118	103.69
485.336	100.69
485.554	87.69
485.772	96.69
485.99	106.69
486.209	100.69
486.427	98.69
486.645	109.69
486.863	106.69
487.081	98.69
487.299	78.69
487.517	83.69
487.735	89.69
487.953	101.69
488.171	89.69
488.389	94.69
488.607	94.69
488.825	85.69
489.043	89.69
489.261	83.69
489.479	79.69
489.696	93.69
489.914	90.69
490.132	96.69
490.35	98.69
490.568	85.69
490.786	84.69
491.003	77.69
491.221	83.69
491.439	100.69
491.657	87.69
491.874	89.69
492.092	95.69
492.31	88.69
492.527	97.69
492.745	84.69
492.963	81.69
493.18	83.69
493.398	94.69
493.615	95.69
493.833	92.69
494.05	91.69
494.268	80.69
494.485	93.69
494.703	94.69
494.92	93.69
495.138	91.69
495.355	102.69
495.573	87.69
495.79	104.69
496.008	101.69
496.225	92.69
496.442	85.69
496.66	96.69
496.877	106.69
497.094	100.69
497.312	83.69
497.529	97.69
497.746	90.69
497.963	97.69
498.181	79.69
498.398	96.69
498.615	105.69
498.832	104.69
499.049	81.69
499.267	90.69
499.484	72.69
499.701	88.69
499.918	90.69
500.135	73.69
500.352	74.69
500.569	91.69
500.786	94.69
501.003	82.69
501.22	87.69
501.437	104.69
501.654	97.69
501.871	113.69
502.088	90.69
502.305	92.69
502.522	86.69
502.739	96.69
502.956	93.69
503.172	95.69
503.389	98.69
503.606	94.69
503.823	86.69
504.04	101.69
504.256	97.69
504.473	82.69
504.69	92.69
504.907	93.69
505.123	98.69
505.34	87.69
505.557	89.69
505.773	109.69
505.99	97.69
506.207	83.69
506.423	85.69
506.64	98.69
506.856	90.69
507.073	81.69
507.289	99.69
507.506	92.69
507.722	103.69
507.939	113.69
508.155	85.69
508.372	98.69
508.588	104.69
508.805	97.69
509.021	85.69
509.238	108.69
509.454	101.69
509.67	95.69
509.887	108.69
510.103	132.69
510.319	222.69
510.536	779.69
510.752	2621.69
510.968	727.69
511.184	150.69
511.401	97.69
511.617	112.69
511.833	97.69
512.049	100.69
512.265	86.69
512.481	95.69
512.698	106.69
512.914	106.69
513.13	88.69
513.346	100.69
513.562	90.69
513.778	96.69
513.994	94.69
514.21	105.69
514.426	126.69
514.642	134.69
514.858	117.69
515.074	168.69
515.29	475.69
515.506	1631.69
515.721	601.69
515.937	166.69
