Data from Circ_2012_H10_HRD10591_00078.txt Node
Date: Wed Jan 03 10:06:06 EST 2024
User: Yrep
Spectrometer: HR+D1059
Trigger mode: 1
Integration Time (sec): 1.000000E-1
Scans to average: 1
Electric dark correction enabled: true
Nonlinearity correction enabled: false
Boxcar width: 0
XAxis mode: Wavelengths
Number of Pixels in Spectrum: 2048
>>>>>Begin Spectral Data<<<<<
223.165	-8.06
223.4	-8.06
223.635	-8.06
223.869	-26.06
224.104	-15.06
224.338	-29.06
224.573	-11.06
224.808	-9.06
225.042	-1.06
225.277	1.94
225.511	-4.06
225.746	-2.06
225.98	5.94
226.215	13.94
226.449	13.94
226.683	14.94
226.918	23.94
227.152	30.94
227.387	22.94
227.621	34.94
227.856	34.94
228.09	36.94
228.324	52.94
228.559	50.94
228.793	60.94
229.027	57.94
229.262	63.94
229.496	76.94
229.73	75.94
229.964	76.94
230.199	78.94
230.433	81.94
230.667	86.94
230.901	73.94
231.136	72.94
231.37	74.94
231.604	77.94
231.838	84.94
232.072	87.94
232.306	96.94
232.541	86.94
232.775	90.94
233.009	80.94
233.243	85.94
233.477	96.94
233.711	88.94
233.945	90.94
234.179	81.94
234.413	94.94
234.647	81.94
234.881	76.94
235.115	76.94
235.349	78.94
235.583	76.94
235.817	86.94
236.051	77.94
236.285	78.94
236.519	79.94
236.753	76.94
236.987	78.94
237.221	93.94
237.455	90.94
237.689	86.94
237.922	77.94
238.156	78.94
238.39	66.94
238.624	76.94
238.858	81.94
239.091	75.94
239.325	81.94
239.559	83.94
239.793	79.94
240.027	73.94
240.26	74.94
240.494	56.94
240.728	72.94
240.961	73.94
241.195	78.94
241.429	84.94
241.662	75.94
241.896	68.94
242.13	74.94
242.363	74.94
242.597	74.94
242.83	75.94
243.064	81.94
243.298	77.94
243.531	75.94
243.765	80.94
243.998	81.94
244.232	84.94
244.465	78.94
244.699	79.94
244.932	66.94
245.166	77.94
245.399	69.94
245.633	78.94
245.866	80.94
246.099	67.94
246.333	77.94
246.566	81.94
246.8	81.94
247.033	80.94
247.266	64.94
247.5	85.94
247.733	98.94
247.966	85.94
248.2	82.94
248.433	77.94
248.666	82.94
248.899	75.94
249.133	83.94
249.366	114.94
249.599	91.94
249.832	88.94
250.066	105.94
250.299	71.94
250.532	78.94
250.765	80.94
250.998	68.94
251.231	75.94
251.465	80.94
251.698	86.94
251.931	73.94
252.164	69.94
252.397	76.94
252.63	78.94
252.863	81.94
253.096	84.94
253.329	80.94
253.562	65.94
253.795	79.94
254.028	70.94
254.261	84.94
254.494	84.94
254.727	75.94
254.96	70.94
255.193	75.94
255.426	76.94
255.659	74.94
255.892	89.94
256.124	102.94
256.357	69.94
256.59	97.94
256.823	72.94
257.056	85.94
257.289	79.94
257.521	86.94
257.754	75.94
257.987	79.94
258.22	81.94
258.452	87.94
258.685	91.94
258.918	94.94
259.151	80.94
259.383	99.94
259.616	72.94
259.849	76.94
260.081	71.94
260.314	73.94
260.547	96.94
260.779	86.94
261.012	91.94
261.244	101.94
261.477	79.94
261.71	76.94
261.942	101.94
262.175	115.94
262.407	87.94
262.64	78.94
262.872	85.94
263.105	94.94
263.337	81.94
263.57	75.94
263.802	75.94
264.035	88.94
264.267	98.94
264.499	93.94
264.732	83.94
264.964	82.94
265.197	87.94
265.429	85.94
265.661	99.94
265.894	82.94
266.126	83.94
266.358	89.94
266.591	88.94
266.823	95.94
267.055	83.94
267.287	86.94
267.52	87.94
267.752	82.94
267.984	80.94
268.216	72.94
268.448	92.94
268.681	87.94
268.913	85.94
269.145	71.94
269.377	84.94
269.609	79.94
269.841	89.94
270.073	87.94
270.306	88.94
270.538	88.94
270.77	76.94
271.002	83.94
271.234	81.94
271.466	80.94
271.698	94.94
271.93	71.94
272.162	84.94
272.394	85.94
272.626	83.94
272.858	83.94
273.09	88.94
273.322	83.94
273.553	75.94
273.785	87.94
274.017	72.94
274.249	80.94
274.481	80.94
274.713	89.94
274.945	87.94
275.176	87.94
275.408	78.94
275.64	75.94
275.872	82.94
276.104	101.94
276.335	89.94
276.567	89.94
276.799	103.94
277.031	95.94
277.262	94.94
277.494	80.94
277.726	74.94
277.957	91.94
278.189	89.94
278.421	92.94
278.652	92.94
278.884	88.94
279.115	83.94
279.347	75.94
279.579	80.94
279.81	71.94
280.042	96.94
280.273	92.94
280.505	93.94
280.736	88.94
280.968	96.94
281.199	84.94
281.431	86.94
281.662	76.94
281.894	84.94
282.125	92.94
282.356	111.94
282.588	115.94
282.819	121.94
283.051	84.94
283.282	97.94
283.513	88.94
283.745	79.94
283.976	80.94
284.207	86.94
284.439	85.94
284.67	84.94
284.901	86.94
285.132	86.94
285.364	100.94
285.595	76.94
285.826	79.94
286.057	103.94
286.288	85.94
286.52	90.94
286.751	80.94
286.982	86.94
287.213	77.94
287.444	88.94
287.675	86.94
287.906	89.94
288.138	78.94
288.369	92.94
288.6	104.94
288.831	70.94
289.062	83.94
289.293	89.94
289.524	75.94
289.755	75.94
289.986	81.94
290.217	104.94
290.448	75.94
290.679	82.94
290.91	80.94
291.141	85.94
291.371	91.94
291.602	92.94
291.833	90.94
292.064	75.94
292.295	81.94
292.526	96.94
292.757	89.94
292.987	87.94
293.218	89.94
293.449	81.94
293.68	91.94
293.91	94.94
294.141	96.94
294.372	89.94
294.603	89.94
294.833	97.94
295.064	78.94
295.295	100.94
295.525	85.94
295.756	93.94
295.987	106.94
296.217	129.94
296.448	120.94
296.679	96.94
296.909	90.94
297.14	105.94
297.37	86.94
297.601	83.94
297.831	92.94
298.062	89.94
298.292	80.94
298.523	97.94
298.753	91.94
298.984	97.94
299.214	92.94
299.445	101.94
299.675	76.94
299.905	94.94
300.136	97.94
300.366	91.94
300.597	96.94
300.827	101.94
301.057	91.94
301.288	96.94
301.518	101.94
301.748	71.94
301.979	101.94
302.209	99.94
302.439	86.94
302.669	82.94
302.9	108.94
303.13	101.94
303.36	94.94
303.59	102.94
303.82	113.94
304.051	92.94
304.281	92.94
304.511	84.94
304.741	93.94
304.971	104.94
305.201	75.94
305.431	80.94
305.661	84.94
305.891	73.94
306.121	97.94
306.352	97.94
306.582	110.94
306.812	95.94
307.042	84.94
307.272	95.94
307.502	98.94
307.731	99.94
307.961	85.94
308.191	93.94
308.421	79.94
308.651	104.94
308.881	112.94
309.111	87.94
309.341	106.94
309.571	91.94
309.8	77.94
310.03	101.94
310.26	92.94
310.49	76.94
310.72	95.94
310.949	94.94
311.179	85.94
311.409	91.94
311.639	102.94
311.868	107.94
312.098	89.94
312.328	97.94
312.557	100.94
312.787	93.94
313.017	93.94
313.246	90.94
313.476	94.94
313.706	81.94
313.935	92.94
314.165	93.94
314.394	101.94
314.624	100.94
314.853	101.94
315.083	100.94
315.312	95.94
315.542	95.94
315.771	92.94
316.001	80.94
316.23	89.94
316.46	88.94
316.689	90.94
316.919	100.94
317.148	92.94
317.377	89.94
317.607	97.94
317.836	84.94
318.065	86.94
318.295	85.94
318.524	94.94
318.753	90.94
318.983	100.94
319.212	103.94
319.441	100.94
319.67	93.94
319.9	92.94
320.129	92.94
320.358	86.94
320.587	85.94
320.816	104.94
321.046	94.94
321.275	97.94
321.504	90.94
321.733	106.94
321.962	96.94
322.191	92.94
322.42	90.94
322.649	108.94
322.878	114.94
323.108	104.94
323.337	104.94
323.566	106.94
323.795	136.94
324.024	172.94
324.253	336.94
324.482	717.94
324.71	1414.94
324.939	1839.94
325.168	691.94
325.397	219.94
325.626	131.94
325.855	109.94
326.084	114.94
326.313	133.94
326.542	148.94
326.77	206.94
326.999	395.94
327.228	803.94
327.457	1464.94
327.686	1174.94
327.914	328.94
328.143	185.94
328.372	146.94
328.6	105.94
328.829	124.94
329.058	129.94
329.287	116.94
329.515	102.94
329.744	94.94
329.972	112.94
330.201	143.94
330.43	152.94
330.658	134.94
330.887	128.94
331.115	115.94
331.344	102.94
331.572	91.94
331.801	100.94
332.03	81.94
332.258	109.94
332.486	89.94
332.715	91.94
332.943	93.94
333.172	105.94
333.4	92.94
333.629	104.94
333.857	108.94
334.085	127.94
334.314	140.94
334.542	171.94
334.771	162.94
334.999	97.94
335.227	89.94
335.455	87.94
335.684	91.94
335.912	95.94
336.14	89.94
336.369	87.94
336.597	106.94
336.825	115.94
337.053	109.94
337.281	103.94
337.51	95.94
337.738	95.94
337.966	99.94
338.194	88.94
338.422	92.94
338.65	93.94
338.878	102.94
339.106	87.94
339.334	94.94
339.562	101.94
339.79	93.94
340.018	86.94
340.246	107.94
340.474	106.94
340.702	106.94
340.93	103.94
341.158	82.94
341.386	99.94
341.614	113.94
341.842	85.94
342.07	112.94
342.298	80.94
342.526	95.94
342.754	94.94
342.981	109.94
343.209	78.94
343.437	107.94
343.665	96.94
343.893	89.94
344.12	91.94
344.348	95.94
344.576	81.94
344.804	81.94
345.031	96.94
345.259	102.94
345.487	105.94
345.714	88.94
345.942	92.94
346.17	77.94
346.397	93.94
346.625	87.94
346.853	99.94
347.08	98.94
347.308	94.94
347.535	108.94
347.763	98.94
347.99	79.94
348.218	91.94
348.445	95.94
348.673	90.94
348.9	88.94
349.128	97.94
349.355	95.94
349.583	80.94
349.81	98.94
350.037	99.94
350.265	96.94
350.492	94.94
350.72	91.94
350.947	92.94
351.174	95.94
351.402	115.94
351.629	108.94
351.856	99.94
352.083	111.94
352.311	101.94
352.538	99.94
352.765	101.94
352.992	105.94
353.22	101.94
353.447	108.94
353.674	95.94
353.901	96.94
354.128	98.94
354.355	77.94
354.583	92.94
354.81	93.94
355.037	108.94
355.264	100.94
355.491	85.94
355.718	84.94
355.945	77.94
356.172	81.94
356.399	116.94
356.626	101.94
356.853	93.94
357.08	96.94
357.307	98.94
357.534	93.94
357.761	110.94
357.988	87.94
358.215	89.94
358.441	83.94
358.668	90.94
358.895	84.94
359.122	93.94
359.349	94.94
359.576	92.94
359.802	92.94
360.029	107.94
360.256	103.94
360.483	90.94
360.709	90.94
360.936	87.94
361.163	96.94
361.39	96.94
361.616	94.94
361.843	91.94
362.07	94.94
362.296	85.94
362.523	81.94
362.749	93.94
362.976	91.94
363.203	91.94
363.429	91.94
363.656	97.94
363.882	101.94
364.109	86.94
364.335	84.94
364.562	77.94
364.788	94.94
365.015	91.94
365.241	96.94
365.468	99.94
365.694	92.94
365.92	91.94
366.147	94.94
366.373	87.94
366.599	93.94
366.826	92.94
367.052	93.94
367.278	92.94
367.505	91.94
367.731	82.94
367.957	84.94
368.184	100.94
368.41	99.94
368.636	108.94
368.862	109.94
369.089	121.94
369.315	89.94
369.541	91.94
369.767	93.94
369.993	80.94
370.219	81.94
370.445	85.94
370.672	102.94
370.898	86.94
371.124	90.94
371.35	95.94
371.576	71.94
371.802	91.94
372.028	79.94
372.254	69.94
372.48	84.94
372.706	88.94
372.932	81.94
373.158	99.94
373.384	89.94
373.61	80.94
373.835	97.94
374.061	96.94
374.287	90.94
374.513	93.94
374.739	111.94
374.965	89.94
375.191	92.94
375.416	79.94
375.642	102.94
375.868	100.94
376.094	92.94
376.319	75.94
376.545	94.94
376.771	88.94
376.997	93.94
377.222	97.94
377.448	87.94
377.674	85.94
377.899	85.94
378.125	75.94
378.35	81.94
378.576	90.94
378.802	78.94
379.027	88.94
379.253	93.94
379.478	87.94
379.704	89.94
379.929	96.94
380.155	95.94
380.38	93.94
380.606	96.94
380.831	85.94
381.057	112.94
381.282	86.94
381.507	97.94
381.733	104.94
381.958	86.94
382.184	92.94
382.409	78.94
382.634	94.94
382.86	99.94
383.085	96.94
383.31	100.94
383.535	110.94
383.761	104.94
383.986	89.94
384.211	112.94
384.436	86.94
384.662	104.94
384.887	102.94
385.112	93.94
385.337	99.94
385.562	93.94
385.787	104.94
386.013	94.94
386.238	105.94
386.463	96.94
386.688	106.94
386.913	107.94
387.138	107.94
387.363	85.94
387.588	109.94
387.813	96.94
388.038	106.94
388.263	102.94
388.488	114.94
388.713	93.94
388.938	96.94
389.163	84.94
389.387	94.94
389.612	102.94
389.837	90.94
390.062	93.94
390.287	90.94
390.512	88.94
390.736	97.94
390.961	87.94
391.186	92.94
391.411	85.94
391.636	95.94
391.86	94.94
392.085	75.94
392.31	91.94
392.534	73.94
392.759	88.94
392.984	95.94
393.208	79.94
393.433	84.94
393.658	93.94
393.882	81.94
394.107	87.94
394.331	90.94
394.556	91.94
394.78	92.94
395.005	78.94
395.229	91.94
395.454	94.94
395.678	90.94
395.903	85.94
396.127	85.94
396.352	80.94
396.576	96.94
396.801	73.94
397.025	91.94
397.249	83.94
397.474	76.94
397.698	89.94
397.922	85.94
398.147	87.94
398.371	73.94
398.595	83.94
398.82	85.94
399.044	96.94
399.268	95.94
399.492	80.94
399.717	81.94
399.941	99.94
400.165	87.94
400.389	98.94
400.613	81.94
400.837	97.94
401.062	87.94
401.286	79.94
401.51	101.94
401.734	96.94
401.958	76.94
402.182	121.94
402.406	145.94
402.63	107.94
402.854	92.94
403.078	84.94
403.302	83.94
403.526	107.94
403.75	83.94
403.974	85.94
404.198	85.94
404.422	97.94
404.645	89.94
404.869	95.94
405.093	91.94
405.317	84.94
405.541	103.94
405.765	107.94
405.988	107.94
406.212	149.94
406.436	184.94
406.66	124.94
406.883	95.94
407.107	92.94
407.331	90.94
407.555	90.94
407.778	85.94
408.002	88.94
408.226	90.94
408.449	102.94
408.673	86.94
408.896	91.94
409.12	91.94
409.344	88.94
409.567	94.94
409.791	92.94
410.014	101.94
410.238	91.94
410.461	94.94
410.685	87.94
410.908	86.94
411.132	98.94
411.355	93.94
411.578	92.94
411.802	78.94
412.025	88.94
412.249	104.94
412.472	97.94
412.695	92.94
412.919	84.94
413.142	87.94
413.365	83.94
413.589	91.94
413.812	89.94
414.035	89.94
414.258	87.94
414.482	90.94
414.705	91.94
414.928	91.94
415.151	81.94
415.374	83.94
415.597	88.94
415.821	102.94
416.044	85.94
416.267	89.94
416.49	104.94
416.713	87.94
416.936	85.94
417.159	91.94
417.382	80.94
417.605	89.94
417.828	77.94
418.051	87.94
418.274	84.94
418.497	103.94
418.72	93.94
418.943	86.94
419.166	83.94
419.389	94.94
419.611	96.94
419.834	93.94
420.057	88.94
420.28	73.94
420.503	87.94
420.726	84.94
420.948	89.94
421.171	91.94
421.394	95.94
421.617	84.94
421.839	80.94
422.062	83.94
422.285	90.94
422.507	96.94
422.73	101.94
422.953	93.94
423.175	69.94
423.398	79.94
423.621	78.94
423.843	79.94
424.066	83.94
424.288	85.94
424.511	89.94
424.733	100.94
424.956	88.94
425.178	89.94
425.401	85.94
425.623	85.94
425.846	81.94
426.068	93.94
426.291	91.94
426.513	87.94
426.735	104.94
426.958	94.94
427.18	89.94
427.402	121.94
427.625	150.94
427.847	117.94
428.069	100.94
428.292	80.94
428.514	90.94
428.736	79.94
428.958	85.94
429.181	86.94
429.403	82.94
429.625	84.94
429.847	84.94
430.069	98.94
430.292	78.94
430.514	81.94
430.736	86.94
430.958	90.94
431.18	77.94
431.402	73.94
431.624	78.94
431.846	99.94
432.068	98.94
432.29	78.94
432.512	79.94
432.734	87.94
432.956	82.94
433.178	93.94
433.4	100.94
433.622	101.94
433.844	86.94
434.066	89.94
434.287	81.94
434.509	95.94
434.731	85.94
434.953	101.94
435.175	95.94
435.397	77.94
435.618	82.94
435.84	106.94
436.062	91.94
436.284	101.94
436.505	93.94
436.727	91.94
436.949	82.94
437.17	92.94
437.392	93.94
437.614	87.94
437.835	102.94
438.057	104.94
438.278	88.94
438.5	104.94
438.721	115.94
438.943	97.94
439.165	86.94
439.386	89.94
439.608	99.94
439.829	86.94
440.05	104.94
440.272	121.94
440.493	88.94
440.715	83.94
440.936	78.94
441.158	67.94
441.379	83.94
441.6	86.94
441.822	100.94
442.043	100.94
442.264	102.94
442.486	98.94
442.707	106.94
442.928	112.94
443.149	126.94
443.371	127.94
443.592	89.94
443.813	117.94
444.034	99.94
444.255	83.94
444.476	79.94
444.698	91.94
444.919	77.94
445.14	132.94
445.361	109.94
445.582	104.94
445.803	116.94
446.024	125.94
446.245	111.94
446.466	100.94
446.687	88.94
446.908	98.94
447.129	70.94
447.35	84.94
447.571	80.94
447.792	94.94
448.013	103.94
448.234	105.94
448.455	100.94
448.675	106.94
448.896	106.94
449.117	84.94
449.338	96.94
449.559	110.94
449.779	119.94
450	77.94
450.221	66.94
450.442	91.94
450.662	101.94
450.883	97.94
451.104	96.94
451.324	90.94
451.545	87.94
451.766	87.94
451.986	96.94
452.207	87.94
452.428	73.94
452.648	111.94
452.869	99.94
453.089	104.94
453.31	110.94
453.53	89.94
453.751	107.94
453.971	88.94
454.192	97.94
454.412	85.94
454.633	98.94
454.853	85.94
455.073	94.94
455.294	92.94
455.514	94.94
455.734	83.94
455.955	90.94
456.175	90.94
456.395	76.94
456.616	76.94
456.836	80.94
457.056	87.94
457.276	75.94
457.497	88.94
457.717	88.94
457.937	82.94
458.157	65.94
458.377	89.94
458.598	106.94
458.818	137.94
459.038	135.94
459.258	103.94
459.478	94.94
459.698	89.94
459.918	80.94
460.138	85.94
460.358	85.94
460.578	90.94
460.798	80.94
461.018	97.94
461.238	84.94
461.458	86.94
461.678	93.94
461.898	73.94
462.118	87.94
462.338	86.94
462.558	78.94
462.777	90.94
462.997	85.94
463.217	84.94
463.437	94.94
463.657	101.94
463.876	90.94
464.096	85.94
464.316	89.94
464.536	90.94
464.755	88.94
464.975	104.94
465.195	136.94
465.414	143.94
465.634	91.94
465.854	84.94
466.073	92.94
466.293	84.94
466.512	76.94
466.732	92.94
466.951	95.94
467.171	107.94
467.391	96.94
467.61	102.94
467.829	94.94
468.049	97.94
468.268	119.94
468.488	114.94
468.707	89.94
468.927	93.94
469.146	80.94
469.365	92.94
469.585	89.94
469.804	91.94
470.023	86.94
470.243	88.94
470.462	84.94
470.681	115.94
470.901	96.94
471.12	74.94
471.339	80.94
471.558	85.94
471.777	85.94
471.997	87.94
472.216	132.94
472.435	192.94
472.654	97.94
472.873	92.94
473.092	78.94
473.311	92.94
473.53	99.94
473.749	88.94
473.968	88.94
474.187	90.94
474.406	101.94
474.625	84.94
474.844	88.94
475.063	93.94
475.282	88.94
475.501	85.94
475.72	95.94
475.939	82.94
476.158	90.94
476.377	76.94
476.596	92.94
476.814	101.94
477.033	92.94
477.252	72.94
477.471	80.94
477.69	81.94
477.908	93.94
478.127	85.94
478.346	85.94
478.564	85.94
478.783	107.94
479.002	86.94
479.22	74.94
479.439	97.94
479.658	98.94
479.876	91.94
480.095	87.94
480.313	85.94
480.532	88.94
480.751	100.94
480.969	142.94
481.188	288.94
481.406	195.94
481.624	103.94
481.843	96.94
482.061	90.94
482.28	76.94
482.498	97.94
482.717	85.94
482.935	94.94
483.153	84.94
483.372	90.94
483.59	90.94
483.808	101.94
484.027	88.94
484.245	90.94
484.463	85.94
484.681	89.94
484.9	90.94
485.118	85.94
485.336	92.94
485.554	111.94
485.772	104.94
485.99	106.94
486.209	116.94
486.427	103.94
486.645	95.94
486.863	111.94
487.081	89.94
487.299	93.94
487.517	92.94
487.735	101.94
487.953	92.94
488.171	84.94
488.389	87.94
488.607	98.94
488.825	89.94
489.043	90.94
489.261	91.94
489.479	92.94
489.696	89.94
489.914	94.94
490.132	88.94
490.35	100.94
490.568	91.94
490.786	83.94
491.003	93.94
491.221	84.94
491.439	97.94
491.657	77.94
491.874	86.94
492.092	85.94
492.31	90.94
492.527	95.94
492.745	92.94
492.963	76.94
493.18	109.94
493.398	76.94
493.615	97.94
493.833	113.94
494.05	84.94
494.268	82.94
494.485	84.94
494.703	94.94
494.92	93.94
495.138	69.94
495.355	87.94
495.573	96.94
495.79	94.94
496.008	88.94
496.225	87.94
496.442	79.94
496.66	101.94
496.877	99.94
497.094	106.94
497.312	109.94
497.529	85.94
497.746	80.94
497.963	80.94
498.181	90.94
498.398	91.94
498.615	111.94
498.832	95.94
499.049	94.94
499.267	102.94
499.484	99.94
499.701	93.94
499.918	88.94
500.135	85.94
500.352	94.94
500.569	83.94
500.786	95.94
501.003	85.94
501.22	101.94
501.437	72.94
501.654	91.94
501.871	99.94
502.088	92.94
502.305	88.94
502.522	99.94
502.739	89.94
502.956	103.94
503.172	85.94
503.389	90.94
503.606	95.94
503.823	85.94
504.04	95.94
504.256	94.94
504.473	92.94
504.69	100.94
504.907	91.94
505.123	91.94
505.34	81.94
505.557	86.94
505.773	90.94
505.99	92.94
506.207	91.94
506.423	89.94
506.64	82.94
506.856	95.94
507.073	85.94
507.289	95.94
507.506	100.94
507.722	99.94
507.939	99.94
508.155	88.94
508.372	95.94
508.588	96.94
508.805	98.94
509.021	87.94
509.238	110.94
509.454	96.94
509.67	99.94
509.887	110.94
510.103	124.94
510.319	193.94
510.536	617.94
510.752	1932.94
510.968	584.94
511.184	144.94
511.401	112.94
511.617	105.94
511.833	89.94
512.049	80.94
512.265	86.94
512.481	78.94
512.698	94.94
512.914	81.94
513.13	96.94
513.346	88.94
513.562	89.94
513.778	96.94
513.994	92.94
514.21	88.94
514.426	103.94
514.642	135.94
514.858	119.94
515.074	141.94
515.29	341.94
515.506	1159.94
515.721	471.94
515.937	150.94
516.153	116.94
