Data from Circ_2012_H10_HRD10591_00015.txt Node
Date: Wed Jan 03 10:05:53 EST 2024
User: Yrep
Spectrometer: HR+D1059
Trigger mode: 1
Integration Time (sec): 1.000000E-1
Scans to average: 1
Electric dark correction enabled: true
Nonlinearity correction enabled: false
Boxcar width: 0
XAxis mode: Wavelengths
Number of Pixels in Spectrum: 2048
>>>>>Begin Spectral Data<<<<<
223.165	-25.19
223.4	-25.19
223.635	-25.19
223.869	-31.19
224.104	-33.19
224.338	-20.19
224.573	-17.19
224.808	-10.19
225.042	-5.19
225.277	7.81
225.511	9.81
225.746	11.81
225.98	0.81
226.215	11.81
226.449	15.81
226.683	35.81
226.918	18.81
227.152	29.81
227.387	22.81
227.621	43.81
227.856	45.81
228.09	45.81
228.324	46.81
228.559	54.81
228.793	57.81
229.027	64.81
229.262	65.81
229.496	73.81
229.73	97.81
229.964	92.81
230.199	73.81
230.433	67.81
230.667	60.81
230.901	84.81
231.136	80.81
231.37	75.81
231.604	87.81
231.838	86.81
232.072	68.81
232.306	69.81
232.541	70.81
232.775	71.81
233.009	55.81
233.243	76.81
233.477	75.81
233.711	71.81
233.945	96.81
234.179	68.81
234.413	75.81
234.647	75.81
234.881	70.81
235.115	88.81
235.349	73.81
235.583	83.81
235.817	78.81
236.051	71.81
236.285	74.81
236.519	74.81
236.753	90.81
236.987	78.81
237.221	94.81
237.455	92.81
237.689	73.81
237.922	68.81
238.156	66.81
238.39	73.81
238.624	74.81
238.858	75.81
239.091	71.81
239.325	75.81
239.559	76.81
239.793	79.81
240.027	77.81
240.26	68.81
240.494	63.81
240.728	65.81
240.961	63.81
241.195	66.81
241.429	73.81
241.662	78.81
241.896	81.81
242.13	72.81
242.363	88.81
242.597	60.81
242.83	60.81
243.064	75.81
243.298	76.81
243.531	68.81
243.765	68.81
243.998	70.81
244.232	72.81
244.465	67.81
244.699	63.81
244.932	81.81
245.166	65.81
245.399	82.81
245.633	71.81
245.866	86.81
246.099	77.81
246.333	73.81
246.566	72.81
246.8	82.81
247.033	63.81
247.266	77.81
247.5	68.81
247.733	89.81
247.966	73.81
248.2	75.81
248.433	70.81
248.666	68.81
248.899	80.81
249.133	78.81
249.366	96.81
249.599	109.81
249.832	81.81
250.066	85.81
250.299	74.81
250.532	69.81
250.765	78.81
250.998	67.81
251.231	72.81
251.465	83.81
251.698	77.81
251.931	74.81
252.164	73.81
252.397	72.81
252.63	80.81
252.863	86.81
253.096	67.81
253.329	76.81
253.562	78.81
253.795	73.81
254.028	83.81
254.261	77.81
254.494	70.81
254.727	74.81
254.96	86.81
255.193	73.81
255.426	80.81
255.659	72.81
255.892	79.81
256.124	67.81
256.357	70.81
256.59	63.81
256.823	55.81
257.056	78.81
257.289	87.81
257.521	78.81
257.754	86.81
257.987	91.81
258.22	74.81
258.452	73.81
258.685	92.81
258.918	76.81
259.151	69.81
259.383	75.81
259.616	70.81
259.849	75.81
260.081	76.81
260.314	82.81
260.547	70.81
260.779	79.81
261.012	70.81
261.244	74.81
261.477	71.81
261.71	95.81
261.942	119.81
262.175	130.81
262.407	87.81
262.64	81.81
262.872	75.81
263.105	83.81
263.337	91.81
263.57	76.81
263.802	74.81
264.035	81.81
264.267	60.81
264.499	71.81
264.732	82.81
264.964	82.81
265.197	77.81
265.429	88.81
265.661	78.81
265.894	75.81
266.126	75.81
266.358	78.81
266.591	69.81
266.823	85.81
267.055	66.81
267.287	67.81
267.52	73.81
267.752	79.81
267.984	74.81
268.216	91.81
268.448	74.81
268.681	73.81
268.913	74.81
269.145	81.81
269.377	71.81
269.609	67.81
269.841	73.81
270.073	89.81
270.306	70.81
270.538	81.81
270.77	84.81
271.002	75.81
271.234	81.81
271.466	79.81
271.698	94.81
271.93	82.81
272.162	74.81
272.394	75.81
272.626	91.81
272.858	67.81
273.09	68.81
273.322	63.81
273.553	85.81
273.785	87.81
274.017	80.81
274.249	72.81
274.481	85.81
274.713	79.81
274.945	79.81
275.176	90.81
275.408	78.81
275.64	87.81
275.872	93.81
276.104	80.81
276.335	105.81
276.567	96.81
276.799	105.81
277.031	119.81
277.262	78.81
277.494	84.81
277.726	84.81
277.957	82.81
278.189	77.81
278.421	94.81
278.652	94.81
278.884	81.81
279.115	79.81
279.347	71.81
279.579	81.81
279.81	83.81
280.042	88.81
280.273	90.81
280.505	85.81
280.736	85.81
280.968	74.81
281.199	74.81
281.431	78.81
281.662	92.81
281.894	90.81
282.125	100.81
282.356	125.81
282.588	170.81
282.819	128.81
283.051	90.81
283.282	85.81
283.513	73.81
283.745	80.81
283.976	79.81
284.207	81.81
284.439	69.81
284.67	77.81
284.901	80.81
285.132	80.81
285.364	71.81
285.595	93.81
285.826	81.81
286.057	97.81
286.288	86.81
286.52	75.81
286.751	87.81
286.982	80.81
287.213	85.81
287.444	89.81
287.675	82.81
287.906	84.81
288.138	86.81
288.369	107.81
288.6	88.81
288.831	71.81
289.062	85.81
289.293	83.81
289.524	97.81
289.755	80.81
289.986	78.81
290.217	75.81
290.448	84.81
290.679	74.81
290.91	82.81
291.141	73.81
291.371	76.81
291.602	87.81
291.833	85.81
292.064	71.81
292.295	84.81
292.526	84.81
292.757	77.81
292.987	83.81
293.218	83.81
293.449	81.81
293.68	83.81
293.91	78.81
294.141	87.81
294.372	94.81
294.603	84.81
294.833	80.81
295.064	74.81
295.295	86.81
295.525	77.81
295.756	99.81
295.987	122.81
296.217	159.81
296.448	147.81
296.679	95.81
296.909	82.81
297.14	70.81
297.37	90.81
297.601	71.81
297.831	91.81
298.062	76.81
298.292	93.81
298.523	97.81
298.753	90.81
298.984	88.81
299.214	77.81
299.445	76.81
299.675	85.81
299.905	95.81
300.136	74.81
300.366	82.81
300.597	88.81
300.827	83.81
301.057	99.81
301.288	107.81
301.518	92.81
301.748	98.81
301.979	102.81
302.209	72.81
302.439	87.81
302.669	82.81
302.9	72.81
303.13	89.81
303.36	86.81
303.59	102.81
303.82	102.81
304.051	107.81
304.281	87.81
304.511	88.81
304.741	72.81
304.971	90.81
305.201	85.81
305.431	82.81
305.661	98.81
305.891	84.81
306.121	87.81
306.352	107.81
306.582	117.81
306.812	87.81
307.042	79.81
307.272	86.81
307.502	86.81
307.731	81.81
307.961	102.81
308.191	92.81
308.421	86.81
308.651	101.81
308.881	98.81
309.111	87.81
309.341	85.81
309.571	89.81
309.8	87.81
310.03	85.81
310.26	82.81
310.49	91.81
310.72	95.81
310.949	101.81
311.179	88.81
311.409	90.81
311.639	105.81
311.868	92.81
312.098	77.81
312.328	94.81
312.557	98.81
312.787	105.81
313.017	100.81
313.246	92.81
313.476	80.81
313.706	79.81
313.935	93.81
314.165	99.81
314.394	101.81
314.624	109.81
314.853	101.81
315.083	95.81
315.312	86.81
315.542	96.81
315.771	100.81
316.001	91.81
316.23	94.81
316.46	90.81
316.689	71.81
316.919	90.81
317.148	88.81
317.377	85.81
317.607	83.81
317.836	87.81
318.065	88.81
318.295	81.81
318.524	92.81
318.753	87.81
318.983	88.81
319.212	99.81
319.441	106.81
319.67	112.81
319.9	89.81
320.129	81.81
320.358	82.81
320.587	101.81
320.816	94.81
321.046	109.81
321.275	102.81
321.504	86.81
321.733	92.81
321.962	95.81
322.191	117.81
322.42	102.81
322.649	121.81
322.878	108.81
323.108	106.81
323.337	122.81
323.566	158.81
323.795	168.81
324.024	242.81
324.253	537.81
324.482	1129.81
324.71	2325.81
324.939	3157.81
325.168	1125.81
325.397	320.81
325.626	160.81
325.855	130.81
326.084	128.81
326.313	152.81
326.542	173.81
326.77	281.81
326.999	561.81
327.228	1259.81
327.457	2279.81
327.686	1843.81
327.914	464.81
328.143	237.81
328.372	183.81
328.6	136.81
328.829	134.81
329.058	138.81
329.287	161.81
329.515	123.81
329.744	85.81
329.972	108.81
330.201	108.81
330.43	114.81
330.658	145.81
330.887	176.81
331.115	134.81
331.344	89.81
331.572	105.81
331.801	121.81
332.03	112.81
332.258	94.81
332.486	83.81
332.715	97.81
332.943	89.81
333.172	81.81
333.4	93.81
333.629	105.81
333.857	114.81
334.085	106.81
334.314	106.81
334.542	106.81
334.771	115.81
334.999	117.81
335.227	98.81
335.455	89.81
335.684	97.81
335.912	100.81
336.14	89.81
336.369	89.81
336.597	100.81
336.825	88.81
337.053	97.81
337.281	83.81
337.51	81.81
337.738	101.81
337.966	87.81
338.194	94.81
338.422	102.81
338.65	87.81
338.878	76.81
339.106	68.81
339.334	86.81
339.562	80.81
339.79	89.81
340.018	90.81
340.246	77.81
340.474	91.81
340.702	94.81
340.93	91.81
341.158	86.81
341.386	95.81
341.614	87.81
341.842	87.81
342.07	89.81
342.298	91.81
342.526	88.81
342.754	90.81
342.981	81.81
343.209	85.81
343.437	94.81
343.665	82.81
343.893	89.81
344.12	86.81
344.348	78.81
344.576	81.81
344.804	101.81
345.031	94.81
345.259	102.81
345.487	101.81
345.714	90.81
345.942	84.81
346.17	90.81
346.397	92.81
346.625	94.81
346.853	100.81
347.08	95.81
347.308	97.81
347.535	95.81
347.763	79.81
347.99	94.81
348.218	101.81
348.445	96.81
348.673	101.81
348.9	82.81
349.128	103.81
349.355	76.81
349.583	94.81
349.81	85.81
350.037	90.81
350.265	97.81
350.492	101.81
350.72	97.81
350.947	109.81
351.174	129.81
351.402	129.81
351.629	104.81
351.856	89.81
352.083	114.81
352.311	113.81
352.538	110.81
352.765	120.81
352.992	119.81
353.22	119.81
353.447	97.81
353.674	94.81
353.901	82.81
354.128	91.81
354.355	82.81
354.583	96.81
354.81	91.81
355.037	86.81
355.264	90.81
355.491	81.81
355.718	87.81
355.945	94.81
356.172	90.81
356.399	94.81
356.626	100.81
356.853	100.81
357.08	97.81
357.307	96.81
357.534	103.81
357.761	93.81
357.988	90.81
358.215	93.81
358.441	89.81
358.668	75.81
358.895	94.81
359.122	87.81
359.349	87.81
359.576	95.81
359.802	99.81
360.029	132.81
360.256	129.81
360.483	93.81
360.709	91.81
360.936	102.81
361.163	72.81
361.39	84.81
361.616	89.81
361.843	84.81
362.07	93.81
362.296	100.81
362.523	94.81
362.749	95.81
362.976	86.81
363.203	100.81
363.429	83.81
363.656	100.81
363.882	82.81
364.109	80.81
364.335	77.81
364.562	74.81
364.788	77.81
365.015	81.81
365.241	99.81
365.468	114.81
365.694	125.81
365.92	96.81
366.147	102.81
366.373	87.81
366.599	86.81
366.826	90.81
367.052	86.81
367.278	89.81
367.505	77.81
367.731	98.81
367.957	79.81
368.184	96.81
368.41	94.81
368.636	109.81
368.862	129.81
369.089	119.81
369.315	96.81
369.541	91.81
369.767	101.81
369.993	102.81
370.219	85.81
370.445	74.81
370.672	72.81
370.898	78.81
371.124	88.81
371.35	78.81
371.576	83.81
371.802	86.81
372.028	86.81
372.254	91.81
372.48	81.81
372.706	88.81
372.932	85.81
373.158	82.81
373.384	98.81
373.61	73.81
373.835	89.81
374.061	85.81
374.287	97.81
374.513	92.81
374.739	83.81
374.965	89.81
375.191	87.81
375.416	99.81
375.642	98.81
375.868	86.81
376.094	97.81
376.319	78.81
376.545	74.81
376.771	79.81
376.997	86.81
377.222	83.81
377.448	93.81
377.674	93.81
377.899	100.81
378.125	99.81
378.35	91.81
378.576	80.81
378.802	98.81
379.027	85.81
379.253	85.81
379.478	93.81
379.704	88.81
379.929	92.81
380.155	104.81
380.38	72.81
380.606	84.81
380.831	95.81
381.057	81.81
381.282	95.81
381.507	87.81
381.733	104.81
381.958	81.81
382.184	85.81
382.409	86.81
382.634	93.81
382.86	94.81
383.085	103.81
383.31	98.81
383.535	94.81
383.761	95.81
383.986	94.81
384.211	104.81
384.436	98.81
384.662	91.81
384.887	98.81
385.112	102.81
385.337	95.81
385.562	94.81
385.787	94.81
386.013	107.81
386.238	111.81
386.463	98.81
386.688	106.81
386.913	95.81
387.138	109.81
387.363	100.81
387.588	99.81
387.813	101.81
388.038	101.81
388.263	117.81
388.488	110.81
388.713	99.81
388.938	87.81
389.163	99.81
389.387	101.81
389.612	100.81
389.837	91.81
390.062	100.81
390.287	78.81
390.512	81.81
390.736	80.81
390.961	97.81
391.186	79.81
391.411	91.81
391.636	90.81
391.86	82.81
392.085	90.81
392.31	86.81
392.534	82.81
392.759	82.81
392.984	90.81
393.208	80.81
393.433	91.81
393.658	79.81
393.882	88.81
394.107	83.81
394.331	77.81
394.556	88.81
394.78	82.81
395.005	79.81
395.229	79.81
395.454	73.81
395.678	80.81
395.903	83.81
396.127	81.81
396.352	73.81
396.576	79.81
396.801	85.81
397.025	80.81
397.249	66.81
397.474	87.81
397.698	83.81
397.922	71.81
398.147	86.81
398.371	89.81
398.595	81.81
398.82	86.81
399.044	84.81
399.268	78.81
399.492	84.81
399.717	86.81
399.941	84.81
400.165	86.81
400.389	87.81
400.613	85.81
400.837	92.81
401.062	89.81
401.286	94.81
401.51	99.81
401.734	91.81
401.958	94.81
402.182	123.81
402.406	198.81
402.63	119.81
402.854	94.81
403.078	95.81
403.302	102.81
403.526	84.81
403.75	88.81
403.974	71.81
404.198	80.81
404.422	78.81
404.645	94.81
404.869	90.81
405.093	96.81
405.317	98.81
405.541	95.81
405.765	105.81
405.988	129.81
406.212	202.81
406.436	312.81
406.66	183.81
406.883	110.81
407.107	107.81
407.331	109.81
407.555	100.81
407.778	99.81
408.002	90.81
408.226	74.81
408.449	96.81
408.673	74.81
408.896	86.81
409.12	98.81
409.344	96.81
409.567	85.81
409.791	84.81
410.014	103.81
410.238	96.81
410.461	91.81
410.685	79.81
410.908	82.81
411.132	94.81
411.355	97.81
411.578	80.81
411.802	80.81
412.025	88.81
412.249	88.81
412.472	78.81
412.695	91.81
412.919	85.81
413.142	75.81
413.365	76.81
413.589	88.81
413.812	73.81
414.035	77.81
414.258	85.81
414.482	97.81
414.705	91.81
414.928	74.81
415.151	93.81
415.374	102.81
415.597	84.81
415.821	100.81
416.044	82.81
416.267	87.81
416.49	89.81
416.713	91.81
416.936	75.81
417.159	85.81
417.382	82.81
417.605	89.81
417.828	90.81
418.051	90.81
418.274	99.81
418.497	92.81
418.72	86.81
418.943	74.81
419.166	73.81
419.389	81.81
419.611	81.81
419.834	81.81
420.057	72.81
420.28	88.81
420.503	72.81
420.726	86.81
420.948	83.81
421.171	88.81
421.394	97.81
421.617	100.81
421.839	72.81
422.062	77.81
422.285	91.81
422.507	98.81
422.73	108.81
422.953	84.81
423.175	86.81
423.398	93.81
423.621	109.81
423.843	82.81
424.066	87.81
424.288	77.81
424.511	90.81
424.733	96.81
424.956	124.81
425.178	99.81
425.401	96.81
425.623	96.81
425.846	97.81
426.068	82.81
426.291	92.81
426.513	90.81
426.735	83.81
426.958	84.81
427.18	98.81
427.402	149.81
427.625	183.81
427.847	164.81
428.069	121.81
428.292	86.81
428.514	75.81
428.736	84.81
428.958	84.81
429.181	73.81
429.403	90.81
429.625	90.81
429.847	89.81
430.069	94.81
430.292	80.81
430.514	74.81
430.736	97.81
430.958	80.81
431.18	102.81
431.402	76.81
431.624	85.81
431.846	96.81
432.068	85.81
432.29	74.81
432.512	68.81
432.734	88.81
432.956	86.81
433.178	101.81
433.4	86.81
433.622	90.81
433.844	82.81
434.066	99.81
434.287	81.81
434.509	86.81
434.731	95.81
434.953	75.81
435.175	83.81
435.397	83.81
435.618	88.81
435.84	95.81
436.062	134.81
436.284	111.81
436.505	88.81
436.727	94.81
436.949	87.81
437.17	86.81
437.392	84.81
437.614	91.81
437.835	123.81
438.057	145.81
438.278	115.81
438.5	110.81
438.721	129.81
438.943	96.81
439.165	81.81
439.386	85.81
439.608	101.81
439.829	101.81
440.05	125.81
440.272	153.81
440.493	101.81
440.715	94.81
440.936	85.81
441.158	85.81
441.379	83.81
441.6	96.81
441.822	90.81
442.043	98.81
442.264	111.81
442.486	95.81
442.707	99.81
442.928	118.81
443.149	149.81
443.371	157.81
443.592	115.81
443.813	104.81
444.034	111.81
444.255	87.81
444.476	84.81
444.698	78.81
444.919	87.81
445.14	122.81
445.361	116.81
445.582	128.81
445.803	153.81
446.024	156.81
446.245	152.81
446.466	129.81
446.687	90.81
446.908	85.81
447.129	74.81
447.35	86.81
447.571	94.81
447.792	94.81
448.013	92.81
448.234	101.81
448.455	124.81
448.675	134.81
448.896	112.81
449.117	109.81
449.338	114.81
449.559	113.81
449.779	129.81
450	83.81
450.221	90.81
450.442	96.81
450.662	102.81
450.883	126.81
451.104	125.81
451.324	106.81
451.545	79.81
451.766	78.81
451.986	87.81
452.207	81.81
452.428	95.81
452.648	99.81
452.869	127.81
453.089	113.81
453.31	114.81
453.53	110.81
453.751	84.81
453.971	129.81
454.192	111.81
454.412	87.81
454.633	81.81
454.853	83.81
455.073	86.81
455.294	91.81
455.514	105.81
455.734	91.81
455.955	87.81
456.175	88.81
456.395	80.81
456.616	66.81
456.836	83.81
457.056	82.81
457.276	71.81
457.497	69.81
457.717	80.81
457.937	82.81
458.157	73.81
458.377	90.81
458.598	109.81
458.818	157.81
459.038	203.81
459.258	129.81
459.478	101.81
459.698	83.81
459.918	81.81
460.138	93.81
460.358	84.81
460.578	80.81
460.798	92.81
461.018	88.81
461.238	90.81
461.458	86.81
461.678	78.81
461.898	91.81
462.118	87.81
462.338	88.81
462.558	87.81
462.777	71.81
462.997	85.81
463.217	84.81
463.437	79.81
463.657	73.81
463.876	94.81
464.096	70.81
464.316	87.81
464.536	93.81
464.755	84.81
464.975	127.81
465.195	198.81
465.414	218.81
465.634	91.81
465.854	84.81
466.073	86.81
466.293	86.81
466.512	88.81
466.732	91.81
466.951	87.81
467.171	91.81
467.391	93.81
467.61	107.81
467.829	98.81
468.049	87.81
468.268	88.81
468.488	85.81
468.707	90.81
468.927	76.81
469.146	69.81
469.365	89.81
469.585	73.81
469.804	88.81
470.023	94.81
470.243	96.81
470.462	98.81
470.681	132.81
470.901	89.81
471.12	86.81
471.339	89.81
471.558	87.81
471.777	85.81
471.997	84.81
472.216	88.81
472.435	109.81
472.654	84.81
472.873	83.81
473.092	81.81
473.311	75.81
473.53	89.81
473.749	99.81
473.968	89.81
474.187	112.81
474.406	113.81
474.625	92.81
474.844	93.81
475.063	88.81
475.282	93.81
475.501	87.81
475.72	93.81
475.939	85.81
476.158	74.81
476.377	83.81
476.596	81.81
476.814	87.81
477.033	83.81
477.252	84.81
477.471	83.81
477.69	74.81
477.908	74.81
478.127	81.81
478.346	90.81
478.564	87.81
478.783	97.81
479.002	81.81
479.22	79.81
479.439	101.81
479.658	105.81
479.876	89.81
480.095	85.81
480.313	82.81
480.532	81.81
480.751	100.81
480.969	102.81
481.188	145.81
481.406	111.81
481.624	97.81
481.843	75.81
482.061	82.81
482.28	90.81
482.498	73.81
482.717	86.81
482.935	90.81
483.153	105.81
483.372	85.81
483.59	87.81
483.808	87.81
484.027	85.81
484.245	79.81
484.463	82.81
484.681	94.81
484.9	85.81
485.118	94.81
485.336	92.81
485.554	93.81
485.772	93.81
485.99	100.81
486.209	89.81
486.427	86.81
486.645	113.81
486.863	97.81
487.081	93.81
487.299	91.81
487.517	98.81
487.735	100.81
487.953	95.81
488.171	81.81
488.389	88.81
488.607	109.81
488.825	97.81
489.043	85.81
489.261	96.81
489.479	93.81
489.696	101.81
489.914	98.81
490.132	77.81
490.35	78.81
490.568	85.81
490.786	79.81
491.003	79.81
491.221	93.81
491.439	94.81
491.657	74.81
491.874	80.81
492.092	82.81
492.31	85.81
492.527	95.81
492.745	82.81
492.963	99.81
493.18	79.81
493.398	97.81
493.615	96.81
493.833	78.81
494.05	85.81
494.268	85.81
494.485	88.81
494.703	87.81
494.92	84.81
495.138	98.81
495.355	77.81
495.573	95.81
495.79	94.81
496.008	91.81
496.225	97.81
496.442	84.81
496.66	90.81
496.877	75.81
497.094	88.81
497.312	79.81
497.529	100.81
497.746	82.81
497.963	73.81
498.181	93.81
498.398	93.81
498.615	120.81
498.832	126.81
499.049	86.81
499.267	89.81
499.484	83.81
499.701	79.81
499.918	96.81
500.135	70.81
500.352	72.81
500.569	98.81
500.786	89.81
501.003	93.81
501.22	83.81
501.437	80.81
501.654	88.81
501.871	106.81
502.088	95.81
502.305	89.81
502.522	77.81
502.739	97.81
502.956	85.81
503.172	96.81
503.389	90.81
503.606	96.81
503.823	87.81
504.04	98.81
504.256	81.81
504.473	75.81
504.69	98.81
504.907	112.81
505.123	101.81
505.34	81.81
505.557	80.81
505.773	94.81
505.99	83.81
506.207	77.81
506.423	101.81
506.64	75.81
506.856	89.81
507.073	74.81
507.289	94.81
507.506	99.81
507.722	106.81
507.939	129.81
508.155	100.81
508.372	87.81
508.588	86.81
508.805	80.81
509.021	84.81
509.238	103.81
509.454	100.81
509.67	101.81
509.887	131.81
510.103	149.81
510.319	249.81
510.536	989.81
510.752	3609.81
510.968	986.81
511.184	181.81
511.401	125.81
511.617	100.81
511.833	104.81
512.049	92.81
512.265	99.81
512.481	94.81
512.698	80.81
512.914	103.81
513.13	82.81
513.346	81.81
513.562	97.81
513.778	92.81
513.994	105.81
514.21	114.81
514.426	130.81
514.642	149.81
514.858	155.81
515.074	194.81
515.29	630.81
515.506	2350.81
515.721	856.81
515.937	199.81
516.153	118.81
