Data from Circ_2012_H10_HRD10591_00011.txt Node
Date: Wed Jan 03 10:05:52 EST 2024
User: Yrep
Spectrometer: HR+D1059
Trigger mode: 1
Integration Time (sec): 1.000000E-1
Scans to average: 1
Electric dark correction enabled: true
Nonlinearity correction enabled: false
Boxcar width: 0
XAxis mode: Wavelengths
Number of Pixels in Spectrum: 2048
>>>>>Begin Spectral Data<<<<<
223.165	-14
223.4	-14
223.635	-14
223.869	-26
224.104	-22
224.338	0
224.573	-22
224.808	-6
225.042	-15
225.277	-7
225.511	-4
225.746	14
225.98	13
226.215	13
226.449	7
226.683	22
226.918	19
227.152	28
227.387	27
227.621	23
227.856	39
228.09	56
228.324	63
228.559	56
228.793	58
229.027	55
229.262	77
229.496	70
229.73	95
229.964	94
230.199	79
230.433	74
230.667	84
230.901	81
231.136	81
231.37	72
231.604	81
231.838	66
232.072	78
232.306	90
232.541	77
232.775	80
233.009	73
233.243	70
233.477	80
233.711	87
233.945	83
234.179	82
234.413	85
234.647	79
234.881	81
235.115	80
235.349	83
235.583	72
235.817	73
236.051	68
236.285	81
236.519	77
236.753	67
236.987	68
237.221	87
237.455	85
237.689	75
237.922	66
238.156	68
238.39	84
238.624	72
238.858	78
239.091	70
239.325	71
239.559	78
239.793	80
240.027	71
240.26	81
240.494	73
240.728	78
240.961	84
241.195	61
241.429	87
241.662	87
241.896	86
242.13	81
242.363	70
242.597	73
242.83	66
243.064	76
243.298	79
243.531	58
243.765	68
243.998	84
244.232	90
244.465	89
244.699	79
244.932	72
245.166	71
245.399	74
245.633	88
245.866	79
246.099	65
246.333	80
246.566	92
246.8	89
247.033	79
247.266	81
247.5	76
247.733	84
247.966	84
248.2	75
248.433	92
248.666	91
248.899	81
249.133	91
249.366	99
249.599	105
249.832	79
250.066	79
250.299	77
250.532	72
250.765	78
250.998	61
251.231	79
251.465	79
251.698	89
251.931	87
252.164	78
252.397	87
252.63	83
252.863	78
253.096	88
253.329	83
253.562	91
253.795	74
254.028	90
254.261	87
254.494	66
254.727	79
254.96	87
255.193	76
255.426	82
255.659	88
255.892	82
256.124	72
256.357	75
256.59	83
256.823	73
257.056	91
257.289	69
257.521	86
257.754	75
257.987	77
258.22	98
258.452	84
258.685	90
258.918	88
259.151	70
259.383	83
259.616	72
259.849	89
260.081	84
260.314	70
260.547	79
260.779	81
261.012	91
261.244	87
261.477	89
261.71	106
261.942	108
262.175	120
262.407	102
262.64	89
262.872	89
263.105	80
263.337	75
263.57	87
263.802	83
264.035	81
264.267	85
264.499	96
264.732	90
264.964	79
265.197	72
265.429	88
265.661	78
265.894	88
266.126	74
266.358	85
266.591	84
266.823	85
267.055	88
267.287	76
267.52	81
267.752	97
267.984	101
268.216	83
268.448	74
268.681	84
268.913	84
269.145	82
269.377	93
269.609	97
269.841	80
270.073	81
270.306	90
270.538	81
270.77	74
271.002	77
271.234	76
271.466	87
271.698	87
271.93	97
272.162	93
272.394	91
272.626	76
272.858	88
273.09	88
273.322	72
273.553	77
273.785	76
274.017	88
274.249	84
274.481	93
274.713	84
274.945	98
275.176	66
275.408	92
275.64	78
275.872	91
276.104	75
276.335	90
276.567	106
276.799	121
277.031	110
277.262	103
277.494	94
277.726	90
277.957	93
278.189	94
278.421	92
278.652	86
278.884	81
279.115	87
279.347	86
279.579	72
279.81	82
280.042	93
280.273	79
280.505	90
280.736	87
280.968	95
281.199	90
281.431	94
281.662	78
281.894	97
282.125	107
282.356	122
282.588	166
282.819	127
283.051	88
283.282	73
283.513	88
283.745	87
283.976	89
284.207	88
284.439	90
284.67	69
284.901	111
285.132	81
285.364	90
285.595	98
285.826	76
286.057	86
286.288	85
286.52	88
286.751	91
286.982	77
287.213	86
287.444	85
287.675	94
287.906	90
288.138	81
288.369	103
288.6	96
288.831	83
289.062	90
289.293	87
289.524	100
289.755	98
289.986	84
290.217	95
290.448	89
290.679	96
290.91	71
291.141	74
291.371	96
291.602	93
291.833	85
292.064	75
292.295	103
292.526	89
292.757	106
292.987	92
293.218	73
293.449	83
293.68	83
293.91	102
294.141	88
294.372	87
294.603	88
294.833	87
295.064	74
295.295	96
295.525	101
295.756	102
295.987	134
296.217	166
296.448	147
296.679	110
296.909	111
297.14	88
297.37	81
297.601	92
297.831	91
298.062	104
298.292	93
298.523	97
298.753	78
298.984	87
299.214	77
299.445	88
299.675	83
299.905	100
300.136	93
300.366	89
300.597	89
300.827	93
301.057	105
301.288	103
301.518	105
301.748	86
301.979	87
302.209	103
302.439	104
302.669	75
302.9	78
303.13	90
303.36	93
303.59	109
303.82	120
304.051	103
304.281	85
304.511	94
304.741	91
304.971	91
305.201	89
305.431	85
305.661	92
305.891	102
306.121	90
306.352	110
306.582	119
306.812	101
307.042	93
307.272	98
307.502	107
307.731	94
307.961	83
308.191	94
308.421	93
308.651	77
308.881	100
309.111	90
309.341	101
309.571	106
309.8	98
310.03	116
310.26	107
310.49	98
310.72	113
310.949	110
311.179	100
311.409	87
311.639	91
311.868	103
312.098	97
312.328	107
312.557	104
312.787	113
313.017	88
313.246	98
313.476	82
313.706	97
313.935	103
314.165	90
314.394	102
314.624	107
314.853	98
315.083	107
315.312	94
315.542	86
315.771	87
316.001	98
316.23	112
316.46	85
316.689	87
316.919	91
317.148	87
317.377	102
317.607	94
317.836	90
318.065	96
318.295	90
318.524	96
318.753	95
318.983	91
319.212	90
319.441	116
319.67	130
319.9	102
320.129	95
320.358	101
320.587	107
320.816	95
321.046	109
321.275	100
321.504	103
321.733	107
321.962	100
322.191	103
322.42	109
322.649	122
322.878	126
323.108	138
323.337	138
323.566	149
323.795	183
324.024	275
324.253	535
324.482	1186
324.71	2458
324.939	3306
325.168	1164
325.397	309
325.626	174
325.855	143
326.084	142
326.313	148
326.542	171
326.77	282
326.999	579
327.228	1329
327.457	2377
327.686	1947
327.914	509
328.143	259
328.372	194
328.6	141
328.829	126
329.058	149
329.287	157
329.515	118
329.744	112
329.972	117
330.201	103
330.43	118
330.658	137
330.887	171
331.115	150
331.344	96
331.572	103
331.801	109
332.03	107
332.258	101
332.486	95
332.715	94
332.943	85
333.172	103
333.4	104
333.629	121
333.857	113
334.085	117
334.314	105
334.542	101
334.771	123
334.999	99
335.227	113
335.455	106
335.684	93
335.912	106
336.14	98
336.369	107
336.597	104
336.825	99
337.053	98
337.281	85
337.51	92
337.738	110
337.966	114
338.194	113
338.422	102
338.65	96
338.878	90
339.106	97
339.334	93
339.562	72
339.79	78
340.018	91
340.246	93
340.474	81
340.702	90
340.93	94
341.158	91
341.386	113
341.614	100
341.842	86
342.07	102
342.298	98
342.526	78
342.754	87
342.981	84
343.209	96
343.437	98
343.665	86
343.893	70
344.12	87
344.348	75
344.576	81
344.804	98
345.031	98
345.259	103
345.487	90
345.714	103
345.942	84
346.17	81
346.397	85
346.625	97
346.853	89
347.08	87
347.308	107
347.535	117
347.763	110
347.99	100
348.218	107
348.445	110
348.673	95
348.9	101
349.128	103
349.355	84
349.583	101
349.81	87
350.037	87
350.265	102
350.492	97
350.72	109
350.947	100
351.174	114
351.402	114
351.629	98
351.856	101
352.083	120
352.311	114
352.538	109
352.765	129
352.992	107
353.22	120
353.447	105
353.674	89
353.901	96
354.128	83
354.355	97
354.583	103
354.81	105
355.037	95
355.264	96
355.491	94
355.718	100
355.945	86
356.172	109
356.399	98
356.626	103
356.853	82
357.08	104
357.307	86
357.534	105
357.761	97
357.988	109
358.215	104
358.441	87
358.668	76
358.895	84
359.122	79
359.349	86
359.576	102
359.802	111
360.029	127
360.256	135
360.483	106
360.709	93
360.936	99
361.163	97
361.39	101
361.616	90
361.843	83
362.07	84
362.296	98
362.523	85
362.749	93
362.976	100
363.203	101
363.429	86
363.656	98
363.882	89
364.109	79
364.335	93
364.562	92
364.788	103
365.015	92
365.241	115
365.468	113
365.694	108
365.92	104
366.147	87
366.373	93
366.599	75
366.826	89
367.052	97
367.278	86
367.505	89
367.731	92
367.957	103
368.184	97
368.41	95
368.636	118
368.862	121
369.089	103
369.315	100
369.541	99
369.767	103
369.993	98
370.219	96
370.445	86
370.672	79
370.898	84
371.124	93
371.35	83
371.576	75
371.802	78
372.028	95
372.254	100
372.48	92
372.706	77
372.932	82
373.158	92
373.384	76
373.61	93
373.835	87
374.061	102
374.287	89
374.513	77
374.739	82
374.965	88
375.191	76
375.416	84
375.642	71
375.868	92
376.094	87
376.319	89
376.545	90
376.771	92
376.997	91
377.222	85
377.448	83
377.674	77
377.899	73
378.125	99
378.35	79
378.576	80
378.802	80
379.027	82
379.253	87
379.478	79
379.704	96
379.929	87
380.155	100
380.38	90
380.606	98
380.831	99
381.057	105
381.282	93
381.507	99
381.733	102
381.958	97
382.184	102
382.409	97
382.634	103
382.86	106
383.085	94
383.31	104
383.535	95
383.761	108
383.986	93
384.211	88
384.436	94
384.662	100
384.887	107
385.112	97
385.337	116
385.562	106
385.787	100
386.013	110
386.238	118
386.463	108
386.688	94
386.913	109
387.138	115
387.363	99
387.588	108
387.813	102
388.038	106
388.263	111
388.488	92
388.713	93
388.938	87
389.163	88
389.387	92
389.612	87
389.837	95
390.062	86
390.287	93
390.512	97
390.736	77
390.961	101
391.186	97
391.411	74
391.636	83
391.86	96
392.085	82
392.31	91
392.534	79
392.759	86
392.984	72
393.208	77
393.433	95
393.658	93
393.882	82
394.107	78
394.331	80
394.556	81
394.78	90
395.005	78
395.229	88
395.454	85
395.678	81
395.903	79
396.127	89
396.352	84
396.576	85
396.801	83
397.025	90
397.249	80
397.474	83
397.698	86
397.922	89
398.147	93
398.371	96
398.595	85
398.82	74
399.044	86
399.268	94
399.492	87
399.717	103
399.941	105
400.165	95
400.389	96
400.613	86
400.837	89
401.062	73
401.286	99
401.51	90
401.734	94
401.958	109
402.182	148
402.406	181
402.63	143
402.854	95
403.078	92
403.302	90
403.526	75
403.75	101
403.974	96
404.198	104
404.422	99
404.645	98
404.869	86
405.093	95
405.317	94
405.541	101
405.765	113
405.988	129
406.212	210
406.436	297
406.66	191
406.883	117
407.107	113
407.331	113
407.555	100
407.778	115
408.002	86
408.226	76
408.449	90
408.673	89
408.896	88
409.12	80
409.344	89
409.567	90
409.791	101
410.014	95
410.238	93
410.461	84
410.685	82
410.908	100
411.132	115
411.355	100
411.578	95
411.802	82
412.025	91
412.249	90
412.472	76
412.695	93
412.919	89
413.142	82
413.365	91
413.589	88
413.812	85
414.035	77
414.258	81
414.482	97
414.705	92
414.928	92
415.151	84
415.374	78
415.597	99
415.821	87
416.044	77
416.267	68
416.49	105
416.713	91
416.936	90
417.159	90
417.382	88
417.605	89
417.828	100
418.051	95
418.274	95
418.497	84
418.72	85
418.943	82
419.166	100
419.389	76
419.611	88
419.834	110
420.057	85
420.28	76
420.503	92
420.726	92
420.948	91
421.171	86
421.394	92
421.617	77
421.839	96
422.062	88
422.285	100
422.507	92
422.73	105
422.953	99
423.175	82
423.398	83
423.621	78
423.843	88
424.066	84
424.288	83
424.511	86
424.733	101
424.956	107
425.178	119
425.401	95
425.623	107
425.846	108
426.068	93
426.291	98
426.513	90
426.735	89
426.958	88
427.18	99
427.402	162
427.625	213
427.847	151
428.069	116
428.292	84
428.514	73
428.736	83
428.958	89
429.181	89
429.403	87
429.625	83
429.847	96
430.069	99
430.292	108
430.514	85
430.736	93
430.958	76
431.18	72
431.402	94
431.624	91
431.846	85
432.068	103
432.29	79
432.512	83
432.734	79
432.956	90
433.178	88
433.4	107
433.622	99
433.844	101
434.066	104
434.287	79
434.509	82
434.731	90
434.953	81
435.175	74
435.397	97
435.618	84
435.84	91
436.062	133
436.284	118
436.505	98
436.727	102
436.949	92
437.17	99
437.392	95
437.614	83
437.835	123
438.057	136
438.278	129
438.5	110
438.721	123
438.943	110
439.165	91
439.386	91
439.608	90
439.829	105
440.05	127
440.272	160
440.493	116
440.715	90
440.936	94
441.158	86
441.379	94
441.6	102
441.822	95
442.043	99
442.264	121
442.486	90
442.707	93
442.928	119
443.149	169
443.371	166
443.592	118
443.813	104
444.034	115
444.255	86
444.476	81
444.698	100
444.919	83
445.14	133
445.361	123
445.582	129
445.803	158
446.024	143
446.245	149
446.466	127
446.687	94
446.908	105
447.129	86
447.35	89
447.571	98
447.792	104
448.013	102
448.234	112
448.455	114
448.675	120
448.896	131
449.117	104
449.338	94
449.559	135
449.779	130
450	96
450.221	87
450.442	101
450.662	110
450.883	104
451.104	119
451.324	98
451.545	94
451.766	87
451.986	81
452.207	77
452.428	109
452.648	103
452.869	114
453.089	131
453.31	134
453.53	98
453.751	93
453.971	125
454.192	121
454.412	98
454.633	84
454.853	85
455.073	74
455.294	94
455.514	97
455.734	86
455.955	85
456.175	84
456.395	95
456.616	81
456.836	89
457.056	84
457.276	90
457.497	99
457.717	84
457.937	90
458.157	83
458.377	92
458.598	132
458.818	188
459.038	199
459.258	137
459.478	108
459.698	90
459.918	90
460.138	69
460.358	84
460.578	85
460.798	100
461.018	85
461.238	80
461.458	78
461.678	72
461.898	96
462.118	97
462.338	74
462.558	97
462.777	81
462.997	74
463.217	82
463.437	87
463.657	79
463.876	91
464.096	96
464.316	98
464.536	105
464.755	96
464.975	104
465.195	221
465.414	223
465.634	101
465.854	97
466.073	89
466.293	80
466.512	84
466.732	95
466.951	83
467.171	82
467.391	84
467.61	113
467.829	106
468.049	91
468.268	109
468.488	74
468.707	80
468.927	80
469.146	69
469.365	86
469.585	83
469.804	104
470.023	101
470.243	95
470.462	94
470.681	111
470.901	85
471.12	94
471.339	102
471.558	98
471.777	88
471.997	86
472.216	102
472.435	102
472.654	96
472.873	81
473.092	78
473.311	89
473.53	86
473.749	85
473.968	91
474.187	116
474.406	90
474.625	67
474.844	82
475.063	82
475.282	90
475.501	90
475.72	85
475.939	91
476.158	89
476.377	83
476.596	82
476.814	82
477.033	95
477.252	83
477.471	96
477.69	82
477.908	93
478.127	86
478.346	96
478.564	97
478.783	105
479.002	99
479.22	83
479.439	98
479.658	113
479.876	99
480.095	90
480.313	94
480.532	81
480.751	94
480.969	85
481.188	129
481.406	125
481.624	105
481.843	85
482.061	90
482.28	88
482.498	89
482.717	94
482.935	91
483.153	79
483.372	84
483.59	88
483.808	93
484.027	97
484.245	81
484.463	84
484.681	92
484.9	96
485.118	100
485.336	99
485.554	106
485.772	108
485.99	98
486.209	108
486.427	103
486.645	104
486.863	113
487.081	114
487.299	97
487.517	88
487.735	109
487.953	78
488.171	93
488.389	97
488.607	110
488.825	89
489.043	79
489.261	93
489.479	102
489.696	84
489.914	89
490.132	83
490.35	101
490.568	86
490.786	92
491.003	93
491.221	96
491.439	85
491.657	88
491.874	91
492.092	95
492.31	77
492.527	84
492.745	93
492.963	90
493.18	81
493.398	91
493.615	93
493.833	106
494.05	89
494.268	90
494.485	90
494.703	71
494.92	89
495.138	96
495.355	89
495.573	87
495.79	97
496.008	116
496.225	83
496.442	96
496.66	95
496.877	86
497.094	86
497.312	79
497.529	82
497.746	82
497.963	76
498.181	97
498.398	80
498.615	121
498.832	110
499.049	76
499.267	87
499.484	88
499.701	97
499.918	94
500.135	94
500.352	85
500.569	86
500.786	91
501.003	90
501.22	63
501.437	90
501.654	96
501.871	124
502.088	107
502.305	92
502.522	86
502.739	106
502.956	95
503.172	89
503.389	76
503.606	113
503.823	103
504.04	90
504.256	90
504.473	94
504.69	96
504.907	87
505.123	88
505.34	85
505.557	100
505.773	98
505.99	81
506.207	92
506.423	91
506.64	90
506.856	79
507.073	90
507.289	77
507.506	97
507.722	114
507.939	113
508.155	98
508.372	94
508.588	82
508.805	90
509.021	93
509.238	95
509.454	78
509.67	106
509.887	105
510.103	144
510.319	244
510.536	965
510.752	3389
510.968	923
511.184	176
511.401	116
511.617	111
511.833	94
512.049	99
512.265	89
512.481	87
512.698	93
512.914	96
513.13	98
513.346	90
513.562	93
513.778	94
513.994	106
514.21	117
514.426	129
514.642	168
514.858	141
515.074	217
515.29	646
515.506	2348
515.721	861
515.937	188
516.153	132
516.369	99
516.585	109
516.801	114
517.016	100
517.232	87
517.448	85
517.664	87
517.879	82
518.095	104
518.311	91
518.527	91
518.742	86
518.958	116
519.173	104
519.389	93
519.605	101
519.82	92
520.036	100
520.251	124
520.467	121
520.682	119
520.898	129
521.113	128
521.329	158
521.544	291
521.76	846
521.975	3880
522.19	2308
522.406	465
522.621	141
522.836	115
523.052	98
523.267	97
523.482	88
523.698	106
523.913	135
524.128	112
524.343	112
524.559	103
524.774	102
524.989	96
525.204	127
525.419	113
525.634	91
525.849	87
526.064	83
526.28	87
526.495	85
526.71	95
526.925	87
527.14	93
527.355	82
527.57	102
527.785	102
527.999	86
528.214	95
528.429	96
528.644	101
528.859	95
529.074	82
529.289	139
529.503	234
529.718	123
529.933	97
530.148	94
530.363	87
530.577	93
530.792	85
531.007	81
531.221	87
531.436	78
531.651	100
531.865	98
532.08	94
532.295	91
532.509	93
532.724	100
532.938	93
533.153	95
533.367	86
533.582	99
533.796	98
534.011	97
534.225	95
534.44	93
534.654	89
534.868	97
535.083	92
535.297	89
535.511	94
535.726	98
535.94	90
536.154	94
536.369	87
536.583	88
536.797	108
537.011	104
537.225	93
537.44	75
537.654	80
537.868	78
538.082	82
538.296	94
538.51	82
538.724	83
538.938	88
539.153	102
539.367	122
539.581	88
539.795	98
540.009	86
540.222	73
540.436	92
540.65	95
540.864	83
541.078	92
541.292	84
541.506	90
541.72	84
541.934	88
542.147	87
542.361	78
542.575	97
542.789	97
543.002	96
543.216	100
543.43	103
543.644	87
543.857	89
544.071	94
544.285	98
544.498	83
544.712	80
544.925	87
545.139	87
545.352	82
545.566	84
545.779	95
545.993	93
546.206	99
546.42	88
546.633	87
546.847	92
547.06	85
547.274	97
547.487	93
547.7	83
547.914	101
548.127	77
548.34	96
548.554	103
548.767	89
548.98	86
549.193	108
549.407	87
549.62	86
549.833	92
550.046	101
550.259	94
550.473	89
550.686	81
550.899	102
551.112	92
551.325	90
551.538	93
551.751	73
551.964	90
552.177	98
552.39	86
552.603	94
552.816	85
553.029	92
553.242	87
553.455	121
553.667	114
553.88	94
554.093	88
554.306	92
554.519	90
554.732	91
554.944	101
555.157	95
555.37	99
555.583	95
555.795	102
556.008	76
556.221	89
556.433	87
556.646	89
556.859	91
557.071	83
557.284	90
557.496	92
557.709	86
557.921	86
558.134	79
558.346	88
558.559	96
558.771	60
558.984	89
559.196	77
559.409	68
559.621	97
559.833	86
560.046	86
560.258	98
560.47	90
560.683	97
560.895	94
561.107	82
561.32	79
561.532	96
561.744	97
561.956	83
562.168	95
562.381	88
562.593	89
562.805	94
563.017	83
563.229	76
563.441	92
563.653	83
563.865	84
564.077	83
564.289	80
564.501	100
564.713	105
564.925	90
565.137	113
565.349	100
565.561	97
565.773	94
565.985	90
566.197	70
566.408	79
566.62	86
566.832	97
567.044	97
567.255	90
567.467	86
567.679	92
567.891	88
568.102	90
568.314	85
568.526	87
568.737	79
568.949	92
569.161	79
569.372	83
569.584	95
569.795	93
570.007	141
570.218	311
570.43	151
570.641	91
570.853	76
571.064	82
571.276	91
571.487	84
571.698	80
571.91	98
572.121	84
572.333	72
572.544	75
572.755	82
572.966	91
573.178	87
573.389	97
573.6	81
573.811	87
574.023	79
574.234	85
574.445	87
574.656	92
574.867	97
575.078	83
575.289	89
575.501	89
575.712	91
575.923	100
576.134	93
576.345	94
576.556	88
576.767	86
576.978	91
577.188	88
577.399	101
577.61	94
577.821	98
578.032	129
578.243	321
578.454	1019
578.665	272
578.875	113
579.086	93
579.297	97
579.508	79
579.718	93
579.929	85
580.14	91
580.35	94
580.561	81
580.772	86
580.982	80
581.193	83
581.403	89
581.614	80
581.825	79
582.035	86
582.246	91
582.456	91
582.667	76
582.877	76
583.087	89
