Data from Circ_2012_H10_HRD10591_00037.txt Node
Date: Wed Jan 03 10:05:57 EST 2024
User: Yrep
Spectrometer: HR+D1059
Trigger mode: 1
Integration Time (sec): 1.000000E-1
Scans to average: 1
Electric dark correction enabled: true
Nonlinearity correction enabled: false
Boxcar width: 0
XAxis mode: Wavelengths
Number of Pixels in Spectrum: 2048
>>>>>Begin Spectral Data<<<<<
223.165	-24.44
223.4	-24.44
223.635	-24.44
223.869	-19.44
224.104	-10.44
224.338	-4.44
224.573	-29.44
224.808	-10.44
225.042	-9.44
225.277	2.56
225.511	0.56
225.746	4.56
225.98	-2.44
226.215	9.56
226.449	3.56
226.683	25.56
226.918	23.56
227.152	40.56
227.387	45.56
227.621	49.56
227.856	43.56
228.09	38.56
228.324	52.56
228.559	68.56
228.793	67.56
229.027	64.56
229.262	58.56
229.496	77.56
229.73	84.56
229.964	88.56
230.199	69.56
230.433	70.56
230.667	64.56
230.901	69.56
231.136	82.56
231.37	84.56
231.604	74.56
231.838	86.56
232.072	83.56
232.306	75.56
232.541	77.56
232.775	82.56
233.009	88.56
233.243	86.56
233.477	73.56
233.711	89.56
233.945	87.56
234.179	76.56
234.413	69.56
234.647	72.56
234.881	83.56
235.115	72.56
235.349	80.56
235.583	81.56
235.817	68.56
236.051	76.56
236.285	62.56
236.519	66.56
236.753	68.56
236.987	68.56
237.221	78.56
237.455	63.56
237.689	91.56
237.922	74.56
238.156	80.56
238.39	83.56
238.624	84.56
238.858	89.56
239.091	80.56
239.325	79.56
239.559	68.56
239.793	80.56
240.027	82.56
240.26	62.56
240.494	82.56
240.728	72.56
240.961	69.56
241.195	58.56
241.429	78.56
241.662	68.56
241.896	68.56
242.13	75.56
242.363	72.56
242.597	64.56
242.83	75.56
243.064	80.56
243.298	77.56
243.531	80.56
243.765	81.56
243.998	85.56
244.232	83.56
244.465	73.56
244.699	71.56
244.932	74.56
245.166	92.56
245.399	74.56
245.633	81.56
245.866	68.56
246.099	80.56
246.333	67.56
246.566	75.56
246.8	85.56
247.033	69.56
247.266	69.56
247.5	72.56
247.733	77.56
247.966	84.56
248.2	82.56
248.433	84.56
248.666	77.56
248.899	80.56
249.133	91.56
249.366	84.56
249.599	108.56
249.832	93.56
250.066	78.56
250.299	81.56
250.532	70.56
250.765	78.56
250.998	72.56
251.231	85.56
251.465	93.56
251.698	84.56
251.931	76.56
252.164	82.56
252.397	82.56
252.63	74.56
252.863	78.56
253.096	83.56
253.329	75.56
253.562	82.56
253.795	82.56
254.028	89.56
254.261	68.56
254.494	83.56
254.727	76.56
254.96	75.56
255.193	91.56
255.426	66.56
255.659	79.56
255.892	66.56
256.124	75.56
256.357	77.56
256.59	70.56
256.823	73.56
257.056	71.56
257.289	82.56
257.521	78.56
257.754	60.56
257.987	78.56
258.22	90.56
258.452	73.56
258.685	73.56
258.918	71.56
259.151	72.56
259.383	74.56
259.616	92.56
259.849	80.56
260.081	76.56
260.314	93.56
260.547	82.56
260.779	75.56
261.012	75.56
261.244	75.56
261.477	84.56
261.71	103.56
261.942	114.56
262.175	134.56
262.407	100.56
262.64	86.56
262.872	83.56
263.105	90.56
263.337	98.56
263.57	78.56
263.802	83.56
264.035	83.56
264.267	77.56
264.499	76.56
264.732	86.56
264.964	78.56
265.197	86.56
265.429	85.56
265.661	85.56
265.894	84.56
266.126	90.56
266.358	74.56
266.591	73.56
266.823	82.56
267.055	66.56
267.287	77.56
267.52	85.56
267.752	80.56
267.984	76.56
268.216	78.56
268.448	81.56
268.681	77.56
268.913	84.56
269.145	71.56
269.377	88.56
269.609	78.56
269.841	86.56
270.073	96.56
270.306	83.56
270.538	88.56
270.77	83.56
271.002	81.56
271.234	75.56
271.466	95.56
271.698	85.56
271.93	81.56
272.162	87.56
272.394	88.56
272.626	85.56
272.858	75.56
273.09	83.56
273.322	92.56
273.553	94.56
273.785	86.56
274.017	91.56
274.249	70.56
274.481	76.56
274.713	77.56
274.945	78.56
275.176	84.56
275.408	78.56
275.64	81.56
275.872	87.56
276.104	85.56
276.335	85.56
276.567	97.56
276.799	91.56
277.031	99.56
277.262	98.56
277.494	94.56
277.726	79.56
277.957	73.56
278.189	86.56
278.421	82.56
278.652	97.56
278.884	72.56
279.115	74.56
279.347	76.56
279.579	87.56
279.81	89.56
280.042	92.56
280.273	92.56
280.505	80.56
280.736	78.56
280.968	83.56
281.199	77.56
281.431	88.56
281.662	86.56
281.894	93.56
282.125	85.56
282.356	115.56
282.588	137.56
282.819	109.56
283.051	94.56
283.282	96.56
283.513	93.56
283.745	89.56
283.976	71.56
284.207	76.56
284.439	97.56
284.67	78.56
284.901	76.56
285.132	83.56
285.364	97.56
285.595	89.56
285.826	100.56
286.057	71.56
286.288	76.56
286.52	88.56
286.751	72.56
286.982	84.56
287.213	87.56
287.444	78.56
287.675	90.56
287.906	96.56
288.138	96.56
288.369	102.56
288.6	99.56
288.831	84.56
289.062	87.56
289.293	78.56
289.524	107.56
289.755	87.56
289.986	79.56
290.217	90.56
290.448	84.56
290.679	80.56
290.91	81.56
291.141	82.56
291.371	84.56
291.602	97.56
291.833	92.56
292.064	75.56
292.295	82.56
292.526	88.56
292.757	85.56
292.987	95.56
293.218	85.56
293.449	78.56
293.68	91.56
293.91	87.56
294.141	90.56
294.372	88.56
294.603	88.56
294.833	79.56
295.064	91.56
295.295	74.56
295.525	69.56
295.756	93.56
295.987	108.56
296.217	128.56
296.448	128.56
296.679	85.56
296.909	91.56
297.14	97.56
297.37	99.56
297.601	87.56
297.831	89.56
298.062	88.56
298.292	93.56
298.523	85.56
298.753	85.56
298.984	92.56
299.214	81.56
299.445	95.56
299.675	92.56
299.905	92.56
300.136	94.56
300.366	82.56
300.597	93.56
300.827	100.56
301.057	92.56
301.288	88.56
301.518	87.56
301.748	76.56
301.979	98.56
302.209	95.56
302.439	88.56
302.669	98.56
302.9	91.56
303.13	104.56
303.36	97.56
303.59	110.56
303.82	112.56
304.051	85.56
304.281	86.56
304.511	108.56
304.741	80.56
304.971	88.56
305.201	79.56
305.431	90.56
305.661	80.56
305.891	84.56
306.121	93.56
306.352	101.56
306.582	86.56
306.812	91.56
307.042	93.56
307.272	96.56
307.502	84.56
307.731	94.56
307.961	85.56
308.191	86.56
308.421	84.56
308.651	89.56
308.881	94.56
309.111	86.56
309.341	106.56
309.571	101.56
309.8	108.56
310.03	95.56
310.26	97.56
310.49	96.56
310.72	92.56
310.949	104.56
311.179	96.56
311.409	92.56
311.639	94.56
311.868	87.56
312.098	102.56
312.328	87.56
312.557	79.56
312.787	118.56
313.017	105.56
313.246	89.56
313.476	87.56
313.706	98.56
313.935	96.56
314.165	89.56
314.394	110.56
314.624	96.56
314.853	96.56
315.083	83.56
315.312	107.56
315.542	90.56
315.771	87.56
316.001	88.56
316.23	79.56
316.46	104.56
316.689	90.56
316.919	87.56
317.148	94.56
317.377	88.56
317.607	100.56
317.836	90.56
318.065	89.56
318.295	91.56
318.524	93.56
318.753	92.56
318.983	92.56
319.212	98.56
319.441	101.56
319.67	116.56
319.9	93.56
320.129	109.56
320.358	90.56
320.587	87.56
320.816	98.56
321.046	109.56
321.275	101.56
321.504	100.56
321.733	92.56
321.962	93.56
322.191	102.56
322.42	109.56
322.649	116.56
322.878	117.56
323.108	117.56
323.337	113.56
323.566	124.56
323.795	152.56
324.024	223.56
324.253	430.56
324.482	910.56
324.71	1880.56
324.939	2467.56
325.168	909.56
325.397	255.56
325.626	157.56
325.855	128.56
326.084	133.56
326.313	137.56
326.542	161.56
326.77	261.56
326.999	490.56
327.228	1030.56
327.457	1814.56
327.686	1476.56
327.914	397.56
328.143	202.56
328.372	150.56
328.6	118.56
328.829	114.56
329.058	121.56
329.287	135.56
329.515	109.56
329.744	117.56
329.972	91.56
330.201	111.56
330.43	117.56
330.658	124.56
330.887	139.56
331.115	119.56
331.344	100.56
331.572	102.56
331.801	98.56
332.03	109.56
332.258	97.56
332.486	99.56
332.715	97.56
332.943	99.56
333.172	97.56
333.4	102.56
333.629	102.56
333.857	135.56
334.085	107.56
334.314	112.56
334.542	126.56
334.771	141.56
334.999	99.56
335.227	91.56
335.455	90.56
335.684	97.56
335.912	103.56
336.14	90.56
336.369	100.56
336.597	101.56
336.825	103.56
337.053	87.56
337.281	97.56
337.51	77.56
337.738	94.56
337.966	105.56
338.194	97.56
338.422	96.56
338.65	97.56
338.878	88.56
339.106	102.56
339.334	90.56
339.562	87.56
339.79	76.56
340.018	77.56
340.246	97.56
340.474	102.56
340.702	85.56
340.93	93.56
341.158	104.56
341.386	89.56
341.614	99.56
341.842	92.56
342.07	85.56
342.298	96.56
342.526	94.56
342.754	82.56
342.981	83.56
343.209	93.56
343.437	99.56
343.665	98.56
343.893	105.56
344.12	91.56
344.348	78.56
344.576	88.56
344.804	90.56
345.031	102.56
345.259	105.56
345.487	91.56
345.714	88.56
345.942	85.56
346.17	100.56
346.397	97.56
346.625	102.56
346.853	73.56
347.08	91.56
347.308	89.56
347.535	94.56
347.763	102.56
347.99	90.56
348.218	102.56
348.445	106.56
348.673	90.56
348.9	91.56
349.128	85.56
349.355	91.56
349.583	92.56
349.81	95.56
350.037	94.56
350.265	73.56
350.492	98.56
350.72	115.56
350.947	104.56
351.174	93.56
351.402	107.56
351.629	112.56
351.856	119.56
352.083	108.56
352.311	107.56
352.538	120.56
352.765	110.56
352.992	107.56
353.22	106.56
353.447	106.56
353.674	108.56
353.901	89.56
354.128	97.56
354.355	92.56
354.583	88.56
354.81	92.56
355.037	95.56
355.264	91.56
355.491	97.56
355.718	96.56
355.945	100.56
356.172	97.56
356.399	104.56
356.626	84.56
356.853	88.56
357.08	104.56
357.307	75.56
357.534	86.56
357.761	83.56
357.988	98.56
358.215	94.56
358.441	96.56
358.668	100.56
358.895	91.56
359.122	81.56
359.349	101.56
359.576	97.56
359.802	121.56
360.029	135.56
360.256	97.56
360.483	112.56
360.709	98.56
360.936	84.56
361.163	109.56
361.39	90.56
361.616	102.56
361.843	98.56
362.07	99.56
362.296	81.56
362.523	93.56
362.749	91.56
362.976	96.56
363.203	85.56
363.429	75.56
363.656	96.56
363.882	96.56
364.109	99.56
364.335	97.56
364.562	96.56
364.788	68.56
365.015	84.56
365.241	93.56
365.468	113.56
365.694	113.56
365.92	101.56
366.147	98.56
366.373	77.56
366.599	74.56
366.826	76.56
367.052	94.56
367.278	94.56
367.505	93.56
367.731	90.56
367.957	80.56
368.184	93.56
368.41	98.56
368.636	106.56
368.862	118.56
369.089	81.56
369.315	93.56
369.541	100.56
369.767	87.56
369.993	91.56
370.219	90.56
370.445	85.56
370.672	68.56
370.898	87.56
371.124	96.56
371.35	84.56
371.576	77.56
371.802	91.56
372.028	74.56
372.254	77.56
372.48	85.56
372.706	78.56
372.932	101.56
373.158	98.56
373.384	91.56
373.61	90.56
373.835	96.56
374.061	91.56
374.287	75.56
374.513	69.56
374.739	96.56
374.965	86.56
375.191	91.56
375.416	78.56
375.642	96.56
375.868	97.56
376.094	92.56
376.319	94.56
376.545	92.56
376.771	90.56
376.997	102.56
377.222	81.56
377.448	88.56
377.674	90.56
377.899	88.56
378.125	96.56
378.35	77.56
378.576	91.56
378.802	92.56
379.027	89.56
379.253	87.56
379.478	94.56
379.704	87.56
379.929	86.56
380.155	89.56
380.38	87.56
380.606	89.56
380.831	93.56
381.057	95.56
381.282	91.56
381.507	78.56
381.733	85.56
381.958	98.56
382.184	103.56
382.409	82.56
382.634	112.56
382.86	90.56
383.085	106.56
383.31	85.56
383.535	88.56
383.761	92.56
383.986	93.56
384.211	101.56
384.436	115.56
384.662	81.56
384.887	91.56
385.112	102.56
385.337	104.56
385.562	114.56
385.787	96.56
386.013	93.56
386.238	106.56
386.463	107.56
386.688	105.56
386.913	103.56
387.138	110.56
387.363	100.56
387.588	98.56
387.813	95.56
388.038	113.56
388.263	116.56
388.488	118.56
388.713	93.56
388.938	87.56
389.163	92.56
389.387	88.56
389.612	87.56
389.837	83.56
390.062	104.56
390.287	93.56
390.512	95.56
390.736	91.56
390.961	86.56
391.186	98.56
391.411	92.56
391.636	88.56
391.86	89.56
392.085	93.56
392.31	78.56
392.534	89.56
392.759	85.56
392.984	91.56
393.208	86.56
393.433	85.56
393.658	96.56
393.882	90.56
394.107	70.56
394.331	88.56
394.556	104.56
394.78	90.56
395.005	84.56
395.229	86.56
395.454	86.56
395.678	92.56
395.903	85.56
396.127	85.56
396.352	74.56
396.576	87.56
396.801	94.56
397.025	96.56
397.249	88.56
397.474	74.56
397.698	83.56
397.922	82.56
398.147	87.56
398.371	82.56
398.595	77.56
398.82	84.56
399.044	95.56
399.268	68.56
399.492	78.56
399.717	64.56
399.941	87.56
400.165	101.56
400.389	84.56
400.613	97.56
400.837	82.56
401.062	72.56
401.286	93.56
401.51	100.56
401.734	85.56
401.958	101.56
402.182	142.56
402.406	169.56
402.63	120.56
402.854	86.56
403.078	89.56
403.302	89.56
403.526	75.56
403.75	89.56
403.974	93.56
404.198	90.56
404.422	91.56
404.645	106.56
404.869	102.56
405.093	91.56
405.317	84.56
405.541	96.56
405.765	93.56
405.988	123.56
406.212	179.56
406.436	253.56
406.66	160.56
406.883	116.56
407.107	99.56
407.331	100.56
407.555	106.56
407.778	104.56
408.002	96.56
408.226	91.56
408.449	87.56
408.673	94.56
408.896	103.56
409.12	84.56
409.344	99.56
409.567	91.56
409.791	100.56
410.014	93.56
410.238	90.56
410.461	95.56
410.685	104.56
410.908	95.56
411.132	106.56
411.355	99.56
411.578	102.56
411.802	96.56
412.025	95.56
412.249	93.56
412.472	96.56
412.695	93.56
412.919	78.56
413.142	93.56
413.365	92.56
413.589	89.56
413.812	104.56
414.035	93.56
414.258	86.56
414.482	79.56
414.705	93.56
414.928	91.56
415.151	86.56
415.374	103.56
415.597	89.56
415.821	86.56
416.044	94.56
416.267	86.56
416.49	91.56
416.713	85.56
416.936	82.56
417.159	81.56
417.382	85.56
417.605	90.56
417.828	82.56
418.051	86.56
418.274	87.56
418.497	87.56
418.72	85.56
418.943	84.56
419.166	82.56
419.389	82.56
419.611	93.56
419.834	86.56
420.057	80.56
420.28	98.56
420.503	88.56
420.726	90.56
420.948	84.56
421.171	80.56
421.394	93.56
421.617	90.56
421.839	91.56
422.062	93.56
422.285	93.56
422.507	92.56
422.73	97.56
422.953	90.56
423.175	91.56
423.398	88.56
423.621	96.56
423.843	92.56
424.066	82.56
424.288	101.56
424.511	84.56
424.733	100.56
424.956	96.56
425.178	86.56
425.401	85.56
425.623	101.56
425.846	95.56
426.068	84.56
426.291	80.56
426.513	87.56
426.735	97.56
426.958	93.56
427.18	99.56
427.402	132.56
427.625	152.56
427.847	151.56
428.069	99.56
428.292	98.56
428.514	75.56
428.736	76.56
428.958	84.56
429.181	84.56
429.403	93.56
429.625	97.56
429.847	100.56
430.069	100.56
430.292	93.56
430.514	88.56
430.736	75.56
430.958	86.56
431.18	89.56
431.402	78.56
431.624	86.56
431.846	89.56
432.068	85.56
432.29	87.56
432.512	97.56
432.734	93.56
432.956	97.56
433.178	92.56
433.4	90.56
433.622	87.56
433.844	86.56
434.066	89.56
434.287	82.56
434.509	93.56
434.731	79.56
434.953	95.56
435.175	74.56
435.397	84.56
435.618	95.56
435.84	97.56
436.062	116.56
436.284	106.56
436.505	103.56
436.727	101.56
436.949	91.56
437.17	82.56
437.392	83.56
437.614	104.56
437.835	102.56
438.057	128.56
438.278	105.56
438.5	102.56
438.721	111.56
438.943	110.56
439.165	98.56
439.386	79.56
439.608	77.56
439.829	89.56
440.05	119.56
440.272	139.56
440.493	93.56
440.715	81.56
440.936	92.56
441.158	81.56
441.379	92.56
441.6	84.56
441.822	84.56
442.043	83.56
442.264	95.56
442.486	98.56
442.707	87.56
442.928	102.56
443.149	133.56
443.371	126.56
443.592	88.56
443.813	99.56
444.034	106.56
444.255	108.56
444.476	88.56
444.698	93.56
444.919	105.56
445.14	128.56
445.361	132.56
445.582	122.56
445.803	138.56
446.024	134.56
446.245	140.56
446.466	107.56
446.687	98.56
446.908	91.56
447.129	95.56
447.35	90.56
447.571	89.56
447.792	90.56
448.013	100.56
448.234	118.56
448.455	104.56
448.675	112.56
448.896	118.56
449.117	95.56
449.338	117.56
449.559	122.56
449.779	138.56
450	99.56
450.221	91.56
450.442	76.56
450.662	102.56
450.883	102.56
451.104	116.56
451.324	103.56
451.545	83.56
451.766	95.56
451.986	84.56
452.207	82.56
452.428	108.56
452.648	99.56
452.869	115.56
453.089	110.56
453.31	116.56
453.53	97.56
453.751	105.56
453.971	105.56
454.192	109.56
454.412	94.56
454.633	89.56
454.853	97.56
455.073	93.56
455.294	96.56
455.514	116.56
455.734	95.56
455.955	84.56
456.175	90.56
456.395	92.56
456.616	90.56
456.836	90.56
457.056	76.56
457.276	94.56
457.497	85.56
457.717	101.56
457.937	94.56
458.157	90.56
458.377	83.56
458.598	106.56
458.818	155.56
459.038	160.56
459.258	135.56
459.478	89.56
459.698	79.56
459.918	89.56
460.138	77.56
460.358	82.56
460.578	80.56
460.798	107.56
461.018	88.56
461.238	79.56
461.458	104.56
461.678	91.56
461.898	101.56
462.118	80.56
462.338	93.56
462.558	66.56
462.777	84.56
462.997	92.56
463.217	86.56
463.437	92.56
463.657	92.56
463.876	76.56
464.096	88.56
464.316	85.56
464.536	88.56
464.755	100.56
464.975	107.56
465.195	147.56
465.414	166.56
465.634	86.56
465.854	90.56
466.073	72.56
466.293	73.56
466.512	91.56
466.732	73.56
466.951	82.56
467.171	85.56
467.391	85.56
467.61	109.56
467.829	96.56
468.049	104.56
468.268	97.56
468.488	78.56
468.707	90.56
468.927	88.56
469.146	87.56
469.365	76.56
469.585	91.56
469.804	101.56
470.023	106.56
470.243	87.56
470.462	104.56
470.681	104.56
470.901	102.56
471.12	81.56
471.339	78.56
471.558	88.56
471.777	86.56
471.997	91.56
472.216	112.56
472.435	136.56
472.654	99.56
472.873	85.56
473.092	93.56
473.311	93.56
473.53	88.56
473.749	69.56
473.968	100.56
474.187	106.56
474.406	90.56
474.625	81.56
474.844	94.56
475.063	89.56
475.282	87.56
475.501	86.56
475.72	89.56
475.939	76.56
476.158	77.56
476.377	100.56
476.596	93.56
476.814	99.56
477.033	91.56
477.252	98.56
477.471	88.56
477.69	85.56
477.908	88.56
478.127	82.56
478.346	83.56
478.564	87.56
478.783	95.56
479.002	93.56
479.22	84.56
479.439	102.56
479.658	104.56
479.876	90.56
480.095	79.56
480.313	90.56
480.532	90.56
480.751	116.56
480.969	107.56
481.188	192.56
481.406	141.56
481.624	99.56
481.843	94.56
482.061	93.56
482.28	105.56
482.498	93.56
482.717	88.56
482.935	86.56
483.153	90.56
483.372	87.56
483.59	88.56
483.808	93.56
484.027	89.56
484.245	112.56
484.463	92.56
484.681	88.56
484.9	98.56
485.118	93.56
485.336	82.56
485.554	99.56
485.772	106.56
485.99	103.56
486.209	91.56
486.427	89.56
486.645	113.56
486.863	107.56
487.081	94.56
487.299	76.56
487.517	78.56
487.735	90.56
487.953	96.56
488.171	95.56
488.389	99.56
488.607	94.56
488.825	89.56
489.043	85.56
489.261	89.56
489.479	73.56
489.696	68.56
489.914	83.56
490.132	71.56
490.35	99.56
490.568	78.56
490.786	74.56
491.003	89.56
491.221	87.56
491.439	91.56
491.657	85.56
491.874	97.56
492.092	85.56
492.31	92.56
492.527	94.56
492.745	95.56
492.963	100.56
493.18	99.56
493.398	75.56
493.615	91.56
493.833	102.56
494.05	82.56
494.268	78.56
494.485	96.56
494.703	84.56
494.92	82.56
495.138	82.56
495.355	85.56
495.573	94.56
495.79	97.56
496.008	104.56
496.225	74.56
496.442	89.56
496.66	101.56
496.877	78.56
497.094	94.56
497.312	85.56
497.529	94.56
497.746	95.56
497.963	92.56
498.181	82.56
498.398	92.56
498.615	106.56
498.832	103.56
499.049	84.56
499.267	83.56
499.484	81.56
499.701	82.56
499.918	93.56
500.135	91.56
500.352	87.56
500.569	84.56
500.786	94.56
501.003	103.56
501.22	92.56
501.437	83.56
501.654	109.56
501.871	106.56
502.088	98.56
502.305	81.56
502.522	86.56
502.739	83.56
502.956	72.56
503.172	91.56
503.389	85.56
503.606	101.56
503.823	99.56
504.04	98.56
504.256	86.56
504.473	82.56
504.69	107.56
504.907	93.56
505.123	101.56
505.34	87.56
505.557	85.56
505.773	88.56
505.99	77.56
506.207	86.56
506.423	99.56
506.64	84.56
506.856	92.56
507.073	91.56
507.289	87.56
507.506	95.56
507.722	105.56
507.939	115.56
508.155	96.56
508.372	91.56
508.588	96.56
508.805	100.56
509.021	97.56
509.238	86.56
509.454	88.56
509.67	115.56
509.887	90.56
510.103	136.56
510.319	219.56
510.536	852.56
510.752	2859.56
510.968	783.56
511.184	172.56
511.401	102.56
511.617	95.56
511.833	81.56
512.049	101.56
512.265	83.56
512.481	87.56
512.698	84.56
512.914	84.56
513.13	112.56
513.346	88.56
513.562	105.56
513.778	106.56
513.994	107.56
514.21	103.56
514.426	126.56
514.642	140.56
514.858	127.56
515.074	169.56
515.29	501.56
515.506	1783.56
515.721	669.56
