Data from Circ_2012_H10_HRD10591_00006.txt Node
Date: Wed Jan 03 10:05:51 EST 2024
User: Yrep
Spectrometer: HR+D1059
Trigger mode: 1
Integration Time (sec): 1.000000E-1
Scans to average: 1
Electric dark correction enabled: true
Nonlinearity correction enabled: false
Boxcar width: 0
XAxis mode: Wavelengths
Number of Pixels in Spectrum: 2048
>>>>>Begin Spectral Data<<<<<
223.165	-18.25
223.4	-18.25
223.635	-18.25
223.869	-22.25
224.104	-29.25
224.338	-14.25
224.573	-13.25
224.808	-26.25
225.042	-20.25
225.277	3.75
225.511	0.75
225.746	9.75
225.98	-2.25
226.215	25.75
226.449	16.75
226.683	21.75
226.918	33.75
227.152	33.75
227.387	38.75
227.621	34.75
227.856	44.75
228.09	46.75
228.324	42.75
228.559	51.75
228.793	65.75
229.027	61.75
229.262	67.75
229.496	78.75
229.73	87.75
229.964	74.75
230.199	79.75
230.433	70.75
230.667	83.75
230.901	90.75
231.136	74.75
231.37	98.75
231.604	78.75
231.838	72.75
232.072	83.75
232.306	79.75
232.541	81.75
232.775	67.75
233.009	83.75
233.243	83.75
233.477	74.75
233.711	95.75
233.945	64.75
234.179	70.75
234.413	78.75
234.647	82.75
234.881	85.75
235.115	84.75
235.349	81.75
235.583	81.75
235.817	77.75
236.051	81.75
236.285	66.75
236.519	74.75
236.753	64.75
236.987	72.75
237.221	87.75
237.455	78.75
237.689	79.75
237.922	72.75
238.156	78.75
238.39	63.75
238.624	80.75
238.858	83.75
239.091	69.75
239.325	85.75
239.559	76.75
239.793	94.75
240.027	69.75
240.26	70.75
240.494	68.75
240.728	80.75
240.961	73.75
241.195	72.75
241.429	101.75
241.662	78.75
241.896	67.75
242.13	75.75
242.363	76.75
242.597	72.75
242.83	87.75
243.064	78.75
243.298	85.75
243.531	78.75
243.765	85.75
243.998	66.75
244.232	75.75
244.465	88.75
244.699	67.75
244.932	85.75
245.166	86.75
245.399	67.75
245.633	82.75
245.866	83.75
246.099	91.75
246.333	78.75
246.566	67.75
246.8	88.75
247.033	86.75
247.266	75.75
247.5	79.75
247.733	87.75
247.966	77.75
248.2	79.75
248.433	74.75
248.666	66.75
248.899	76.75
249.133	73.75
249.366	101.75
249.599	107.75
249.832	90.75
250.066	71.75
250.299	83.75
250.532	90.75
250.765	76.75
250.998	83.75
251.231	65.75
251.465	79.75
251.698	80.75
251.931	85.75
252.164	76.75
252.397	68.75
252.63	67.75
252.863	66.75
253.096	59.75
253.329	75.75
253.562	79.75
253.795	86.75
254.028	85.75
254.261	73.75
254.494	86.75
254.727	70.75
254.96	61.75
255.193	73.75
255.426	84.75
255.659	88.75
255.892	78.75
256.124	79.75
256.357	73.75
256.59	87.75
256.823	82.75
257.056	76.75
257.289	90.75
257.521	78.75
257.754	78.75
257.987	92.75
258.22	71.75
258.452	74.75
258.685	69.75
258.918	78.75
259.151	69.75
259.383	91.75
259.616	88.75
259.849	77.75
260.081	78.75
260.314	77.75
260.547	73.75
260.779	91.75
261.012	92.75
261.244	84.75
261.477	90.75
261.71	93.75
261.942	108.75
262.175	121.75
262.407	87.75
262.64	57.75
262.872	76.75
263.105	80.75
263.337	93.75
263.57	81.75
263.802	91.75
264.035	86.75
264.267	74.75
264.499	88.75
264.732	82.75
264.964	86.75
265.197	86.75
265.429	92.75
265.661	85.75
265.894	89.75
266.126	83.75
266.358	85.75
266.591	85.75
266.823	73.75
267.055	90.75
267.287	68.75
267.52	90.75
267.752	90.75
267.984	84.75
268.216	79.75
268.448	86.75
268.681	73.75
268.913	81.75
269.145	74.75
269.377	85.75
269.609	87.75
269.841	83.75
270.073	87.75
270.306	90.75
270.538	84.75
270.77	81.75
271.002	82.75
271.234	89.75
271.466	85.75
271.698	89.75
271.93	76.75
272.162	74.75
272.394	93.75
272.626	92.75
272.858	88.75
273.09	87.75
273.322	84.75
273.553	95.75
273.785	84.75
274.017	97.75
274.249	89.75
274.481	90.75
274.713	88.75
274.945	89.75
275.176	88.75
275.408	98.75
275.64	87.75
275.872	83.75
276.104	91.75
276.335	86.75
276.567	102.75
276.799	115.75
277.031	106.75
277.262	98.75
277.494	82.75
277.726	95.75
277.957	86.75
278.189	79.75
278.421	77.75
278.652	85.75
278.884	72.75
279.115	76.75
279.347	89.75
279.579	85.75
279.81	103.75
280.042	94.75
280.273	91.75
280.505	101.75
280.736	90.75
280.968	90.75
281.199	94.75
281.431	85.75
281.662	84.75
281.894	97.75
282.125	106.75
282.356	129.75
282.588	144.75
282.819	134.75
283.051	98.75
283.282	82.75
283.513	97.75
283.745	89.75
283.976	75.75
284.207	82.75
284.439	78.75
284.67	88.75
284.901	83.75
285.132	87.75
285.364	86.75
285.595	94.75
285.826	86.75
286.057	81.75
286.288	87.75
286.52	80.75
286.751	70.75
286.982	91.75
287.213	94.75
287.444	92.75
287.675	94.75
287.906	100.75
288.138	107.75
288.369	91.75
288.6	85.75
288.831	89.75
289.062	89.75
289.293	87.75
289.524	76.75
289.755	88.75
289.986	98.75
290.217	87.75
290.448	80.75
290.679	92.75
290.91	81.75
291.141	86.75
291.371	92.75
291.602	92.75
291.833	83.75
292.064	81.75
292.295	97.75
292.526	71.75
292.757	90.75
292.987	96.75
293.218	82.75
293.449	89.75
293.68	94.75
293.91	87.75
294.141	85.75
294.372	88.75
294.603	72.75
294.833	96.75
295.064	97.75
295.295	90.75
295.525	91.75
295.756	101.75
295.987	117.75
296.217	156.75
296.448	124.75
296.679	108.75
296.909	94.75
297.14	78.75
297.37	83.75
297.601	90.75
297.831	95.75
298.062	78.75
298.292	88.75
298.523	85.75
298.753	94.75
298.984	89.75
299.214	93.75
299.445	94.75
299.675	83.75
299.905	93.75
300.136	88.75
300.366	74.75
300.597	87.75
300.827	91.75
301.057	102.75
301.288	86.75
301.518	104.75
301.748	87.75
301.979	96.75
302.209	99.75
302.439	104.75
302.669	99.75
302.9	90.75
303.13	96.75
303.36	101.75
303.59	103.75
303.82	106.75
304.051	89.75
304.281	91.75
304.511	84.75
304.741	103.75
304.971	79.75
305.201	93.75
305.431	89.75
305.661	88.75
305.891	91.75
306.121	106.75
306.352	107.75
306.582	104.75
306.812	94.75
307.042	98.75
307.272	103.75
307.502	84.75
307.731	96.75
307.961	90.75
308.191	97.75
308.421	99.75
308.651	93.75
308.881	98.75
309.111	102.75
309.341	85.75
309.571	92.75
309.8	97.75
310.03	91.75
310.26	90.75
310.49	100.75
310.72	99.75
310.949	112.75
311.179	107.75
311.409	93.75
311.639	98.75
311.868	113.75
312.098	90.75
312.328	86.75
312.557	94.75
312.787	118.75
313.017	116.75
313.246	101.75
313.476	91.75
313.706	82.75
313.935	85.75
314.165	123.75
314.394	113.75
314.624	95.75
314.853	96.75
315.083	97.75
315.312	90.75
315.542	86.75
315.771	97.75
316.001	94.75
316.23	89.75
316.46	75.75
316.689	69.75
316.919	104.75
317.148	99.75
317.377	94.75
317.607	99.75
317.836	84.75
318.065	89.75
318.295	98.75
318.524	76.75
318.753	102.75
318.983	96.75
319.212	103.75
319.441	123.75
319.67	106.75
319.9	108.75
320.129	90.75
320.358	90.75
320.587	94.75
320.816	96.75
321.046	101.75
321.275	106.75
321.504	94.75
321.733	91.75
321.962	106.75
322.191	108.75
322.42	115.75
322.649	105.75
322.878	131.75
323.108	129.75
323.337	141.75
323.566	142.75
323.795	174.75
324.024	247.75
324.253	493.75
324.482	1032.75
324.71	2120.75
324.939	2834.75
325.168	1035.75
325.397	281.75
325.626	181.75
325.855	133.75
326.084	115.75
326.313	148.75
326.542	178.75
326.77	277.75
326.999	540.75
327.228	1147.75
327.457	2109.75
327.686	1678.75
327.914	428.75
328.143	206.75
328.372	163.75
328.6	129.75
328.829	139.75
329.058	147.75
329.287	133.75
329.515	115.75
329.744	101.75
329.972	116.75
330.201	117.75
330.43	124.75
330.658	145.75
330.887	153.75
331.115	136.75
331.344	121.75
331.572	105.75
331.801	102.75
332.03	109.75
332.258	107.75
332.486	104.75
332.715	93.75
332.943	100.75
333.172	100.75
333.4	96.75
333.629	102.75
333.857	124.75
334.085	95.75
334.314	99.75
334.542	101.75
334.771	109.75
334.999	101.75
335.227	101.75
335.455	105.75
335.684	95.75
335.912	93.75
336.14	86.75
336.369	77.75
336.597	102.75
336.825	98.75
337.053	105.75
337.281	99.75
337.51	95.75
337.738	78.75
337.966	100.75
338.194	91.75
338.422	113.75
338.65	99.75
338.878	90.75
339.106	71.75
339.334	85.75
339.562	90.75
339.79	98.75
340.018	93.75
340.246	92.75
340.474	101.75
340.702	94.75
340.93	90.75
341.158	88.75
341.386	85.75
341.614	100.75
341.842	104.75
342.07	91.75
342.298	99.75
342.526	92.75
342.754	81.75
342.981	86.75
343.209	90.75
343.437	99.75
343.665	86.75
343.893	98.75
344.12	88.75
344.348	72.75
344.576	87.75
344.804	111.75
345.031	114.75
345.259	98.75
345.487	95.75
345.714	92.75
345.942	94.75
346.17	87.75
346.397	89.75
346.625	105.75
346.853	94.75
347.08	85.75
347.308	98.75
347.535	101.75
347.763	99.75
347.99	89.75
348.218	106.75
348.445	107.75
348.673	94.75
348.9	98.75
349.128	86.75
349.355	95.75
349.583	87.75
349.81	100.75
350.037	102.75
350.265	101.75
350.492	94.75
350.72	88.75
350.947	104.75
351.174	118.75
351.402	118.75
351.629	98.75
351.856	97.75
352.083	115.75
352.311	120.75
352.538	111.75
352.765	119.75
352.992	129.75
353.22	133.75
353.447	98.75
353.674	101.75
353.901	95.75
354.128	96.75
354.355	98.75
354.583	85.75
354.81	101.75
355.037	93.75
355.264	98.75
355.491	104.75
355.718	94.75
355.945	84.75
356.172	97.75
356.399	102.75
356.626	93.75
356.853	91.75
357.08	98.75
357.307	78.75
357.534	94.75
357.761	90.75
357.988	92.75
358.215	97.75
358.441	80.75
358.668	90.75
358.895	91.75
359.122	84.75
359.349	89.75
359.576	95.75
359.802	101.75
360.029	114.75
360.256	133.75
360.483	107.75
360.709	85.75
360.936	84.75
361.163	107.75
361.39	117.75
361.616	115.75
361.843	86.75
362.07	91.75
362.296	92.75
362.523	102.75
362.749	91.75
362.976	99.75
363.203	109.75
363.429	95.75
363.656	103.75
363.882	95.75
364.109	93.75
364.335	84.75
364.562	92.75
364.788	94.75
365.015	93.75
365.241	98.75
365.468	116.75
365.694	105.75
365.92	113.75
366.147	93.75
366.373	97.75
366.599	77.75
366.826	98.75
367.052	73.75
367.278	85.75
367.505	97.75
367.731	93.75
367.957	86.75
368.184	100.75
368.41	110.75
368.636	99.75
368.862	136.75
369.089	108.75
369.315	103.75
369.541	97.75
369.767	95.75
369.993	101.75
370.219	102.75
370.445	102.75
370.672	93.75
370.898	91.75
371.124	82.75
371.35	86.75
371.576	96.75
371.802	89.75
372.028	89.75
372.254	95.75
372.48	75.75
372.706	84.75
372.932	83.75
373.158	100.75
373.384	87.75
373.61	94.75
373.835	93.75
374.061	92.75
374.287	109.75
374.513	97.75
374.739	78.75
374.965	77.75
375.191	98.75
375.416	95.75
375.642	98.75
375.868	100.75
376.094	86.75
376.319	103.75
376.545	100.75
376.771	99.75
376.997	98.75
377.222	103.75
377.448	106.75
377.674	89.75
377.899	106.75
378.125	94.75
378.35	93.75
378.576	70.75
378.802	97.75
379.027	87.75
379.253	98.75
379.478	90.75
379.704	94.75
379.929	93.75
380.155	92.75
380.38	101.75
380.606	106.75
380.831	97.75
381.057	87.75
381.282	115.75
381.507	86.75
381.733	81.75
381.958	81.75
382.184	97.75
382.409	99.75
382.634	105.75
382.86	99.75
383.085	100.75
383.31	102.75
383.535	100.75
383.761	93.75
383.986	98.75
384.211	91.75
384.436	109.75
384.662	104.75
384.887	103.75
385.112	106.75
385.337	115.75
385.562	115.75
385.787	118.75
386.013	118.75
386.238	116.75
386.463	113.75
386.688	98.75
386.913	95.75
387.138	109.75
387.363	117.75
387.588	108.75
387.813	102.75
388.038	111.75
388.263	118.75
388.488	106.75
388.713	83.75
388.938	104.75
389.163	97.75
389.387	100.75
389.612	108.75
389.837	98.75
390.062	92.75
390.287	103.75
390.512	86.75
390.736	90.75
390.961	81.75
391.186	93.75
391.411	94.75
391.636	97.75
391.86	75.75
392.085	84.75
392.31	78.75
392.534	78.75
392.759	92.75
392.984	92.75
393.208	87.75
393.433	104.75
393.658	98.75
393.882	94.75
394.107	83.75
394.331	94.75
394.556	89.75
394.78	94.75
395.005	89.75
395.229	80.75
395.454	95.75
395.678	98.75
395.903	79.75
396.127	88.75
396.352	77.75
396.576	78.75
396.801	93.75
397.025	88.75
397.249	94.75
397.474	100.75
397.698	98.75
397.922	85.75
398.147	88.75
398.371	83.75
398.595	74.75
398.82	94.75
399.044	97.75
399.268	88.75
399.492	94.75
399.717	99.75
399.941	94.75
400.165	89.75
400.389	85.75
400.613	91.75
400.837	109.75
401.062	103.75
401.286	96.75
401.51	74.75
401.734	72.75
401.958	89.75
402.182	133.75
402.406	194.75
402.63	137.75
402.854	97.75
403.078	83.75
403.302	83.75
403.526	93.75
403.75	86.75
403.974	86.75
404.198	90.75
404.422	91.75
404.645	82.75
404.869	79.75
405.093	90.75
405.317	100.75
405.541	97.75
405.765	111.75
405.988	129.75
406.212	209.75
406.436	281.75
406.66	171.75
406.883	105.75
407.107	106.75
407.331	109.75
407.555	91.75
407.778	91.75
408.002	77.75
408.226	84.75
408.449	83.75
408.673	88.75
408.896	78.75
409.12	88.75
409.344	84.75
409.567	86.75
409.791	97.75
410.014	88.75
410.238	98.75
410.461	88.75
410.685	94.75
410.908	104.75
411.132	104.75
411.355	90.75
411.578	87.75
411.802	99.75
412.025	83.75
412.249	92.75
412.472	91.75
412.695	84.75
412.919	88.75
413.142	82.75
413.365	92.75
413.589	90.75
413.812	78.75
414.035	89.75
414.258	79.75
414.482	102.75
414.705	86.75
414.928	90.75
415.151	103.75
415.374	96.75
415.597	86.75
415.821	99.75
416.044	92.75
416.267	105.75
416.49	86.75
416.713	83.75
416.936	90.75
417.159	79.75
417.382	90.75
417.605	101.75
417.828	97.75
418.051	88.75
418.274	95.75
418.497	106.75
418.72	87.75
418.943	77.75
419.166	97.75
419.389	95.75
419.611	96.75
419.834	83.75
420.057	98.75
420.28	89.75
420.503	85.75
420.726	88.75
420.948	77.75
421.171	97.75
421.394	106.75
421.617	90.75
421.839	87.75
422.062	84.75
422.285	89.75
422.507	96.75
422.73	103.75
422.953	92.75
423.175	87.75
423.398	95.75
423.621	90.75
423.843	95.75
424.066	95.75
424.288	97.75
424.511	82.75
424.733	104.75
424.956	123.75
425.178	98.75
425.401	100.75
425.623	90.75
425.846	108.75
426.068	107.75
426.291	99.75
426.513	86.75
426.735	93.75
426.958	99.75
427.18	109.75
427.402	142.75
427.625	188.75
427.847	140.75
428.069	103.75
428.292	85.75
428.514	69.75
428.736	82.75
428.958	81.75
429.181	87.75
429.403	83.75
429.625	100.75
429.847	102.75
430.069	106.75
430.292	82.75
430.514	86.75
430.736	88.75
430.958	82.75
431.18	84.75
431.402	90.75
431.624	88.75
431.846	99.75
432.068	92.75
432.29	95.75
432.512	88.75
432.734	99.75
432.956	99.75
433.178	96.75
433.4	87.75
433.622	91.75
433.844	91.75
434.066	91.75
434.287	105.75
434.509	89.75
434.731	90.75
434.953	91.75
435.175	105.75
435.397	95.75
435.618	95.75
435.84	103.75
436.062	135.75
436.284	122.75
436.505	101.75
436.727	120.75
436.949	100.75
437.17	79.75
437.392	71.75
437.614	92.75
437.835	99.75
438.057	129.75
438.278	113.75
438.5	115.75
438.721	115.75
438.943	101.75
439.165	82.75
439.386	83.75
439.608	87.75
439.829	104.75
440.05	126.75
440.272	165.75
440.493	114.75
440.715	96.75
440.936	88.75
441.158	91.75
441.379	100.75
441.6	87.75
441.822	95.75
442.043	87.75
442.264	118.75
442.486	95.75
442.707	92.75
442.928	101.75
443.149	140.75
443.371	143.75
443.592	124.75
443.813	115.75
444.034	113.75
444.255	89.75
444.476	101.75
444.698	99.75
444.919	87.75
445.14	139.75
445.361	116.75
445.582	122.75
445.803	153.75
446.024	143.75
446.245	149.75
446.466	137.75
446.687	88.75
446.908	76.75
447.129	102.75
447.35	94.75
447.571	104.75
447.792	102.75
448.013	106.75
448.234	103.75
448.455	105.75
448.675	121.75
448.896	125.75
449.117	94.75
449.338	101.75
449.559	116.75
449.779	136.75
450	93.75
450.221	94.75
450.442	95.75
450.662	107.75
450.883	122.75
451.104	114.75
451.324	95.75
451.545	91.75
451.766	82.75
451.986	100.75
452.207	88.75
452.428	98.75
452.648	99.75
452.869	129.75
453.089	120.75
453.31	125.75
453.53	109.75
453.751	105.75
453.971	107.75
454.192	132.75
454.412	102.75
454.633	95.75
454.853	84.75
455.073	75.75
455.294	97.75
455.514	94.75
455.734	104.75
455.955	90.75
456.175	82.75
456.395	72.75
456.616	102.75
456.836	79.75
457.056	99.75
457.276	97.75
457.497	89.75
457.717	62.75
457.937	81.75
458.157	88.75
458.377	87.75
458.598	111.75
458.818	180.75
459.038	189.75
459.258	150.75
459.478	87.75
459.698	97.75
459.918	92.75
460.138	89.75
460.358	83.75
460.578	79.75
460.798	91.75
461.018	91.75
461.238	93.75
461.458	86.75
461.678	99.75
461.898	92.75
462.118	92.75
462.338	104.75
462.558	85.75
462.777	83.75
462.997	73.75
463.217	85.75
463.437	99.75
463.657	92.75
463.876	87.75
464.096	97.75
464.316	95.75
464.536	114.75
464.755	100.75
464.975	118.75
465.195	210.75
465.414	186.75
465.634	102.75
465.854	89.75
466.073	99.75
466.293	91.75
466.512	106.75
466.732	79.75
466.951	90.75
467.171	88.75
467.391	97.75
467.61	103.75
467.829	115.75
468.049	101.75
468.268	79.75
468.488	88.75
468.707	92.75
468.927	75.75
469.146	88.75
469.365	71.75
469.585	77.75
469.804	89.75
470.023	99.75
470.243	94.75
470.462	107.75
470.681	129.75
470.901	96.75
471.12	89.75
471.339	99.75
471.558	87.75
471.777	91.75
471.997	76.75
472.216	87.75
472.435	101.75
472.654	87.75
472.873	83.75
473.092	83.75
473.311	79.75
473.53	97.75
473.749	85.75
473.968	99.75
474.187	107.75
474.406	102.75
474.625	93.75
474.844	93.75
475.063	87.75
475.282	94.75
475.501	93.75
475.72	89.75
475.939	84.75
476.158	91.75
476.377	95.75
476.596	101.75
476.814	88.75
477.033	91.75
477.252	93.75
477.471	93.75
477.69	79.75
477.908	84.75
478.127	79.75
478.346	80.75
478.564	83.75
478.783	108.75
479.002	102.75
479.22	88.75
479.439	115.75
479.658	105.75
479.876	92.75
480.095	94.75
480.313	90.75
480.532	82.75
480.751	86.75
480.969	95.75
481.188	134.75
481.406	110.75
481.624	94.75
481.843	90.75
482.061	89.75
482.28	73.75
482.498	84.75
482.717	93.75
482.935	82.75
483.153	85.75
483.372	77.75
483.59	92.75
483.808	80.75
484.027	79.75
484.245	100.75
484.463	95.75
484.681	109.75
484.9	101.75
485.118	86.75
485.336	81.75
485.554	92.75
485.772	100.75
485.99	101.75
486.209	103.75
486.427	111.75
486.645	101.75
486.863	113.75
487.081	90.75
487.299	101.75
487.517	108.75
487.735	98.75
487.953	101.75
488.171	78.75
488.389	97.75
488.607	103.75
488.825	90.75
489.043	104.75
489.261	85.75
489.479	91.75
489.696	86.75
489.914	70.75
490.132	89.75
490.35	94.75
490.568	84.75
490.786	105.75
491.003	100.75
491.221	85.75
491.439	94.75
491.657	94.75
491.874	97.75
492.092	86.75
492.31	88.75
492.527	84.75
492.745	58.75
492.963	89.75
493.18	104.75
493.398	105.75
493.615	93.75
493.833	91.75
494.05	87.75
494.268	79.75
494.485	79.75
494.703	90.75
494.92	88.75
495.138	94.75
495.355	87.75
495.573	84.75
495.79	85.75
496.008	95.75
496.225	86.75
496.442	98.75
496.66	79.75
496.877	77.75
497.094	87.75
497.312	94.75
497.529	106.75
497.746	105.75
497.963	90.75
498.181	93.75
498.398	92.75
498.615	110.75
498.832	105.75
499.049	86.75
499.267	87.75
499.484	85.75
499.701	82.75
499.918	92.75
500.135	89.75
500.352	78.75
500.569	72.75
500.786	98.75
501.003	82.75
501.22	90.75
501.437	87.75
501.654	91.75
501.871	108.75
502.088	83.75
502.305	75.75
502.522	88.75
502.739	110.75
502.956	99.75
503.172	86.75
503.389	115.75
503.606	120.75
503.823	98.75
504.04	87.75
504.256	95.75
504.473	88.75
504.69	86.75
504.907	94.75
505.123	93.75
505.34	97.75
505.557	77.75
505.773	84.75
505.99	80.75
506.207	94.75
506.423	86.75
506.64	102.75
506.856	90.75
507.073	90.75
507.289	97.75
507.506	92.75
507.722	125.75
507.939	117.75
508.155	105.75
508.372	85.75
508.588	96.75
508.805	92.75
509.021	87.75
509.238	106.75
509.454	80.75
509.67	92.75
509.887	109.75
510.103	141.75
510.319	240.75
510.536	953.75
510.752	3144.75
510.968	862.75
511.184	185.75
511.401	97.75
511.617	94.75
511.833	91.75
512.049	102.75
512.265	98.75
512.481	90.75
512.698	97.75
512.914	79.75
513.13	103.75
513.346	103.75
513.562	91.75
513.778	105.75
513.994	104.75
514.21	105.75
514.426	121.75
514.642	143.75
514.858	144.75
