Data from Circ_2012_H10_HRD10591_00079.txt Node
Date: Wed Jan 03 10:06:06 EST 2024
User: Yrep
Spectrometer: HR+D1059
Trigger mode: 1
Integration Time (sec): 1.000000E-1
Scans to average: 1
Electric dark correction enabled: true
Nonlinearity correction enabled: false
Boxcar width: 0
XAxis mode: Wavelengths
Number of Pixels in Spectrum: 2048
>>>>>Begin Spectral Data<<<<<
223.165	-13.06
223.4	-13.06
223.635	-13.06
223.869	-23.06
224.104	-17.06
224.338	-16.06
224.573	-13.06
224.808	-23.06
225.042	-2.06
225.277	4.94
225.511	-7.06
225.746	-2.06
225.98	15.94
226.215	13.94
226.449	6.94
226.683	11.94
226.918	28.94
227.152	33.94
227.387	49.94
227.621	34.94
227.856	40.94
228.09	42.94
228.324	42.94
228.559	59.94
228.793	53.94
229.027	59.94
229.262	65.94
229.496	60.94
229.73	77.94
229.964	69.94
230.199	69.94
230.433	84.94
230.667	81.94
230.901	84.94
231.136	78.94
231.37	74.94
231.604	76.94
231.838	69.94
232.072	73.94
232.306	61.94
232.541	75.94
232.775	93.94
233.009	78.94
233.243	83.94
233.477	78.94
233.711	87.94
233.945	91.94
234.179	89.94
234.413	68.94
234.647	72.94
234.881	78.94
235.115	74.94
235.349	72.94
235.583	67.94
235.817	87.94
236.051	67.94
236.285	68.94
236.519	70.94
236.753	66.94
236.987	66.94
237.221	79.94
237.455	72.94
237.689	77.94
237.922	69.94
238.156	73.94
238.39	79.94
238.624	73.94
238.858	67.94
239.091	78.94
239.325	80.94
239.559	78.94
239.793	82.94
240.027	76.94
240.26	81.94
240.494	76.94
240.728	79.94
240.961	83.94
241.195	85.94
241.429	96.94
241.662	76.94
241.896	62.94
242.13	72.94
242.363	81.94
242.597	68.94
242.83	77.94
243.064	73.94
243.298	78.94
243.531	66.94
243.765	73.94
243.998	63.94
244.232	62.94
244.465	75.94
244.699	83.94
244.932	79.94
245.166	72.94
245.399	60.94
245.633	83.94
245.866	69.94
246.099	83.94
246.333	70.94
246.566	90.94
246.8	62.94
247.033	66.94
247.266	76.94
247.5	88.94
247.733	77.94
247.966	86.94
248.2	87.94
248.433	79.94
248.666	79.94
248.899	91.94
249.133	90.94
249.366	94.94
249.599	99.94
249.832	89.94
250.066	79.94
250.299	91.94
250.532	74.94
250.765	71.94
250.998	75.94
251.231	70.94
251.465	78.94
251.698	74.94
251.931	77.94
252.164	83.94
252.397	66.94
252.63	82.94
252.863	69.94
253.096	69.94
253.329	87.94
253.562	72.94
253.795	75.94
254.028	86.94
254.261	92.94
254.494	73.94
254.727	84.94
254.96	87.94
255.193	80.94
255.426	85.94
255.659	66.94
255.892	78.94
256.124	83.94
256.357	82.94
256.59	83.94
256.823	72.94
257.056	73.94
257.289	65.94
257.521	74.94
257.754	78.94
257.987	83.94
258.22	81.94
258.452	90.94
258.685	73.94
258.918	86.94
259.151	68.94
259.383	83.94
259.616	76.94
259.849	86.94
260.081	78.94
260.314	76.94
260.547	91.94
260.779	90.94
261.012	92.94
261.244	75.94
261.477	89.94
261.71	77.94
261.942	105.94
262.175	122.94
262.407	71.94
262.64	86.94
262.872	86.94
263.105	76.94
263.337	74.94
263.57	68.94
263.802	93.94
264.035	68.94
264.267	87.94
264.499	88.94
264.732	71.94
264.964	81.94
265.197	94.94
265.429	74.94
265.661	84.94
265.894	84.94
266.126	74.94
266.358	75.94
266.591	74.94
266.823	80.94
267.055	68.94
267.287	84.94
267.52	77.94
267.752	86.94
267.984	67.94
268.216	73.94
268.448	76.94
268.681	70.94
268.913	71.94
269.145	74.94
269.377	83.94
269.609	74.94
269.841	89.94
270.073	65.94
270.306	70.94
270.538	92.94
270.77	98.94
271.002	78.94
271.234	69.94
271.466	84.94
271.698	92.94
271.93	85.94
272.162	84.94
272.394	75.94
272.626	58.94
272.858	94.94
273.09	86.94
273.322	70.94
273.553	89.94
273.785	79.94
274.017	83.94
274.249	65.94
274.481	84.94
274.713	79.94
274.945	90.94
275.176	82.94
275.408	86.94
275.64	87.94
275.872	81.94
276.104	78.94
276.335	86.94
276.567	93.94
276.799	106.94
277.031	98.94
277.262	86.94
277.494	93.94
277.726	92.94
277.957	85.94
278.189	84.94
278.421	77.94
278.652	79.94
278.884	79.94
279.115	96.94
279.347	78.94
279.579	82.94
279.81	87.94
280.042	74.94
280.273	90.94
280.505	89.94
280.736	80.94
280.968	85.94
281.199	80.94
281.431	82.94
281.662	86.94
281.894	89.94
282.125	90.94
282.356	106.94
282.588	138.94
282.819	106.94
283.051	82.94
283.282	83.94
283.513	85.94
283.745	85.94
283.976	88.94
284.207	97.94
284.439	84.94
284.67	73.94
284.901	81.94
285.132	82.94
285.364	87.94
285.595	96.94
285.826	80.94
286.057	82.94
286.288	83.94
286.52	84.94
286.751	90.94
286.982	81.94
287.213	66.94
287.444	81.94
287.675	89.94
287.906	74.94
288.138	90.94
288.369	91.94
288.6	92.94
288.831	89.94
289.062	84.94
289.293	88.94
289.524	92.94
289.755	85.94
289.986	74.94
290.217	81.94
290.448	75.94
290.679	82.94
290.91	74.94
291.141	92.94
291.371	86.94
291.602	76.94
291.833	93.94
292.064	91.94
292.295	88.94
292.526	97.94
292.757	93.94
292.987	71.94
293.218	94.94
293.449	74.94
293.68	82.94
293.91	83.94
294.141	77.94
294.372	82.94
294.603	68.94
294.833	84.94
295.064	78.94
295.295	77.94
295.525	90.94
295.756	102.94
295.987	109.94
296.217	139.94
296.448	116.94
296.679	88.94
296.909	89.94
297.14	89.94
297.37	89.94
297.601	73.94
297.831	88.94
298.062	95.94
298.292	86.94
298.523	81.94
298.753	83.94
298.984	98.94
299.214	94.94
299.445	77.94
299.675	91.94
299.905	94.94
300.136	95.94
300.366	88.94
300.597	88.94
300.827	94.94
301.057	89.94
301.288	83.94
301.518	83.94
301.748	83.94
301.979	93.94
302.209	87.94
302.439	94.94
302.669	93.94
302.9	87.94
303.13	91.94
303.36	99.94
303.59	96.94
303.82	90.94
304.051	102.94
304.281	83.94
304.511	96.94
304.741	79.94
304.971	83.94
305.201	72.94
305.431	100.94
305.661	84.94
305.891	92.94
306.121	90.94
306.352	86.94
306.582	104.94
306.812	114.94
307.042	85.94
307.272	77.94
307.502	93.94
307.731	87.94
307.961	93.94
308.191	90.94
308.421	73.94
308.651	82.94
308.881	94.94
309.111	89.94
309.341	99.94
309.571	92.94
309.8	92.94
310.03	98.94
310.26	94.94
310.49	95.94
310.72	105.94
310.949	97.94
311.179	101.94
311.409	82.94
311.639	100.94
311.868	82.94
312.098	103.94
312.328	99.94
312.557	107.94
312.787	86.94
313.017	93.94
313.246	88.94
313.476	89.94
313.706	87.94
313.935	90.94
314.165	78.94
314.394	92.94
314.624	92.94
314.853	94.94
315.083	89.94
315.312	104.94
315.542	89.94
315.771	82.94
316.001	82.94
316.23	92.94
316.46	83.94
316.689	88.94
316.919	90.94
317.148	98.94
317.377	84.94
317.607	83.94
317.836	94.94
318.065	92.94
318.295	96.94
318.524	85.94
318.753	85.94
318.983	98.94
319.212	99.94
319.441	107.94
319.67	96.94
319.9	89.94
320.129	100.94
320.358	96.94
320.587	90.94
320.816	98.94
321.046	83.94
321.275	94.94
321.504	90.94
321.733	81.94
321.962	89.94
322.191	87.94
322.42	106.94
322.649	105.94
322.878	97.94
323.108	110.94
323.337	118.94
323.566	118.94
323.795	129.94
324.024	179.94
324.253	337.94
324.482	728.94
324.71	1431.94
324.939	1890.94
325.168	710.94
325.397	241.94
325.626	141.94
325.855	119.94
326.084	123.94
326.313	132.94
326.542	150.94
326.77	202.94
326.999	392.94
327.228	827.94
327.457	1433.94
327.686	1191.94
327.914	310.94
328.143	174.94
328.372	155.94
328.6	137.94
328.829	105.94
329.058	111.94
329.287	117.94
329.515	103.94
329.744	109.94
329.972	114.94
330.201	130.94
330.43	143.94
330.658	126.94
330.887	116.94
331.115	108.94
331.344	94.94
331.572	99.94
331.801	87.94
332.03	102.94
332.258	80.94
332.486	92.94
332.715	90.94
332.943	85.94
333.172	92.94
333.4	96.94
333.629	103.94
333.857	107.94
334.085	91.94
334.314	125.94
334.542	171.94
334.771	184.94
334.999	118.94
335.227	103.94
335.455	97.94
335.684	108.94
335.912	105.94
336.14	114.94
336.369	90.94
336.597	96.94
336.825	81.94
337.053	89.94
337.281	91.94
337.51	93.94
337.738	88.94
337.966	85.94
338.194	82.94
338.422	81.94
338.65	89.94
338.878	92.94
339.106	98.94
339.334	95.94
339.562	94.94
339.79	96.94
340.018	88.94
340.246	74.94
340.474	86.94
340.702	81.94
340.93	73.94
341.158	79.94
341.386	90.94
341.614	93.94
341.842	79.94
342.07	100.94
342.298	95.94
342.526	99.94
342.754	99.94
342.981	95.94
343.209	75.94
343.437	94.94
343.665	86.94
343.893	78.94
344.12	87.94
344.348	103.94
344.576	75.94
344.804	98.94
345.031	87.94
345.259	100.94
345.487	80.94
345.714	99.94
345.942	101.94
346.17	97.94
346.397	84.94
346.625	102.94
346.853	92.94
347.08	77.94
347.308	94.94
347.535	89.94
347.763	99.94
347.99	97.94
348.218	88.94
348.445	99.94
348.673	90.94
348.9	98.94
349.128	93.94
349.355	92.94
349.583	92.94
349.81	100.94
350.037	100.94
350.265	105.94
350.492	90.94
350.72	70.94
350.947	101.94
351.174	121.94
351.402	97.94
351.629	106.94
351.856	102.94
352.083	98.94
352.311	110.94
352.538	116.94
352.765	109.94
352.992	109.94
353.22	108.94
353.447	98.94
353.674	102.94
353.901	85.94
354.128	100.94
354.355	84.94
354.583	84.94
354.81	101.94
355.037	97.94
355.264	95.94
355.491	93.94
355.718	87.94
355.945	85.94
356.172	95.94
356.399	85.94
356.626	98.94
356.853	77.94
357.08	96.94
357.307	98.94
357.534	95.94
357.761	101.94
357.988	103.94
358.215	91.94
358.441	94.94
358.668	73.94
358.895	91.94
359.122	95.94
359.349	88.94
359.576	109.94
359.802	93.94
360.029	101.94
360.256	95.94
360.483	79.94
360.709	83.94
360.936	90.94
361.163	98.94
361.39	82.94
361.616	84.94
361.843	90.94
362.07	93.94
362.296	88.94
362.523	86.94
362.749	99.94
362.976	89.94
363.203	88.94
363.429	91.94
363.656	93.94
363.882	90.94
364.109	91.94
364.335	89.94
364.562	93.94
364.788	84.94
365.015	79.94
365.241	98.94
365.468	81.94
365.694	109.94
365.92	86.94
366.147	83.94
366.373	97.94
366.599	82.94
366.826	104.94
367.052	90.94
367.278	88.94
367.505	84.94
367.731	100.94
367.957	93.94
368.184	91.94
368.41	90.94
368.636	101.94
368.862	113.94
369.089	107.94
369.315	102.94
369.541	91.94
369.767	76.94
369.993	87.94
370.219	88.94
370.445	85.94
370.672	90.94
370.898	82.94
371.124	88.94
371.35	82.94
371.576	90.94
371.802	90.94
372.028	92.94
372.254	73.94
372.48	95.94
372.706	90.94
372.932	79.94
373.158	73.94
373.384	85.94
373.61	84.94
373.835	85.94
374.061	87.94
374.287	90.94
374.513	82.94
374.739	83.94
374.965	84.94
375.191	80.94
375.416	76.94
375.642	86.94
375.868	92.94
376.094	88.94
376.319	93.94
376.545	96.94
376.771	83.94
376.997	99.94
377.222	81.94
377.448	83.94
377.674	94.94
377.899	96.94
378.125	97.94
378.35	80.94
378.576	77.94
378.802	93.94
379.027	84.94
379.253	92.94
379.478	95.94
379.704	100.94
379.929	77.94
380.155	80.94
380.38	89.94
380.606	81.94
380.831	100.94
381.057	99.94
381.282	82.94
381.507	87.94
381.733	85.94
381.958	89.94
382.184	90.94
382.409	96.94
382.634	99.94
382.86	94.94
383.085	101.94
383.31	96.94
383.535	99.94
383.761	103.94
383.986	93.94
384.211	85.94
384.436	108.94
384.662	101.94
384.887	93.94
385.112	88.94
385.337	84.94
385.562	112.94
385.787	110.94
386.013	106.94
386.238	98.94
386.463	98.94
386.688	97.94
386.913	99.94
387.138	107.94
387.363	90.94
387.588	93.94
387.813	94.94
388.038	89.94
388.263	99.94
388.488	105.94
388.713	93.94
388.938	83.94
389.163	98.94
389.387	92.94
389.612	76.94
389.837	89.94
390.062	97.94
390.287	86.94
390.512	91.94
390.736	90.94
390.961	97.94
391.186	97.94
391.411	100.94
391.636	94.94
391.86	95.94
392.085	83.94
392.31	78.94
392.534	84.94
392.759	101.94
392.984	84.94
393.208	92.94
393.433	86.94
393.658	85.94
393.882	88.94
394.107	89.94
394.331	79.94
394.556	83.94
394.78	94.94
395.005	73.94
395.229	73.94
395.454	79.94
395.678	72.94
395.903	86.94
396.127	108.94
396.352	97.94
396.576	87.94
396.801	76.94
397.025	85.94
397.249	76.94
397.474	85.94
397.698	85.94
397.922	72.94
398.147	79.94
398.371	83.94
398.595	89.94
398.82	89.94
399.044	90.94
399.268	76.94
399.492	78.94
399.717	76.94
399.941	80.94
400.165	98.94
400.389	102.94
400.613	82.94
400.837	88.94
401.062	86.94
401.286	80.94
401.51	94.94
401.734	84.94
401.958	84.94
402.182	126.94
402.406	148.94
402.63	123.94
402.854	78.94
403.078	74.94
403.302	84.94
403.526	93.94
403.75	98.94
403.974	90.94
404.198	92.94
404.422	97.94
404.645	76.94
404.869	90.94
405.093	79.94
405.317	107.94
405.541	95.94
405.765	96.94
405.988	101.94
406.212	155.94
406.436	197.94
406.66	143.94
406.883	88.94
407.107	98.94
407.331	88.94
407.555	93.94
407.778	86.94
408.002	87.94
408.226	95.94
408.449	88.94
408.673	80.94
408.896	92.94
409.12	100.94
409.344	72.94
409.567	74.94
409.791	94.94
410.014	97.94
410.238	92.94
410.461	91.94
410.685	102.94
410.908	89.94
411.132	106.94
411.355	97.94
411.578	92.94
411.802	86.94
412.025	92.94
412.249	93.94
412.472	93.94
412.695	105.94
412.919	73.94
413.142	95.94
413.365	92.94
413.589	87.94
413.812	70.94
414.035	90.94
414.258	91.94
414.482	94.94
414.705	81.94
414.928	85.94
415.151	96.94
415.374	86.94
415.597	100.94
415.821	76.94
416.044	92.94
416.267	86.94
416.49	94.94
416.713	106.94
416.936	89.94
417.159	86.94
417.382	82.94
417.605	93.94
417.828	87.94
418.051	103.94
418.274	86.94
418.497	82.94
418.72	91.94
418.943	84.94
419.166	86.94
419.389	67.94
419.611	89.94
419.834	90.94
420.057	85.94
420.28	80.94
420.503	86.94
420.726	87.94
420.948	88.94
421.171	82.94
421.394	86.94
421.617	83.94
421.839	78.94
422.062	100.94
422.285	86.94
422.507	106.94
422.73	107.94
422.953	86.94
423.175	94.94
423.398	85.94
423.621	90.94
423.843	90.94
424.066	91.94
424.288	87.94
424.511	85.94
424.733	79.94
424.956	108.94
425.178	84.94
425.401	84.94
425.623	101.94
425.846	89.94
426.068	75.94
426.291	86.94
426.513	98.94
426.735	86.94
426.958	93.94
427.18	92.94
427.402	114.94
427.625	145.94
427.847	121.94
428.069	112.94
428.292	94.94
428.514	89.94
428.736	82.94
428.958	92.94
429.181	100.94
429.403	75.94
429.625	88.94
429.847	94.94
430.069	106.94
430.292	109.94
430.514	93.94
430.736	70.94
430.958	84.94
431.18	77.94
431.402	96.94
431.624	84.94
431.846	75.94
432.068	85.94
432.29	90.94
432.512	85.94
432.734	93.94
432.956	89.94
433.178	85.94
433.4	91.94
433.622	79.94
433.844	79.94
434.066	71.94
434.287	89.94
434.509	86.94
434.731	89.94
434.953	88.94
435.175	88.94
435.397	90.94
435.618	90.94
435.84	85.94
436.062	118.94
436.284	98.94
436.505	85.94
436.727	91.94
436.949	101.94
437.17	94.94
437.392	80.94
437.614	87.94
437.835	100.94
438.057	105.94
438.278	117.94
438.5	106.94
438.721	99.94
438.943	103.94
439.165	93.94
439.386	75.94
439.608	86.94
439.829	102.94
440.05	115.94
440.272	126.94
440.493	94.94
440.715	92.94
440.936	85.94
441.158	82.94
441.379	73.94
441.6	89.94
441.822	83.94
442.043	89.94
442.264	94.94
442.486	100.94
442.707	92.94
442.928	95.94
443.149	106.94
443.371	118.94
443.592	90.94
443.813	109.94
444.034	111.94
444.255	107.94
444.476	93.94
444.698	94.94
444.919	87.94
445.14	117.94
445.361	123.94
445.582	108.94
445.803	125.94
446.024	111.94
446.245	126.94
446.466	92.94
446.687	74.94
446.908	82.94
447.129	77.94
447.35	83.94
447.571	93.94
447.792	82.94
448.013	93.94
448.234	95.94
448.455	86.94
448.675	92.94
448.896	106.94
449.117	95.94
449.338	93.94
449.559	98.94
449.779	115.94
450	87.94
450.221	93.94
450.442	83.94
450.662	99.94
450.883	106.94
451.104	99.94
451.324	89.94
451.545	93.94
451.766	94.94
451.986	71.94
452.207	94.94
452.428	82.94
452.648	86.94
452.869	92.94
453.089	105.94
453.31	95.94
453.53	91.94
453.751	100.94
453.971	94.94
454.192	107.94
454.412	95.94
454.633	73.94
454.853	70.94
455.073	87.94
455.294	93.94
455.514	91.94
455.734	86.94
455.955	80.94
456.175	84.94
456.395	88.94
456.616	93.94
456.836	93.94
457.056	87.94
457.276	80.94
457.497	90.94
457.717	69.94
457.937	85.94
458.157	78.94
458.377	101.94
458.598	98.94
458.818	134.94
459.038	147.94
459.258	101.94
459.478	83.94
459.698	92.94
459.918	87.94
460.138	87.94
460.358	77.94
460.578	103.94
460.798	90.94
461.018	97.94
461.238	81.94
461.458	86.94
461.678	87.94
461.898	93.94
462.118	75.94
462.338	79.94
462.558	87.94
462.777	94.94
462.997	84.94
463.217	88.94
463.437	88.94
463.657	72.94
463.876	90.94
464.096	73.94
464.316	71.94
464.536	89.94
464.755	95.94
464.975	94.94
465.195	139.94
465.414	141.94
465.634	90.94
465.854	89.94
466.073	94.94
466.293	78.94
466.512	75.94
466.732	86.94
466.951	89.94
467.171	97.94
467.391	90.94
467.61	84.94
467.829	93.94
468.049	98.94
468.268	118.94
468.488	94.94
468.707	82.94
468.927	85.94
469.146	92.94
469.365	87.94
469.585	89.94
469.804	90.94
470.023	90.94
470.243	104.94
470.462	101.94
470.681	108.94
470.901	86.94
471.12	95.94
471.339	86.94
471.558	64.94
471.777	81.94
471.997	105.94
472.216	142.94
472.435	199.94
472.654	94.94
472.873	92.94
473.092	100.94
473.311	74.94
473.53	86.94
473.749	93.94
473.968	79.94
474.187	87.94
474.406	91.94
474.625	88.94
474.844	86.94
475.063	95.94
475.282	100.94
475.501	78.94
475.72	92.94
475.939	77.94
476.158	85.94
476.377	91.94
476.596	77.94
476.814	95.94
477.033	89.94
477.252	89.94
477.471	85.94
477.69	101.94
477.908	83.94
478.127	92.94
478.346	89.94
478.564	75.94
478.783	77.94
479.002	90.94
479.22	85.94
479.439	107.94
479.658	97.94
479.876	97.94
480.095	86.94
480.313	87.94
480.532	91.94
480.751	87.94
480.969	154.94
481.188	305.94
481.406	201.94
481.624	102.94
481.843	89.94
482.061	85.94
482.28	86.94
482.498	79.94
482.717	73.94
482.935	81.94
483.153	92.94
483.372	93.94
483.59	92.94
483.808	77.94
484.027	86.94
484.245	82.94
484.463	81.94
484.681	101.94
484.9	86.94
485.118	86.94
485.336	83.94
485.554	99.94
485.772	99.94
485.99	90.94
486.209	83.94
486.427	87.94
486.645	100.94
486.863	113.94
487.081	94.94
487.299	91.94
487.517	97.94
487.735	91.94
487.953	86.94
488.171	90.94
488.389	91.94
488.607	92.94
488.825	90.94
489.043	93.94
489.261	88.94
489.479	93.94
489.696	85.94
489.914	94.94
490.132	96.94
490.35	78.94
490.568	80.94
490.786	89.94
491.003	82.94
491.221	70.94
491.439	77.94
491.657	94.94
491.874	90.94
492.092	106.94
492.31	88.94
492.527	78.94
492.745	81.94
492.963	83.94
493.18	79.94
493.398	94.94
493.615	88.94
493.833	95.94
494.05	86.94
494.268	76.94
494.485	95.94
494.703	84.94
494.92	77.94
495.138	85.94
495.355	96.94
495.573	101.94
495.79	94.94
496.008	79.94
496.225	95.94
496.442	82.94
496.66	96.94
496.877	86.94
497.094	76.94
497.312	76.94
497.529	94.94
497.746	78.94
497.963	91.94
498.181	93.94
498.398	85.94
498.615	99.94
498.832	94.94
499.049	85.94
499.267	88.94
499.484	79.94
499.701	90.94
499.918	78.94
500.135	76.94
500.352	88.94
500.569	83.94
500.786	95.94
501.003	85.94
501.22	89.94
501.437	93.94
501.654	86.94
501.871	87.94
502.088	98.94
502.305	92.94
502.522	64.94
502.739	91.94
502.956	93.94
503.172	92.94
503.389	104.94
503.606	99.94
503.823	86.94
504.04	88.94
504.256	85.94
504.473	90.94
504.69	98.94
504.907	76.94
505.123	101.94
505.34	87.94
505.557	92.94
505.773	74.94
505.99	97.94
506.207	77.94
506.423	75.94
506.64	89.94
506.856	92.94
507.073	76.94
507.289	77.94
507.506	86.94
507.722	97.94
507.939	94.94
508.155	95.94
508.372	75.94
508.588	94.94
508.805	85.94
509.021	94.94
509.238	90.94
509.454	95.94
509.67	93.94
509.887	100.94
510.103	131.94
510.319	202.94
510.536	641.94
510.752	2106.94
510.968	627.94
511.184	167.94
511.401	106.94
511.617	85.94
511.833	87.94
512.049	89.94
512.265	86.94
512.481	83.94
512.698	85.94
512.914	97.94
513.13	89.94
513.346	101.94
513.562	104.94
513.778	99.94
513.994	89.94
514.21	98.94
514.426	111.94
514.642	118.94
514.858	110.94
515.074	138.94
515.29	365.94
515.506	1195.94
515.721	479.94
515.937	129.94
516.153	113.94
516.369	83.94
516.585	91.94
516.801	99.94
517.016	85.94
