Data from Circ_2012_H10_HRD10591_00036.txt Node
Date: Wed Jan 03 10:05:57 EST 2024
User: Yrep
Spectrometer: HR+D1059
Trigger mode: 1
Integration Time (sec): 1.000000E-1
Scans to average: 1
Electric dark correction enabled: true
Nonlinearity correction enabled: false
Boxcar width: 0
XAxis mode: Wavelengths
Number of Pixels in Spectrum: 2048
>>>>>Begin Spectral Data<<<<<
223.165	-29.88
223.4	-29.88
223.635	-29.88
223.869	-20.88
224.104	-19.88
224.338	-3.88
224.573	-16.88
224.808	-15.88
225.042	-20.88
225.277	-12.88
225.511	-11.88
225.746	8.12
225.98	16.12
226.215	15.12
226.449	9.12
226.683	42.12
226.918	32.12
227.152	30.12
227.387	36.12
227.621	40.12
227.856	57.12
228.09	45.12
228.324	55.12
228.559	49.12
228.793	159.12
229.027	445.12
229.262	504.12
229.496	593.12
229.73	791.12
229.964	808.12
230.199	541.12
230.433	482.12
230.667	457.12
230.901	447.12
231.136	450.12
231.37	431.12
231.604	449.12
231.838	467.12
232.072	460.12
232.306	452.12
232.541	465.12
232.775	453.12
233.009	474.12
233.243	481.12
233.477	485.12
233.711	478.12
233.945	483.12
234.179	513.12
234.413	479.12
234.647	503.12
234.881	492.12
235.115	491.12
235.349	544.12
235.583	543.12
235.817	566.12
236.051	638.12
236.285	617.12
236.519	590.12
236.753	685.12
236.987	901.12
237.221	1377.12
237.455	1488.12
237.689	892.12
237.922	714.12
238.156	693.12
238.39	691.12
238.624	618.12
238.858	648.12
239.091	648.12
239.325	636.12
239.559	676.12
239.793	702.12
240.027	779.12
240.26	896.12
240.494	961.12
240.728	969.12
240.961	872.12
241.195	812.12
241.429	777.12
241.662	755.12
241.896	765.12
242.13	775.12
242.363	790.12
242.597	778.12
242.83	815.12
243.064	849.12
243.298	806.12
243.531	815.12
243.765	837.12
243.998	858.12
244.232	829.12
244.465	856.12
244.699	923.12
244.932	872.12
245.166	904.12
245.399	904.12
245.633	893.12
245.866	884.12
246.099	912.12
246.333	952.12
246.566	943.12
246.8	987.12
247.033	1018.12
247.266	1024.12
247.5	1095.12
247.733	1139.12
247.966	1136.12
248.2	1109.12
248.433	1142.12
248.666	1197.12
248.899	1311.12
249.133	1441.12
249.366	1384.12
249.599	1313.12
249.832	1230.12
250.066	1271.12
250.299	1345.12
250.532	1471.12
250.765	1591.12
250.998	1748.12
251.231	1619.12
251.465	1444.12
251.698	1395.12
251.931	1380.12
252.164	1339.12
252.397	1400.12
252.63	1405.12
252.863	1512.12
253.096	1632.12
253.329	1725.12
253.562	1610.12
253.795	1531.12
254.028	1508.12
254.261	1578.12
254.494	1800.12
254.727	2133.12
254.96	2207.12
255.193	1894.12
255.426	1768.12
255.659	1700.12
255.892	1787.12
256.124	1909.12
256.357	1834.12
256.59	1705.12
256.823	1574.12
257.056	1533.12
257.289	1539.12
257.521	1547.12
257.754	1509.12
257.987	1483.12
258.22	1521.12
258.452	1491.12
258.685	1548.12
258.918	1581.12
259.151	1606.12
259.383	1695.12
259.616	1673.12
259.849	1765.12
260.081	1909.12
260.314	2060.12
260.547	1998.12
260.779	1831.12
261.012	1710.12
261.244	1732.12
261.477	1663.12
261.71	1695.12
261.942	1733.12
262.175	1788.12
262.407	1687.12
262.64	1617.12
262.872	1645.12
263.105	1644.12
263.337	1678.12
263.57	1655.12
263.802	1653.12
264.035	1670.12
264.267	1649.12
264.499	1659.12
264.732	1671.12
264.964	1648.12
265.197	1634.12
265.429	1669.12
265.661	1701.12
265.894	1720.12
266.126	1730.12
266.358	1774.12
266.591	1765.12
266.823	1817.12
267.055	1861.12
267.287	1864.12
267.52	1815.12
267.752	1824.12
267.984	1837.12
268.216	1873.12
268.448	1948.12
268.681	1986.12
268.913	2119.12
269.145	2261.12
269.377	2364.12
269.609	2229.12
269.841	2201.12
270.073	2329.12
270.306	2589.12
270.538	2779.12
270.77	2610.12
271.002	2438.12
271.234	2380.12
271.466	2572.12
271.698	2689.12
271.93	2725.12
272.162	2721.12
272.394	2652.12
272.626	2486.12
272.858	2345.12
273.09	2272.12
273.322	2231.12
273.553	2245.12
273.785	2217.12
274.017	2192.12
274.249	2232.12
274.481	2254.12
274.713	2247.12
274.945	2284.12
275.176	2240.12
275.408	2308.12
275.64	2283.12
275.872	2231.12
276.104	2309.12
276.335	2353.12
276.567	2406.12
276.799	2584.12
277.031	2778.12
277.262	2889.12
277.494	2780.12
277.726	2589.12
277.957	2439.12
278.189	2432.12
278.421	2436.12
278.652	2399.12
278.884	2376.12
279.115	2347.12
279.347	2339.12
279.579	2348.12
279.81	2390.12
280.042	2385.12
280.273	2453.12
280.505	2430.12
280.736	2362.12
280.968	2380.12
281.199	2450.12
281.431	2419.12
281.662	2460.12
281.894	2496.12
282.125	2556.12
282.356	2699.12
282.588	2880.12
282.819	2654.12
283.051	2526.12
283.282	2497.12
283.513	2506.12
283.745	2574.12
283.976	2661.12
284.207	2604.12
284.439	2621.12
284.67	2580.12
284.901	2608.12
285.132	2603.12
285.364	2625.12
285.595	2616.12
285.826	2584.12
286.057	2659.12
286.288	2623.12
286.52	2656.12
286.751	2671.12
286.982	2679.12
287.213	2710.12
287.444	2715.12
287.675	2788.12
287.906	2859.12
288.138	2916.12
288.369	2835.12
288.6	2869.12
288.831	2861.12
289.062	2838.12
289.293	2837.12
289.524	2820.12
289.755	2784.12
289.986	2770.12
290.217	2763.12
290.448	2783.12
290.679	2804.12
290.91	2749.12
291.141	2780.12
291.371	2821.12
291.602	2818.12
291.833	2773.12
292.064	2809.12
292.295	2798.12
292.526	2839.12
292.757	2813.12
292.987	2820.12
293.218	2811.12
293.449	2868.12
293.68	2852.12
293.91	2851.12
294.141	2793.12
294.372	2761.12
294.603	2835.12
294.833	2856.12
295.064	2871.12
295.295	2840.12
295.525	2867.12
295.756	2911.12
295.987	2999.12
296.217	3268.12
296.448	3097.12
296.679	2979.12
296.909	2980.12
297.14	3021.12
297.37	3037.12
297.601	3020.12
297.831	3041.12
298.062	2996.12
298.292	3025.12
298.523	3119.12
298.753	3120.12
298.984	3087.12
299.214	3058.12
299.445	3103.12
299.675	3067.12
299.905	3130.12
300.136	3162.12
300.366	3121.12
300.597	3170.12
300.827	3229.12
301.057	3269.12
301.288	3393.12
301.518	3286.12
301.748	3255.12
301.979	3343.12
302.209	3400.12
302.439	3375.12
302.669	3353.12
302.9	3291.12
303.13	3291.12
303.36	3351.12
303.59	3359.12
303.82	3435.12
304.051	3339.12
304.281	3327.12
304.511	3267.12
304.741	3322.12
304.971	3289.12
305.201	3267.12
305.431	3256.12
305.661	3283.12
305.891	3246.12
306.121	3275.12
306.352	3392.12
306.582	3269.12
306.812	3203.12
307.042	3248.12
307.272	3255.12
307.502	3297.12
307.731	3247.12
307.961	3280.12
308.191	3294.12
308.421	3268.12
308.651	3281.12
308.881	3318.12
309.111	3325.12
309.341	3347.12
309.571	3439.12
309.8	3470.12
310.03	3523.12
310.26	3601.12
310.49	3564.12
310.72	3656.12
310.949	3880.12
311.179	3774.12
311.409	3655.12
311.639	3618.12
311.868	3647.12
312.098	3695.12
312.328	3776.12
312.557	3962.12
312.787	3986.12
313.017	3905.12
313.246	3779.12
313.476	3716.12
313.706	3819.12
313.935	3866.12
314.165	3962.12
314.394	4045.12
314.624	3972.12
314.853	3796.12
315.083	3805.12
315.312	3718.12
315.542	3737.12
315.771	3636.12
316.001	3688.12
316.23	3615.12
316.46	3672.12
316.689	3694.12
316.919	3722.12
317.148	3784.12
317.377	3805.12
317.607	3735.12
317.836	3740.12
318.065	3639.12
318.295	3685.12
318.524	3621.12
318.753	3622.12
318.983	3666.12
319.212	3663.12
319.441	3779.12
319.67	3843.12
319.9	3767.12
320.129	3709.12
320.358	3676.12
320.587	3709.12
320.816	3790.12
321.046	3799.12
321.275	3830.12
321.504	3829.12
321.733	3936.12
321.962	3938.12
322.191	4023.12
322.42	4195.12
322.649	4211.12
322.878	4304.12
323.108	4411.12
323.337	4578.12
323.566	4862.12
323.795	5111.12
324.024	5693.12
324.253	7659.12
324.482	11458.12
324.71	15543.12
324.939	15601.12
325.168	13518.12
325.397	6819.12
325.626	5375.12
325.855	5000.12
326.084	4816.12
326.313	4837.12
326.542	5003.12
326.77	5703.12
326.999	7369.12
327.228	10645.12
327.457	14748.12
327.686	14153.12
327.914	7664.12
328.143	6131.12
328.372	5813.12
328.6	5451.12
328.829	5333.12
329.058	5521.12
329.287	5484.12
329.515	5145.12
329.744	5041.12
329.972	5079.12
330.201	5470.12
330.43	5830.12
330.658	5893.12
330.887	6064.12
331.115	5560.12
331.344	5124.12
331.572	5036.12
331.801	5099.12
332.03	5119.12
332.258	5011.12
332.486	5009.12
332.715	5053.12
332.943	5253.12
333.172	5374.12
333.4	5557.12
333.629	5649.12
333.857	5887.12
334.085	5895.12
334.314	6124.12
334.542	6416.12
334.771	6344.12
334.999	5671.12
335.227	5403.12
335.455	5235.12
335.684	5085.12
335.912	5070.12
336.14	5011.12
336.369	4940.12
336.597	5019.12
336.825	4963.12
337.053	4917.12
337.281	4749.12
337.51	4790.12
337.738	4723.12
337.966	4754.12
338.194	4711.12
338.422	4611.12
338.65	4599.12
338.878	4586.12
339.106	4535.12
339.334	4501.12
339.562	4439.12
339.79	4370.12
340.018	4440.12
340.246	4393.12
340.474	4423.12
340.702	4432.12
340.93	4428.12
341.158	4396.12
341.386	4379.12
341.614	4425.12
341.842	4359.12
342.07	4334.12
342.298	4299.12
342.526	4358.12
342.754	4266.12
342.981	4374.12
343.209	4505.12
343.437	4627.12
343.665	4920.12
343.893	5149.12
344.12	5177.12
344.348	4949.12
344.576	4840.12
344.804	4603.12
345.031	4655.12
345.259	4586.12
345.487	4415.12
345.714	4382.12
345.942	4284.12
346.17	4276.12
346.397	4197.12
346.625	4196.12
346.853	4149.12
347.08	4205.12
347.308	4252.12
347.535	4287.12
347.763	4323.12
347.99	4229.12
348.218	4316.12
348.445	4356.12
348.673	4251.12
348.9	4144.12
349.128	4162.12
349.355	4036.12
349.583	4046.12
349.81	4070.12
350.037	4039.12
350.265	3983.12
350.492	4055.12
350.72	4064.12
350.947	4174.12
351.174	4215.12
351.402	4243.12
351.629	4150.12
351.856	4168.12
352.083	4265.12
352.311	4293.12
352.538	4257.12
352.765	4259.12
352.992	4126.12
353.22	4110.12
353.447	4134.12
353.674	4050.12
353.901	3959.12
354.128	3961.12
354.355	4023.12
354.583	3998.12
354.81	3985.12
355.037	3916.12
355.264	3940.12
355.491	3957.12
355.718	3976.12
355.945	3958.12
356.172	3995.12
356.399	3972.12
356.626	3957.12
356.853	3996.12
357.08	3884.12
357.307	3935.12
357.534	3977.12
357.761	3952.12
357.988	3965.12
358.215	4008.12
358.441	3986.12
358.668	3965.12
358.895	4040.12
359.122	4099.12
359.349	4139.12
359.576	4303.12
359.802	4535.12
360.029	4692.12
360.256	4611.12
360.483	4436.12
360.709	4268.12
360.936	4213.12
361.163	4240.12
361.39	4249.12
361.616	4189.12
361.843	4145.12
362.07	4235.12
362.296	4238.12
362.523	4245.12
362.749	4164.12
362.976	4097.12
363.203	4071.12
363.429	4068.12
363.656	4125.12
363.882	4092.12
364.109	4052.12
364.335	4013.12
364.562	4092.12
364.788	4083.12
365.015	4057.12
365.241	4080.12
365.468	4112.12
365.694	4148.12
365.92	4115.12
366.147	3993.12
366.373	4027.12
366.599	4049.12
366.826	4014.12
367.052	4062.12
367.278	4085.12
367.505	4070.12
367.731	4093.12
367.957	4054.12
368.184	4159.12
368.41	4167.12
368.636	4283.12
368.862	4285.12
369.089	4148.12
369.315	4183.12
369.541	4115.12
369.767	4151.12
369.993	4134.12
370.219	4223.12
370.445	4151.12
370.672	4254.12
370.898	4252.12
371.124	4259.12
371.35	4267.12
371.576	4303.12
371.802	4290.12
372.028	4249.12
372.254	4346.12
372.48	4341.12
372.706	4427.12
372.932	4420.12
373.158	4419.12
373.384	4316.12
373.61	4337.12
373.835	4329.12
374.061	4376.12
374.287	4441.12
374.513	4458.12
374.739	4560.12
374.965	4654.12
375.191	4762.12
375.416	4664.12
375.642	4509.12
375.868	4505.12
376.094	4448.12
376.319	4369.12
376.545	4310.12
376.771	4272.12
376.997	4348.12
377.222	4314.12
377.448	4307.12
377.674	4258.12
377.899	4218.12
378.125	4203.12
378.35	4251.12
378.576	4206.12
378.802	4237.12
379.027	4267.12
379.253	4329.12
379.478	4190.12
379.704	4249.12
379.929	4272.12
380.155	4258.12
380.38	4293.12
380.606	4332.12
380.831	4248.12
381.057	4277.12
381.282	4312.12
381.507	4338.12
381.733	4379.12
381.958	4398.12
382.184	4452.12
382.409	4457.12
382.634	4518.12
382.86	4521.12
383.085	4635.12
383.31	4739.12
383.535	4813.12
383.761	4769.12
383.986	4852.12
384.211	4911.12
384.436	5045.12
384.662	5056.12
384.887	5129.12
385.112	5115.12
385.337	5204.12
385.562	5172.12
385.787	5193.12
386.013	5288.12
386.238	5327.12
386.463	5295.12
386.688	5243.12
386.913	5145.12
387.138	5167.12
387.363	5135.12
387.588	5109.12
387.813	5208.12
388.038	5096.12
388.263	5136.12
388.488	5173.12
388.713	5111.12
388.938	5115.12
389.163	5094.12
389.387	5075.12
389.612	5069.12
389.837	5054.12
390.062	5038.12
390.287	5029.12
390.512	5090.12
390.736	5102.12
390.961	5264.12
391.186	5328.12
391.411	5471.12
391.636	5594.12
391.86	5676.12
392.085	5783.12
392.31	5673.12
392.534	5541.12
392.759	5518.12
392.984	5363.12
393.208	5261.12
393.433	5329.12
393.658	5388.12
393.882	5373.12
394.107	5376.12
394.331	5438.12
394.556	5415.12
394.78	5418.12
395.005	5462.12
395.229	5542.12
395.454	5704.12
395.678	5726.12
395.903	5767.12
396.127	5833.12
396.352	5651.12
396.576	5415.12
396.801	5456.12
397.025	5530.12
397.249	5609.12
397.474	5748.12
397.698	5804.12
397.922	5955.12
398.147	6027.12
398.371	6106.12
398.595	6249.12
398.82	6495.12
399.044	7107.12
399.268	7881.12
399.492	9028.12
399.717	9543.12
399.941	9325.12
400.165	8633.12
400.389	7987.12
400.613	7192.12
400.837	6737.12
401.062	6703.12
401.286	6517.12
401.51	6449.12
401.734	6405.12
401.958	6576.12
402.182	6671.12
402.406	6792.12
402.63	6869.12
402.854	7011.12
403.078	6983.12
403.302	7203.12
403.526	7361.12
403.75	7275.12
403.974	7494.12
404.198	7367.12
404.422	7547.12
404.645	7494.12
404.869	7463.12
405.093	7676.12
405.317	7971.12
405.541	7907.12
405.765	7446.12
405.988	7289.12
406.212	7398.12
406.436	7662.12
406.66	7804.12
406.883	7715.12
407.107	8358.12
407.331	8890.12
407.555	9323.12
407.778	9009.12
408.002	8283.12
408.226	7782.12
408.449	7751.12
408.673	7600.12
408.896	7762.12
409.12	7875.12
409.344	7547.12
409.567	7109.12
409.791	7063.12
410.014	7013.12
410.238	6912.12
410.461	7002.12
410.685	7070.12
410.908	7117.12
411.132	7317.12
411.355	7388.12
411.578	7028.12
411.802	6741.12
412.025	6876.12
412.249	7048.12
412.472	7240.12
412.695	7399.12
412.919	6970.12
413.142	6687.12
413.365	6526.12
413.589	6526.12
413.812	6371.12
414.035	6250.12
414.258	6364.12
414.482	6373.12
414.705	6454.12
414.928	6338.12
415.151	6431.12
415.374	6427.12
415.597	6271.12
415.821	6208.12
416.044	6266.12
416.267	6215.12
416.49	6224.12
416.713	6161.12
416.936	6225.12
417.159	6270.12
417.382	6371.12
417.605	6327.12
417.828	6519.12
418.051	6680.12
418.274	6492.12
418.497	6438.12
418.72	6535.12
418.943	6508.12
419.166	6836.12
419.389	7240.12
419.611	7114.12
419.834	6937.12
420.057	6825.12
420.28	6787.12
420.503	6599.12
420.726	6537.12
420.948	6669.12
421.171	7170.12
421.394	7032.12
421.617	6545.12
421.839	6512.12
422.062	6659.12
422.285	6849.12
422.507	7426.12
422.73	8007.12
422.953	7334.12
423.175	7022.12
423.398	6934.12
423.621	6960.12
423.843	7189.12
424.066	7159.12
424.288	7142.12
424.511	7287.12
424.733	7817.12
424.956	8224.12
425.178	7751.12
425.401	7833.12
425.623	7732.12
425.846	6754.12
426.068	6576.12
426.291	6591.12
426.513	6489.12
426.735	6767.12
426.958	7110.12
427.18	7965.12
427.402	9093.12
427.625	9239.12
427.847	7855.12
428.069	7232.12
428.292	6557.12
428.514	6126.12
428.736	6028.12
428.958	6079.12
429.181	5753.12
429.403	5783.12
429.625	6053.12
429.847	6291.12
430.069	6846.12
430.292	6468.12
430.514	5825.12
430.736	5792.12
430.958	5707.12
431.18	5561.12
431.402	5597.12
431.624	5583.12
431.846	5728.12
432.068	5709.12
432.29	5831.12
432.512	5720.12
432.734	5832.12
432.956	5691.12
433.178	5829.12
433.4	5851.12
433.622	5710.12
433.844	5754.12
434.066	5833.12
434.287	5865.12
434.509	6045.12
434.731	6301.12
434.953	6418.12
435.175	6648.12
435.397	6754.12
435.618	6539.12
435.84	7047.12
436.062	7857.12
436.284	7795.12
436.505	6573.12
436.727	6254.12
436.949	5995.12
437.17	5828.12
437.392	5789.12
437.614	5957.12
437.835	6357.12
438.057	7402.12
438.278	8067.12
438.5	7888.12
438.721	8864.12
438.943	7597.12
439.165	6422.12
439.386	6262.12
439.608	6261.12
439.829	6374.12
440.05	6757.12
440.272	7142.12
440.493	6496.12
440.715	6141.12
440.936	6092.12
441.158	6138.12
441.379	6288.12
441.6	6567.12
441.822	6909.12
442.043	7253.12
442.264	8052.12
442.486	7813.12
442.707	6959.12
442.928	6735.12
443.149	6948.12
443.371	7278.12
443.592	7742.12
443.813	8715.12
444.034	8711.12
444.255	7586.12
444.476	7356.12
444.698	7513.12
444.919	7609.12
445.14	7450.12
445.361	7305.12
445.582	7463.12
445.803	8087.12
446.024	8789.12
446.245	8334.12
446.466	7363.12
446.687	6515.12
446.908	6149.12
447.129	5783.12
447.35	5640.12
447.571	5618.12
447.792	5543.12
448.013	5659.12
448.234	5874.12
448.455	6585.12
448.675	7784.12
448.896	8243.12
449.117	6837.12
449.338	7046.12
449.559	8227.12
449.779	8523.12
450	6462.12
450.221	5781.12
450.442	5579.12
450.662	5425.12
450.883	5571.12
451.104	5741.12
451.324	5479.12
451.545	5376.12
451.766	5220.12
451.986	5128.12
452.207	5096.12
452.428	5042.12
452.648	5101.12
452.869	5122.12
453.089	5233.12
453.31	5341.12
453.53	5036.12
453.751	5091.12
453.971	5075.12
454.192	5253.12
454.412	5065.12
454.633	4900.12
454.853	4848.12
455.073	4921.12
455.294	5285.12
455.514	5902.12
455.734	5411.12
455.955	4784.12
456.175	4702.12
456.395	4657.12
456.616	4691.12
456.836	4629.12
457.056	4584.12
457.276	4560.12
457.497	4812.12
457.717	4736.12
457.937	4792.12
458.157	4826.12
458.377	4954.12
458.598	5302.12
458.818	5961.12
459.038	6882.12
459.258	6698.12
459.478	5957.12
459.698	5839.12
459.918	5845.12
460.138	6041.12
460.358	6265.12
460.578	6290.12
460.798	6352.12
461.018	6362.12
461.238	6314.12
461.458	6190.12
461.678	6145.12
461.898	6309.12
462.118	6304.12
462.338	6709.12
462.558	6833.12
462.777	7174.12
462.997	7752.12
463.217	8106.12
463.437	7937.12
463.657	7310.12
463.876	7123.12
464.096	7179.12
464.316	7183.12
464.536	7228.12
464.755	6934.12
464.975	6888.12
465.195	7128.12
465.414	7227.12
465.634	6277.12
465.854	5886.12
466.073	5709.12
466.293	5463.12
466.512	5368.12
466.732	5222.12
466.951	5278.12
467.171	5235.12
467.391	5319.12
467.61	5333.12
467.829	5342.12
468.049	5290.12
468.268	5235.12
468.488	5066.12
468.707	4987.12
468.927	5020.12
469.146	5001.12
469.365	5006.12
469.585	5064.12
469.804	5286.12
470.023	5409.12
470.243	5384.12
470.462	5516.12
470.681	5613.12
470.901	5526.12
471.12	5352.12
471.339	5318.12
471.558	5342.12
471.777	5191.12
471.997	5172.12
472.216	5211.12
472.435	5554.12
472.654	5302.12
472.873	5073.12
473.092	5007.12
473.311	5031.12
473.53	5059.12
473.749	5220.12
473.968	5709.12
474.187	6731.12
474.406	6335.12
474.625	5347.12
474.844	5053.12
475.063	4975.12
475.282	5033.12
475.501	5008.12
475.72	5089.12
475.939	5120.12
476.158	5175.12
476.377	5231.12
476.596	5156.12
476.814	5368.12
477.033	5381.12
477.252	5462.12
477.471	5527.12
477.69	5601.12
477.908	5832.12
478.127	5850.12
478.346	5902.12
478.564	5996.12
478.783	6185.12
479.002	6286.12
479.22	6351.12
479.439	6411.12
479.658	6555.12
479.876	6551.12
480.095	6911.12
480.313	7221.12
480.532	7131.12
480.751	6983.12
480.969	7027.12
481.188	7585.12
481.406	7445.12
481.624	6588.12
481.843	6287.12
482.061	6182.12
482.28	6146.12
482.498	6049.12
482.717	5923.12
482.935	5953.12
483.153	5939.12
483.372	5852.12
483.59	5835.12
483.808	5970.12
484.027	5856.12
484.245	5980.12
484.463	5983.12
484.681	6021.12
484.9	6001.12
485.118	6073.12
485.336	6094.12
485.554	6252.12
485.772	6297.12
485.99	6203.12
486.209	6302.12
486.427	6336.12
486.645	6416.12
486.863	6538.12
487.081	6469.12
487.299	6412.12
487.517	6280.12
487.735	6241.12
