Data from Circ_2012_H10_HRD10591_00096.txt Node
Date: Wed Jan 03 10:06:09 EST 2024
User: Yrep
Spectrometer: HR+D1059
Trigger mode: 1
Integration Time (sec): 1.000000E-1
Scans to average: 1
Electric dark correction enabled: true
Nonlinearity correction enabled: false
Boxcar width: 0
XAxis mode: Wavelengths
Number of Pixels in Spectrum: 2048
>>>>>Begin Spectral Data<<<<<
223.165	-19.81
223.4	-19.81
223.635	-19.81
223.869	-12.81
224.104	-20.81
224.338	-25.81
224.573	-2.81
224.808	-9.81
225.042	-1.81
225.277	-13.81
225.511	-4.81
225.746	-6.81
225.98	5.19
226.215	4.19
226.449	18.19
226.683	21.19
226.918	28.19
227.152	42.19
227.387	41.19
227.621	29.19
227.856	29.19
228.09	41.19
228.324	60.19
228.559	44.19
228.793	54.19
229.027	63.19
229.262	52.19
229.496	75.19
229.73	83.19
229.964	84.19
230.199	72.19
230.433	73.19
230.667	68.19
230.901	76.19
231.136	62.19
231.37	89.19
231.604	86.19
231.838	84.19
232.072	85.19
232.306	83.19
232.541	76.19
232.775	79.19
233.009	77.19
233.243	71.19
233.477	77.19
233.711	72.19
233.945	72.19
234.179	76.19
234.413	89.19
234.647	77.19
234.881	82.19
235.115	88.19
235.349	88.19
235.583	78.19
235.817	78.19
236.051	94.19
236.285	80.19
236.519	59.19
236.753	91.19
236.987	84.19
237.221	86.19
237.455	87.19
237.689	68.19
237.922	74.19
238.156	82.19
238.39	76.19
238.624	79.19
238.858	85.19
239.091	76.19
239.325	70.19
239.559	88.19
239.793	75.19
240.027	76.19
240.26	81.19
240.494	88.19
240.728	74.19
240.961	78.19
241.195	70.19
241.429	64.19
241.662	67.19
241.896	84.19
242.13	74.19
242.363	80.19
242.597	82.19
242.83	91.19
243.064	81.19
243.298	83.19
243.531	78.19
243.765	86.19
243.998	76.19
244.232	72.19
244.465	84.19
244.699	82.19
244.932	86.19
245.166	75.19
245.399	68.19
245.633	84.19
245.866	85.19
246.099	78.19
246.333	81.19
246.566	66.19
246.8	87.19
247.033	76.19
247.266	81.19
247.5	77.19
247.733	78.19
247.966	84.19
248.2	88.19
248.433	82.19
248.666	75.19
248.899	78.19
249.133	74.19
249.366	99.19
249.599	95.19
249.832	73.19
250.066	76.19
250.299	79.19
250.532	80.19
250.765	68.19
250.998	76.19
251.231	83.19
251.465	75.19
251.698	79.19
251.931	85.19
252.164	84.19
252.397	70.19
252.63	63.19
252.863	67.19
253.096	76.19
253.329	77.19
253.562	90.19
253.795	83.19
254.028	79.19
254.261	84.19
254.494	78.19
254.727	84.19
254.96	80.19
255.193	94.19
255.426	68.19
255.659	80.19
255.892	86.19
256.124	85.19
256.357	91.19
256.59	77.19
256.823	84.19
257.056	84.19
257.289	76.19
257.521	80.19
257.754	76.19
257.987	85.19
258.22	91.19
258.452	85.19
258.685	80.19
258.918	80.19
259.151	79.19
259.383	83.19
259.616	86.19
259.849	87.19
260.081	86.19
260.314	92.19
260.547	76.19
260.779	86.19
261.012	76.19
261.244	82.19
261.477	95.19
261.71	82.19
261.942	110.19
262.175	115.19
262.407	87.19
262.64	82.19
262.872	79.19
263.105	80.19
263.337	82.19
263.57	88.19
263.802	62.19
264.035	88.19
264.267	87.19
264.499	74.19
264.732	84.19
264.964	82.19
265.197	83.19
265.429	84.19
265.661	75.19
265.894	64.19
266.126	75.19
266.358	72.19
266.591	73.19
266.823	68.19
267.055	80.19
267.287	74.19
267.52	96.19
267.752	86.19
267.984	84.19
268.216	79.19
268.448	87.19
268.681	72.19
268.913	88.19
269.145	82.19
269.377	96.19
269.609	79.19
269.841	87.19
270.073	85.19
270.306	91.19
270.538	90.19
270.77	92.19
271.002	81.19
271.234	90.19
271.466	94.19
271.698	94.19
271.93	97.19
272.162	79.19
272.394	100.19
272.626	84.19
272.858	77.19
273.09	74.19
273.322	82.19
273.553	71.19
273.785	100.19
274.017	77.19
274.249	80.19
274.481	78.19
274.713	85.19
274.945	89.19
275.176	92.19
275.408	96.19
275.64	73.19
275.872	85.19
276.104	95.19
276.335	83.19
276.567	87.19
276.799	109.19
277.031	97.19
277.262	98.19
277.494	94.19
277.726	87.19
277.957	84.19
278.189	87.19
278.421	84.19
278.652	87.19
278.884	88.19
279.115	99.19
279.347	77.19
279.579	83.19
279.81	73.19
280.042	85.19
280.273	101.19
280.505	94.19
280.736	88.19
280.968	87.19
281.199	74.19
281.431	82.19
281.662	92.19
281.894	90.19
282.125	100.19
282.356	120.19
282.588	144.19
282.819	115.19
283.051	87.19
283.282	91.19
283.513	78.19
283.745	90.19
283.976	102.19
284.207	94.19
284.439	86.19
284.67	86.19
284.901	91.19
285.132	86.19
285.364	95.19
285.595	95.19
285.826	84.19
286.057	84.19
286.288	75.19
286.52	76.19
286.751	87.19
286.982	80.19
287.213	77.19
287.444	86.19
287.675	80.19
287.906	92.19
288.138	79.19
288.369	91.19
288.6	84.19
288.831	84.19
289.062	83.19
289.293	83.19
289.524	88.19
289.755	88.19
289.986	93.19
290.217	92.19
290.448	94.19
290.679	77.19
290.91	87.19
291.141	74.19
291.371	75.19
291.602	98.19
291.833	84.19
292.064	69.19
292.295	98.19
292.526	102.19
292.757	80.19
292.987	85.19
293.218	87.19
293.449	84.19
293.68	84.19
293.91	83.19
294.141	86.19
294.372	96.19
294.603	95.19
294.833	95.19
295.064	86.19
295.295	85.19
295.525	92.19
295.756	110.19
295.987	118.19
296.217	162.19
296.448	116.19
296.679	99.19
296.909	88.19
297.14	92.19
297.37	82.19
297.601	91.19
297.831	72.19
298.062	82.19
298.292	91.19
298.523	96.19
298.753	90.19
298.984	82.19
299.214	86.19
299.445	84.19
299.675	95.19
299.905	115.19
300.136	95.19
300.366	109.19
300.597	101.19
300.827	92.19
301.057	90.19
301.288	101.19
301.518	102.19
301.748	92.19
301.979	91.19
302.209	86.19
302.439	81.19
302.669	86.19
302.9	80.19
303.13	91.19
303.36	104.19
303.59	105.19
303.82	99.19
304.051	94.19
304.281	94.19
304.511	83.19
304.741	76.19
304.971	96.19
305.201	87.19
305.431	103.19
305.661	87.19
305.891	95.19
306.121	103.19
306.352	121.19
306.582	85.19
306.812	91.19
307.042	97.19
307.272	95.19
307.502	94.19
307.731	84.19
307.961	90.19
308.191	82.19
308.421	87.19
308.651	93.19
308.881	97.19
309.111	79.19
309.341	101.19
309.571	88.19
309.8	100.19
310.03	91.19
310.26	78.19
310.49	96.19
310.72	93.19
310.949	93.19
311.179	97.19
311.409	98.19
311.639	89.19
311.868	95.19
312.098	94.19
312.328	93.19
312.557	102.19
312.787	99.19
313.017	90.19
313.246	106.19
313.476	75.19
313.706	88.19
313.935	89.19
314.165	82.19
314.394	98.19
314.624	88.19
314.853	96.19
315.083	104.19
315.312	79.19
315.542	97.19
315.771	107.19
316.001	100.19
316.23	80.19
316.46	85.19
316.689	94.19
316.919	99.19
317.148	93.19
317.377	105.19
317.607	101.19
317.836	91.19
318.065	86.19
318.295	88.19
318.524	97.19
318.753	99.19
318.983	97.19
319.212	95.19
319.441	101.19
319.67	99.19
319.9	85.19
320.129	89.19
320.358	90.19
320.587	95.19
320.816	103.19
321.046	106.19
321.275	98.19
321.504	99.19
321.733	92.19
321.962	103.19
322.191	80.19
322.42	98.19
322.649	110.19
322.878	106.19
323.108	122.19
323.337	130.19
323.566	121.19
323.795	167.19
324.024	218.19
324.253	414.19
324.482	887.19
324.71	1804.19
324.939	2346.19
325.168	858.19
325.397	247.19
325.626	148.19
325.855	129.19
326.084	127.19
326.313	138.19
326.542	159.19
326.77	241.19
326.999	500.19
327.228	1013.19
327.457	1835.19
327.686	1422.19
327.914	378.19
328.143	196.19
328.372	167.19
328.6	135.19
328.829	132.19
329.058	134.19
329.287	128.19
329.515	117.19
329.744	108.19
329.972	121.19
330.201	144.19
330.43	165.19
330.658	138.19
330.887	140.19
331.115	116.19
331.344	95.19
331.572	112.19
331.801	108.19
332.03	103.19
332.258	100.19
332.486	94.19
332.715	109.19
332.943	99.19
333.172	85.19
333.4	103.19
333.629	105.19
333.857	113.19
334.085	131.19
334.314	154.19
334.542	197.19
334.771	174.19
334.999	123.19
335.227	94.19
335.455	102.19
335.684	92.19
335.912	94.19
336.14	88.19
336.369	89.19
336.597	102.19
336.825	100.19
337.053	94.19
337.281	82.19
337.51	108.19
337.738	82.19
337.966	78.19
338.194	86.19
338.422	109.19
338.65	97.19
338.878	92.19
339.106	106.19
339.334	118.19
339.562	76.19
339.79	100.19
340.018	89.19
340.246	74.19
340.474	83.19
340.702	92.19
340.93	98.19
341.158	92.19
341.386	110.19
341.614	95.19
341.842	99.19
342.07	87.19
342.298	93.19
342.526	95.19
342.754	93.19
342.981	90.19
343.209	83.19
343.437	93.19
343.665	80.19
343.893	89.19
344.12	106.19
344.348	108.19
344.576	98.19
344.804	107.19
345.031	91.19
345.259	85.19
345.487	89.19
345.714	99.19
345.942	98.19
346.17	87.19
346.397	77.19
346.625	100.19
346.853	98.19
347.08	80.19
347.308	90.19
347.535	101.19
347.763	77.19
347.99	88.19
348.218	96.19
348.445	103.19
348.673	93.19
348.9	97.19
349.128	103.19
349.355	97.19
349.583	98.19
349.81	93.19
350.037	81.19
350.265	98.19
350.492	95.19
350.72	95.19
350.947	105.19
351.174	100.19
351.402	100.19
351.629	101.19
351.856	114.19
352.083	96.19
352.311	110.19
352.538	107.19
352.765	101.19
352.992	115.19
353.22	118.19
353.447	110.19
353.674	104.19
353.901	105.19
354.128	98.19
354.355	108.19
354.583	100.19
354.81	103.19
355.037	91.19
355.264	96.19
355.491	85.19
355.718	101.19
355.945	97.19
356.172	96.19
356.399	104.19
356.626	110.19
356.853	91.19
357.08	78.19
357.307	69.19
357.534	89.19
357.761	89.19
357.988	91.19
358.215	86.19
358.441	81.19
358.668	78.19
358.895	88.19
359.122	89.19
359.349	92.19
359.576	87.19
359.802	101.19
360.029	114.19
360.256	110.19
360.483	91.19
360.709	88.19
360.936	87.19
361.163	82.19
361.39	94.19
361.616	83.19
361.843	93.19
362.07	93.19
362.296	92.19
362.523	94.19
362.749	90.19
362.976	92.19
363.203	100.19
363.429	101.19
363.656	91.19
363.882	90.19
364.109	87.19
364.335	86.19
364.562	99.19
364.788	93.19
365.015	90.19
365.241	104.19
365.468	111.19
365.694	103.19
365.92	95.19
366.147	97.19
366.373	80.19
366.599	97.19
366.826	90.19
367.052	80.19
367.278	93.19
367.505	96.19
367.731	98.19
367.957	81.19
368.184	94.19
368.41	108.19
368.636	109.19
368.862	103.19
369.089	112.19
369.315	98.19
369.541	82.19
369.767	98.19
369.993	87.19
370.219	92.19
370.445	99.19
370.672	90.19
370.898	86.19
371.124	86.19
371.35	79.19
371.576	66.19
371.802	79.19
372.028	96.19
372.254	98.19
372.48	93.19
372.706	93.19
372.932	87.19
373.158	87.19
373.384	101.19
373.61	90.19
373.835	93.19
374.061	94.19
374.287	83.19
374.513	84.19
374.739	93.19
374.965	83.19
375.191	97.19
375.416	91.19
375.642	88.19
375.868	108.19
376.094	98.19
376.319	87.19
376.545	88.19
376.771	100.19
376.997	80.19
377.222	72.19
377.448	90.19
377.674	87.19
377.899	97.19
378.125	88.19
378.35	89.19
378.576	84.19
378.802	88.19
379.027	91.19
379.253	86.19
379.478	87.19
379.704	98.19
379.929	93.19
380.155	94.19
380.38	94.19
380.606	102.19
380.831	87.19
381.057	90.19
381.282	86.19
381.507	104.19
381.733	99.19
381.958	90.19
382.184	104.19
382.409	91.19
382.634	96.19
382.86	104.19
383.085	106.19
383.31	88.19
383.535	93.19
383.761	105.19
383.986	106.19
384.211	97.19
384.436	101.19
384.662	91.19
384.887	102.19
385.112	79.19
385.337	98.19
385.562	110.19
385.787	92.19
386.013	100.19
386.238	98.19
386.463	109.19
386.688	99.19
386.913	90.19
387.138	95.19
387.363	100.19
387.588	94.19
387.813	96.19
388.038	110.19
388.263	111.19
388.488	98.19
388.713	93.19
388.938	91.19
389.163	106.19
389.387	104.19
389.612	94.19
389.837	91.19
390.062	80.19
390.287	87.19
390.512	79.19
390.736	96.19
390.961	89.19
391.186	100.19
391.411	100.19
391.636	96.19
391.86	86.19
392.085	87.19
392.31	84.19
392.534	70.19
392.759	86.19
392.984	90.19
393.208	93.19
393.433	88.19
393.658	88.19
393.882	89.19
394.107	101.19
394.331	81.19
394.556	93.19
394.78	90.19
395.005	93.19
395.229	89.19
395.454	95.19
395.678	80.19
395.903	81.19
396.127	96.19
396.352	85.19
396.576	75.19
396.801	79.19
397.025	75.19
397.249	87.19
397.474	104.19
397.698	98.19
397.922	83.19
398.147	91.19
398.371	80.19
398.595	84.19
398.82	86.19
399.044	84.19
399.268	88.19
399.492	95.19
399.717	87.19
399.941	90.19
400.165	103.19
400.389	103.19
400.613	82.19
400.837	74.19
401.062	83.19
401.286	91.19
401.51	76.19
401.734	76.19
401.958	104.19
402.182	130.19
402.406	159.19
402.63	128.19
402.854	96.19
403.078	94.19
403.302	88.19
403.526	88.19
403.75	85.19
403.974	84.19
404.198	84.19
404.422	95.19
404.645	93.19
404.869	88.19
405.093	100.19
405.317	99.19
405.541	101.19
405.765	92.19
405.988	119.19
406.212	176.19
406.436	232.19
406.66	151.19
406.883	96.19
407.107	98.19
407.331	86.19
407.555	80.19
407.778	100.19
408.002	82.19
408.226	80.19
408.449	82.19
408.673	85.19
408.896	87.19
409.12	83.19
409.344	101.19
409.567	85.19
409.791	84.19
410.014	103.19
410.238	90.19
410.461	83.19
410.685	84.19
410.908	106.19
411.132	100.19
411.355	86.19
411.578	82.19
411.802	98.19
412.025	92.19
412.249	93.19
412.472	84.19
412.695	102.19
412.919	101.19
413.142	72.19
413.365	80.19
413.589	87.19
413.812	88.19
414.035	95.19
414.258	99.19
414.482	91.19
414.705	103.19
414.928	79.19
415.151	82.19
415.374	96.19
415.597	85.19
415.821	80.19
416.044	90.19
416.267	73.19
416.49	76.19
416.713	94.19
416.936	91.19
417.159	79.19
417.382	88.19
417.605	85.19
417.828	102.19
418.051	103.19
418.274	87.19
418.497	80.19
418.72	87.19
418.943	79.19
419.166	85.19
419.389	101.19
419.611	88.19
419.834	84.19
420.057	84.19
420.28	88.19
420.503	89.19
420.726	86.19
420.948	84.19
421.171	87.19
421.394	90.19
421.617	100.19
421.839	102.19
422.062	96.19
422.285	99.19
422.507	88.19
422.73	81.19
422.953	91.19
423.175	97.19
423.398	91.19
423.621	94.19
423.843	96.19
424.066	86.19
424.288	89.19
424.511	94.19
424.733	98.19
424.956	101.19
425.178	101.19
425.401	97.19
425.623	104.19
425.846	93.19
426.068	73.19
426.291	83.19
426.513	86.19
426.735	87.19
426.958	86.19
427.18	109.19
427.402	130.19
427.625	175.19
427.847	158.19
428.069	119.19
428.292	95.19
428.514	106.19
428.736	106.19
428.958	86.19
429.181	98.19
429.403	78.19
429.625	87.19
429.847	103.19
430.069	77.19
430.292	83.19
430.514	79.19
430.736	77.19
430.958	86.19
431.18	81.19
431.402	82.19
431.624	91.19
431.846	82.19
432.068	90.19
432.29	84.19
432.512	96.19
432.734	70.19
432.956	73.19
433.178	109.19
433.4	99.19
433.622	92.19
433.844	82.19
434.066	87.19
434.287	82.19
434.509	83.19
434.731	85.19
434.953	80.19
435.175	88.19
435.397	109.19
435.618	89.19
435.84	99.19
436.062	115.19
436.284	114.19
436.505	98.19
436.727	98.19
436.949	90.19
437.17	98.19
437.392	100.19
437.614	86.19
437.835	97.19
438.057	104.19
438.278	104.19
438.5	103.19
438.721	124.19
438.943	110.19
439.165	93.19
439.386	85.19
439.608	94.19
439.829	89.19
440.05	118.19
440.272	139.19
440.493	101.19
440.715	92.19
440.936	83.19
441.158	93.19
441.379	83.19
441.6	96.19
441.822	87.19
442.043	90.19
442.264	104.19
442.486	94.19
442.707	95.19
442.928	97.19
443.149	141.19
443.371	134.19
443.592	123.19
443.813	119.19
444.034	111.19
444.255	98.19
444.476	88.19
444.698	91.19
444.919	84.19
445.14	116.19
445.361	109.19
445.582	122.19
445.803	127.19
446.024	137.19
446.245	140.19
446.466	113.19
446.687	105.19
446.908	90.19
447.129	81.19
447.35	103.19
447.571	97.19
447.792	90.19
448.013	98.19
448.234	99.19
448.455	110.19
448.675	106.19
448.896	101.19
449.117	92.19
449.338	105.19
449.559	133.19
449.779	141.19
450	102.19
450.221	82.19
450.442	86.19
450.662	82.19
450.883	112.19
451.104	108.19
451.324	110.19
451.545	93.19
451.766	86.19
451.986	86.19
452.207	88.19
452.428	99.19
452.648	105.19
452.869	117.19
453.089	104.19
453.31	118.19
453.53	95.19
453.751	93.19
453.971	103.19
454.192	115.19
454.412	95.19
454.633	83.19
454.853	92.19
455.073	87.19
455.294	92.19
455.514	91.19
455.734	94.19
455.955	81.19
456.175	75.19
456.395	89.19
456.616	88.19
456.836	88.19
457.056	93.19
457.276	84.19
457.497	81.19
457.717	88.19
457.937	80.19
458.157	90.19
458.377	102.19
458.598	110.19
458.818	155.19
459.038	151.19
459.258	119.19
459.478	75.19
459.698	85.19
459.918	86.19
460.138	80.19
460.358	91.19
460.578	96.19
460.798	85.19
461.018	84.19
461.238	73.19
461.458	85.19
461.678	86.19
461.898	85.19
462.118	96.19
462.338	68.19
462.558	96.19
462.777	77.19
462.997	82.19
463.217	78.19
463.437	84.19
463.657	89.19
463.876	62.19
464.096	89.19
464.316	87.19
464.536	97.19
464.755	91.19
464.975	97.19
465.195	174.19
465.414	151.19
465.634	108.19
465.854	74.19
466.073	80.19
466.293	83.19
466.512	84.19
466.732	90.19
466.951	78.19
467.171	80.19
467.391	83.19
467.61	91.19
467.829	95.19
468.049	108.19
468.268	121.19
468.488	84.19
468.707	92.19
468.927	84.19
469.146	96.19
469.365	91.19
469.585	84.19
469.804	107.19
470.023	97.19
470.243	79.19
470.462	90.19
470.681	110.19
470.901	84.19
471.12	79.19
471.339	101.19
471.558	88.19
471.777	88.19
471.997	100.19
472.216	152.19
472.435	236.19
472.654	114.19
472.873	89.19
473.092	96.19
473.311	94.19
473.53	87.19
473.749	77.19
473.968	96.19
474.187	109.19
474.406	107.19
474.625	84.19
474.844	89.19
475.063	79.19
475.282	90.19
475.501	94.19
475.72	91.19
475.939	93.19
476.158	83.19
476.377	78.19
476.596	85.19
476.814	100.19
477.033	94.19
477.252	84.19
477.471	89.19
477.69	98.19
477.908	93.19
478.127	66.19
478.346	86.19
478.564	99.19
478.783	99.19
479.002	104.19
479.22	86.19
479.439	100.19
479.658	102.19
479.876	85.19
480.095	95.19
480.313	99.19
480.532	103.19
480.751	116.19
480.969	163.19
481.188	342.19
481.406	236.19
481.624	88.19
481.843	84.19
482.061	96.19
482.28	86.19
482.498	90.19
482.717	92.19
482.935	90.19
483.153	68.19
483.372	80.19
483.59	77.19
483.808	95.19
484.027	90.19
484.245	80.19
484.463	86.19
484.681	91.19
484.9	84.19
485.118	95.19
485.336	105.19
485.554	99.19
485.772	97.19
485.99	90.19
486.209	115.19
486.427	92.19
486.645	109.19
486.863	107.19
487.081	85.19
487.299	99.19
487.517	92.19
487.735	96.19
487.953	97.19
488.171	90.19
488.389	88.19
488.607	87.19
488.825	92.19
489.043	84.19
489.261	86.19
489.479	90.19
489.696	84.19
489.914	87.19
490.132	86.19
490.35	89.19
490.568	83.19
490.786	90.19
491.003	80.19
491.221	94.19
491.439	79.19
491.657	86.19
491.874	91.19
492.092	97.19
492.31	80.19
492.527	76.19
492.745	83.19
492.963	82.19
493.18	81.19
493.398	87.19
493.615	84.19
493.833	94.19
494.05	82.19
494.268	90.19
494.485	92.19
494.703	89.19
494.92	91.19
495.138	82.19
495.355	99.19
495.573	98.19
495.79	93.19
496.008	100.19
496.225	101.19
496.442	87.19
496.66	90.19
496.877	77.19
497.094	86.19
497.312	92.19
497.529	92.19
497.746	76.19
497.963	87.19
498.181	90.19
498.398	93.19
498.615	114.19
498.832	106.19
499.049	85.19
499.267	92.19
499.484	96.19
499.701	95.19
499.918	94.19
500.135	84.19
500.352	89.19
500.569	93.19
500.786	80.19
501.003	94.19
501.22	86.19
501.437	94.19
501.654	79.19
501.871	81.19
502.088	95.19
502.305	76.19
502.522	95.19
502.739	88.19
502.956	91.19
503.172	105.19
503.389	96.19
503.606	103.19
503.823	99.19
504.04	86.19
504.256	85.19
504.473	86.19
504.69	93.19
504.907	91.19
505.123	86.19
505.34	95.19
505.557	88.19
505.773	91.19
505.99	90.19
506.207	81.19
506.423	92.19
506.64	94.19
506.856	96.19
507.073	90.19
507.289	87.19
507.506	90.19
507.722	106.19
507.939	91.19
508.155	97.19
508.372	92.19
508.588	85.19
508.805	102.19
509.021	101.19
509.238	88.19
509.454	93.19
509.67	102.19
509.887	102.19
510.103	152.19
510.319	233.19
510.536	802.19
510.752	2655.19
510.968	745.19
511.184	171.19
511.401	93.19
511.617	106.19
511.833	88.19
512.049	93.19
512.265	79.19
512.481	90.19
512.698	94.19
512.914	100.19
513.13	99.19
513.346	82.19
513.562	105.19
513.778	103.19
513.994	100.19
514.21	99.19
514.426	111.19
514.642	143.19
514.858	143.19
515.074	167.19
515.29	493.19
515.506	1637.19
515.721	606.19
