Data from Circ_2012_H10_HRD10591_00005.txt Node
Date: Wed Jan 03 10:05:51 EST 2024
User: Yrep
Spectrometer: HR+D1059
Trigger mode: 1
Integration Time (sec): 1.000000E-1
Scans to average: 1
Electric dark correction enabled: true
Nonlinearity correction enabled: false
Boxcar width: 0
XAxis mode: Wavelengths
Number of Pixels in Spectrum: 2048
>>>>>Begin Spectral Data<<<<<
223.165	-24.38
223.4	-24.38
223.635	-24.38
223.869	-25.38
224.104	-17.38
224.338	-10.38
224.573	-9.38
224.808	-12.38
225.042	-19.38
225.277	-3.38
225.511	-8.38
225.746	2.62
225.98	6.62
226.215	11.62
226.449	20.62
226.683	22.62
226.918	39.62
227.152	26.62
227.387	27.62
227.621	40.62
227.856	23.62
228.09	51.62
228.324	47.62
228.559	50.62
228.793	153.62
229.027	436.62
229.262	489.62
229.496	568.62
229.73	778.62
229.964	777.62
230.199	529.62
230.433	455.62
230.667	466.62
230.901	442.62
231.136	445.62
231.37	436.62
231.604	459.62
231.838	437.62
232.072	415.62
232.306	446.62
232.541	446.62
232.775	460.62
233.009	454.62
233.243	451.62
233.477	456.62
233.711	486.62
233.945	469.62
234.179	493.62
234.413	484.62
234.647	489.62
234.881	508.62
235.115	507.62
235.349	514.62
235.583	552.62
235.817	584.62
236.051	582.62
236.285	580.62
236.519	602.62
236.753	653.62
236.987	870.62
237.221	1303.62
237.455	1416.62
237.689	841.62
237.922	688.62
238.156	683.62
238.39	666.62
238.624	624.62
238.858	630.62
239.091	627.62
239.325	627.62
239.559	644.62
239.793	672.62
240.027	726.62
240.26	846.62
240.494	902.62
240.728	931.62
240.961	875.62
241.195	782.62
241.429	753.62
241.662	741.62
241.896	739.62
242.13	736.62
242.363	770.62
242.597	766.62
242.83	784.62
243.064	811.62
243.298	792.62
243.531	782.62
243.765	810.62
243.998	818.62
244.232	826.62
244.465	860.62
244.699	856.62
244.932	855.62
245.166	848.62
245.399	874.62
245.633	868.62
245.866	862.62
246.099	874.62
246.333	895.62
246.566	895.62
246.8	937.62
247.033	973.62
247.266	1014.62
247.5	1029.62
247.733	1116.62
247.966	1108.62
248.2	1084.62
248.433	1083.62
248.666	1178.62
248.899	1305.62
249.133	1360.62
249.366	1344.62
249.599	1282.62
249.832	1139.62
250.066	1149.62
250.299	1168.62
250.532	1286.62
250.765	1440.62
250.998	1579.62
251.231	1563.62
251.465	1402.62
251.698	1319.62
251.931	1320.62
252.164	1331.62
252.397	1345.62
252.63	1421.62
252.863	1480.62
253.096	1584.62
253.329	1622.62
253.562	1533.62
253.795	1480.62
254.028	1478.62
254.261	1567.62
254.494	1699.62
254.727	1960.62
254.96	2079.62
255.193	1855.62
255.426	1636.62
255.659	1575.62
255.892	1555.62
256.124	1545.62
256.357	1505.62
256.59	1482.62
256.823	1425.62
257.056	1443.62
257.289	1470.62
257.521	1462.62
257.754	1453.62
257.987	1492.62
258.22	1453.62
258.452	1483.62
258.685	1481.62
258.918	1510.62
259.151	1557.62
259.383	1633.62
259.616	1620.62
259.849	1710.62
260.081	1816.62
260.314	1942.62
260.547	1946.62
260.779	1770.62
261.012	1729.62
261.244	1655.62
261.477	1628.62
261.71	1662.62
261.942	1701.62
262.175	1749.62
262.407	1609.62
262.64	1582.62
262.872	1560.62
263.105	1580.62
263.337	1610.62
263.57	1621.62
263.802	1609.62
264.035	1590.62
264.267	1573.62
264.499	1600.62
264.732	1602.62
264.964	1650.62
265.197	1629.62
265.429	1665.62
265.661	1683.62
265.894	1683.62
266.126	1682.62
266.358	1667.62
266.591	1764.62
266.823	1771.62
267.055	1779.62
267.287	1781.62
267.52	1781.62
267.752	1806.62
267.984	1797.62
268.216	1859.62
268.448	1881.62
268.681	1940.62
268.913	2016.62
269.145	2205.62
269.377	2237.62
269.609	2186.62
269.841	2140.62
270.073	2289.62
270.306	2481.62
270.538	2638.62
270.77	2540.62
271.002	2353.62
271.234	2378.62
271.466	2491.62
271.698	2585.62
271.93	2563.62
272.162	2631.62
272.394	2525.62
272.626	2410.62
272.858	2219.62
273.09	2213.62
273.322	2199.62
273.553	2121.62
273.785	2168.62
274.017	2172.62
274.249	2176.62
274.481	2190.62
274.713	2203.62
274.945	2181.62
275.176	2184.62
275.408	2168.62
275.64	2210.62
275.872	2200.62
276.104	2229.62
276.335	2272.62
276.567	2320.62
276.799	2447.62
277.031	2648.62
277.262	2762.62
277.494	2637.62
277.726	2473.62
277.957	2376.62
278.189	2348.62
278.421	2316.62
278.652	2322.62
278.884	2304.62
279.115	2295.62
279.347	2333.62
279.579	2265.62
279.81	2295.62
280.042	2297.62
280.273	2302.62
280.505	2322.62
280.736	2338.62
280.968	2345.62
281.199	2339.62
281.431	2341.62
281.662	2333.62
281.894	2380.62
282.125	2468.62
282.356	2640.62
282.588	2778.62
282.819	2632.62
283.051	2484.62
283.282	2414.62
283.513	2503.62
283.745	2522.62
283.976	2555.62
284.207	2564.62
284.439	2519.62
284.67	2509.62
284.901	2526.62
285.132	2549.62
285.364	2500.62
285.595	2535.62
285.826	2510.62
286.057	2612.62
286.288	2563.62
286.52	2605.62
286.751	2597.62
286.982	2617.62
287.213	2622.62
287.444	2644.62
287.675	2719.62
287.906	2758.62
288.138	2864.62
288.369	2803.62
288.6	2830.62
288.831	2760.62
289.062	2762.62
289.293	2703.62
289.524	2758.62
289.755	2677.62
289.986	2726.62
290.217	2675.62
290.448	2691.62
290.679	2690.62
290.91	2711.62
291.141	2688.62
291.371	2733.62
291.602	2747.62
291.833	2729.62
292.064	2745.62
292.295	2738.62
292.526	2762.62
292.757	2736.62
292.987	2722.62
293.218	2752.62
293.449	2782.62
293.68	2776.62
293.91	2766.62
294.141	2739.62
294.372	2770.62
294.603	2786.62
294.833	2805.62
295.064	2840.62
295.295	2814.62
295.525	2816.62
295.756	2858.62
295.987	2986.62
296.217	3158.62
296.448	3051.62
296.679	2888.62
296.909	2861.62
297.14	2834.62
297.37	2969.62
297.601	2959.62
297.831	2955.62
298.062	2969.62
298.292	3004.62
298.523	3050.62
298.753	3047.62
298.984	3016.62
299.214	3043.62
299.445	3017.62
299.675	3006.62
299.905	3051.62
300.136	3017.62
300.366	3044.62
300.597	3073.62
300.827	3244.62
301.057	3319.62
301.288	3339.62
301.518	3245.62
301.748	3259.62
301.979	3254.62
302.209	3313.62
302.439	3250.62
302.669	3249.62
302.9	3212.62
303.13	3228.62
303.36	3257.62
303.59	3272.62
303.82	3386.62
304.051	3275.62
304.281	3263.62
304.511	3129.62
304.741	3212.62
304.971	3213.62
305.201	3232.62
305.431	3165.62
305.661	3223.62
305.891	3219.62
306.121	3178.62
306.352	3232.62
306.582	3222.62
306.812	3099.62
307.042	3184.62
307.272	3199.62
307.502	3159.62
307.731	3231.62
307.961	3196.62
308.191	3162.62
308.421	3190.62
308.651	3242.62
308.881	3221.62
309.111	3264.62
309.341	3267.62
309.571	3389.62
309.8	3402.62
310.03	3474.62
310.26	3549.62
310.49	3456.62
310.72	3612.62
310.949	3702.62
311.179	3707.62
311.409	3475.62
311.639	3557.62
311.868	3537.62
312.098	3609.62
312.328	3648.62
312.557	3792.62
312.787	3878.62
313.017	3761.62
313.246	3697.62
313.476	3615.62
313.706	3672.62
313.935	3774.62
314.165	3848.62
314.394	3862.62
314.624	3836.62
314.853	3687.62
315.083	3634.62
315.312	3625.62
315.542	3646.62
315.771	3596.62
316.001	3598.62
316.23	3546.62
316.46	3613.62
316.689	3580.62
316.919	3645.62
317.148	3707.62
317.377	3637.62
317.607	3605.62
317.836	3640.62
318.065	3610.62
318.295	3561.62
318.524	3613.62
318.753	3578.62
318.983	3612.62
319.212	3636.62
319.441	3696.62
319.67	3694.62
319.9	3604.62
320.129	3582.62
320.358	3590.62
320.587	3626.62
320.816	3727.62
321.046	3803.62
321.275	3758.62
321.504	3732.62
321.733	3740.62
321.962	3864.62
322.191	3902.62
322.42	4012.62
322.649	4104.62
322.878	4153.62
323.108	4212.62
323.337	4516.62
323.566	4677.62
323.795	4970.62
324.024	5571.62
324.253	7606.62
324.482	11529.62
324.71	15598.62
324.939	15598.62
325.168	13400.62
325.397	6704.62
325.626	5248.62
325.855	4825.62
326.084	4744.62
326.313	4747.62
326.542	4874.62
326.77	5569.62
326.999	7272.62
327.228	10876.62
327.457	14809.62
327.686	14054.62
327.914	7377.62
328.143	5803.62
328.372	5363.62
328.6	5097.62
328.829	4996.62
329.058	5237.62
329.287	5197.62
329.515	4957.62
329.744	4722.62
329.972	4707.62
330.201	4804.62
330.43	4993.62
330.658	5314.62
330.887	5608.62
331.115	5199.62
331.344	4808.62
331.572	4772.62
331.801	4909.62
332.03	4835.62
332.258	4788.62
332.486	4821.62
332.715	4923.62
332.943	5091.62
333.172	5166.62
333.4	5241.62
333.629	5440.62
333.857	5528.62
334.085	5393.62
334.314	5410.62
334.542	5380.62
334.771	5253.62
334.999	5114.62
335.227	5133.62
335.455	5021.62
335.684	4851.62
335.912	4866.62
336.14	4818.62
336.369	4722.62
336.597	4930.62
336.825	4799.62
337.053	4749.62
337.281	4670.62
337.51	4607.62
337.738	4576.62
337.966	4588.62
338.194	4638.62
338.422	4468.62
338.65	4418.62
338.878	4448.62
339.106	4445.62
339.334	4422.62
339.562	4375.62
339.79	4302.62
340.018	4360.62
340.246	4315.62
340.474	4321.62
340.702	4306.62
340.93	4235.62
341.158	4348.62
341.386	4249.62
341.614	4303.62
341.842	4272.62
342.07	4228.62
342.298	4179.62
342.526	4152.62
342.754	4241.62
342.981	4196.62
343.209	4352.62
343.437	4575.62
343.665	4824.62
343.893	5070.62
344.12	5034.62
344.348	4792.62
344.576	4721.62
344.804	4617.62
345.031	4483.62
345.259	4470.62
345.487	4362.62
345.714	4257.62
345.942	4201.62
346.17	4086.62
346.397	4055.62
346.625	4060.62
346.853	4063.62
347.08	4078.62
347.308	4097.62
347.535	4243.62
347.763	4176.62
347.99	4173.62
348.218	4218.62
348.445	4222.62
348.673	4218.62
348.9	4081.62
349.128	3988.62
349.355	4006.62
349.583	3966.62
349.81	3996.62
350.037	3923.62
350.265	3922.62
350.492	3959.62
350.72	3943.62
350.947	4116.62
351.174	4075.62
351.402	4152.62
351.629	4091.62
351.856	4087.62
352.083	4155.62
352.311	4170.62
352.538	4117.62
352.765	4099.62
352.992	4041.62
353.22	4037.62
353.447	4003.62
353.674	3898.62
353.901	3899.62
354.128	3907.62
354.355	3890.62
354.583	3929.62
354.81	3889.62
355.037	3920.62
355.264	3868.62
355.491	3800.62
355.718	3839.62
355.945	3848.62
356.172	3854.62
356.399	3833.62
356.626	3886.62
356.853	3872.62
357.08	3811.62
357.307	3860.62
357.534	3830.62
357.761	3880.62
357.988	3862.62
358.215	3842.62
358.441	3947.62
358.668	3844.62
358.895	3929.62
359.122	3983.62
359.349	4090.62
359.576	4224.62
359.802	4341.62
360.029	4446.62
360.256	4486.62
360.483	4294.62
360.709	4074.62
360.936	4084.62
361.163	4120.62
361.39	4178.62
361.616	4142.62
361.843	4131.62
362.07	4095.62
362.296	4068.62
362.523	4048.62
362.749	4039.62
362.976	4012.62
363.203	3953.62
363.429	3938.62
363.656	3982.62
363.882	3920.62
364.109	3894.62
364.335	3921.62
364.562	3920.62
364.788	3946.62
365.015	3977.62
365.241	3940.62
365.468	3995.62
365.694	4023.62
365.92	3958.62
366.147	3958.62
366.373	3959.62
366.599	3982.62
366.826	3888.62
367.052	3891.62
367.278	3985.62
367.505	3966.62
367.731	3981.62
367.957	3970.62
368.184	4055.62
368.41	4120.62
368.636	4101.62
368.862	4138.62
369.089	4128.62
369.315	4064.62
369.541	4042.62
369.767	4029.62
369.993	4098.62
370.219	4135.62
370.445	4096.62
370.672	4170.62
370.898	4101.62
371.124	4177.62
371.35	4230.62
371.576	4161.62
371.802	4149.62
372.028	4141.62
372.254	4191.62
372.48	4269.62
372.706	4341.62
372.932	4393.62
373.158	4275.62
373.384	4321.62
373.61	4195.62
373.835	4243.62
374.061	4281.62
374.287	4317.62
374.513	4405.62
374.739	4551.62
374.965	4568.62
375.191	4577.62
375.416	4617.62
375.642	4419.62
375.868	4389.62
376.094	4333.62
376.319	4281.62
376.545	4245.62
376.771	4269.62
376.997	4273.62
377.222	4255.62
377.448	4171.62
377.674	4191.62
377.899	4191.62
378.125	4167.62
378.35	4213.62
378.576	4123.62
378.802	4154.62
379.027	4226.62
379.253	4176.62
379.478	4116.62
379.704	4132.62
379.929	4215.62
380.155	4198.62
380.38	4225.62
380.606	4277.62
380.831	4159.62
381.057	4254.62
381.282	4272.62
381.507	4255.62
381.733	4347.62
381.958	4228.62
382.184	4347.62
382.409	4385.62
382.634	4492.62
382.86	4486.62
383.085	4486.62
383.31	4520.62
383.535	4691.62
383.761	4627.62
383.986	4805.62
384.211	4884.62
384.436	4952.62
384.662	4934.62
384.887	5082.62
385.112	5059.62
385.337	5119.62
385.562	5044.62
385.787	5207.62
386.013	5218.62
386.238	5210.62
386.463	5133.62
386.688	5179.62
386.913	5098.62
387.138	5075.62
387.363	5066.62
387.588	5017.62
387.813	5049.62
388.038	5042.62
388.263	5049.62
388.488	5096.62
388.713	5030.62
388.938	5041.62
389.163	4960.62
389.387	5017.62
389.612	4950.62
389.837	4927.62
390.062	4968.62
390.287	5010.62
390.512	4933.62
390.736	5076.62
390.961	5140.62
391.186	5208.62
391.411	5370.62
391.636	5434.62
391.86	5700.62
392.085	5664.62
392.31	5538.62
392.534	5512.62
392.759	5373.62
392.984	5262.62
393.208	5236.62
393.433	5254.62
393.658	5231.62
393.882	5272.62
394.107	5264.62
394.331	5280.62
394.556	5288.62
394.78	5383.62
395.005	5413.62
395.229	5390.62
395.454	5562.62
395.678	5640.62
395.903	5669.62
396.127	5775.62
396.352	5545.62
396.576	5362.62
396.801	5375.62
397.025	5430.62
397.249	5519.62
397.474	5659.62
397.698	5718.62
397.922	5852.62
398.147	5952.62
398.371	6018.62
398.595	6187.62
398.82	6420.62
399.044	6990.62
399.268	7722.62
399.492	8813.62
399.717	9464.62
399.941	9182.62
400.165	8578.62
400.389	7885.62
400.613	7043.62
400.837	6648.62
401.062	6512.62
401.286	6352.62
401.51	6322.62
401.734	6327.62
401.958	6458.62
402.182	6633.62
402.406	6816.62
402.63	6750.62
402.854	6825.62
403.078	6954.62
403.302	7062.62
403.526	7149.62
403.75	7155.62
403.974	7188.62
404.198	7220.62
404.422	7443.62
404.645	7184.62
404.869	7138.62
405.093	7373.62
405.317	7413.62
405.541	7533.62
405.765	7177.62
405.988	7094.62
406.212	7360.62
406.436	7603.62
406.66	7597.62
406.883	7516.62
407.107	8108.62
407.331	8743.62
407.555	9162.62
407.778	8817.62
408.002	8148.62
408.226	7711.62
408.449	7655.62
408.673	7458.62
408.896	7611.62
409.12	7696.62
409.344	7366.62
409.567	7031.62
409.791	7013.62
410.014	6948.62
410.238	6842.62
410.461	6912.62
410.685	6863.62
410.908	6986.62
411.132	7123.62
411.355	7229.62
411.578	6835.62
411.802	6615.62
412.025	6587.62
412.249	6725.62
412.472	6770.62
412.695	6752.62
412.919	6419.62
413.142	6395.62
413.365	6374.62
413.589	6340.62
413.812	6226.62
414.035	6175.62
414.258	6152.62
414.482	6275.62
414.705	6264.62
414.928	6184.62
415.151	6323.62
415.374	6208.62
415.597	6229.62
415.821	6094.62
416.044	6088.62
416.267	6186.62
416.49	6144.62
416.713	6057.62
416.936	6195.62
417.159	6153.62
417.382	6185.62
417.605	6249.62
417.828	6403.62
418.051	6531.62
418.274	6399.62
418.497	6259.62
418.72	6419.62
418.943	6314.62
419.166	6745.62
419.389	7052.62
419.611	6972.62
419.834	6738.62
420.057	6624.62
420.28	6453.62
420.503	6274.62
420.726	6371.62
420.948	6498.62
421.171	6864.62
421.394	6877.62
421.617	6384.62
421.839	6354.62
422.062	6516.62
422.285	6721.62
422.507	7283.62
422.73	7788.62
422.953	7230.62
423.175	6791.62
423.398	6886.62
423.621	6861.62
423.843	7117.62
424.066	7002.62
424.288	6952.62
424.511	7208.62
424.733	7644.62
424.956	7956.62
425.178	7625.62
425.401	7684.62
425.623	7515.62
425.846	6662.62
426.068	6526.62
426.291	6334.62
426.513	6404.62
426.735	6456.62
426.958	6884.62
427.18	7742.62
427.402	8856.62
427.625	8912.62
427.847	7517.62
428.069	6642.62
428.292	6328.62
428.514	5955.62
428.736	5796.62
428.958	5764.62
429.181	5613.62
429.403	5693.62
429.625	5779.62
429.847	6162.62
430.069	6690.62
430.292	6204.62
430.514	5762.62
430.736	5741.62
430.958	5584.62
431.18	5529.62
431.402	5579.62
431.624	5537.62
431.846	5621.62
432.068	5551.62
432.29	5668.62
432.512	5566.62
432.734	5729.62
432.956	5591.62
433.178	5780.62
433.4	5698.62
433.622	5581.62
433.844	5626.62
434.066	5702.62
434.287	5753.62
434.509	5993.62
434.731	6197.62
434.953	6341.62
435.175	6440.62
435.397	6564.62
435.618	6413.62
435.84	6852.62
436.062	7590.62
436.284	7660.62
436.505	6463.62
436.727	6162.62
436.949	5809.62
437.17	5686.62
437.392	5661.62
437.614	5860.62
437.835	6287.62
438.057	7208.62
438.278	7795.62
438.5	7636.62
438.721	8551.62
438.943	7464.62
439.165	6237.62
439.386	6101.62
439.608	6160.62
439.829	6248.62
440.05	6634.62
440.272	6847.62
440.493	6313.62
440.715	6040.62
440.936	5972.62
441.158	5982.62
441.379	6154.62
441.6	6555.62
441.822	6720.62
442.043	7068.62
442.264	7746.62
442.486	7565.62
442.707	6756.62
442.928	6618.62
443.149	6822.62
443.371	7010.62
443.592	7589.62
443.813	8516.62
444.034	8509.62
444.255	7341.62
444.476	7234.62
444.698	7434.62
444.919	7438.62
445.14	7246.62
445.361	7110.62
445.582	7245.62
445.803	7828.62
446.024	8436.62
446.245	8106.62
446.466	7214.62
446.687	6268.62
446.908	5996.62
447.129	5752.62
447.35	5570.62
447.571	5572.62
447.792	5463.62
448.013	5552.62
448.234	5765.62
448.455	6439.62
448.675	7584.62
448.896	8017.62
449.117	6564.62
449.338	6819.62
449.559	8051.62
449.779	8325.62
450	6374.62
450.221	5630.62
450.442	5370.62
450.662	5375.62
450.883	5481.62
451.104	5592.62
451.324	5365.62
451.545	5270.62
451.766	5079.62
451.986	4996.62
452.207	5003.62
452.428	4974.62
452.648	4924.62
452.869	5026.62
453.089	5143.62
453.31	5163.62
453.53	5060.62
453.751	4913.62
453.971	5006.62
454.192	5108.62
454.412	4884.62
454.633	4839.62
454.853	4778.62
455.073	4875.62
455.294	5203.62
455.514	5718.62
455.734	5253.62
455.955	4693.62
456.175	4570.62
456.395	4578.62
456.616	4547.62
456.836	4482.62
457.056	4564.62
457.276	4490.62
457.497	4606.62
457.717	4593.62
457.937	4710.62
458.157	4782.62
458.377	4886.62
458.598	5165.62
458.818	5971.62
459.038	6650.62
459.258	6494.62
459.478	5859.62
459.698	5652.62
459.918	5762.62
460.138	5881.62
460.358	6103.62
460.578	6137.62
460.798	6240.62
461.018	6197.62
461.238	6087.62
461.458	6079.62
461.678	6087.62
461.898	6173.62
462.118	6189.62
462.338	6540.62
462.558	6664.62
462.777	6909.62
462.997	7542.62
463.217	8012.62
463.437	7868.62
463.657	7260.62
463.876	6943.62
464.096	7060.62
464.316	7051.62
464.536	7062.62
464.755	6882.62
464.975	6771.62
465.195	7045.62
465.414	7046.62
465.634	6024.62
465.854	5707.62
466.073	5473.62
466.293	5333.62
466.512	5185.62
466.732	5117.62
466.951	5125.62
467.171	5099.62
467.391	5178.62
467.61	5228.62
467.829	5232.62
468.049	5082.62
468.268	4982.62
468.488	4911.62
468.707	4848.62
468.927	4873.62
469.146	4857.62
469.365	4869.62
469.585	4932.62
469.804	5159.62
470.023	5277.62
470.243	5325.62
470.462	5367.62
470.681	5540.62
470.901	5434.62
471.12	5281.62
471.339	5104.62
471.558	5143.62
471.777	5112.62
471.997	4937.62
472.216	4992.62
472.435	4993.62
472.654	4916.62
472.873	4802.62
473.092	4771.62
473.311	4880.62
473.53	4898.62
473.749	5031.62
473.968	5516.62
474.187	6402.62
474.406	6132.62
474.625	5134.62
474.844	4973.62
475.063	4886.62
475.282	4858.62
475.501	4885.62
475.72	4973.62
475.939	5053.62
476.158	5023.62
476.377	5060.62
476.596	5086.62
476.814	5204.62
477.033	5249.62
477.252	5343.62
477.471	5338.62
477.69	5609.62
477.908	5676.62
478.127	5773.62
478.346	5753.62
478.564	5989.62
478.783	5980.62
479.002	6134.62
479.22	6154.62
479.439	6275.62
479.658	6354.62
479.876	6355.62
480.095	6621.62
480.313	6976.62
480.532	6924.62
480.751	6725.62
480.969	6662.62
481.188	6665.62
481.406	6363.62
481.624	6170.62
481.843	5966.62
482.061	5821.62
482.28	5702.62
482.498	5780.62
482.717	5725.62
482.935	5717.62
483.153	5729.62
483.372	5666.62
483.59	5666.62
483.808	5676.62
484.027	5755.62
484.245	5766.62
484.463	5842.62
484.681	5871.62
484.9	5900.62
485.118	5931.62
485.336	6058.62
485.554	6031.62
485.772	6012.62
485.99	6139.62
486.209	6140.62
486.427	6142.62
486.645	6209.62
486.863	6367.62
487.081	6297.62
487.299	6164.62
487.517	6180.62
487.735	6129.62
487.953	6128.62
