Data from Circ_2012_H10_HRD10591_00084.txt Node
Date: Wed Jan 03 10:06:07 EST 2024
User: Yrep
Spectrometer: HR+D1059
Trigger mode: 1
Integration Time (sec): 1.000000E-1
Scans to average: 1
Electric dark correction enabled: true
Nonlinearity correction enabled: false
Boxcar width: 0
XAxis mode: Wavelengths
Number of Pixels in Spectrum: 2048
>>>>>Begin Spectral Data<<<<<
223.165	-26.88
223.4	-26.88
223.635	-26.88
223.869	-15.88
224.104	-16.88
224.338	-8.88
224.573	-12.88
224.808	-4.88
225.042	1.12
225.277	4.12
225.511	-11.88
225.746	-1.88
225.98	11.12
226.215	7.12
226.449	9.12
226.683	18.12
226.918	25.12
227.152	24.12
227.387	13.12
227.621	35.12
227.856	51.12
228.09	52.12
228.324	62.12
228.559	60.12
228.793	53.12
229.027	42.12
229.262	75.12
229.496	69.12
229.73	86.12
229.964	83.12
230.199	79.12
230.433	74.12
230.667	72.12
230.901	90.12
231.136	94.12
231.37	89.12
231.604	77.12
231.838	99.12
232.072	83.12
232.306	78.12
232.541	76.12
232.775	85.12
233.009	85.12
233.243	84.12
233.477	71.12
233.711	80.12
233.945	75.12
234.179	72.12
234.413	89.12
234.647	81.12
234.881	77.12
235.115	85.12
235.349	73.12
235.583	86.12
235.817	76.12
236.051	84.12
236.285	76.12
236.519	71.12
236.753	68.12
236.987	95.12
237.221	67.12
237.455	87.12
237.689	70.12
237.922	83.12
238.156	70.12
238.39	83.12
238.624	71.12
238.858	75.12
239.091	90.12
239.325	69.12
239.559	88.12
239.793	81.12
240.027	69.12
240.26	89.12
240.494	80.12
240.728	71.12
240.961	84.12
241.195	83.12
241.429	77.12
241.662	73.12
241.896	72.12
242.13	84.12
242.363	83.12
242.597	67.12
242.83	85.12
243.064	71.12
243.298	82.12
243.531	85.12
243.765	85.12
243.998	76.12
244.232	82.12
244.465	93.12
244.699	79.12
244.932	75.12
245.166	87.12
245.399	93.12
245.633	78.12
245.866	89.12
246.099	66.12
246.333	70.12
246.566	85.12
246.8	88.12
247.033	84.12
247.266	68.12
247.5	80.12
247.733	84.12
247.966	82.12
248.2	64.12
248.433	76.12
248.666	75.12
248.899	74.12
249.133	78.12
249.366	88.12
249.599	100.12
249.832	72.12
250.066	92.12
250.299	78.12
250.532	81.12
250.765	89.12
250.998	88.12
251.231	77.12
251.465	63.12
251.698	72.12
251.931	69.12
252.164	89.12
252.397	84.12
252.63	84.12
252.863	67.12
253.096	89.12
253.329	71.12
253.562	67.12
253.795	76.12
254.028	92.12
254.261	94.12
254.494	86.12
254.727	71.12
254.96	76.12
255.193	81.12
255.426	86.12
255.659	73.12
255.892	77.12
256.124	77.12
256.357	85.12
256.59	89.12
256.823	82.12
257.056	90.12
257.289	89.12
257.521	70.12
257.754	76.12
257.987	77.12
258.22	87.12
258.452	86.12
258.685	85.12
258.918	81.12
259.151	77.12
259.383	81.12
259.616	84.12
259.849	95.12
260.081	82.12
260.314	95.12
260.547	82.12
260.779	82.12
261.012	87.12
261.244	79.12
261.477	94.12
261.71	81.12
261.942	115.12
262.175	112.12
262.407	93.12
262.64	78.12
262.872	87.12
263.105	100.12
263.337	83.12
263.57	76.12
263.802	81.12
264.035	98.12
264.267	73.12
264.499	92.12
264.732	86.12
264.964	79.12
265.197	87.12
265.429	84.12
265.661	94.12
265.894	91.12
266.126	81.12
266.358	90.12
266.591	96.12
266.823	85.12
267.055	87.12
267.287	76.12
267.52	79.12
267.752	90.12
267.984	92.12
268.216	79.12
268.448	75.12
268.681	92.12
268.913	79.12
269.145	78.12
269.377	79.12
269.609	81.12
269.841	82.12
270.073	89.12
270.306	90.12
270.538	72.12
270.77	84.12
271.002	93.12
271.234	85.12
271.466	94.12
271.698	78.12
271.93	67.12
272.162	78.12
272.394	89.12
272.626	78.12
272.858	88.12
273.09	84.12
273.322	88.12
273.553	79.12
273.785	74.12
274.017	86.12
274.249	80.12
274.481	89.12
274.713	83.12
274.945	83.12
275.176	85.12
275.408	81.12
275.64	71.12
275.872	86.12
276.104	79.12
276.335	97.12
276.567	100.12
276.799	107.12
277.031	93.12
277.262	93.12
277.494	80.12
277.726	87.12
277.957	99.12
278.189	98.12
278.421	93.12
278.652	87.12
278.884	89.12
279.115	95.12
279.347	76.12
279.579	79.12
279.81	89.12
280.042	85.12
280.273	86.12
280.505	81.12
280.736	85.12
280.968	93.12
281.199	91.12
281.431	91.12
281.662	89.12
281.894	86.12
282.125	94.12
282.356	125.12
282.588	131.12
282.819	124.12
283.051	88.12
283.282	81.12
283.513	78.12
283.745	70.12
283.976	64.12
284.207	70.12
284.439	81.12
284.67	89.12
284.901	85.12
285.132	69.12
285.364	90.12
285.595	80.12
285.826	90.12
286.057	99.12
286.288	85.12
286.52	81.12
286.751	94.12
286.982	94.12
287.213	87.12
287.444	99.12
287.675	88.12
287.906	87.12
288.138	95.12
288.369	90.12
288.6	106.12
288.831	82.12
289.062	79.12
289.293	79.12
289.524	79.12
289.755	82.12
289.986	91.12
290.217	86.12
290.448	84.12
290.679	80.12
290.91	84.12
291.141	74.12
291.371	76.12
291.602	87.12
291.833	88.12
292.064	85.12
292.295	91.12
292.526	89.12
292.757	98.12
292.987	90.12
293.218	99.12
293.449	87.12
293.68	91.12
293.91	78.12
294.141	85.12
294.372	93.12
294.603	96.12
294.833	85.12
295.064	92.12
295.295	85.12
295.525	101.12
295.756	104.12
295.987	107.12
296.217	142.12
296.448	135.12
296.679	99.12
296.909	97.12
297.14	90.12
297.37	104.12
297.601	85.12
297.831	83.12
298.062	88.12
298.292	93.12
298.523	94.12
298.753	95.12
298.984	80.12
299.214	87.12
299.445	96.12
299.675	95.12
299.905	100.12
300.136	88.12
300.366	81.12
300.597	81.12
300.827	112.12
301.057	91.12
301.288	87.12
301.518	92.12
301.748	98.12
301.979	89.12
302.209	93.12
302.439	88.12
302.669	99.12
302.9	89.12
303.13	88.12
303.36	86.12
303.59	100.12
303.82	83.12
304.051	94.12
304.281	93.12
304.511	103.12
304.741	82.12
304.971	73.12
305.201	91.12
305.431	91.12
305.661	95.12
305.891	88.12
306.121	89.12
306.352	84.12
306.582	90.12
306.812	89.12
307.042	84.12
307.272	96.12
307.502	103.12
307.731	92.12
307.961	78.12
308.191	95.12
308.421	100.12
308.651	94.12
308.881	72.12
309.111	101.12
309.341	94.12
309.571	83.12
309.8	99.12
310.03	101.12
310.26	95.12
310.49	92.12
310.72	96.12
310.949	102.12
311.179	102.12
311.409	93.12
311.639	96.12
311.868	92.12
312.098	97.12
312.328	93.12
312.557	100.12
312.787	93.12
313.017	104.12
313.246	78.12
313.476	92.12
313.706	88.12
313.935	85.12
314.165	88.12
314.394	103.12
314.624	95.12
314.853	102.12
315.083	104.12
315.312	82.12
315.542	90.12
315.771	88.12
316.001	93.12
316.23	94.12
316.46	82.12
316.689	86.12
316.919	85.12
317.148	93.12
317.377	101.12
317.607	95.12
317.836	83.12
318.065	95.12
318.295	86.12
318.524	70.12
318.753	90.12
318.983	100.12
319.212	106.12
319.441	102.12
319.67	103.12
319.9	92.12
320.129	73.12
320.358	90.12
320.587	98.12
320.816	103.12
321.046	92.12
321.275	101.12
321.504	108.12
321.733	92.12
321.962	105.12
322.191	88.12
322.42	106.12
322.649	99.12
322.878	103.12
323.108	95.12
323.337	119.12
323.566	125.12
323.795	137.12
324.024	198.12
324.253	351.12
324.482	726.12
324.71	1499.12
324.939	1983.12
325.168	757.12
325.397	230.12
325.626	126.12
325.855	113.12
326.084	106.12
326.313	134.12
326.542	149.12
326.77	215.12
326.999	444.12
327.228	874.12
327.457	1549.12
327.686	1245.12
327.914	363.12
328.143	186.12
328.372	153.12
328.6	121.12
328.829	118.12
329.058	141.12
329.287	120.12
329.515	96.12
329.744	121.12
329.972	123.12
330.201	123.12
330.43	157.12
330.658	135.12
330.887	139.12
331.115	116.12
331.344	102.12
331.572	92.12
331.801	99.12
332.03	108.12
332.258	93.12
332.486	87.12
332.715	97.12
332.943	93.12
333.172	107.12
333.4	88.12
333.629	102.12
333.857	115.12
334.085	143.12
334.314	142.12
334.542	172.12
334.771	170.12
334.999	113.12
335.227	112.12
335.455	102.12
335.684	103.12
335.912	95.12
336.14	80.12
336.369	98.12
336.597	101.12
336.825	91.12
337.053	90.12
337.281	76.12
337.51	92.12
337.738	86.12
337.966	82.12
338.194	101.12
338.422	96.12
338.65	89.12
338.878	83.12
339.106	88.12
339.334	102.12
339.562	87.12
339.79	95.12
340.018	89.12
340.246	95.12
340.474	90.12
340.702	86.12
340.93	91.12
341.158	94.12
341.386	80.12
341.614	79.12
341.842	96.12
342.07	87.12
342.298	87.12
342.526	93.12
342.754	84.12
342.981	90.12
343.209	91.12
343.437	98.12
343.665	96.12
343.893	96.12
344.12	82.12
344.348	88.12
344.576	78.12
344.804	94.12
345.031	90.12
345.259	94.12
345.487	105.12
345.714	99.12
345.942	85.12
346.17	94.12
346.397	94.12
346.625	92.12
346.853	100.12
347.08	81.12
347.308	85.12
347.535	94.12
347.763	104.12
347.99	102.12
348.218	95.12
348.445	87.12
348.673	103.12
348.9	99.12
349.128	95.12
349.355	103.12
349.583	99.12
349.81	102.12
350.037	87.12
350.265	84.12
350.492	88.12
350.72	97.12
350.947	101.12
351.174	107.12
351.402	126.12
351.629	115.12
351.856	93.12
352.083	94.12
352.311	96.12
352.538	117.12
352.765	107.12
352.992	108.12
353.22	103.12
353.447	109.12
353.674	101.12
353.901	85.12
354.128	88.12
354.355	82.12
354.583	87.12
354.81	98.12
355.037	108.12
355.264	93.12
355.491	108.12
355.718	89.12
355.945	97.12
356.172	102.12
356.399	101.12
356.626	103.12
356.853	96.12
357.08	101.12
357.307	92.12
357.534	100.12
357.761	85.12
357.988	92.12
358.215	90.12
358.441	101.12
358.668	92.12
358.895	82.12
359.122	85.12
359.349	94.12
359.576	96.12
359.802	95.12
360.029	97.12
360.256	99.12
360.483	101.12
360.709	93.12
360.936	96.12
361.163	92.12
361.39	106.12
361.616	83.12
361.843	83.12
362.07	93.12
362.296	91.12
362.523	81.12
362.749	85.12
362.976	93.12
363.203	97.12
363.429	99.12
363.656	88.12
363.882	80.12
364.109	96.12
364.335	95.12
364.562	89.12
364.788	96.12
365.015	94.12
365.241	111.12
365.468	101.12
365.694	105.12
365.92	101.12
366.147	92.12
366.373	86.12
366.599	93.12
366.826	94.12
367.052	95.12
367.278	89.12
367.505	90.12
367.731	96.12
367.957	85.12
368.184	88.12
368.41	88.12
368.636	91.12
368.862	119.12
369.089	90.12
369.315	107.12
369.541	93.12
369.767	101.12
369.993	88.12
370.219	78.12
370.445	91.12
370.672	97.12
370.898	86.12
371.124	95.12
371.35	105.12
371.576	80.12
371.802	91.12
372.028	84.12
372.254	75.12
372.48	75.12
372.706	80.12
372.932	79.12
373.158	90.12
373.384	89.12
373.61	90.12
373.835	104.12
374.061	89.12
374.287	85.12
374.513	76.12
374.739	86.12
374.965	78.12
375.191	88.12
375.416	90.12
375.642	95.12
375.868	86.12
376.094	83.12
376.319	85.12
376.545	89.12
376.771	88.12
376.997	87.12
377.222	102.12
377.448	106.12
377.674	70.12
377.899	87.12
378.125	89.12
378.35	77.12
378.576	89.12
378.802	89.12
379.027	92.12
379.253	104.12
379.478	85.12
379.704	99.12
379.929	85.12
380.155	93.12
380.38	101.12
380.606	93.12
380.831	94.12
381.057	87.12
381.282	84.12
381.507	79.12
381.733	92.12
381.958	94.12
382.184	96.12
382.409	96.12
382.634	104.12
382.86	101.12
383.085	105.12
383.31	102.12
383.535	104.12
383.761	97.12
383.986	115.12
384.211	99.12
384.436	104.12
384.662	102.12
384.887	96.12
385.112	92.12
385.337	97.12
385.562	103.12
385.787	99.12
386.013	110.12
386.238	114.12
386.463	110.12
386.688	113.12
386.913	101.12
387.138	97.12
387.363	90.12
387.588	93.12
387.813	96.12
388.038	100.12
388.263	121.12
388.488	115.12
388.713	100.12
388.938	95.12
389.163	98.12
389.387	89.12
389.612	97.12
389.837	86.12
390.062	88.12
390.287	92.12
390.512	97.12
390.736	97.12
390.961	96.12
391.186	99.12
391.411	94.12
391.636	93.12
391.86	92.12
392.085	81.12
392.31	92.12
392.534	101.12
392.759	80.12
392.984	84.12
393.208	107.12
393.433	99.12
393.658	76.12
393.882	100.12
394.107	82.12
394.331	78.12
394.556	91.12
394.78	89.12
395.005	80.12
395.229	87.12
395.454	92.12
395.678	83.12
395.903	88.12
396.127	94.12
396.352	106.12
396.576	96.12
396.801	88.12
397.025	75.12
397.249	85.12
397.474	81.12
397.698	92.12
397.922	92.12
398.147	94.12
398.371	84.12
398.595	95.12
398.82	92.12
399.044	95.12
399.268	85.12
399.492	80.12
399.717	104.12
399.941	93.12
400.165	85.12
400.389	87.12
400.613	82.12
400.837	104.12
401.062	87.12
401.286	84.12
401.51	85.12
401.734	79.12
401.958	110.12
402.182	138.12
402.406	149.12
402.63	96.12
402.854	89.12
403.078	96.12
403.302	75.12
403.526	80.12
403.75	97.12
403.974	85.12
404.198	97.12
404.422	86.12
404.645	72.12
404.869	81.12
405.093	91.12
405.317	89.12
405.541	107.12
405.765	100.12
405.988	92.12
406.212	145.12
406.436	202.12
406.66	125.12
406.883	87.12
407.107	92.12
407.331	93.12
407.555	96.12
407.778	96.12
408.002	74.12
408.226	88.12
408.449	101.12
408.673	89.12
408.896	94.12
409.12	88.12
409.344	83.12
409.567	104.12
409.791	97.12
410.014	88.12
410.238	108.12
410.461	89.12
410.685	89.12
410.908	90.12
411.132	108.12
411.355	108.12
411.578	97.12
411.802	92.12
412.025	96.12
412.249	78.12
412.472	93.12
412.695	94.12
412.919	92.12
413.142	99.12
413.365	94.12
413.589	84.12
413.812	94.12
414.035	99.12
414.258	78.12
414.482	85.12
414.705	84.12
414.928	103.12
415.151	85.12
415.374	97.12
415.597	84.12
415.821	77.12
416.044	80.12
416.267	79.12
416.49	97.12
416.713	92.12
416.936	89.12
417.159	81.12
417.382	93.12
417.605	101.12
417.828	95.12
418.051	103.12
418.274	73.12
418.497	78.12
418.72	88.12
418.943	94.12
419.166	77.12
419.389	94.12
419.611	85.12
419.834	87.12
420.057	86.12
420.28	95.12
420.503	88.12
420.726	82.12
420.948	92.12
421.171	103.12
421.394	110.12
421.617	98.12
421.839	98.12
422.062	99.12
422.285	86.12
422.507	91.12
422.73	89.12
422.953	82.12
423.175	95.12
423.398	98.12
423.621	75.12
423.843	72.12
424.066	92.12
424.288	86.12
424.511	94.12
424.733	78.12
424.956	102.12
425.178	95.12
425.401	90.12
425.623	100.12
425.846	87.12
426.068	95.12
426.291	81.12
426.513	96.12
426.735	108.12
426.958	106.12
427.18	103.12
427.402	116.12
427.625	149.12
427.847	131.12
428.069	120.12
428.292	89.12
428.514	98.12
428.736	85.12
428.958	88.12
429.181	102.12
429.403	90.12
429.625	74.12
429.847	93.12
430.069	95.12
430.292	88.12
430.514	94.12
430.736	102.12
430.958	88.12
431.18	87.12
431.402	71.12
431.624	81.12
431.846	78.12
432.068	88.12
432.29	85.12
432.512	80.12
432.734	85.12
432.956	79.12
433.178	97.12
433.4	89.12
433.622	87.12
433.844	85.12
434.066	77.12
434.287	106.12
434.509	81.12
434.731	101.12
434.953	92.12
435.175	91.12
435.397	92.12
435.618	86.12
435.84	95.12
436.062	119.12
436.284	115.12
436.505	103.12
436.727	84.12
436.949	103.12
437.17	93.12
437.392	94.12
437.614	90.12
437.835	114.12
438.057	103.12
438.278	116.12
438.5	103.12
438.721	100.12
438.943	97.12
439.165	99.12
439.386	81.12
439.608	99.12
439.829	102.12
440.05	112.12
440.272	136.12
440.493	104.12
440.715	94.12
440.936	89.12
441.158	98.12
441.379	102.12
441.6	81.12
441.822	100.12
442.043	93.12
442.264	110.12
442.486	94.12
442.707	86.12
442.928	93.12
443.149	107.12
443.371	124.12
443.592	103.12
443.813	87.12
444.034	96.12
444.255	105.12
444.476	93.12
444.698	98.12
444.919	68.12
445.14	137.12
445.361	115.12
445.582	110.12
445.803	136.12
446.024	125.12
446.245	114.12
446.466	104.12
446.687	86.12
446.908	94.12
447.129	89.12
447.35	84.12
447.571	85.12
447.792	91.12
448.013	100.12
448.234	92.12
448.455	97.12
448.675	119.12
448.896	93.12
449.117	104.12
449.338	109.12
449.559	118.12
449.779	140.12
450	107.12
450.221	79.12
450.442	87.12
450.662	83.12
450.883	100.12
451.104	92.12
451.324	81.12
451.545	75.12
451.766	85.12
451.986	86.12
452.207	94.12
452.428	90.12
452.648	101.12
452.869	96.12
453.089	97.12
453.31	87.12
453.53	98.12
453.751	109.12
453.971	102.12
454.192	95.12
454.412	93.12
454.633	90.12
454.853	90.12
455.073	80.12
455.294	84.12
455.514	100.12
455.734	81.12
455.955	85.12
456.175	88.12
456.395	92.12
456.616	89.12
456.836	93.12
457.056	77.12
457.276	91.12
457.497	90.12
457.717	81.12
457.937	104.12
458.157	90.12
458.377	81.12
458.598	95.12
458.818	139.12
459.038	135.12
459.258	108.12
459.478	96.12
459.698	82.12
459.918	80.12
460.138	79.12
460.358	81.12
460.578	94.12
460.798	102.12
461.018	84.12
461.238	76.12
461.458	69.12
461.678	82.12
461.898	94.12
462.118	90.12
462.338	75.12
462.558	73.12
462.777	90.12
462.997	98.12
463.217	84.12
463.437	91.12
463.657	92.12
463.876	93.12
464.096	85.12
464.316	93.12
464.536	109.12
464.755	97.12
464.975	99.12
465.195	137.12
465.414	141.12
465.634	85.12
465.854	93.12
466.073	84.12
466.293	84.12
466.512	78.12
466.732	92.12
466.951	102.12
467.171	79.12
467.391	87.12
467.61	105.12
467.829	90.12
468.049	104.12
468.268	106.12
468.488	94.12
468.707	75.12
468.927	86.12
469.146	91.12
469.365	86.12
469.585	84.12
469.804	92.12
470.023	94.12
470.243	99.12
470.462	89.12
470.681	115.12
470.901	80.12
471.12	86.12
471.339	84.12
471.558	84.12
471.777	86.12
471.997	94.12
472.216	136.12
472.435	208.12
472.654	108.12
472.873	81.12
473.092	88.12
473.311	95.12
473.53	81.12
473.749	81.12
473.968	95.12
474.187	109.12
474.406	109.12
474.625	87.12
474.844	77.12
475.063	84.12
475.282	85.12
475.501	100.12
475.72	94.12
475.939	88.12
476.158	63.12
476.377	87.12
476.596	91.12
476.814	80.12
477.033	100.12
477.252	87.12
477.471	76.12
477.69	95.12
477.908	98.12
478.127	75.12
478.346	97.12
478.564	95.12
478.783	89.12
479.002	90.12
479.22	101.12
479.439	94.12
479.658	102.12
479.876	104.12
480.095	89.12
480.313	85.12
480.532	99.12
480.751	97.12
480.969	142.12
481.188	297.12
481.406	216.12
481.624	104.12
481.843	92.12
482.061	95.12
482.28	87.12
482.498	93.12
482.717	92.12
482.935	92.12
483.153	85.12
483.372	80.12
483.59	100.12
483.808	92.12
484.027	83.12
484.245	86.12
484.463	100.12
484.681	91.12
484.9	93.12
485.118	89.12
485.336	102.12
485.554	91.12
485.772	93.12
485.99	84.12
486.209	103.12
486.427	113.12
486.645	104.12
486.863	110.12
487.081	122.12
487.299	93.12
487.517	87.12
487.735	95.12
487.953	79.12
488.171	79.12
488.389	97.12
488.607	105.12
488.825	89.12
489.043	86.12
489.261	96.12
489.479	92.12
489.696	96.12
489.914	81.12
490.132	85.12
490.35	84.12
490.568	85.12
490.786	93.12
491.003	79.12
491.221	95.12
491.439	85.12
491.657	99.12
491.874	94.12
492.092	92.12
492.31	88.12
492.527	94.12
492.745	88.12
492.963	88.12
493.18	82.12
493.398	89.12
493.615	94.12
493.833	86.12
494.05	80.12
494.268	88.12
494.485	82.12
494.703	88.12
494.92	77.12
495.138	98.12
495.355	102.12
495.573	89.12
495.79	101.12
496.008	98.12
496.225	77.12
496.442	80.12
496.66	77.12
496.877	81.12
497.094	92.12
497.312	77.12
497.529	81.12
497.746	86.12
497.963	93.12
498.181	101.12
498.398	93.12
498.615	90.12
498.832	90.12
499.049	80.12
499.267	96.12
499.484	87.12
499.701	92.12
499.918	89.12
500.135	81.12
500.352	99.12
500.569	97.12
500.786	100.12
501.003	96.12
501.22	85.12
501.437	93.12
501.654	102.12
501.871	94.12
502.088	87.12
502.305	98.12
502.522	89.12
502.739	77.12
502.956	93.12
503.172	96.12
503.389	93.12
503.606	99.12
503.823	96.12
504.04	103.12
504.256	91.12
504.473	92.12
504.69	97.12
504.907	91.12
505.123	80.12
505.34	80.12
505.557	82.12
505.773	91.12
505.99	92.12
506.207	92.12
506.423	93.12
506.64	100.12
506.856	88.12
507.073	78.12
507.289	93.12
507.506	108.12
507.722	100.12
507.939	103.12
508.155	92.12
508.372	85.12
508.588	80.12
508.805	97.12
509.021	99.12
509.238	115.12
509.454	107.12
509.67	85.12
509.887	103.12
510.103	124.12
510.319	200.12
510.536	681.12
510.752	2108.12
510.968	591.12
511.184	161.12
511.401	103.12
511.617	93.12
511.833	101.12
512.049	101.12
512.265	98.12
512.481	88.12
512.698	84.12
512.914	86.12
513.13	85.12
513.346	101.12
513.562	88.12
513.778	99.12
513.994	108.12
514.21	94.12
514.426	109.12
514.642	125.12
514.858	107.12
515.074	144.12
515.29	405.12
515.506	1256.12
515.721	486.12
515.937	135.12
