Data from Circ_2012_H10_HRD10591_00097.txt Node
Date: Wed Jan 03 10:06:09 EST 2024
User: Yrep
Spectrometer: HR+D1059
Trigger mode: 1
Integration Time (sec): 1.000000E-1
Scans to average: 1
Electric dark correction enabled: true
Nonlinearity correction enabled: false
Boxcar width: 0
XAxis mode: Wavelengths
Number of Pixels in Spectrum: 2048
>>>>>Begin Spectral Data<<<<<
223.165	-12.12
223.4	-12.12
223.635	-12.12
223.869	-6.12
224.104	-19.12
224.338	-33.12
224.573	-26.12
224.808	-10.12
225.042	-5.12
225.277	-2.12
225.511	-13.12
225.746	9.88
225.98	6.88
226.215	11.88
226.449	6.88
226.683	24.88
226.918	22.88
227.152	43.88
227.387	31.88
227.621	37.88
227.856	40.88
228.09	50.88
228.324	37.88
228.559	55.88
228.793	56.88
229.027	70.88
229.262	66.88
229.496	77.88
229.73	88.88
229.964	77.88
230.199	75.88
230.433	83.88
230.667	76.88
230.901	83.88
231.136	78.88
231.37	96.88
231.604	77.88
231.838	79.88
232.072	65.88
232.306	81.88
232.541	85.88
232.775	74.88
233.009	71.88
233.243	71.88
233.477	76.88
233.711	96.88
233.945	74.88
234.179	84.88
234.413	63.88
234.647	71.88
234.881	75.88
235.115	88.88
235.349	79.88
235.583	80.88
235.817	73.88
236.051	77.88
236.285	85.88
236.519	74.88
236.753	70.88
236.987	82.88
237.221	81.88
237.455	83.88
237.689	77.88
237.922	71.88
238.156	76.88
238.39	64.88
238.624	72.88
238.858	63.88
239.091	73.88
239.325	68.88
239.559	65.88
239.793	66.88
240.027	92.88
240.26	85.88
240.494	75.88
240.728	59.88
240.961	74.88
241.195	81.88
241.429	75.88
241.662	68.88
241.896	73.88
242.13	65.88
242.363	78.88
242.597	84.88
242.83	78.88
243.064	86.88
243.298	87.88
243.531	77.88
243.765	73.88
243.998	70.88
244.232	78.88
244.465	86.88
244.699	80.88
244.932	69.88
245.166	74.88
245.399	74.88
245.633	91.88
245.866	77.88
246.099	72.88
246.333	86.88
246.566	73.88
246.8	75.88
247.033	71.88
247.266	75.88
247.5	63.88
247.733	64.88
247.966	66.88
248.2	69.88
248.433	82.88
248.666	78.88
248.899	80.88
249.133	75.88
249.366	86.88
249.599	89.88
249.832	89.88
250.066	79.88
250.299	77.88
250.532	76.88
250.765	78.88
250.998	96.88
251.231	79.88
251.465	81.88
251.698	69.88
251.931	85.88
252.164	65.88
252.397	78.88
252.63	84.88
252.863	76.88
253.096	74.88
253.329	78.88
253.562	82.88
253.795	74.88
254.028	78.88
254.261	86.88
254.494	63.88
254.727	86.88
254.96	61.88
255.193	77.88
255.426	65.88
255.659	63.88
255.892	67.88
256.124	66.88
256.357	75.88
256.59	72.88
256.823	78.88
257.056	72.88
257.289	74.88
257.521	84.88
257.754	88.88
257.987	82.88
258.22	93.88
258.452	88.88
258.685	75.88
258.918	83.88
259.151	79.88
259.383	72.88
259.616	72.88
259.849	74.88
260.081	77.88
260.314	77.88
260.547	85.88
260.779	65.88
261.012	70.88
261.244	84.88
261.477	84.88
261.71	98.88
261.942	111.88
262.175	107.88
262.407	96.88
262.64	87.88
262.872	73.88
263.105	76.88
263.337	92.88
263.57	74.88
263.802	93.88
264.035	79.88
264.267	78.88
264.499	75.88
264.732	70.88
264.964	69.88
265.197	82.88
265.429	96.88
265.661	82.88
265.894	84.88
266.126	86.88
266.358	69.88
266.591	91.88
266.823	88.88
267.055	73.88
267.287	81.88
267.52	90.88
267.752	87.88
267.984	81.88
268.216	83.88
268.448	77.88
268.681	82.88
268.913	74.88
269.145	75.88
269.377	80.88
269.609	73.88
269.841	77.88
270.073	89.88
270.306	90.88
270.538	94.88
270.77	78.88
271.002	82.88
271.234	84.88
271.466	78.88
271.698	90.88
271.93	87.88
272.162	89.88
272.394	84.88
272.626	102.88
272.858	73.88
273.09	76.88
273.322	71.88
273.553	79.88
273.785	80.88
274.017	83.88
274.249	72.88
274.481	72.88
274.713	91.88
274.945	64.88
275.176	76.88
275.408	81.88
275.64	72.88
275.872	73.88
276.104	81.88
276.335	91.88
276.567	116.88
276.799	99.88
277.031	95.88
277.262	91.88
277.494	81.88
277.726	87.88
277.957	70.88
278.189	78.88
278.421	92.88
278.652	88.88
278.884	78.88
279.115	101.88
279.347	84.88
279.579	85.88
279.81	77.88
280.042	100.88
280.273	104.88
280.505	76.88
280.736	69.88
280.968	78.88
281.199	76.88
281.431	76.88
281.662	96.88
281.894	88.88
282.125	94.88
282.356	121.88
282.588	131.88
282.819	110.88
283.051	94.88
283.282	71.88
283.513	93.88
283.745	81.88
283.976	91.88
284.207	88.88
284.439	80.88
284.67	89.88
284.901	75.88
285.132	89.88
285.364	90.88
285.595	77.88
285.826	89.88
286.057	92.88
286.288	81.88
286.52	87.88
286.751	81.88
286.982	89.88
287.213	70.88
287.444	80.88
287.675	88.88
287.906	78.88
288.138	90.88
288.369	90.88
288.6	86.88
288.831	86.88
289.062	67.88
289.293	67.88
289.524	95.88
289.755	89.88
289.986	94.88
290.217	81.88
290.448	86.88
290.679	81.88
290.91	75.88
291.141	85.88
291.371	75.88
291.602	85.88
291.833	82.88
292.064	80.88
292.295	88.88
292.526	78.88
292.757	87.88
292.987	69.88
293.218	94.88
293.449	75.88
293.68	80.88
293.91	70.88
294.141	86.88
294.372	90.88
294.603	92.88
294.833	86.88
295.064	79.88
295.295	73.88
295.525	89.88
295.756	104.88
295.987	105.88
296.217	117.88
296.448	120.88
296.679	90.88
296.909	89.88
297.14	95.88
297.37	90.88
297.601	99.88
297.831	84.88
298.062	93.88
298.292	96.88
298.523	83.88
298.753	80.88
298.984	82.88
299.214	85.88
299.445	91.88
299.675	86.88
299.905	107.88
300.136	95.88
300.366	89.88
300.597	92.88
300.827	96.88
301.057	102.88
301.288	107.88
301.518	88.88
301.748	89.88
301.979	101.88
302.209	99.88
302.439	86.88
302.669	88.88
302.9	93.88
303.13	72.88
303.36	100.88
303.59	92.88
303.82	109.88
304.051	88.88
304.281	79.88
304.511	101.88
304.741	89.88
304.971	86.88
305.201	97.88
305.431	96.88
305.661	99.88
305.891	91.88
306.121	90.88
306.352	90.88
306.582	103.88
306.812	112.88
307.042	91.88
307.272	108.88
307.502	83.88
307.731	97.88
307.961	95.88
308.191	98.88
308.421	94.88
308.651	86.88
308.881	93.88
309.111	103.88
309.341	88.88
309.571	91.88
309.8	94.88
310.03	93.88
310.26	112.88
310.49	92.88
310.72	111.88
310.949	108.88
311.179	99.88
311.409	87.88
311.639	93.88
311.868	95.88
312.098	92.88
312.328	93.88
312.557	98.88
312.787	102.88
313.017	100.88
313.246	78.88
313.476	93.88
313.706	102.88
313.935	92.88
314.165	93.88
314.394	102.88
314.624	96.88
314.853	89.88
315.083	92.88
315.312	89.88
315.542	77.88
315.771	91.88
316.001	95.88
316.23	96.88
316.46	70.88
316.689	84.88
316.919	93.88
317.148	88.88
317.377	81.88
317.607	96.88
317.836	81.88
318.065	75.88
318.295	66.88
318.524	75.88
318.753	74.88
318.983	91.88
319.212	96.88
319.441	102.88
319.67	109.88
319.9	102.88
320.129	98.88
320.358	90.88
320.587	86.88
320.816	99.88
321.046	92.88
321.275	101.88
321.504	98.88
321.733	100.88
321.962	94.88
322.191	112.88
322.42	105.88
322.649	128.88
322.878	105.88
323.108	124.88
323.337	126.88
323.566	126.88
323.795	148.88
324.024	220.88
324.253	407.88
324.482	886.88
324.71	1788.88
324.939	2411.88
325.168	863.88
325.397	242.88
325.626	147.88
325.855	139.88
326.084	127.88
326.313	118.88
326.542	156.88
326.77	237.88
326.999	510.88
327.228	1038.88
327.457	1873.88
327.686	1508.88
327.914	397.88
328.143	198.88
328.372	171.88
328.6	131.88
328.829	142.88
329.058	137.88
329.287	136.88
329.515	113.88
329.744	104.88
329.972	138.88
330.201	145.88
330.43	201.88
330.658	157.88
330.887	154.88
331.115	131.88
331.344	100.88
331.572	95.88
331.801	104.88
332.03	107.88
332.258	89.88
332.486	87.88
332.715	88.88
332.943	96.88
333.172	92.88
333.4	103.88
333.629	116.88
333.857	116.88
334.085	139.88
334.314	148.88
334.542	216.88
334.771	221.88
334.999	123.88
335.227	107.88
335.455	88.88
335.684	85.88
335.912	92.88
336.14	92.88
336.369	107.88
336.597	104.88
336.825	100.88
337.053	104.88
337.281	96.88
337.51	83.88
337.738	94.88
337.966	94.88
338.194	90.88
338.422	104.88
338.65	99.88
338.878	92.88
339.106	86.88
339.334	88.88
339.562	86.88
339.79	87.88
340.018	88.88
340.246	89.88
340.474	103.88
340.702	85.88
340.93	89.88
341.158	82.88
341.386	98.88
341.614	88.88
341.842	81.88
342.07	89.88
342.298	78.88
342.526	83.88
342.754	101.88
342.981	83.88
343.209	78.88
343.437	100.88
343.665	86.88
343.893	98.88
344.12	105.88
344.348	90.88
344.576	97.88
344.804	91.88
345.031	91.88
345.259	101.88
345.487	95.88
345.714	92.88
345.942	89.88
346.17	98.88
346.397	100.88
346.625	100.88
346.853	93.88
347.08	96.88
347.308	100.88
347.535	85.88
347.763	112.88
347.99	103.88
348.218	110.88
348.445	104.88
348.673	102.88
348.9	112.88
349.128	105.88
349.355	100.88
349.583	114.88
349.81	89.88
350.037	96.88
350.265	88.88
350.492	81.88
350.72	103.88
350.947	99.88
351.174	112.88
351.402	132.88
351.629	100.88
351.856	100.88
352.083	106.88
352.311	113.88
352.538	103.88
352.765	98.88
352.992	109.88
353.22	140.88
353.447	110.88
353.674	104.88
353.901	81.88
354.128	88.88
354.355	84.88
354.583	104.88
354.81	95.88
355.037	86.88
355.264	93.88
355.491	88.88
355.718	84.88
355.945	93.88
356.172	94.88
356.399	83.88
356.626	84.88
356.853	97.88
357.08	89.88
357.307	91.88
357.534	101.88
357.761	99.88
357.988	96.88
358.215	87.88
358.441	86.88
358.668	91.88
358.895	101.88
359.122	88.88
359.349	87.88
359.576	82.88
359.802	94.88
360.029	122.88
360.256	113.88
360.483	90.88
360.709	96.88
360.936	91.88
361.163	100.88
361.39	95.88
361.616	91.88
361.843	95.88
362.07	92.88
362.296	97.88
362.523	91.88
362.749	88.88
362.976	84.88
363.203	88.88
363.429	72.88
363.656	85.88
363.882	87.88
364.109	77.88
364.335	84.88
364.562	91.88
364.788	81.88
365.015	92.88
365.241	82.88
365.468	99.88
365.694	114.88
365.92	87.88
366.147	99.88
366.373	85.88
366.599	83.88
366.826	87.88
367.052	90.88
367.278	94.88
367.505	86.88
367.731	97.88
367.957	90.88
368.184	85.88
368.41	87.88
368.636	104.88
368.862	106.88
369.089	114.88
369.315	89.88
369.541	84.88
369.767	89.88
369.993	90.88
370.219	97.88
370.445	88.88
370.672	79.88
370.898	84.88
371.124	89.88
371.35	88.88
371.576	88.88
371.802	75.88
372.028	84.88
372.254	92.88
372.48	93.88
372.706	92.88
372.932	87.88
373.158	94.88
373.384	88.88
373.61	90.88
373.835	92.88
374.061	92.88
374.287	91.88
374.513	83.88
374.739	98.88
374.965	83.88
375.191	95.88
375.416	78.88
375.642	86.88
375.868	79.88
376.094	81.88
376.319	86.88
376.545	100.88
376.771	90.88
376.997	88.88
377.222	90.88
377.448	86.88
377.674	99.88
377.899	75.88
378.125	97.88
378.35	99.88
378.576	73.88
378.802	91.88
379.027	89.88
379.253	88.88
379.478	86.88
379.704	95.88
379.929	82.88
380.155	97.88
380.38	92.88
380.606	96.88
380.831	92.88
381.057	90.88
381.282	103.88
381.507	101.88
381.733	77.88
381.958	94.88
382.184	79.88
382.409	99.88
382.634	97.88
382.86	89.88
383.085	99.88
383.31	97.88
383.535	96.88
383.761	89.88
383.986	99.88
384.211	104.88
384.436	93.88
384.662	88.88
384.887	93.88
385.112	91.88
385.337	84.88
385.562	96.88
385.787	100.88
386.013	94.88
386.238	106.88
386.463	108.88
386.688	102.88
386.913	99.88
387.138	91.88
387.363	98.88
387.588	76.88
387.813	86.88
388.038	101.88
388.263	110.88
388.488	110.88
388.713	90.88
388.938	89.88
389.163	97.88
389.387	100.88
389.612	78.88
389.837	87.88
390.062	91.88
390.287	95.88
390.512	83.88
390.736	85.88
390.961	89.88
391.186	96.88
391.411	86.88
391.636	78.88
391.86	91.88
392.085	94.88
392.31	77.88
392.534	74.88
392.759	100.88
392.984	97.88
393.208	76.88
393.433	86.88
393.658	101.88
393.882	89.88
394.107	82.88
394.331	74.88
394.556	91.88
394.78	85.88
395.005	89.88
395.229	90.88
395.454	89.88
395.678	75.88
395.903	80.88
396.127	83.88
396.352	85.88
396.576	87.88
396.801	92.88
397.025	87.88
397.249	75.88
397.474	92.88
397.698	79.88
397.922	94.88
398.147	81.88
398.371	70.88
398.595	83.88
398.82	77.88
399.044	92.88
399.268	91.88
399.492	83.88
399.717	96.88
399.941	98.88
400.165	77.88
400.389	84.88
400.613	89.88
400.837	100.88
401.062	71.88
401.286	88.88
401.51	94.88
401.734	91.88
401.958	104.88
402.182	117.88
402.406	148.88
402.63	115.88
402.854	105.88
403.078	101.88
403.302	102.88
403.526	81.88
403.75	69.88
403.974	62.88
404.198	102.88
404.422	82.88
404.645	79.88
404.869	92.88
405.093	103.88
405.317	97.88
405.541	111.88
405.765	102.88
405.988	112.88
406.212	173.88
406.436	232.88
406.66	146.88
406.883	87.88
407.107	82.88
407.331	83.88
407.555	106.88
407.778	92.88
408.002	93.88
408.226	89.88
408.449	86.88
408.673	81.88
408.896	94.88
409.12	92.88
409.344	92.88
409.567	93.88
409.791	93.88
410.014	86.88
410.238	82.88
410.461	93.88
410.685	94.88
410.908	91.88
411.132	97.88
411.355	99.88
411.578	91.88
411.802	64.88
412.025	85.88
412.249	99.88
412.472	89.88
412.695	116.88
412.919	95.88
413.142	84.88
413.365	90.88
413.589	92.88
413.812	95.88
414.035	81.88
414.258	80.88
414.482	83.88
414.705	82.88
414.928	86.88
415.151	83.88
415.374	92.88
415.597	81.88
415.821	77.88
416.044	86.88
416.267	82.88
416.49	75.88
416.713	85.88
416.936	99.88
417.159	92.88
417.382	79.88
417.605	85.88
417.828	85.88
418.051	92.88
418.274	77.88
418.497	93.88
418.72	79.88
418.943	86.88
419.166	70.88
419.389	73.88
419.611	75.88
419.834	83.88
420.057	88.88
420.28	88.88
420.503	78.88
420.726	84.88
420.948	93.88
421.171	85.88
421.394	80.88
421.617	87.88
421.839	73.88
422.062	80.88
422.285	101.88
422.507	87.88
422.73	101.88
422.953	81.88
423.175	75.88
423.398	82.88
423.621	70.88
423.843	86.88
424.066	91.88
424.288	79.88
424.511	100.88
424.733	92.88
424.956	112.88
425.178	90.88
425.401	112.88
425.623	99.88
425.846	91.88
426.068	86.88
426.291	99.88
426.513	88.88
426.735	92.88
426.958	96.88
427.18	112.88
427.402	149.88
427.625	171.88
427.847	132.88
428.069	116.88
428.292	96.88
428.514	82.88
428.736	77.88
428.958	90.88
429.181	83.88
429.403	83.88
429.625	85.88
429.847	86.88
430.069	101.88
430.292	90.88
430.514	75.88
430.736	88.88
430.958	92.88
431.18	86.88
431.402	88.88
431.624	85.88
431.846	77.88
432.068	92.88
432.29	94.88
432.512	87.88
432.734	77.88
432.956	82.88
433.178	98.88
433.4	92.88
433.622	96.88
433.844	97.88
434.066	84.88
434.287	85.88
434.509	82.88
434.731	76.88
434.953	85.88
435.175	84.88
435.397	98.88
435.618	93.88
435.84	105.88
436.062	128.88
436.284	123.88
436.505	86.88
436.727	85.88
436.949	98.88
437.17	78.88
437.392	82.88
437.614	84.88
437.835	92.88
438.057	115.88
438.278	98.88
438.5	105.88
438.721	129.88
438.943	95.88
439.165	81.88
439.386	96.88
439.608	88.88
439.829	108.88
440.05	128.88
440.272	131.88
440.493	109.88
440.715	80.88
440.936	88.88
441.158	86.88
441.379	94.88
441.6	94.88
441.822	93.88
442.043	86.88
442.264	96.88
442.486	97.88
442.707	92.88
442.928	112.88
443.149	135.88
443.371	136.88
443.592	101.88
443.813	104.88
444.034	106.88
444.255	88.88
444.476	96.88
444.698	70.88
444.919	80.88
445.14	105.88
445.361	129.88
445.582	105.88
445.803	158.88
446.024	152.88
446.245	140.88
446.466	117.88
446.687	91.88
446.908	84.88
447.129	87.88
447.35	96.88
447.571	83.88
447.792	89.88
448.013	90.88
448.234	105.88
448.455	88.88
448.675	121.88
448.896	130.88
449.117	101.88
449.338	93.88
449.559	147.88
449.779	147.88
450	95.88
450.221	104.88
450.442	81.88
450.662	77.88
450.883	107.88
451.104	115.88
451.324	102.88
451.545	71.88
451.766	85.88
451.986	82.88
452.207	79.88
452.428	94.88
452.648	87.88
452.869	101.88
453.089	108.88
453.31	119.88
453.53	93.88
453.751	88.88
453.971	99.88
454.192	101.88
454.412	102.88
454.633	94.88
454.853	76.88
455.073	85.88
455.294	92.88
455.514	114.88
455.734	85.88
455.955	79.88
456.175	61.88
456.395	84.88
456.616	90.88
456.836	88.88
457.056	77.88
457.276	82.88
457.497	93.88
457.717	76.88
457.937	82.88
458.157	80.88
458.377	98.88
458.598	118.88
458.818	160.88
459.038	164.88
459.258	137.88
459.478	90.88
459.698	83.88
459.918	84.88
460.138	81.88
460.358	75.88
460.578	92.88
460.798	73.88
461.018	80.88
461.238	79.88
461.458	84.88
461.678	76.88
461.898	89.88
462.118	81.88
462.338	96.88
462.558	90.88
462.777	75.88
462.997	80.88
463.217	81.88
463.437	75.88
463.657	91.88
463.876	80.88
464.096	89.88
464.316	78.88
464.536	94.88
464.755	84.88
464.975	115.88
465.195	156.88
465.414	148.88
465.634	97.88
465.854	87.88
466.073	84.88
466.293	92.88
466.512	75.88
466.732	77.88
466.951	89.88
467.171	80.88
467.391	100.88
467.61	106.88
467.829	106.88
468.049	128.88
468.268	138.88
468.488	97.88
468.707	84.88
468.927	81.88
469.146	94.88
469.365	88.88
469.585	76.88
469.804	77.88
470.023	92.88
470.243	86.88
470.462	100.88
470.681	94.88
470.901	93.88
471.12	84.88
471.339	76.88
471.558	95.88
471.777	84.88
471.997	99.88
472.216	152.88
472.435	268.88
472.654	114.88
472.873	80.88
473.092	76.88
473.311	88.88
473.53	78.88
473.749	84.88
473.968	100.88
474.187	112.88
474.406	91.88
474.625	88.88
474.844	82.88
475.063	83.88
475.282	76.88
475.501	81.88
475.72	88.88
475.939	76.88
476.158	88.88
476.377	86.88
476.596	85.88
476.814	86.88
477.033	77.88
477.252	88.88
477.471	91.88
477.69	88.88
477.908	99.88
478.127	84.88
478.346	87.88
478.564	86.88
478.783	84.88
479.002	98.88
479.22	91.88
479.439	103.88
479.658	106.88
479.876	102.88
480.095	70.88
480.313	92.88
480.532	81.88
480.751	125.88
480.969	166.88
481.188	421.88
481.406	279.88
481.624	100.88
481.843	91.88
482.061	84.88
482.28	82.88
482.498	84.88
482.717	82.88
482.935	94.88
483.153	90.88
483.372	96.88
483.59	72.88
483.808	97.88
484.027	88.88
484.245	82.88
484.463	98.88
484.681	86.88
484.9	79.88
485.118	97.88
485.336	94.88
485.554	74.88
485.772	90.88
485.99	105.88
486.209	87.88
486.427	93.88
486.645	119.88
486.863	99.88
487.081	100.88
487.299	100.88
487.517	90.88
487.735	77.88
487.953	103.88
488.171	90.88
488.389	87.88
488.607	117.88
488.825	89.88
489.043	82.88
489.261	80.88
489.479	89.88
489.696	82.88
489.914	88.88
490.132	99.88
490.35	85.88
490.568	101.88
490.786	93.88
491.003	76.88
491.221	93.88
491.439	84.88
491.657	92.88
491.874	75.88
492.092	85.88
492.31	101.88
492.527	93.88
492.745	91.88
492.963	68.88
493.18	85.88
493.398	103.88
493.615	82.88
493.833	91.88
494.05	90.88
494.268	86.88
494.485	97.88
494.703	82.88
494.92	90.88
495.138	88.88
495.355	85.88
495.573	97.88
495.79	97.88
496.008	92.88
496.225	82.88
496.442	95.88
496.66	101.88
496.877	105.88
497.094	87.88
497.312	72.88
497.529	83.88
497.746	90.88
497.963	101.88
498.181	111.88
498.398	98.88
498.615	122.88
498.832	108.88
499.049	93.88
499.267	83.88
499.484	97.88
499.701	83.88
499.918	93.88
500.135	77.88
500.352	80.88
500.569	81.88
500.786	96.88
501.003	83.88
501.22	102.88
501.437	85.88
501.654	89.88
501.871	105.88
502.088	76.88
502.305	87.88
502.522	86.88
502.739	86.88
502.956	83.88
503.172	107.88
503.389	89.88
503.606	93.88
503.823	95.88
504.04	92.88
504.256	73.88
504.473	82.88
504.69	76.88
504.907	82.88
505.123	77.88
505.34	93.88
505.557	90.88
505.773	86.88
505.99	85.88
506.207	85.88
506.423	83.88
506.64	73.88
506.856	81.88
507.073	84.88
507.289	94.88
507.506	84.88
507.722	119.88
507.939	111.88
508.155	99.88
508.372	96.88
508.588	83.88
508.805	98.88
509.021	91.88
509.238	98.88
509.454	72.88
509.67	100.88
509.887	98.88
510.103	120.88
510.319	205.88
510.536	737.88
510.752	2401.88
510.968	678.88
511.184	155.88
511.401	112.88
511.617	91.88
511.833	113.88
512.049	101.88
512.265	86.88
512.481	99.88
512.698	97.88
512.914	91.88
513.13	91.88
513.346	97.88
513.562	98.88
513.778	83.88
513.994	96.88
514.21	97.88
514.426	112.88
514.642	132.88
514.858	122.88
515.074	157.88
515.29	462.88
515.506	1515.88
515.721	586.88
515.937	168.88
516.153	99.88
