Data from Circ_2012_H10_HRD10591_00046.txt Node
Date: Wed Jan 03 10:05:59 EST 2024
User: Yrep
Spectrometer: HR+D1059
Trigger mode: 1
Integration Time (sec): 1.000000E-1
Scans to average: 1
Electric dark correction enabled: true
Nonlinearity correction enabled: false
Boxcar width: 0
XAxis mode: Wavelengths
Number of Pixels in Spectrum: 2048
>>>>>Begin Spectral Data<<<<<
223.165	-16.62
223.4	-16.62
223.635	-16.62
223.869	-15.62
224.104	-16.62
224.338	-2.62
224.573	-3.62
224.808	-22.62
225.042	-10.62
225.277	2.38
225.511	-1.62
225.746	-4.62
225.98	-14.62
226.215	9.38
226.449	16.38
226.683	20.38
226.918	23.38
227.152	37.38
227.387	46.38
227.621	44.38
227.856	50.38
228.09	46.38
228.324	64.38
228.559	61.38
228.793	69.38
229.027	73.38
229.262	55.38
229.496	69.38
229.73	78.38
229.964	83.38
230.199	87.38
230.433	74.38
230.667	71.38
230.901	70.38
231.136	78.38
231.37	74.38
231.604	82.38
231.838	90.38
232.072	87.38
232.306	79.38
232.541	82.38
232.775	90.38
233.009	93.38
233.243	76.38
233.477	81.38
233.711	93.38
233.945	72.38
234.179	82.38
234.413	92.38
234.647	96.38
234.881	76.38
235.115	94.38
235.349	79.38
235.583	80.38
235.817	84.38
236.051	88.38
236.285	76.38
236.519	90.38
236.753	87.38
236.987	80.38
237.221	94.38
237.455	92.38
237.689	78.38
237.922	75.38
238.156	74.38
238.39	75.38
238.624	81.38
238.858	88.38
239.091	77.38
239.325	85.38
239.559	83.38
239.793	69.38
240.027	73.38
240.26	84.38
240.494	79.38
240.728	78.38
240.961	85.38
241.195	65.38
241.429	66.38
241.662	85.38
241.896	81.38
242.13	98.38
242.363	91.38
242.597	74.38
242.83	97.38
243.064	69.38
243.298	87.38
243.531	70.38
243.765	69.38
243.998	69.38
244.232	72.38
244.465	103.38
244.699	85.38
244.932	84.38
245.166	74.38
245.399	74.38
245.633	89.38
245.866	88.38
246.099	71.38
246.333	78.38
246.566	82.38
246.8	87.38
247.033	83.38
247.266	85.38
247.5	76.38
247.733	87.38
247.966	80.38
248.2	78.38
248.433	83.38
248.666	81.38
248.899	67.38
249.133	83.38
249.366	103.38
249.599	94.38
249.832	96.38
250.066	81.38
250.299	99.38
250.532	87.38
250.765	92.38
250.998	89.38
251.231	70.38
251.465	86.38
251.698	79.38
251.931	96.38
252.164	72.38
252.397	89.38
252.63	74.38
252.863	85.38
253.096	81.38
253.329	81.38
253.562	96.38
253.795	83.38
254.028	77.38
254.261	88.38
254.494	89.38
254.727	99.38
254.96	90.38
255.193	85.38
255.426	76.38
255.659	70.38
255.892	89.38
256.124	80.38
256.357	101.38
256.59	90.38
256.823	82.38
257.056	81.38
257.289	80.38
257.521	74.38
257.754	86.38
257.987	89.38
258.22	75.38
258.452	80.38
258.685	75.38
258.918	101.38
259.151	93.38
259.383	74.38
259.616	91.38
259.849	73.38
260.081	80.38
260.314	94.38
260.547	83.38
260.779	88.38
261.012	79.38
261.244	79.38
261.477	86.38
261.71	101.38
261.942	124.38
262.175	111.38
262.407	100.38
262.64	87.38
262.872	74.38
263.105	89.38
263.337	87.38
263.57	71.38
263.802	82.38
264.035	82.38
264.267	77.38
264.499	89.38
264.732	92.38
264.964	91.38
265.197	75.38
265.429	83.38
265.661	73.38
265.894	94.38
266.126	89.38
266.358	100.38
266.591	82.38
266.823	80.38
267.055	75.38
267.287	87.38
267.52	81.38
267.752	85.38
267.984	73.38
268.216	97.38
268.448	80.38
268.681	93.38
268.913	93.38
269.145	86.38
269.377	87.38
269.609	103.38
269.841	96.38
270.073	104.38
270.306	85.38
270.538	81.38
270.77	74.38
271.002	93.38
271.234	93.38
271.466	93.38
271.698	87.38
271.93	91.38
272.162	84.38
272.394	95.38
272.626	77.38
272.858	92.38
273.09	94.38
273.322	85.38
273.553	87.38
273.785	91.38
274.017	78.38
274.249	78.38
274.481	87.38
274.713	89.38
274.945	98.38
275.176	98.38
275.408	108.38
275.64	82.38
275.872	104.38
276.104	85.38
276.335	86.38
276.567	103.38
276.799	123.38
277.031	90.38
277.262	86.38
277.494	84.38
277.726	74.38
277.957	80.38
278.189	87.38
278.421	90.38
278.652	105.38
278.884	76.38
279.115	75.38
279.347	87.38
279.579	83.38
279.81	95.38
280.042	87.38
280.273	80.38
280.505	80.38
280.736	83.38
280.968	91.38
281.199	80.38
281.431	91.38
281.662	87.38
281.894	97.38
282.125	110.38
282.356	118.38
282.588	150.38
282.819	118.38
283.051	91.38
283.282	81.38
283.513	94.38
283.745	82.38
283.976	96.38
284.207	98.38
284.439	96.38
284.67	92.38
284.901	82.38
285.132	86.38
285.364	81.38
285.595	90.38
285.826	91.38
286.057	90.38
286.288	90.38
286.52	87.38
286.751	93.38
286.982	93.38
287.213	77.38
287.444	93.38
287.675	88.38
287.906	107.38
288.138	102.38
288.369	85.38
288.6	88.38
288.831	91.38
289.062	74.38
289.293	87.38
289.524	101.38
289.755	78.38
289.986	85.38
290.217	96.38
290.448	82.38
290.679	87.38
290.91	88.38
291.141	76.38
291.371	93.38
291.602	88.38
291.833	84.38
292.064	82.38
292.295	89.38
292.526	88.38
292.757	99.38
292.987	87.38
293.218	93.38
293.449	97.38
293.68	82.38
293.91	109.38
294.141	85.38
294.372	103.38
294.603	91.38
294.833	94.38
295.064	89.38
295.295	76.38
295.525	98.38
295.756	98.38
295.987	122.38
296.217	146.38
296.448	136.38
296.679	97.38
296.909	91.38
297.14	89.38
297.37	96.38
297.601	104.38
297.831	89.38
298.062	96.38
298.292	89.38
298.523	94.38
298.753	90.38
298.984	95.38
299.214	93.38
299.445	106.38
299.675	95.38
299.905	88.38
300.136	86.38
300.366	89.38
300.597	99.38
300.827	87.38
301.057	102.38
301.288	103.38
301.518	101.38
301.748	83.38
301.979	108.38
302.209	89.38
302.439	86.38
302.669	84.38
302.9	86.38
303.13	98.38
303.36	96.38
303.59	101.38
303.82	115.38
304.051	96.38
304.281	101.38
304.511	100.38
304.741	89.38
304.971	95.38
305.201	94.38
305.431	82.38
305.661	84.38
305.891	88.38
306.121	94.38
306.352	111.38
306.582	104.38
306.812	99.38
307.042	91.38
307.272	87.38
307.502	96.38
307.731	100.38
307.961	106.38
308.191	89.38
308.421	102.38
308.651	91.38
308.881	88.38
309.111	109.38
309.341	99.38
309.571	96.38
309.8	96.38
310.03	103.38
310.26	99.38
310.49	99.38
310.72	89.38
310.949	87.38
311.179	101.38
311.409	94.38
311.639	95.38
311.868	86.38
312.098	98.38
312.328	99.38
312.557	111.38
312.787	103.38
313.017	98.38
313.246	94.38
313.476	95.38
313.706	92.38
313.935	93.38
314.165	104.38
314.394	106.38
314.624	111.38
314.853	107.38
315.083	89.38
315.312	102.38
315.542	106.38
315.771	97.38
316.001	97.38
316.23	88.38
316.46	101.38
316.689	85.38
316.919	78.38
317.148	102.38
317.377	94.38
317.607	98.38
317.836	104.38
318.065	91.38
318.295	96.38
318.524	106.38
318.753	104.38
318.983	99.38
319.212	108.38
319.441	101.38
319.67	115.38
319.9	88.38
320.129	100.38
320.358	103.38
320.587	97.38
320.816	111.38
321.046	106.38
321.275	90.38
321.504	96.38
321.733	104.38
321.962	106.38
322.191	105.38
322.42	104.38
322.649	100.38
322.878	97.38
323.108	125.38
323.337	134.38
323.566	125.38
323.795	151.38
324.024	211.38
324.253	401.38
324.482	827.38
324.71	1640.38
324.939	2212.38
325.168	812.38
325.397	233.38
325.626	153.38
325.855	123.38
326.084	120.38
326.313	133.38
326.542	151.38
326.77	231.38
326.999	445.38
327.228	933.38
327.457	1682.38
327.686	1342.38
327.914	375.38
328.143	213.38
328.372	170.38
328.6	135.38
328.829	130.38
329.058	144.38
329.287	119.38
329.515	108.38
329.744	113.38
329.972	108.38
330.201	126.38
330.43	141.38
330.658	152.38
330.887	133.38
331.115	113.38
331.344	104.38
331.572	98.38
331.801	103.38
332.03	103.38
332.258	91.38
332.486	96.38
332.715	89.38
332.943	115.38
333.172	104.38
333.4	102.38
333.629	91.38
333.857	107.38
334.085	110.38
334.314	137.38
334.542	146.38
334.771	149.38
334.999	115.38
335.227	98.38
335.455	106.38
335.684	105.38
335.912	107.38
336.14	115.38
336.369	104.38
336.597	98.38
336.825	103.38
337.053	88.38
337.281	101.38
337.51	102.38
337.738	101.38
337.966	87.38
338.194	88.38
338.422	80.38
338.65	101.38
338.878	101.38
339.106	95.38
339.334	91.38
339.562	77.38
339.79	110.38
340.018	92.38
340.246	95.38
340.474	107.38
340.702	113.38
340.93	102.38
341.158	110.38
341.386	92.38
341.614	115.38
341.842	92.38
342.07	90.38
342.298	93.38
342.526	102.38
342.754	101.38
342.981	97.38
343.209	89.38
343.437	83.38
343.665	91.38
343.893	88.38
344.12	86.38
344.348	103.38
344.576	95.38
344.804	93.38
345.031	100.38
345.259	108.38
345.487	92.38
345.714	98.38
345.942	95.38
346.17	90.38
346.397	90.38
346.625	79.38
346.853	87.38
347.08	89.38
347.308	102.38
347.535	90.38
347.763	105.38
347.99	97.38
348.218	110.38
348.445	113.38
348.673	111.38
348.9	112.38
349.128	93.38
349.355	107.38
349.583	95.38
349.81	93.38
350.037	97.38
350.265	89.38
350.492	98.38
350.72	115.38
350.947	104.38
351.174	114.38
351.402	114.38
351.629	114.38
351.856	90.38
352.083	105.38
352.311	101.38
352.538	108.38
352.765	111.38
352.992	115.38
353.22	119.38
353.447	102.38
353.674	87.38
353.901	101.38
354.128	99.38
354.355	103.38
354.583	102.38
354.81	93.38
355.037	103.38
355.264	103.38
355.491	102.38
355.718	81.38
355.945	90.38
356.172	92.38
356.399	105.38
356.626	93.38
356.853	71.38
357.08	86.38
357.307	94.38
357.534	96.38
357.761	97.38
357.988	102.38
358.215	91.38
358.441	91.38
358.668	102.38
358.895	82.38
359.122	97.38
359.349	100.38
359.576	93.38
359.802	88.38
360.029	108.38
360.256	113.38
360.483	104.38
360.709	90.38
360.936	94.38
361.163	98.38
361.39	86.38
361.616	111.38
361.843	102.38
362.07	101.38
362.296	106.38
362.523	103.38
362.749	96.38
362.976	94.38
363.203	100.38
363.429	86.38
363.656	97.38
363.882	87.38
364.109	84.38
364.335	96.38
364.562	101.38
364.788	80.38
365.015	92.38
365.241	121.38
365.468	119.38
365.694	123.38
365.92	101.38
366.147	101.38
366.373	92.38
366.599	84.38
366.826	80.38
367.052	83.38
367.278	110.38
367.505	96.38
367.731	86.38
367.957	85.38
368.184	98.38
368.41	99.38
368.636	121.38
368.862	124.38
369.089	113.38
369.315	102.38
369.541	102.38
369.767	103.38
369.993	105.38
370.219	95.38
370.445	94.38
370.672	83.38
370.898	81.38
371.124	91.38
371.35	94.38
371.576	98.38
371.802	103.38
372.028	88.38
372.254	92.38
372.48	97.38
372.706	90.38
372.932	89.38
373.158	94.38
373.384	96.38
373.61	74.38
373.835	99.38
374.061	97.38
374.287	94.38
374.513	94.38
374.739	86.38
374.965	90.38
375.191	98.38
375.416	95.38
375.642	104.38
375.868	87.38
376.094	89.38
376.319	106.38
376.545	93.38
376.771	92.38
376.997	102.38
377.222	94.38
377.448	89.38
377.674	100.38
377.899	96.38
378.125	97.38
378.35	94.38
378.576	95.38
378.802	88.38
379.027	94.38
379.253	86.38
379.478	112.38
379.704	111.38
379.929	88.38
380.155	88.38
380.38	79.38
380.606	93.38
380.831	93.38
381.057	90.38
381.282	96.38
381.507	94.38
381.733	103.38
381.958	104.38
382.184	104.38
382.409	95.38
382.634	92.38
382.86	98.38
383.085	104.38
383.31	111.38
383.535	104.38
383.761	105.38
383.986	102.38
384.211	113.38
384.436	117.38
384.662	97.38
384.887	113.38
385.112	108.38
385.337	109.38
385.562	108.38
385.787	100.38
386.013	126.38
386.238	112.38
386.463	103.38
386.688	103.38
386.913	113.38
387.138	105.38
387.363	99.38
387.588	97.38
387.813	109.38
388.038	107.38
388.263	114.38
388.488	104.38
388.713	105.38
388.938	98.38
389.163	98.38
389.387	103.38
389.612	96.38
389.837	91.38
390.062	98.38
390.287	91.38
390.512	89.38
390.736	92.38
390.961	95.38
391.186	101.38
391.411	98.38
391.636	96.38
391.86	102.38
392.085	87.38
392.31	98.38
392.534	76.38
392.759	104.38
392.984	94.38
393.208	93.38
393.433	84.38
393.658	96.38
393.882	98.38
394.107	85.38
394.331	93.38
394.556	87.38
394.78	100.38
395.005	96.38
395.229	85.38
395.454	93.38
395.678	84.38
395.903	91.38
396.127	82.38
396.352	88.38
396.576	98.38
396.801	102.38
397.025	92.38
397.249	99.38
397.474	88.38
397.698	89.38
397.922	80.38
398.147	87.38
398.371	104.38
398.595	95.38
398.82	98.38
399.044	93.38
399.268	104.38
399.492	105.38
399.717	95.38
399.941	98.38
400.165	100.38
400.389	93.38
400.613	83.38
400.837	89.38
401.062	96.38
401.286	88.38
401.51	83.38
401.734	92.38
401.958	105.38
402.182	132.38
402.406	151.38
402.63	114.38
402.854	101.38
403.078	104.38
403.302	93.38
403.526	94.38
403.75	90.38
403.974	90.38
404.198	81.38
404.422	93.38
404.645	92.38
404.869	86.38
405.093	91.38
405.317	109.38
405.541	115.38
405.765	100.38
405.988	129.38
406.212	183.38
406.436	234.38
406.66	147.38
406.883	90.38
407.107	99.38
407.331	96.38
407.555	102.38
407.778	104.38
408.002	93.38
408.226	97.38
408.449	107.38
408.673	97.38
408.896	84.38
409.12	95.38
409.344	85.38
409.567	101.38
409.791	88.38
410.014	76.38
410.238	103.38
410.461	89.38
410.685	93.38
410.908	92.38
411.132	119.38
411.355	106.38
411.578	96.38
411.802	106.38
412.025	95.38
412.249	88.38
412.472	87.38
412.695	106.38
412.919	86.38
413.142	83.38
413.365	107.38
413.589	90.38
413.812	93.38
414.035	82.38
414.258	95.38
414.482	103.38
414.705	90.38
414.928	101.38
415.151	94.38
415.374	90.38
415.597	85.38
415.821	65.38
416.044	100.38
416.267	93.38
416.49	82.38
416.713	95.38
416.936	81.38
417.159	96.38
417.382	95.38
417.605	96.38
417.828	97.38
418.051	101.38
418.274	99.38
418.497	87.38
418.72	97.38
418.943	103.38
419.166	88.38
419.389	91.38
419.611	94.38
419.834	89.38
420.057	100.38
420.28	103.38
420.503	96.38
420.726	97.38
420.948	80.38
421.171	93.38
421.394	104.38
421.617	85.38
421.839	97.38
422.062	89.38
422.285	79.38
422.507	93.38
422.73	84.38
422.953	96.38
423.175	84.38
423.398	87.38
423.621	79.38
423.843	90.38
424.066	88.38
424.288	93.38
424.511	89.38
424.733	105.38
424.956	118.38
425.178	109.38
425.401	102.38
425.623	95.38
425.846	96.38
426.068	102.38
426.291	86.38
426.513	94.38
426.735	100.38
426.958	93.38
427.18	104.38
427.402	137.38
427.625	171.38
427.847	141.38
428.069	137.38
428.292	89.38
428.514	91.38
428.736	90.38
428.958	79.38
429.181	81.38
429.403	83.38
429.625	95.38
429.847	95.38
430.069	107.38
430.292	100.38
430.514	85.38
430.736	87.38
430.958	93.38
431.18	96.38
431.402	90.38
431.624	86.38
431.846	86.38
432.068	96.38
432.29	87.38
432.512	79.38
432.734	78.38
432.956	110.38
433.178	81.38
433.4	89.38
433.622	97.38
433.844	87.38
434.066	102.38
434.287	97.38
434.509	79.38
434.731	94.38
434.953	97.38
435.175	81.38
435.397	100.38
435.618	97.38
435.84	107.38
436.062	126.38
436.284	111.38
436.505	95.38
436.727	97.38
436.949	95.38
437.17	86.38
437.392	92.38
437.614	85.38
437.835	115.38
438.057	126.38
438.278	105.38
438.5	102.38
438.721	120.38
438.943	102.38
439.165	85.38
439.386	92.38
439.608	89.38
439.829	90.38
440.05	112.38
440.272	147.38
440.493	106.38
440.715	96.38
440.936	106.38
441.158	89.38
441.379	94.38
441.6	100.38
441.822	90.38
442.043	114.38
442.264	97.38
442.486	99.38
442.707	103.38
442.928	97.38
443.149	122.38
443.371	121.38
443.592	119.38
443.813	109.38
444.034	111.38
444.255	97.38
444.476	79.38
444.698	104.38
444.919	92.38
445.14	121.38
445.361	126.38
445.582	109.38
445.803	138.38
446.024	129.38
446.245	133.38
446.466	114.38
446.687	92.38
446.908	96.38
447.129	89.38
447.35	91.38
447.571	109.38
447.792	114.38
448.013	89.38
448.234	93.38
448.455	105.38
448.675	106.38
448.896	106.38
449.117	96.38
449.338	104.38
449.559	131.38
449.779	138.38
450	96.38
450.221	100.38
450.442	90.38
450.662	87.38
450.883	113.38
451.104	102.38
451.324	98.38
451.545	89.38
451.766	93.38
451.986	90.38
452.207	78.38
452.428	102.38
452.648	103.38
452.869	119.38
453.089	112.38
453.31	136.38
453.53	89.38
453.751	95.38
453.971	112.38
454.192	105.38
454.412	74.38
454.633	97.38
454.853	74.38
455.073	86.38
455.294	98.38
455.514	95.38
455.734	89.38
455.955	78.38
456.175	87.38
456.395	98.38
456.616	106.38
456.836	101.38
457.056	87.38
457.276	90.38
457.497	83.38
457.717	81.38
457.937	86.38
458.157	89.38
458.377	97.38
458.598	106.38
458.818	147.38
459.038	165.38
459.258	135.38
459.478	92.38
459.698	99.38
459.918	86.38
460.138	99.38
460.358	90.38
460.578	95.38
460.798	101.38
461.018	106.38
461.238	87.38
461.458	91.38
461.678	77.38
461.898	94.38
462.118	105.38
462.338	90.38
462.558	81.38
462.777	97.38
462.997	87.38
463.217	76.38
463.437	83.38
463.657	93.38
463.876	86.38
464.096	92.38
464.316	89.38
464.536	102.38
464.755	103.38
464.975	109.38
465.195	162.38
465.414	153.38
465.634	98.38
465.854	81.38
466.073	91.38
466.293	95.38
466.512	94.38
466.732	102.38
466.951	103.38
467.171	74.38
467.391	82.38
467.61	101.38
467.829	104.38
468.049	106.38
468.268	117.38
468.488	94.38
468.707	100.38
468.927	83.38
469.146	96.38
469.365	92.38
469.585	80.38
469.804	98.38
470.023	94.38
470.243	98.38
470.462	92.38
470.681	106.38
470.901	92.38
471.12	83.38
471.339	94.38
471.558	99.38
471.777	96.38
471.997	111.38
472.216	136.38
472.435	164.38
472.654	90.38
472.873	86.38
473.092	78.38
473.311	90.38
473.53	96.38
473.749	94.38
473.968	98.38
474.187	99.38
474.406	90.38
474.625	88.38
474.844	91.38
475.063	79.38
475.282	94.38
475.501	81.38
475.72	105.38
475.939	112.38
476.158	104.38
476.377	89.38
476.596	89.38
476.814	98.38
477.033	98.38
477.252	97.38
477.471	95.38
477.69	91.38
477.908	89.38
478.127	70.38
478.346	95.38
478.564	97.38
478.783	114.38
479.002	97.38
479.22	87.38
479.439	98.38
479.658	106.38
479.876	105.38
480.095	100.38
480.313	89.38
480.532	93.38
480.751	105.38
480.969	146.38
481.188	227.38
481.406	179.38
481.624	103.38
481.843	105.38
482.061	80.38
482.28	93.38
482.498	96.38
482.717	101.38
482.935	91.38
483.153	76.38
483.372	106.38
483.59	75.38
483.808	88.38
484.027	98.38
484.245	102.38
484.463	102.38
484.681	94.38
484.9	93.38
485.118	101.38
485.336	85.38
485.554	98.38
485.772	83.38
485.99	104.38
486.209	95.38
486.427	101.38
486.645	102.38
486.863	118.38
487.081	83.38
487.299	94.38
487.517	94.38
487.735	101.38
487.953	89.38
488.171	94.38
488.389	87.38
488.607	109.38
488.825	93.38
489.043	86.38
489.261	85.38
489.479	89.38
489.696	92.38
489.914	94.38
490.132	93.38
490.35	105.38
490.568	91.38
490.786	101.38
491.003	89.38
491.221	84.38
491.439	84.38
491.657	92.38
491.874	101.38
492.092	79.38
492.31	97.38
492.527	87.38
492.745	81.38
492.963	98.38
493.18	102.38
493.398	107.38
493.615	84.38
493.833	96.38
494.05	85.38
494.268	112.38
494.485	98.38
494.703	94.38
494.92	101.38
495.138	90.38
495.355	96.38
495.573	103.38
495.79	118.38
496.008	90.38
496.225	92.38
496.442	96.38
496.66	94.38
496.877	83.38
497.094	106.38
497.312	87.38
497.529	93.38
497.746	93.38
497.963	94.38
498.181	89.38
498.398	92.38
498.615	108.38
498.832	112.38
499.049	100.38
499.267	96.38
499.484	96.38
499.701	103.38
499.918	99.38
500.135	101.38
500.352	103.38
500.569	90.38
500.786	85.38
501.003	90.38
501.22	97.38
501.437	108.38
501.654	113.38
501.871	115.38
502.088	108.38
502.305	87.38
502.522	73.38
502.739	92.38
502.956	82.38
503.172	121.38
503.389	94.38
503.606	117.38
503.823	107.38
504.04	113.38
504.256	97.38
504.473	96.38
504.69	79.38
504.907	93.38
505.123	101.38
505.34	99.38
505.557	83.38
505.773	98.38
505.99	92.38
506.207	82.38
506.423	94.38
506.64	95.38
506.856	94.38
507.073	101.38
507.289	92.38
507.506	97.38
507.722	111.38
507.939	111.38
508.155	94.38
508.372	109.38
508.588	106.38
508.805	104.38
509.021	108.38
509.238	87.38
509.454	112.38
509.67	105.38
509.887	111.38
510.103	131.38
510.319	212.38
510.536	793.38
510.752	2610.38
510.968	741.38
511.184	169.38
511.401	118.38
511.617	98.38
511.833	86.38
512.049	81.38
512.265	101.38
512.481	99.38
512.698	114.38
512.914	83.38
513.13	88.38
513.346	96.38
513.562	96.38
513.778	89.38
513.994	111.38
