Data from Circ_2012_H10_HRD10591_00082.txt Node
Date: Wed Jan 03 10:06:06 EST 2024
User: Yrep
Spectrometer: HR+D1059
Trigger mode: 1
Integration Time (sec): 1.000000E-1
Scans to average: 1
Electric dark correction enabled: true
Nonlinearity correction enabled: false
Boxcar width: 0
XAxis mode: Wavelengths
Number of Pixels in Spectrum: 2048
>>>>>Begin Spectral Data<<<<<
223.165	-4.69
223.4	-4.69
223.635	-4.69
223.869	-17.69
224.104	-18.69
224.338	-13.69
224.573	-13.69
224.808	-12.69
225.042	-1.69
225.277	-4.69
225.511	-3.69
225.746	-1.69
225.98	-2.69
226.215	7.31
226.449	4.31
226.683	28.31
226.918	26.31
227.152	29.31
227.387	34.31
227.621	31.31
227.856	43.31
228.09	44.31
228.324	47.31
228.559	68.31
228.793	59.31
229.027	67.31
229.262	70.31
229.496	68.31
229.73	75.31
229.964	82.31
230.199	76.31
230.433	70.31
230.667	74.31
230.901	66.31
231.136	83.31
231.37	72.31
231.604	70.31
231.838	80.31
232.072	82.31
232.306	70.31
232.541	88.31
232.775	76.31
233.009	83.31
233.243	93.31
233.477	69.31
233.711	86.31
233.945	91.31
234.179	94.31
234.413	89.31
234.647	78.31
234.881	62.31
235.115	100.31
235.349	70.31
235.583	74.31
235.817	79.31
236.051	75.31
236.285	61.31
236.519	77.31
236.753	74.31
236.987	69.31
237.221	87.31
237.455	86.31
237.689	69.31
237.922	91.31
238.156	82.31
238.39	71.31
238.624	80.31
238.858	80.31
239.091	76.31
239.325	78.31
239.559	74.31
239.793	73.31
240.027	91.31
240.26	79.31
240.494	75.31
240.728	73.31
240.961	73.31
241.195	83.31
241.429	82.31
241.662	78.31
241.896	63.31
242.13	71.31
242.363	77.31
242.597	71.31
242.83	79.31
243.064	86.31
243.298	77.31
243.531	80.31
243.765	70.31
243.998	71.31
244.232	91.31
244.465	74.31
244.699	85.31
244.932	76.31
245.166	69.31
245.399	77.31
245.633	70.31
245.866	91.31
246.099	92.31
246.333	91.31
246.566	78.31
246.8	78.31
247.033	94.31
247.266	93.31
247.5	70.31
247.733	71.31
247.966	82.31
248.2	66.31
248.433	83.31
248.666	80.31
248.899	80.31
249.133	75.31
249.366	100.31
249.599	96.31
249.832	71.31
250.066	78.31
250.299	84.31
250.532	84.31
250.765	89.31
250.998	93.31
251.231	100.31
251.465	86.31
251.698	93.31
251.931	90.31
252.164	83.31
252.397	84.31
252.63	89.31
252.863	85.31
253.096	72.31
253.329	84.31
253.562	87.31
253.795	75.31
254.028	81.31
254.261	93.31
254.494	86.31
254.727	92.31
254.96	93.31
255.193	85.31
255.426	88.31
255.659	77.31
255.892	88.31
256.124	82.31
256.357	84.31
256.59	83.31
256.823	73.31
257.056	82.31
257.289	90.31
257.521	86.31
257.754	92.31
257.987	86.31
258.22	88.31
258.452	88.31
258.685	87.31
258.918	93.31
259.151	83.31
259.383	71.31
259.616	86.31
259.849	87.31
260.081	91.31
260.314	70.31
260.547	92.31
260.779	99.31
261.012	92.31
261.244	79.31
261.477	89.31
261.71	81.31
261.942	114.31
262.175	100.31
262.407	75.31
262.64	83.31
262.872	64.31
263.105	76.31
263.337	73.31
263.57	83.31
263.802	88.31
264.035	83.31
264.267	91.31
264.499	80.31
264.732	86.31
264.964	81.31
265.197	76.31
265.429	84.31
265.661	82.31
265.894	87.31
266.126	77.31
266.358	79.31
266.591	75.31
266.823	83.31
267.055	68.31
267.287	86.31
267.52	85.31
267.752	76.31
267.984	79.31
268.216	83.31
268.448	85.31
268.681	89.31
268.913	88.31
269.145	90.31
269.377	85.31
269.609	83.31
269.841	88.31
270.073	88.31
270.306	87.31
270.538	79.31
270.77	92.31
271.002	78.31
271.234	92.31
271.466	88.31
271.698	88.31
271.93	84.31
272.162	81.31
272.394	98.31
272.626	95.31
272.858	83.31
273.09	98.31
273.322	73.31
273.553	88.31
273.785	99.31
274.017	84.31
274.249	96.31
274.481	87.31
274.713	79.31
274.945	82.31
275.176	76.31
275.408	95.31
275.64	93.31
275.872	92.31
276.104	90.31
276.335	97.31
276.567	98.31
276.799	111.31
277.031	107.31
277.262	96.31
277.494	79.31
277.726	81.31
277.957	89.31
278.189	86.31
278.421	87.31
278.652	82.31
278.884	81.31
279.115	86.31
279.347	90.31
279.579	87.31
279.81	84.31
280.042	94.31
280.273	95.31
280.505	86.31
280.736	90.31
280.968	86.31
281.199	86.31
281.431	79.31
281.662	99.31
281.894	70.31
282.125	93.31
282.356	116.31
282.588	130.31
282.819	117.31
283.051	88.31
283.282	94.31
283.513	80.31
283.745	83.31
283.976	82.31
284.207	84.31
284.439	96.31
284.67	95.31
284.901	81.31
285.132	86.31
285.364	91.31
285.595	89.31
285.826	90.31
286.057	85.31
286.288	82.31
286.52	90.31
286.751	70.31
286.982	87.31
287.213	86.31
287.444	85.31
287.675	91.31
287.906	103.31
288.138	76.31
288.369	87.31
288.6	99.31
288.831	98.31
289.062	87.31
289.293	96.31
289.524	95.31
289.755	84.31
289.986	91.31
290.217	91.31
290.448	86.31
290.679	91.31
290.91	81.31
291.141	73.31
291.371	96.31
291.602	106.31
291.833	75.31
292.064	94.31
292.295	92.31
292.526	99.31
292.757	80.31
292.987	76.31
293.218	87.31
293.449	95.31
293.68	91.31
293.91	90.31
294.141	99.31
294.372	92.31
294.603	84.31
294.833	88.31
295.064	81.31
295.295	98.31
295.525	91.31
295.756	104.31
295.987	102.31
296.217	130.31
296.448	119.31
296.679	96.31
296.909	103.31
297.14	95.31
297.37	80.31
297.601	78.31
297.831	97.31
298.062	89.31
298.292	88.31
298.523	87.31
298.753	100.31
298.984	96.31
299.214	104.31
299.445	92.31
299.675	88.31
299.905	81.31
300.136	87.31
300.366	90.31
300.597	100.31
300.827	94.31
301.057	85.31
301.288	97.31
301.518	89.31
301.748	79.31
301.979	91.31
302.209	96.31
302.439	94.31
302.669	99.31
302.9	76.31
303.13	93.31
303.36	88.31
303.59	96.31
303.82	111.31
304.051	88.31
304.281	99.31
304.511	85.31
304.741	82.31
304.971	88.31
305.201	85.31
305.431	84.31
305.661	97.31
305.891	90.31
306.121	70.31
306.352	98.31
306.582	100.31
306.812	91.31
307.042	103.31
307.272	88.31
307.502	110.31
307.731	103.31
307.961	98.31
308.191	86.31
308.421	90.31
308.651	89.31
308.881	91.31
309.111	99.31
309.341	97.31
309.571	98.31
309.8	89.31
310.03	92.31
310.26	101.31
310.49	102.31
310.72	92.31
310.949	90.31
311.179	101.31
311.409	97.31
311.639	87.31
311.868	95.31
312.098	96.31
312.328	99.31
312.557	100.31
312.787	101.31
313.017	89.31
313.246	96.31
313.476	85.31
313.706	79.31
313.935	99.31
314.165	102.31
314.394	100.31
314.624	102.31
314.853	101.31
315.083	102.31
315.312	92.31
315.542	98.31
315.771	87.31
316.001	96.31
316.23	91.31
316.46	105.31
316.689	97.31
316.919	97.31
317.148	99.31
317.377	96.31
317.607	100.31
317.836	98.31
318.065	99.31
318.295	90.31
318.524	101.31
318.753	100.31
318.983	101.31
319.212	89.31
319.441	101.31
319.67	97.31
319.9	85.31
320.129	90.31
320.358	100.31
320.587	100.31
320.816	89.31
321.046	95.31
321.275	83.31
321.504	72.31
321.733	90.31
321.962	91.31
322.191	74.31
322.42	92.31
322.649	105.31
322.878	85.31
323.108	99.31
323.337	124.31
323.566	136.31
323.795	144.31
324.024	198.31
324.253	382.31
324.482	724.31
324.71	1512.31
324.939	2006.31
325.168	735.31
325.397	243.31
325.626	134.31
325.855	134.31
326.084	120.31
326.313	122.31
326.542	155.31
326.77	228.31
326.999	423.31
327.228	846.31
327.457	1485.31
327.686	1199.31
327.914	335.31
328.143	180.31
328.372	143.31
328.6	121.31
328.829	115.31
329.058	129.31
329.287	122.31
329.515	109.31
329.744	111.31
329.972	106.31
330.201	135.31
330.43	165.31
330.658	141.31
330.887	148.31
331.115	132.31
331.344	107.31
331.572	99.31
331.801	100.31
332.03	101.31
332.258	112.31
332.486	99.31
332.715	83.31
332.943	88.31
333.172	106.31
333.4	106.31
333.629	108.31
333.857	104.31
334.085	127.31
334.314	134.31
334.542	182.31
334.771	160.31
334.999	94.31
335.227	101.31
335.455	109.31
335.684	104.31
335.912	92.31
336.14	87.31
336.369	96.31
336.597	105.31
336.825	82.31
337.053	86.31
337.281	98.31
337.51	86.31
337.738	97.31
337.966	98.31
338.194	84.31
338.422	98.31
338.65	95.31
338.878	93.31
339.106	89.31
339.334	103.31
339.562	85.31
339.79	88.31
340.018	90.31
340.246	92.31
340.474	88.31
340.702	96.31
340.93	91.31
341.158	87.31
341.386	99.31
341.614	83.31
341.842	85.31
342.07	90.31
342.298	106.31
342.526	111.31
342.754	84.31
342.981	72.31
343.209	98.31
343.437	106.31
343.665	97.31
343.893	87.31
344.12	97.31
344.348	88.31
344.576	87.31
344.804	83.31
345.031	106.31
345.259	105.31
345.487	96.31
345.714	85.31
345.942	99.31
346.17	93.31
346.397	109.31
346.625	91.31
346.853	88.31
347.08	104.31
347.308	98.31
347.535	102.31
347.763	108.31
347.99	90.31
348.218	95.31
348.445	104.31
348.673	97.31
348.9	83.31
349.128	93.31
349.355	85.31
349.583	97.31
349.81	80.31
350.037	87.31
350.265	93.31
350.492	86.31
350.72	84.31
350.947	92.31
351.174	107.31
351.402	104.31
351.629	87.31
351.856	91.31
352.083	102.31
352.311	101.31
352.538	106.31
352.765	98.31
352.992	103.31
353.22	104.31
353.447	98.31
353.674	91.31
353.901	91.31
354.128	94.31
354.355	99.31
354.583	97.31
354.81	108.31
355.037	94.31
355.264	91.31
355.491	88.31
355.718	91.31
355.945	80.31
356.172	95.31
356.399	96.31
356.626	91.31
356.853	93.31
357.08	79.31
357.307	89.31
357.534	91.31
357.761	86.31
357.988	91.31
358.215	102.31
358.441	90.31
358.668	97.31
358.895	93.31
359.122	92.31
359.349	93.31
359.576	95.31
359.802	89.31
360.029	112.31
360.256	103.31
360.483	90.31
360.709	74.31
360.936	88.31
361.163	84.31
361.39	94.31
361.616	104.31
361.843	103.31
362.07	95.31
362.296	90.31
362.523	91.31
362.749	89.31
362.976	85.31
363.203	88.31
363.429	93.31
363.656	97.31
363.882	96.31
364.109	92.31
364.335	94.31
364.562	99.31
364.788	101.31
365.015	94.31
365.241	95.31
365.468	92.31
365.694	90.31
365.92	83.31
366.147	76.31
366.373	87.31
366.599	87.31
366.826	96.31
367.052	98.31
367.278	90.31
367.505	81.31
367.731	75.31
367.957	92.31
368.184	86.31
368.41	86.31
368.636	100.31
368.862	114.31
369.089	99.31
369.315	88.31
369.541	77.31
369.767	82.31
369.993	90.31
370.219	82.31
370.445	71.31
370.672	79.31
370.898	92.31
371.124	89.31
371.35	80.31
371.576	88.31
371.802	83.31
372.028	96.31
372.254	80.31
372.48	82.31
372.706	101.31
372.932	92.31
373.158	82.31
373.384	92.31
373.61	83.31
373.835	94.31
374.061	81.31
374.287	87.31
374.513	91.31
374.739	101.31
374.965	96.31
375.191	93.31
375.416	79.31
375.642	98.31
375.868	87.31
376.094	97.31
376.319	75.31
376.545	79.31
376.771	92.31
376.997	86.31
377.222	72.31
377.448	86.31
377.674	86.31
377.899	80.31
378.125	75.31
378.35	96.31
378.576	86.31
378.802	80.31
379.027	91.31
379.253	91.31
379.478	100.31
379.704	77.31
379.929	91.31
380.155	81.31
380.38	92.31
380.606	87.31
380.831	98.31
381.057	103.31
381.282	86.31
381.507	98.31
381.733	101.31
381.958	104.31
382.184	99.31
382.409	94.31
382.634	91.31
382.86	83.31
383.085	107.31
383.31	102.31
383.535	100.31
383.761	94.31
383.986	114.31
384.211	79.31
384.436	82.31
384.662	86.31
384.887	110.31
385.112	95.31
385.337	101.31
385.562	97.31
385.787	114.31
386.013	99.31
386.238	110.31
386.463	96.31
386.688	101.31
386.913	105.31
387.138	109.31
387.363	97.31
387.588	95.31
387.813	84.31
388.038	103.31
388.263	116.31
388.488	102.31
388.713	94.31
388.938	104.31
389.163	90.31
389.387	93.31
389.612	88.31
389.837	89.31
390.062	85.31
390.287	80.31
390.512	94.31
390.736	92.31
390.961	95.31
391.186	89.31
391.411	95.31
391.636	71.31
391.86	74.31
392.085	75.31
392.31	76.31
392.534	77.31
392.759	74.31
392.984	91.31
393.208	96.31
393.433	82.31
393.658	91.31
393.882	85.31
394.107	82.31
394.331	87.31
394.556	87.31
394.78	83.31
395.005	83.31
395.229	70.31
395.454	85.31
395.678	86.31
395.903	85.31
396.127	91.31
396.352	71.31
396.576	94.31
396.801	77.31
397.025	79.31
397.249	86.31
397.474	89.31
397.698	93.31
397.922	99.31
398.147	87.31
398.371	93.31
398.595	89.31
398.82	83.31
399.044	79.31
399.268	80.31
399.492	90.31
399.717	101.31
399.941	92.31
400.165	98.31
400.389	104.31
400.613	89.31
400.837	84.31
401.062	103.31
401.286	90.31
401.51	85.31
401.734	89.31
401.958	95.31
402.182	114.31
402.406	139.31
402.63	115.31
402.854	84.31
403.078	93.31
403.302	98.31
403.526	85.31
403.75	77.31
403.974	87.31
404.198	86.31
404.422	104.31
404.645	90.31
404.869	89.31
405.093	93.31
405.317	106.31
405.541	105.31
405.765	91.31
405.988	127.31
406.212	170.31
406.436	228.31
406.66	136.31
406.883	103.31
407.107	102.31
407.331	82.31
407.555	94.31
407.778	90.31
408.002	89.31
408.226	80.31
408.449	79.31
408.673	94.31
408.896	105.31
409.12	90.31
409.344	84.31
409.567	97.31
409.791	81.31
410.014	99.31
410.238	84.31
410.461	94.31
410.685	90.31
410.908	101.31
411.132	106.31
411.355	101.31
411.578	107.31
411.802	84.31
412.025	91.31
412.249	96.31
412.472	111.31
412.695	90.31
412.919	98.31
413.142	86.31
413.365	75.31
413.589	92.31
413.812	75.31
414.035	84.31
414.258	80.31
414.482	91.31
414.705	72.31
414.928	92.31
415.151	92.31
415.374	86.31
415.597	88.31
415.821	86.31
416.044	85.31
416.267	85.31
416.49	91.31
416.713	77.31
416.936	94.31
417.159	74.31
417.382	77.31
417.605	87.31
417.828	92.31
418.051	90.31
418.274	81.31
418.497	80.31
418.72	71.31
418.943	80.31
419.166	96.31
419.389	99.31
419.611	104.31
419.834	106.31
420.057	94.31
420.28	74.31
420.503	91.31
420.726	92.31
420.948	106.31
421.171	96.31
421.394	90.31
421.617	86.31
421.839	102.31
422.062	94.31
422.285	97.31
422.507	84.31
422.73	97.31
422.953	89.31
423.175	94.31
423.398	114.31
423.621	92.31
423.843	79.31
424.066	91.31
424.288	83.31
424.511	87.31
424.733	103.31
424.956	103.31
425.178	104.31
425.401	96.31
425.623	88.31
425.846	98.31
426.068	104.31
426.291	85.31
426.513	89.31
426.735	90.31
426.958	80.31
427.18	104.31
427.402	128.31
427.625	151.31
427.847	132.31
428.069	110.31
428.292	99.31
428.514	94.31
428.736	87.31
428.958	80.31
429.181	95.31
429.403	83.31
429.625	83.31
429.847	83.31
430.069	97.31
430.292	70.31
430.514	74.31
430.736	70.31
430.958	96.31
431.18	103.31
431.402	82.31
431.624	79.31
431.846	83.31
432.068	80.31
432.29	74.31
432.512	94.31
432.734	79.31
432.956	89.31
433.178	105.31
433.4	102.31
433.622	77.31
433.844	88.31
434.066	84.31
434.287	95.31
434.509	81.31
434.731	76.31
434.953	93.31
435.175	90.31
435.397	89.31
435.618	98.31
435.84	90.31
436.062	99.31
436.284	105.31
436.505	92.31
436.727	102.31
436.949	99.31
437.17	99.31
437.392	80.31
437.614	87.31
437.835	93.31
438.057	108.31
438.278	111.31
438.5	106.31
438.721	123.31
438.943	86.31
439.165	81.31
439.386	103.31
439.608	92.31
439.829	83.31
440.05	121.31
440.272	122.31
440.493	109.31
440.715	75.31
440.936	79.31
441.158	80.31
441.379	86.31
441.6	96.31
441.822	104.31
442.043	115.31
442.264	95.31
442.486	99.31
442.707	78.31
442.928	105.31
443.149	126.31
443.371	112.31
443.592	108.31
443.813	97.31
444.034	96.31
444.255	99.31
444.476	79.31
444.698	79.31
444.919	91.31
445.14	129.31
445.361	105.31
445.582	119.31
445.803	131.31
446.024	134.31
446.245	112.31
446.466	105.31
446.687	79.31
446.908	86.31
447.129	80.31
447.35	87.31
447.571	81.31
447.792	100.31
448.013	101.31
448.234	101.31
448.455	102.31
448.675	101.31
448.896	119.31
449.117	95.31
449.338	103.31
449.559	112.31
449.779	121.31
450	95.31
450.221	80.31
450.442	101.31
450.662	85.31
450.883	100.31
451.104	110.31
451.324	92.31
451.545	90.31
451.766	90.31
451.986	94.31
452.207	77.31
452.428	82.31
452.648	94.31
452.869	90.31
453.089	104.31
453.31	119.31
453.53	107.31
453.751	87.31
453.971	103.31
454.192	101.31
454.412	103.31
454.633	92.31
454.853	81.31
455.073	87.31
455.294	78.31
455.514	95.31
455.734	85.31
455.955	98.31
456.175	89.31
456.395	80.31
456.616	86.31
456.836	84.31
457.056	75.31
457.276	82.31
457.497	90.31
457.717	90.31
457.937	98.31
458.157	81.31
458.377	84.31
458.598	101.31
458.818	140.31
459.038	144.31
459.258	116.31
459.478	97.31
459.698	81.31
459.918	79.31
460.138	84.31
460.358	77.31
460.578	80.31
460.798	88.31
461.018	107.31
461.238	75.31
461.458	80.31
461.678	83.31
461.898	79.31
462.118	81.31
462.338	73.31
462.558	73.31
462.777	95.31
462.997	87.31
463.217	87.31
463.437	85.31
463.657	85.31
463.876	85.31
464.096	80.31
464.316	94.31
464.536	91.31
464.755	82.31
464.975	106.31
465.195	144.31
465.414	140.31
465.634	92.31
465.854	90.31
466.073	81.31
466.293	82.31
466.512	94.31
466.732	89.31
466.951	94.31
467.171	87.31
467.391	92.31
467.61	108.31
467.829	89.31
468.049	107.31
468.268	119.31
468.488	93.31
468.707	90.31
468.927	92.31
469.146	81.31
469.365	91.31
469.585	97.31
469.804	92.31
470.023	82.31
470.243	93.31
470.462	94.31
470.681	104.31
470.901	92.31
471.12	87.31
471.339	69.31
471.558	78.31
471.777	92.31
471.997	92.31
472.216	136.31
472.435	227.31
472.654	126.31
472.873	99.31
473.092	87.31
473.311	93.31
473.53	76.31
473.749	79.31
473.968	108.31
474.187	118.31
474.406	92.31
474.625	86.31
474.844	91.31
475.063	98.31
475.282	91.31
475.501	74.31
475.72	79.31
475.939	103.31
476.158	92.31
476.377	93.31
476.596	87.31
476.814	78.31
477.033	89.31
477.252	78.31
477.471	72.31
477.69	85.31
477.908	92.31
478.127	94.31
478.346	86.31
478.564	96.31
478.783	91.31
479.002	79.31
479.22	101.31
479.439	106.31
479.658	100.31
479.876	87.31
480.095	86.31
480.313	100.31
480.532	89.31
480.751	98.31
480.969	136.31
481.188	316.31
481.406	236.31
481.624	118.31
481.843	86.31
482.061	98.31
482.28	103.31
482.498	88.31
482.717	91.31
482.935	80.31
483.153	84.31
483.372	82.31
483.59	93.31
483.808	78.31
484.027	90.31
484.245	85.31
484.463	90.31
484.681	92.31
484.9	105.31
485.118	96.31
485.336	89.31
485.554	92.31
485.772	100.31
485.99	94.31
486.209	100.31
486.427	102.31
486.645	100.31
486.863	104.31
487.081	102.31
487.299	84.31
487.517	94.31
487.735	99.31
487.953	99.31
488.171	101.31
488.389	87.31
488.607	100.31
488.825	85.31
489.043	76.31
489.261	79.31
489.479	84.31
489.696	90.31
489.914	91.31
490.132	85.31
490.35	83.31
490.568	85.31
490.786	79.31
491.003	84.31
491.221	77.31
491.439	92.31
491.657	95.31
491.874	96.31
492.092	91.31
492.31	80.31
492.527	74.31
492.745	83.31
492.963	90.31
493.18	84.31
493.398	80.31
493.615	90.31
493.833	103.31
494.05	100.31
494.268	88.31
494.485	92.31
494.703	93.31
494.92	101.31
495.138	89.31
495.355	79.31
495.573	100.31
495.79	92.31
496.008	92.31
496.225	98.31
496.442	88.31
496.66	82.31
496.877	85.31
497.094	96.31
497.312	98.31
497.529	95.31
497.746	83.31
497.963	90.31
498.181	99.31
498.398	95.31
498.615	105.31
498.832	88.31
499.049	89.31
499.267	76.31
499.484	95.31
499.701	85.31
499.918	90.31
500.135	77.31
500.352	93.31
500.569	91.31
500.786	86.31
501.003	101.31
501.22	99.31
501.437	106.31
501.654	97.31
501.871	95.31
502.088	72.31
502.305	97.31
502.522	93.31
502.739	92.31
502.956	97.31
503.172	86.31
503.389	100.31
503.606	97.31
503.823	83.31
504.04	87.31
504.256	91.31
504.473	108.31
504.69	98.31
504.907	98.31
505.123	91.31
505.34	72.31
505.557	85.31
505.773	84.31
505.99	90.31
506.207	106.31
506.423	95.31
506.64	86.31
506.856	95.31
507.073	92.31
507.289	99.31
507.506	93.31
507.722	107.31
507.939	115.31
508.155	93.31
508.372	93.31
508.588	99.31
508.805	92.31
509.021	94.31
509.238	95.31
509.454	99.31
509.67	74.31
509.887	105.31
510.103	144.31
510.319	214.31
510.536	748.31
510.752	2332.31
510.968	675.31
511.184	148.31
511.401	90.31
511.617	101.31
511.833	93.31
512.049	94.31
512.265	80.31
512.481	91.31
512.698	91.31
512.914	89.31
513.13	96.31
513.346	97.31
513.562	90.31
513.778	79.31
513.994	100.31
514.21	105.31
514.426	108.31
514.642	139.31
514.858	130.31
515.074	158.31
515.29	411.31
515.506	1360.31
515.721	525.31
515.937	156.31
